#   1 NUMBER                 Running object number                                     
#   2 MAG_AUTO               Kron-like elliptical aperture magnitude                    [mag]
#   3 X_IMAGE                Object position along x                                    [pixel]
#   4 Y_IMAGE                Object position along y                                    [pixel]
#   5 X_WORLD                Barycenter position along world x axis                     [deg]
#   6 Y_WORLD                Barycenter position along world y axis                     [deg]
#   7 A_WORLD                Profile RMS along major axis (world units)                 [deg]
#   8 B_WORLD                Profile RMS along minor axis (world units)                 [deg]
#   9 THETA_WORLD            Position angle (CCW/world-x)                               [deg]
#  10 FWHM_WORLD             FWHM assuming a gaussian core                              [deg]
#  11 ELONGATION             A_IMAGE/B_IMAGE                                           
#  12 ELLIPTICITY            1 - B_IMAGE/A_IMAGE                                       
         1 -12.2614    176.4363     51.0397   5.7893501369e+01   3.4417384893e+01     2.097225     1.300302  29.24  0.006942173    2.208    0.547
         2 -12.6199    190.9969     37.6083   5.1520153091e+01   3.2515261384e+01     1.035388    0.8349952  -5.95  0.004312723    1.496    0.331
         3 -12.4928    196.2255     31.4524   4.9018469979e+01   3.1957659354e+01    0.9857135    0.7988732 -25.62  0.001748576    1.336    0.251
         4 -12.4014    216.8391      5.7916   3.9858090782e+01   2.9682699953e+01    0.9431326    0.7289858  84.38  0.004745022    1.173    0.148
         5  -9.1664     59.8184      1.6332   6.8162308652e+01   6.7222898580e+01    0.1617636    0.1115642  51.63 0.0008319594    1.719    0.418
         6  -9.8631    105.0000    209.0137   1.1067332691e+02   1.7704202458e+01    0.2687044    0.1700112 -50.99  0.001466007    1.892    0.471
         7 -10.2842    139.7482    249.6072   1.0882668277e+02   5.2014192783e+00    0.3431648    0.1746455  54.31  0.001838246    1.899    0.473
         8 -19.5626     15.4650    146.1653   1.2348796413e+02   4.2749142531e+01     18.77175     2.786177 -74.86   0.05177474    6.469    0.845
         9  -9.9441     97.6445    200.8857   1.1118538832e+02   2.0474897608e+01    0.3484983    0.2646165  11.78 0.0007870395    2.108    0.526
        10  -9.5849    194.5728    197.4335   9.0557052509e+01   3.9229837858e+00    0.5691452    0.2921849 -60.60  0.001857965    5.347    0.813
        11  -9.4852    114.6048    199.7728   1.0746269608e+02   1.7940929236e+01    0.2571084     0.129952 -63.64  0.001183448    2.278    0.561
        12 -10.4491    112.5925    196.1915   1.0739099565e+02   1.8992929698e+01    0.5156049    0.3351611   8.84  0.002102503    3.508    0.715
        13  -9.2027     82.2941    194.8057   1.1368555761e+02   2.4063323058e+01    0.2972851    0.2093506  84.91  0.001463782    1.398    0.284
        14  -9.9218     70.5635    177.6260   1.1417220121e+02   2.9451222369e+01    0.5454519    0.2926258 -87.34  0.002530036    2.203    0.546
        15 -11.7458     67.3278    187.8282   1.1608216552e+02   2.7665880006e+01     0.923158    0.5027049  53.10  0.004869046    1.673    0.402
        16 -11.0231     70.1467    184.7032   1.1511463649e+02   2.7955082194e+01    0.5187598    0.3561378  60.97  0.002131615    1.316    0.240
        17  -9.7841     97.3394    190.4450   1.0989607362e+02   2.2671001631e+01    0.3920586    0.2725065 -38.52  0.001638484    2.047    0.511
        18  -9.3782    109.5466    189.5274   1.0709979041e+02   2.0865002911e+01    0.2339203    0.1275444 -73.09 0.0009739472    2.339    0.572
        19  -8.6324     51.4558    187.7174   1.1944837000e+02   2.9741565581e+01    0.3751748    0.1765726  36.62  0.001907001    2.188    0.543
        20  -8.5577    146.5360    182.6690   9.7863505012e+01   1.5612860101e+01    0.2545256    0.1220281  42.55  0.001066438    1.909    0.476
        21  -8.8750     99.5236    180.7477   1.0805281875e+02   2.4383761932e+01    0.2371586    0.1743653  45.06 0.0005300116    1.297    0.229
        22  -8.4767    188.6262    175.4097   8.7537785272e+01   8.7675287031e+00    0.2628549    0.1248423 -54.05 0.0009551155    3.185    0.686
        23  -8.0336    204.4441    175.4924   8.4387552044e+01   5.6686960055e+00    0.1413537      0.12548  11.75   0.00024632    1.028    0.027
        24 -11.0033    116.4287    172.8890   1.0295117136e+02   2.3201374587e+01    0.6552917     0.203032  42.53    0.0022616    2.983    0.665
        25 -10.3699    104.0323    172.1859   1.0571360475e+02   2.5504979405e+01    0.4045103    0.2974933  75.19   0.00212212    1.454    0.312
        26  -8.7732     50.6271    172.8382   1.1809459082e+02   3.3108464615e+01    0.2503163    0.1285873  52.71 0.0009435688    1.848    0.459
        27  -9.4569    116.2468    250.4851   1.1316032218e+02   8.7048235992e+00    0.2990154   0.08589764  43.44  0.001151191    2.613    0.617
        28  -8.4155    164.0000    209.9633   9.8779104238e+01   7.4075075596e+00    0.1919947   0.07707157 -46.60 0.0006635909    2.896    0.655
        29  -9.8417     72.4595    162.9908   1.1180199303e+02   3.2495365010e+01      0.45505    0.2753843  75.15  0.001550787    1.917    0.478
        30 -10.8632     95.5832    152.6665   1.0449022016e+02   3.1344164902e+01    0.6193015    0.4220946 -35.57  0.002147445    1.951    0.488
        31 -10.1992    133.9559    146.1096   9.3668197579e+01   2.5766197332e+01    0.9610218    0.2420502 -53.60  0.002437735    5.106    0.804
        32  -8.7849    143.4784    145.9811   9.1342849793e+01   2.3849828626e+01    0.2199959    0.1342629 -72.04 0.0008102872    2.630    0.620
        33  -9.1238    111.2216    141.6141   9.8415425829e+01   3.1176607579e+01    0.2841425    0.1379179  45.18  0.001130473    2.059    0.514
        34 -10.9593    107.6513    138.3273   9.8661231287e+01   3.2592212880e+01    0.6574426    0.3985363 -36.07  0.002776156    2.112    0.527
        35 -10.8434     95.5854    138.4143   1.0184141316e+02   3.4684227343e+01    0.3055029    0.2987566  52.51 0.0002487805    1.127    0.113
        36  -8.9790     78.4793    134.4906   1.0566241215e+02   3.8338187099e+01    0.2779608    0.1372083  37.96  0.001177218    2.137    0.532
        37  -9.7815    105.8786    131.0076   9.7578270718e+01   3.4624489153e+01     0.387989    0.3304511 -58.33  0.001775248    1.134    0.118
        38  -9.8978    114.4221    129.6528   9.5010318906e+01   3.3345886647e+01    0.3236212    0.2608105 -33.95 0.0007037541    1.389    0.280
        39 -10.0864    135.0000    124.5085   8.8463705547e+01   3.0355853866e+01    0.9366313    0.1109694 -45.24  0.001728055    8.617    0.884
        40  -9.4738    102.3538    125.3833   9.7293023397e+01   3.6580817806e+01    0.3054099    0.2418153 -30.16 0.0007420302    1.491    0.329
        41  -9.4386     67.4988    124.4777   1.0682965567e+02   4.2310069540e+01    0.3008497    0.1255586 -61.44  0.001212246    2.173    0.540
        42  -9.8330    119.6950    123.8782   9.2278004281e+01   3.3646869907e+01    0.2609345    0.2193632  24.06 0.0009158788    1.357    0.263
        43  -8.8817    109.9338    118.6281   9.3651415916e+01   3.6756268440e+01     0.271002    0.2128191 -59.08 0.0004352456    1.258    0.205
        44  -9.4851    132.9731    209.9981   1.0507599183e+02   1.2865666273e+01    0.1655743     0.134321  48.33 0.0009959843    1.057    0.054
        45  -8.7455    167.5475    112.2945   7.7493874335e+01   2.5627270049e+01    0.3537741    0.2497706 -70.20  0.001398146    1.964    0.491
        46  -9.7906     61.2673    112.9635   1.0640424662e+02   4.5899038447e+01     0.275885    0.2136787  67.40  0.001018585    1.459    0.315
        47 -10.3383    119.7953    111.3676   8.9145562961e+01   3.6472591043e+01    0.3789751    0.2667136  57.63  0.001708102    1.591    0.372
        48  -8.6112    205.1613    110.2157   6.9183881221e+01   1.7166899402e+01    0.3256514    0.1976855  40.22  0.001112352    1.787    0.440
        49  -9.9497     66.2614    104.4441   1.0308804809e+02   4.7269512436e+01    0.2736021    0.2078275  38.14  0.001490036    1.463    0.317
        50 -10.4876    114.1075    208.5342   1.0874520027e+02   1.6320353699e+01    0.4204732     0.226902  64.71  0.001618316    2.304    0.566
        51 -10.8371    107.0933    203.0825   1.0948757313e+02   1.8526463149e+01    0.5166546    0.2204298  48.53  0.002092423    2.085    0.520
        52 -10.1340     59.2988     83.6805   1.0032767407e+02   5.3005464268e+01    0.2834017     0.222776  82.82  0.001534629    1.678    0.404
        53  -8.7330     68.9501     71.9676   9.3679215778e+01   5.4258652370e+01    0.2007189    0.1682372 -89.64 0.0004188519    1.601    0.375
        54 -10.1135    160.9551     62.1700   6.4362673488e+01   3.6664805104e+01    0.5041663    0.3375904 -89.24  0.001064196    2.207    0.547
        55  -9.6741    139.8316    244.6165   1.0822916438e+02   5.9371321561e+00     0.163485    0.1389694  39.63  0.001145478    1.136    0.120
        56 -10.0227    108.5872    241.4912   1.1363291010e+02   1.1314191880e+01    0.2481324    0.1857635  -2.82  0.001393268    2.739    0.635
        57 -10.8819    160.3767    224.7326   1.0173175819e+02   5.6308879743e+00    0.5236638    0.2396092  36.97   0.00246392    1.937    0.484
        58  -8.4238     87.2075    203.0597   1.1362037458e+02   2.1636550520e+01    0.2285915    0.1908897 -32.74  0.001395446    1.787    0.440
        59 -10.0194    161.5769    218.7401   1.0061539837e+02   6.3849886664e+00    0.2098511     0.188346  53.76  0.001305541    1.150    0.130
