#   1 NUMBER                 Running object number                                     
#   2 MAG_AUTO               Kron-like elliptical aperture magnitude                    [mag]
#   3 X_IMAGE                Object position along x                                    [pixel]
#   4 Y_IMAGE                Object position along y                                    [pixel]
#   5 X_WORLD                Barycenter position along world x axis                     [deg]
#   6 Y_WORLD                Barycenter position along world y axis                     [deg]
#   7 A_WORLD                Profile RMS along major axis (world units)                 [deg]
#   8 B_WORLD                Profile RMS along minor axis (world units)                 [deg]
#   9 THETA_WORLD            Position angle (CCW/world-x)                               [deg]
#  10 FWHM_WORLD             FWHM assuming a gaussian core                              [deg]
#  11 ELONGATION             A_IMAGE/B_IMAGE                                           
#  12 ELLIPTICITY            1 - B_IMAGE/A_IMAGE                                       
         1 -14.0131    220.3802     30.9479   3.8790230184e+01   2.7074587837e+01     1.645587     1.002425  39.79  0.008036495    2.506    0.601
         2 -12.5759      2.2460     23.5363   9.6408285535e+01   7.1440134135e+01     1.807364          nan -48.27  0.005378483    6.397    0.844
         3 -11.6024      2.3542     10.1577   9.0481367739e+01   7.3624160619e+01    0.4711689    0.1806542 -45.03   0.00254508    2.192    0.544
         4 -10.8459      2.3145      3.1104   8.6914616423e+01   7.4667427924e+01    0.2620015     0.195935  -8.17  0.001641577    1.097    0.089
         5 -13.4666    245.4434      8.5579   3.1874512977e+01   2.4281602661e+01    0.7413101    0.4846921 -57.08  0.002648298    1.229    0.187
         6 -12.1650     38.2599    233.6024   1.1927377379e+02   2.1041757250e+01    0.3465969     0.273815  77.70  0.002460104    1.083    0.077
         7 -14.4163    121.8051    229.9475   1.0199515636e+02   1.0081498257e+01     3.759168    0.7281165  37.64   0.01131024    4.573    0.781
         8 -11.9853     84.1977    226.7105   1.0946459075e+02   1.6438934183e+01     0.788927    0.6141711 -80.84  0.004935679    1.314    0.239
         9 -13.8830    122.9667    244.6236   1.0360052731e+02   7.2376060268e+00     1.390738    0.7788217  33.63  0.007403138    1.652    0.395
        10 -14.4457     92.5730    247.9720   1.0997716151e+02   1.1152248208e+01     2.769789    0.8391331  37.38   0.01147599    2.837    0.647
        11 -12.6670     20.9747    209.4463   1.2098753791e+02   2.7978007864e+01    0.3878106    0.3003308 -55.84 0.0007389912    1.635    0.389
        12 -15.1458     29.5248    201.4247   1.1861773186e+02   2.8843019546e+01     2.515587     1.695014  89.46    0.0100849    1.258    0.205
        13 -12.5819     61.1406    249.0721   1.1609522654e+02   1.5230627237e+01     1.396592    0.4650138  31.44  0.005639129    3.744    0.733
        14  -9.7649    192.2070    192.7993   8.1133429797e+01   5.0120446994e+00    0.2158162    0.1579041  87.00 0.0009489883    2.797    0.642
        15 -11.4332     51.9325    181.4159   1.1159260759e+02   3.0879325481e+01    0.3640403    0.2745058 -35.19  0.001698843    1.835    0.455
        16  -9.0002     80.9959    182.0055   1.0461744781e+02   2.6757685819e+01    0.2154956    0.1700285 -31.06  0.001133266    1.696    0.410
        17 -11.6017     58.5756    175.2660   1.0921775019e+02   3.1511647685e+01    0.2923481    0.2629314 -52.53   0.00073505    1.283    0.221
        18 -11.1455     53.7027    230.8798   1.1606463713e+02   1.9717841251e+01    0.3697055    0.1535236 -78.16  0.001740935    2.607    0.616
        19  -9.6240    104.5207    172.4993   9.7272660010e+01   2.5236814778e+01    0.1456987     0.137584  80.89 0.0002818912    1.005    0.005
        20 -10.8974     69.7439    165.1758   1.0496607976e+02   3.2461886753e+01     0.254683    0.2247616 -78.92 0.0003422799    1.045    0.043
        21 -12.6802     56.8587    129.4668   1.0256987272e+02   4.3121558206e+01     2.606057    0.8174357 -72.46  0.005195637    9.441    0.894
        22 -12.8421     67.8148    143.9894   1.0201331521e+02   3.8008830534e+01     0.850655    0.5785919  74.92  0.002507266    1.769    0.435
        23 -13.0764     55.8887    161.7361   1.0807774404e+02   3.5165884538e+01    0.5224932    0.3150511 -43.10  0.001421604    2.011    0.503
        24 -11.6559     34.9501    159.1058   1.1318840849e+02   3.8233888939e+01    0.6051023    0.2595171  63.91  0.002023728    3.268    0.694
        25 -10.0855     93.4511    144.3265   9.4891560435e+01   3.3955131463e+01    0.3417588    0.2774658 -52.92 0.0009945706    1.194    0.162
        26  -9.3334     96.5075    141.0142   9.3361401658e+01   3.4248276410e+01    0.2762781      0.20827  -2.38  0.001057228    1.927    0.481
        27 -11.9532     81.2607    142.3288   9.7902190978e+01   3.6433196641e+01    0.4277935    0.2616156 -52.67 0.0007130727    1.546    0.353
        28 -10.4928    106.3929    131.4946   8.8504265542e+01   3.4792457128e+01    0.3915311    0.3560931 -58.82  0.001012081    1.057    0.054
        29  -9.8921     93.5976    128.4374   9.1439725603e+01   3.7839772149e+01    0.3307624    0.2572386  -3.10  0.001338807    1.747    0.428
        30  -9.1587    114.6210    125.6706   8.4835141332e+01   3.4607793069e+01    0.1640089    0.1240412  -8.76 0.0007019612    1.851    0.460
        31  -9.4766    104.7560    120.1517   8.6246474236e+01   3.7817227172e+01    0.2147455    0.2004809 -72.05 0.0003467567    1.080    0.074
        32 -14.3810      9.2232    206.9105   1.2317802440e+02   2.9675367330e+01     1.827019    0.9319043 -79.93  0.003794832    1.648    0.393
        33  -9.2475    204.6809    110.8076   6.0540681733e+01   1.8053110746e+01    0.3378239    0.1636406  38.51  0.001258508    2.732    0.634
        34 -12.4592     77.7792    157.6022   1.0163116111e+02   3.3163715494e+01     0.944352    0.6509387  61.63  0.002282851    1.575    0.365
        35  -9.3028     41.0085     88.0075   9.8962750027e+01   5.5049854099e+01    0.1969228    0.1585482  78.74 0.0004259473    1.601    0.376
        36 -10.9600     12.9066     60.4991   1.0311832024e+02   6.3596695872e+01    0.2534019    0.1470436 -38.48 0.0008539879    1.463    0.316
        37 -11.6192      1.9885     47.0420   1.0439535050e+02   6.7032422295e+01    0.7362001    0.1015846 -62.22  0.002020323    7.025    0.858
        38 -12.0112    202.8383     46.7022   4.4614060201e+01   2.9055188650e+01    0.7592176    0.4481676 -69.05  0.003514064    1.952    0.488
        39 -13.2549     29.6704    247.6522   1.2175722244e+02   1.9289469215e+01    0.9483866    0.6635857  33.11  0.005609332    1.694    0.410
        40 -10.3093     20.4152     35.7234   9.1648398704e+01   6.7876266128e+01    0.2256548    0.1046032 -51.97   0.00113768    2.099    0.524
        41  -9.6799     53.3122    240.3333   1.1689656431e+02   1.7891354840e+01    0.1022742   0.09195262 -38.22 0.0003225248    1.680    0.405
        42 -15.7878      8.5809    240.9608   1.2511823571e+02   2.2794894849e+01     14.75312     1.952838 -77.33   0.04833877    6.697    0.851
        43 -10.6693     61.4825    235.1119   1.1488504669e+02   1.7872808411e+01    0.2335804    0.1813256  73.08 0.0006101383    1.095    0.087
        44 -10.2331    189.8358     15.1369   3.8026723771e+01   3.6030627708e+01    0.2083429    0.1571273 -70.85  0.001065244    1.231    0.188
