#   1 NUMBER                 Running object number                                     
#   2 MAG_AUTO               Kron-like elliptical aperture magnitude                    [mag]
#   3 X_IMAGE                Object position along x                                    [pixel]
#   4 Y_IMAGE                Object position along y                                    [pixel]
#   5 X_WORLD                Barycenter position along world x axis                     [deg]
#   6 Y_WORLD                Barycenter position along world y axis                     [deg]
#   7 A_WORLD                Profile RMS along major axis (world units)                 [deg]
#   8 B_WORLD                Profile RMS along minor axis (world units)                 [deg]
#   9 THETA_WORLD            Position angle (CCW/world-x)                               [deg]
#  10 FWHM_WORLD             FWHM assuming a gaussian core                              [deg]
#  11 ELONGATION             A_IMAGE/B_IMAGE                                           
#  12 ELLIPTICITY            1 - B_IMAGE/A_IMAGE                                       
         1 -11.3762    174.9664    236.5104   1.0565586587e+02   3.8514654161e+00    0.1537111    0.1153483  45.21  0.001068548    1.024    0.023
         2 -21.2499    142.4453    165.1339   1.0102874123e+02   2.1003397034e+01     10.29223      7.80876  55.96   0.04911558    1.219    0.180
         3 -11.0921    115.1929    237.1216   1.1552309366e+02   1.3307741236e+01    0.1329834    0.1070028  69.64 0.0007589068    1.120    0.107
         4 -10.8230     56.9738    237.4202   1.2464542562e+02   2.1211517627e+01    0.1297112   0.08411223  58.97 0.0002685287    1.173    0.148
         5  -9.7510    195.0060    235.6476   1.0224420141e+02   6.3066585099e-01    0.1468129    0.1003341  41.81 0.0003551112    1.122    0.108
         6 -10.0297     74.3483    235.2258   1.2183913986e+02   1.9363784212e+01    0.1071287    0.0812097  83.36 0.0002051174    1.198    0.166
         7 -10.0666     84.2387    233.0090   1.2011328631e+02   1.8392123392e+01    0.2550292    0.1084829 -58.81  0.001464186    2.803    0.643
         8  -9.9263    158.7408    231.8210   1.0776520133e+02   7.1615344057e+00    0.1023843   0.06986497  37.72            0    1.369    0.270
         9 -11.1271     87.9303    230.6410   1.1932661928e+02   1.8261252297e+01    0.1392624    0.1036419  74.39  0.001044376    1.104    0.094
        10 -10.1984     71.1522    230.9474   1.2201591486e+02   2.0467087715e+01    0.1099735    0.0746695  63.42            0    1.082    0.076
        11  -8.4747     79.2201    230.7057   1.2072323824e+02   1.9440596288e+01    0.1021979   0.06119945  73.23 0.0004222425    1.449    0.310
        12 -11.0574    213.9507    227.0446   9.7894414872e+01  -1.5284889511e+00    0.1678733     0.132629  36.43  0.001171299    1.052    0.049
        13 -10.2185     64.3746    227.1308   1.2279750879e+02   2.1960118543e+01      0.12806    0.1001673  73.98  0.001019575    1.153    0.133
        14 -10.4032     57.2332    220.6049   1.2345380790e+02   2.3942654111e+01    0.1862645   0.07593387 -74.54  0.001067452    2.395    0.582
        15 -11.8985     47.0959    214.2453   1.2462624704e+02   2.6248230701e+01    0.3063001    0.1999793 -65.09  0.001958611    1.784    0.439
        16  -9.1439    217.9336    216.4318   9.5594889246e+01  -9.6316550979e-01    0.1643396     0.097381  42.83 0.0003799432    1.385    0.278
        17  -9.6435     61.3463    216.3346   1.2247082686e+02   2.4164220866e+01     0.100387   0.07727516  72.41 0.0002096818    1.101    0.092
        18  -9.2689     39.0018    214.5694   1.2593851626e+02   2.7114389869e+01    0.1358815   0.07724702  54.07 0.0003310164    1.436    0.304
        19 -11.0677     57.9936    213.0370   1.2276639597e+02   2.5153400247e+01    0.1666915    0.1282042  54.34 0.0007784452    1.339    0.253
        20 -11.0429     54.2428    209.8029   1.2313788508e+02   2.6180040058e+01    0.1968017     0.119578 -77.99 0.0007386924    1.507    0.336
        21 -11.2751     46.1550    207.8161   1.2432498615e+02   2.7489193844e+01    0.1634613    0.1195846  81.09 0.0003046793    1.074    0.069
        22 -10.9783     39.4331    204.9484   1.2522778269e+02   2.8764319083e+01    0.2021616    0.1304334  81.49  0.001045875    1.182    0.154
        23  -9.9381     43.8413    200.8034   1.2419812354e+02   2.9018419750e+01    0.1646636    0.1129845  87.96 0.0002958726    1.161    0.139
        24 -11.7740     42.8468    194.9628   1.2392762236e+02   3.0206289345e+01    0.3021363    0.1738351  82.94  0.001106495    1.461    0.316
        25 -12.1616    180.6906    246.1845   1.0593260758e+02   1.7271728763e+00    0.2424244    0.1713828  57.35  0.001682747    1.377    0.274
        26 -10.6501    158.8831    248.4550   1.0968779797e+02   4.9462807161e+00   0.08815441   0.06733436 -76.58 0.0006179907    1.759    0.432
        27 -10.8418     29.5195    160.5584   1.2354306353e+02   3.8318112444e+01    0.2467049     0.143422  83.26  0.001000061    1.469    0.319
        28 -12.0197    124.9771    246.6319   1.1487828058e+02   1.0458626750e+01    0.1879147    0.1153129  40.79  0.001123152    1.554    0.356
        29 -16.6517     12.7871    221.9613   1.3033322885e+02   2.8584605675e+01     3.632384     1.212606 -74.81   0.02231594    2.547    0.607
        30  99.0000    127.1952    242.7821   1.1414994089e+02   1.0663170311e+01    0.1653063    0.1499083 -55.63  0.001326474    1.549    0.354
        31  -9.5155     18.0159    154.6785   1.2528439493e+02   4.0578908919e+01    0.1403162    0.1080532  82.88 0.0003498299    1.091    0.083
        32 -11.3448     20.9358    149.1455   1.2423498744e+02   4.1450650180e+01    0.2062552    0.1312006 -77.15 0.0003574216    1.232    0.189
        33 -11.1417    113.4054    246.1204   1.1664777278e+02   1.2256220610e+01    0.2067002    0.1051664 -68.01  0.001279065    2.426    0.588
        34 -12.0446    238.4449    139.1953   7.7154494590e+01   5.6171263805e+00    0.4697921    0.3343097 -16.72  0.001832904    1.430    0.301
        35 -11.7167    243.9149    135.6422   7.5426708581e+01   5.0123080062e+00    0.4027226    0.2655545 -11.48  0.001147543    1.667    0.400
        36 -11.9761     27.1054    137.8024   1.2185897823e+02   4.3260992288e+01    0.3245722    0.1668552 -74.57  0.001069603    1.534    0.348
        37 -10.1993     24.2067    130.8272   1.2175372191e+02   4.4996599263e+01    0.2132569    0.1400995  85.30 0.0005611324    1.317    0.241
        38 -10.4948     33.9348    129.4161   1.1940666118e+02   4.4413534325e+01    0.2226993    0.1368609 -72.10 0.0004695394    1.293    0.227
        39  -9.5960     19.7852    128.1339   1.2245011996e+02   4.5942372871e+01    0.1582646    0.1149769  89.79 0.0003153543    1.107    0.096
        40  99.0000    110.3595    245.0952   1.1703215704e+02   1.2850572825e+01    0.1672226    0.1395942  -4.07 0.0008567141    2.522    0.604
        41  -9.8186    199.6058    246.1509   1.0289979124e+02  -1.3208157910e+00    0.1098586   0.06088054  51.03 0.0003656803    1.609    0.379
        42  -9.0882    207.9556    244.5740   1.0135803322e+02  -2.4907348780e+00    0.1428983   0.09657913  48.55 0.0009639359    1.320    0.242
        43 -12.0707    240.6014    113.3708   7.0742650057e+01   9.0555704725e+00    0.4425169    0.3211459  -3.57  0.002182161    1.548    0.354
        44 -10.3892    130.8780    245.5744   1.1384121613e+02   9.7078712278e+00   0.08378865   0.06955592 -49.26 0.0006233553    1.709    0.415
        45 -10.8849     43.7251    111.9817   1.1467655931e+02   4.7248937411e+01    0.1935822    0.1841323 -19.63 0.0007699573    1.396    0.284
        46  -9.8075     29.5779    109.9196   1.1792760494e+02   4.9033636078e+01    0.1645479    0.1458504 -63.87   0.00121924    1.231    0.188
        47 -10.9755    248.9889    106.8989   6.7826400927e+01   8.1973444133e+00     0.308091    0.2176736  30.16   0.00069775    1.539    0.350
        48 -10.5403     33.9123    103.6348   1.1590286374e+02   5.0020996287e+01    0.2397464    0.1624798 -59.10 0.0007127873    1.257    0.204
        49 -11.5218    170.8142    243.4215   1.0718832757e+02   3.6622655381e+00    0.2925221    0.1635604  61.60  0.001666223    2.080    0.519
        50 -11.4029     51.7622    102.4010   1.1098826979e+02   4.8512888994e+01    0.3233688    0.2144368 -41.37  0.001710215    1.692    0.409
        51 -10.4315     29.1226    105.8580   1.1746877040e+02   4.9956775153e+01    0.2654666    0.1597964  39.21  0.001097548    1.955    0.489
        52 -10.3762    212.9600     99.0216   7.1885177122e+01   1.7720799340e+01    0.2231126     0.217867 -14.03 -0.002661949    1.025    0.025
        53  -9.9157    223.2381     93.6242   6.8673340293e+01   1.6145772329e+01     0.288163    0.2225412  40.75 0.0008641703    1.331    0.248
        54  -9.9846    219.4858     92.4864   6.9017805888e+01   1.7229036243e+01    0.2570013     0.248592  23.36 2.754008e-05    1.040    0.039
        55 -11.2848    203.4664     93.3227   7.2115731025e+01   2.0980397789e+01    0.5575011    0.2504625  61.59  0.001927264    2.712    0.631
        56 -10.9595     84.5887    244.4900   1.2096514587e+02   1.6565618403e+01    0.1051181   0.07453973  65.74 0.0001685992    1.017    0.017
        57 -10.6855     57.7430    244.9128   1.2500652595e+02   1.9946492882e+01   0.07975969   0.04472064  46.49 0.0005473808    1.611    0.379
        58 -11.1136    187.7888    242.7665   1.0436039372e+02   9.7819250596e-01    0.3717953    0.1358229  49.24  0.001811713    2.287    0.563
        59  -9.6069     45.0242     92.7183   1.1103801525e+02   5.1353074254e+01    0.1615657    0.1405639 -66.03 0.0002875309    1.080    0.074
        60 -11.3546    189.6073    238.6326   1.0352779321e+02   1.1690561305e+00    0.1833654    0.1464557   1.40  0.001300012    1.598    0.374
        61 -11.8512     47.0555     87.9808   1.0953966001e+02   5.2181628239e+01    0.2865538    0.2292903  58.96 0.0003644038    1.463    0.317
        62 -10.6422    155.4765    243.4685   1.0967417175e+02   6.1305537896e+00    0.1126573   0.08582744  39.28 6.425169e-05    1.251    0.201
        63 -10.8040    200.5156     89.0630   7.1512606242e+01   2.2431136515e+01    0.4379826     0.288375  38.44  0.001915174    1.638    0.390
        64 -10.1577     70.8836     88.5962   1.0285836017e+02   4.9232743376e+01    0.2758622    0.1979685 -20.78  0.001135082    1.921    0.479
        65 -11.5835     78.4705     85.4425   9.9936194264e+01   4.8863851903e+01    0.2893232    0.2565761  29.26 0.0004627854    1.309    0.236
        66  -9.4795    116.5546    242.6281   1.1582969588e+02   1.2293599491e+01     0.133565   0.09644572 -40.32 0.0008963654    2.356    0.576
        67 -11.2789    184.7566     82.9190   7.2849744091e+01   2.7401891557e+01    0.3682815    0.2734954  47.29 0.0004832314    1.349    0.259
        68 -11.3453    176.6338     83.1722   7.4577530932e+01   2.9366827750e+01    0.3565983    0.3161167 -84.40 0.0009081471    1.279    0.218
        69  -9.3457    222.3761    242.1161   9.8722761462e+01  -4.5359076837e+00    0.1291981    0.1074137 -13.75 0.0001557999    1.439    0.305
        70 -10.5716     62.9797     77.7692   1.0257022611e+02   5.2587003601e+01    0.2247555    0.1587466 -54.65  0.000518063    1.198    0.166
        71 -10.3475    174.0800     77.5640   7.3482164711e+01   3.0994649503e+01    0.3025459    0.2316477 -36.97 0.0009724512    1.293    0.227
        72 -10.6127    168.3486     75.3709   7.4043910550e+01   3.2797505460e+01    0.3441775    0.2752892  78.77  0.001071427    1.487    0.327
        73 -10.5399    170.4993     71.9487   7.2563523194e+01   3.2867397000e+01    0.3058328    0.2862271 -18.41 0.0005974394    1.074    0.069
        74 -10.9825    147.7160     73.9375   7.8244229882e+01   3.8000473704e+01    0.4006853    0.2765504 -63.35  0.001730438    1.887    0.470
        75 -10.7395    157.6025     73.8140   7.5931986280e+01   3.5688683862e+01    0.3730489    0.2603545  73.64 0.0009944452    1.853    0.460
        76  -9.9390    218.3210    241.0983   9.9224574337e+01  -3.7843529865e+00    0.2148564     0.123746  49.83 0.0003913005    1.631    0.387
        77 -10.2299    152.5800    240.8691   1.0984924950e+02   6.9392101680e+00    0.1766474    0.1067021 -38.66  0.001080455    2.492    0.599
        78  99.0000     96.1874    240.9273   1.1888835834e+02   1.5504053161e+01    0.3262562    0.1678702  64.45  0.002033358    1.734    0.423
        79 -10.1301    199.1114    241.3587   1.0234612043e+02  -7.0603732896e-01   0.08778082    0.0681481 -13.94 0.0002696413    1.658    0.397
        80  -9.7793    143.6079    241.6589   1.1139266567e+02   8.2633791140e+00    0.1163427   0.07537214  63.14 0.0004484581    1.450    0.310
        81 -10.5878     86.1749     67.2155   9.2686249297e+01   5.1512521240e+01    0.2607761    0.2114245 -18.25 0.0007635876    1.349    0.258
        82 -11.0526    138.0146    249.1492   1.1307081233e+02   8.1241459399e+00    0.1063322   0.09241167  76.65 0.0007049461    1.261    0.207
        83 -10.0345     79.2735     64.9997   9.4115261985e+01   5.3023504079e+01    0.1980042     0.190887   7.96 0.0003384956    1.153    0.132
        84 -11.3910    137.5269     63.7975   7.7520550052e+01   4.2187690922e+01    0.2743426     0.211942  49.73 0.0005352773    1.329    0.248
        85 -11.9432    129.8647     61.5591   7.8709844545e+01   4.4296733183e+01    0.3258335    0.2641339  55.94 0.0009641029    1.331    0.249
        86 -11.7638    108.3718     60.2076   8.4017162432e+01   4.8974700300e+01    0.3525812    0.2442323 -32.34 0.0008945946    1.394    0.283
        87  -9.9331    169.1977     65.7675   7.0955649117e+01   3.4253042984e+01    0.2328946    0.2140041 -77.88 0.0006913955    1.193    0.161
        88 -10.6503    122.7535    240.4051   1.1462617265e+02   1.1681470008e+01    0.1234838   0.08438653  48.35 0.0003851032    1.215    0.177
        89 -11.3331     76.4437    239.2277   1.2181479933e+02   1.8459028074e+01    0.1269293   0.09131873  72.49  0.000485845    1.081    0.075
        90 -10.6303    170.1353    238.0947   1.0664936974e+02   4.4464710503e+00    0.1117782   0.06994268 -21.18 0.0004862914    3.039    0.671
        91 -12.0653    214.6102    234.7169   9.8912678923e+01  -2.4994280853e+00    0.2805056    0.2280458  89.12  0.001253873    2.153    0.536
        92 -11.7384    119.1196     48.6759   7.7145157902e+01   4.8858919758e+01    0.2799356    0.2443473 -29.43 0.0008169302    1.095    0.087
        93  99.0000    110.6129    240.3392   1.1656044668e+02   1.3510785897e+01    0.2884064   0.08824354  51.23  0.001376241    2.564    0.610
