#   1 NUMBER                 Running object number                                     
#   2 MAG_AUTO               Kron-like elliptical aperture magnitude                    [mag]
#   3 X_IMAGE                Object position along x                                    [pixel]
#   4 Y_IMAGE                Object position along y                                    [pixel]
#   5 X_WORLD                Barycenter position along world x axis                     [deg]
#   6 Y_WORLD                Barycenter position along world y axis                     [deg]
#   7 A_WORLD                Profile RMS along major axis (world units)                 [deg]
#   8 B_WORLD                Profile RMS along minor axis (world units)                 [deg]
#   9 THETA_WORLD            Position angle (CCW/world-x)                               [deg]
#  10 FWHM_WORLD             FWHM assuming a gaussian core                              [deg]
#  11 ELONGATION             A_IMAGE/B_IMAGE                                           
#  12 ELLIPTICITY            1 - B_IMAGE/A_IMAGE                                       
         1 -12.8465    198.3977     37.5711   4.7610147661e+01   3.1018861595e+01     1.386817     1.107796  18.81  0.007396163    1.620    0.383
         2 -12.6674    208.8690     26.4271   4.3350544926e+01   2.9864574032e+01    0.9229354    0.7853711  20.61  0.002289126    1.508    0.337
         3 -11.1671     32.4493     16.7004   8.4475157626e+01   6.8981161799e+01    0.5931459    0.1441355 -40.34  0.002280723    3.598    0.722
         4  -8.9571     60.5330      8.4803   6.8245939532e+01   6.6023438274e+01    0.1265997    0.1013291   9.24 0.0001323273    1.012    0.012
         5 -10.7811    234.0195      2.7178   3.5307220822e+01   2.6663287352e+01    0.5854877    0.3064073  65.60  0.002881131    1.874    0.466
         6 -10.0263    230.0097      2.0000   3.5446250325e+01   2.7633227500e+01    0.3443489    0.1937014  72.75  0.001294314    1.667    0.400
         7 -10.6374     31.2528      2.7369   7.7995702887e+01   7.1055949797e+01    0.3056731     0.209917  11.39  0.002034283    1.266    0.210
         8  -9.0331     40.2183    224.2105   1.2235611656e+02   2.2896272967e+01    0.2573382    0.1388697  80.96 0.0009130258    1.745    0.427
         9 -12.7825     85.4109    228.6539   1.1413865013e+02   1.6258191719e+01     2.071031      1.55118  89.90   0.01302432    1.345    0.257
        10  -8.1895     23.4401    185.7295   1.2279872351e+02   3.2654970537e+01    0.1568979   0.09285817 -69.55 0.0005243849    1.520    0.342
        11 -11.3718     16.9388    191.4578   1.2454453281e+02   3.2036922858e+01    0.2979541    0.2282614  59.49 0.0004225011    1.218    0.179
        12  -8.2662     99.2718    180.5911   1.0523803435e+02   2.4080213489e+01    0.1781572    0.1308882  31.24 0.0005916354    1.494    0.331
        13 -10.2472     69.3384    176.9961   1.1173211874e+02   2.9315262867e+01    0.2852929    0.2381101 -53.86 0.0006706992    1.341    0.255
        14 -10.7228     73.7192    171.7963   1.1000740994e+02   2.9910491794e+01    0.5152996    0.2872088 -41.10    0.0015586    2.497    0.599
        15  -8.1310     83.7338    175.3336   1.0811958386e+02   2.7658180874e+01    0.3227988    0.1479335 -49.59  0.001360257    2.408    0.585
        16 -14.7921     50.7623    198.4499   1.1819414964e+02   2.6925557578e+01     30.65769     8.163697 -79.89   0.06380984   12.488    0.920
        17  -9.6105    113.7505    173.4342   1.0067272298e+02   2.3271963036e+01    0.2864727    0.1266301  43.88  0.001143173    2.165    0.538
        18 -14.1379     57.6883    246.5873   1.2079796680e+02   1.6647801874e+01     7.493239      2.36112  28.82   0.01902239   11.499    0.913
        19  -9.5207     32.5600    165.1927   1.1896220654e+02   3.6378350045e+01    0.2119442    0.1517086 -85.43 0.0008163965    1.169    0.144
        20 -10.9535     82.6521    162.0898   1.0639559537e+02   3.0893779589e+01     0.605786    0.3746237  66.13 0.0003933339    1.917    0.478
        21 -12.0261     71.0433    157.4044   1.0859100314e+02   3.3664935903e+01    0.5671642    0.4575554 -35.71  0.001695126    1.532    0.347
        22 -12.1261     68.5153    144.3369   1.0718428809e+02   3.7155267511e+01     1.083238    0.6422532  71.68  0.004768672    2.268    0.559
        23  -8.0052    159.3414    162.6999   8.7934661231e+01   1.7065378294e+01    0.2241767    0.1768018  84.19  0.001017581    1.749    0.428
        24 -13.0377     29.2526    248.2041   1.2574569435e+02   1.9670703516e+01    0.8228768    0.8057764  -6.97  0.007037463    1.745    0.427
        25 -10.7342     89.5129    155.1404   1.0351566592e+02   3.1493032065e+01    0.6254286    0.4352828 -18.29  0.002100529    2.367    0.577
        26  -7.7180    174.5099    148.9912   8.1547864306e+01   1.6789752985e+01    0.2026296    0.1334838 -66.79 0.0007311139    2.322    0.569
        27  -9.4268    133.6095    143.6231   8.9971595405e+01   2.6326542047e+01    0.4624566    0.1457896 -53.38  0.001344785    3.667    0.727
        28 -10.1283     54.6093    148.2148   1.1145321243e+02   3.7985115035e+01    0.3514711    0.2145569 -69.96  0.001807926    1.463    0.316
        29 -15.5278      6.0849    209.6597   1.2770261183e+02   2.9269981271e+01     12.71154    0.8956203 -75.80   0.02228239    8.577    0.883
        30  -9.1576     84.2848    143.8580   1.0288082947e+02   3.5004219224e+01    0.3037273    0.2284807  82.06 0.0008660313    1.505    0.336
        31  -9.4455    102.9696    140.1451   9.7158110641e+01   3.2849575564e+01    0.4769041    0.2804919 -31.45   0.00188134    2.461    0.594
        32 -10.6210     90.5390    140.1387   1.0049685896e+02   3.4923977026e+01    0.2930291    0.2654219 -45.31  0.000422397    1.152    0.132
        33  -8.7066    113.5425    207.6874   1.0593563645e+02   1.6076886655e+01    0.2334435    0.1375893  56.38 0.0008615125    1.726    0.421
        34 -10.8948     57.2043    127.8430   1.0750344906e+02   4.2629910152e+01    0.5326615    0.3147852 -74.89  0.002534305    1.724    0.420
        35  -8.6354    105.9551    130.8426   9.4363236572e+01   3.4534872615e+01    0.2775249    0.2193231 -58.80  0.001386158    1.233    0.189
        36  -8.7469    112.1416    130.3292   9.2567892462e+01   3.3527251542e+01    0.2365555    0.1955687  11.79  0.001165241    1.464    0.317
        37  -9.1911     99.0842    126.6987   9.5338513947e+01   3.6731285087e+01    0.2674066     0.234809 -24.50 0.0006084439    1.270    0.213
        38 -10.3346     54.1419    119.2865   1.0685382666e+02   4.5084553862e+01    0.3815236    0.2543359 -80.99  0.001928442    1.608    0.378
        39  -8.2989    108.1587    119.2077   9.1051123352e+01   3.6877790051e+01    0.2175869    0.2014379 -17.73 0.0003414392    1.156    0.135
        40 -10.7898     32.4707     98.0254   1.0961675794e+02   5.2432566638e+01    0.7255293    0.1537704 -66.20  0.002102507    4.804    0.792
        41  -8.2111    167.8571    113.2434   7.4295358284e+01   2.5560862272e+01     0.268306    0.1778074 -81.62 0.0009525887    2.870    0.652
        42  -9.0701    135.0000    112.4948   8.2071297511e+01   3.3028504104e+01    0.3579976   0.08804384 -44.86 0.0009396233    3.974    0.748
        43 -10.2610     53.2068    108.9792   1.0514176798e+02   4.7694797923e+01    0.5008273    0.1724619 -63.70  0.001812282    2.798    0.643
        44  -8.0728    205.7182    110.0077   6.5695792356e+01   1.7579546283e+01    0.2146935    0.1901883 -34.09 0.0007012742    1.061    0.057
        45 -10.1996     43.7601    109.3461   1.0815610445e+02   4.8643363601e+01    0.2864326    0.2590532  52.98  0.001492252    1.260    0.206
        46  -8.7425     72.0008    186.6710   1.1232860095e+02   2.6771451970e+01     0.232331    0.1687851 -87.38 0.0005168454    1.322    0.244
        47  -9.1488    115.4133    108.7966   8.6379132554e+01   3.7890817253e+01    0.2270456    0.1406371 -37.35 0.0005934444    1.681    0.405
        48  -9.5628    243.6125     98.8009   5.6735065333e+01   1.1391303428e+01    0.2112563    0.1125206 -43.03 0.0009544299    1.689    0.408
        49  -9.0450     93.0784    218.6723   1.1155773860e+02   1.7065100288e+01    0.2701615    0.1776129 -72.16  0.001322977    1.634    0.388
        50  -9.3368     53.1419     94.2923   1.0197094490e+02   5.1203246726e+01    0.2712314    0.1769969 -88.06  0.001246162    2.244    0.554
        51  -8.0899    196.3161    200.3019   8.7440570584e+01   3.1458990520e+00    0.1378217   0.09650679   6.30 0.0007022286    1.618    0.382
        52  -8.7524     58.7446     67.5778   9.2772663689e+01   5.6491246169e+01    0.2358964    0.1999728  70.45 0.0007280634    1.657    0.397
        53 -11.9718    188.3408     44.9767   5.1124156027e+01   3.2514335344e+01    0.7614018     0.597314  -1.85  0.002438199    1.606    0.377
        54  -9.5676     60.9091    234.2762   1.1929091548e+02   1.8481568068e+01    0.2346133    0.1745973 -83.76 0.0006353193    1.318    0.242
        55 -15.0575      6.9769    245.4528   1.2921938660e+02   2.2445373704e+01     1.460597     1.146078 -84.21  0.006552576    1.410    0.291
        56  -9.7731    147.0851     51.3379   6.0677016798e+01   4.1911400415e+01    0.4848996    0.3229853 -80.18  0.001730429    2.380    0.580
        57  -8.9464    148.4152     44.8288   5.8259012209e+01   4.2547402326e+01    0.2309582    0.1976677  73.36 0.0005347811    1.228    0.186
        58  -8.5516     75.0491    189.9903   1.1204915647e+02   2.5616817138e+01    0.2531145    0.1374767  61.96  0.001094644    1.992    0.498
        59  -8.7882     34.2911    228.1548   1.2370082329e+02   2.2801808182e+01    0.1814577    0.1408032  67.16 0.0005800415    1.078    0.072
        60 -11.1185    162.5837    223.5255   9.8078924982e+01   5.0729753404e+00    0.5507663    0.2416379  28.52   0.00223179    2.781    0.640
        61 -11.3766     47.4656    222.2637   1.2086133933e+02   2.2432833873e+01    0.5242087    0.3214515 -84.04 0.0007184886    1.515    0.340
