#   1 NUMBER                 Running object number                                     
#   2 MAG_AUTO               Kron-like elliptical aperture magnitude                    [mag]
#   3 X_IMAGE                Object position along x                                    [pixel]
#   4 Y_IMAGE                Object position along y                                    [pixel]
#   5 X_WORLD                Barycenter position along world x axis                     [deg]
#   6 Y_WORLD                Barycenter position along world y axis                     [deg]
#   7 A_WORLD                Profile RMS along major axis (world units)                 [deg]
#   8 B_WORLD                Profile RMS along minor axis (world units)                 [deg]
#   9 THETA_WORLD            Position angle (CCW/world-x)                               [deg]
#  10 FWHM_WORLD             FWHM assuming a gaussian core                              [deg]
#  11 ELONGATION             A_IMAGE/B_IMAGE                                           
#  12 ELLIPTICITY            1 - B_IMAGE/A_IMAGE                                       
         1 -11.5085     86.0412     12.4412   1.9513239630e+01   5.9684045953e+01    0.1916536    0.1534889 -67.96  0.000306012    1.317    0.241
         2 -10.8243     89.3253     10.7100   1.8310044432e+01   5.9188489471e+01    0.1565362     0.113174  57.56 0.0002575938    1.337    0.252
         3 -12.1267     92.2072      8.3251   1.7037798156e+01   5.8839057558e+01    0.2101893     0.178416 -84.77 0.0005989055    1.167    0.143
         4 -11.2833     84.2654      8.3993   1.8635234725e+01   6.0475658015e+01    0.1672063   0.09019976  75.78 0.0009423335    1.652    0.395
         5 -10.4495     55.4704      8.5674   2.6176653432e+01   6.6301079077e+01    0.1173224   0.09179098  61.58 5.800199e-05    1.014    0.014
         6 -11.6729     72.1153      6.8335   2.0878241150e+01   6.3135203716e+01    0.1716785    0.1274196  81.39 0.0004251547    1.212    0.175
         7 -11.1046     25.5386      1.8379   3.5477211437e+01   7.2558029735e+01    0.1884954      0.10796  50.21  0.001010949    1.423    0.297
         8 -10.8254    135.9797      1.4723   9.1189225716e+00   5.0618758022e+01     0.154805   0.08306296  79.01 -1.850249e-05    1.470    0.320
         9 -10.8759      4.2333      1.3673   4.8455606953e+01   7.5832964775e+01     0.148155    0.0830211  38.18 0.0002733273    1.484    0.326
        10 -11.1042    131.9960    245.4835   5.5592105922e+01   5.1873691221e+00    0.1857641    0.1500961 -38.54  0.001180838    1.154    0.133
        11 -10.4716    170.6007    250.4970   4.8409989438e+01   9.7783177750e-01    0.1155997    0.0901623 -26.93 9.416057e-05    1.026    0.025
        12 -12.5339    139.3293    247.6446   5.4282638340e+01   4.1047803443e+00     0.406664    0.2494444 -59.98  0.002213129    1.791    0.442
        13 -11.8581    124.6879    249.7974   5.7716614475e+01   4.9854783800e+00    0.2130666    0.1993351 -33.25  0.001448557    1.165    0.142
        14 -11.6295    114.5915    249.1012   5.9915378179e+01   6.0493586935e+00    0.3089322    0.2048666  58.21  0.001594462    2.217    0.549
        15 -12.8318     56.5937    249.2803   7.4227725273e+01   1.1444636898e+01    0.4104502     0.240747  20.55 0.0007551976    1.538    0.350
        16 -11.6607     49.6564    248.1010   7.5937312369e+01   1.2350292341e+01    0.3480515    0.2059918 -66.55  0.001595124    1.812    0.448
        17 -11.3601     50.7755    243.0625   7.5229878119e+01   1.3436181037e+01    0.2084663    0.1711969  47.69 0.0005823911    1.207    0.171
        18 -14.5643     34.4821    247.0085   7.9849216664e+01   1.3951129634e+01      2.32964    0.6649535  40.63  0.008353178    2.983    0.665
        19 -14.8685     35.5649    232.0659   7.8466732738e+01   1.7511809246e+01     2.472283      1.07822  81.50   0.00883653    3.353    0.702
        20 -12.5873      9.5590    208.8591   8.4308418223e+01   2.5760884581e+01    0.2918757     0.271118  47.27 0.0003687773    1.020    0.019
        21 -15.4081     24.0625    186.7445   7.8115902339e+01   3.0693382024e+01     2.274333      1.02079 -60.67  0.008895202    2.116    0.527
        22 -15.1128     13.8907    213.9863   8.3356011525e+01   2.4047224410e+01     1.646618     1.078068 -40.39  0.007010798    1.732    0.423
        23 -13.5808     19.7544    247.7046   8.3779829283e+01   1.5015974930e+01    0.7676448    0.4722854  37.38   0.00233097    1.415    0.293
        24 -13.4334     12.7486    189.3664   8.1975169231e+01   3.0896460688e+01    0.5936441    0.3844931 -42.70  0.001577986    1.681    0.405
        25 -13.7694      4.7498    212.3340   8.5935858361e+01   2.5180930258e+01    0.8109104    0.4520267  68.58  0.003623043    1.853    0.460
        26 -13.0524      6.1658    191.2374   8.4207037918e+01   3.0864272302e+01    0.4374353    0.3055313  25.54 0.0006471706    1.395    0.283
        27 -14.7680      5.2758    184.5097   8.4032977666e+01   3.2817002154e+01     1.212109     1.031588 -89.01  0.004975394    1.142    0.124
        28 -13.0800      2.1281    226.8663   8.7442976475e+01   2.1551771575e+01    0.3572458     0.247985 -62.41  0.001248238    1.527    0.345
        29 -13.8290      2.3526    220.1559   8.7046577794e+01   2.3278818408e+01    0.6776124    0.3645984  80.23  0.001794613    1.943    0.485
        30 -15.0171      5.5160    234.0721   8.6863961504e+01   1.9471340321e+01    0.8869739    0.6435341  30.81  0.004850655    1.244    0.196
        31 -15.3609     15.3157    229.9189   8.3941879721e+01   1.9770666747e+01     1.269743    0.9126402  -0.13  0.006598449    1.521    0.343
        32 -13.9048     13.9722    224.5641   8.3996345885e+01   2.1254651832e+01    0.5934659    0.4000997   1.32  0.002937376    1.633    0.388
        33 -15.4226      2.7578    246.5909   8.8175907441e+01   1.6594200121e+01     1.116511    0.6434002  33.67  0.005714031    1.477    0.323
        34 -14.9877      8.8371    241.5197   8.6339419456e+01   1.7371798526e+01    0.8267338    0.5596338 -13.56  0.004244734    1.766    0.434
        35 -11.0607    147.0452    245.3010   5.2382782534e+01   3.8812276791e+00    0.1624821    0.1382327  -8.82 0.0004177803    1.073    0.068
        36 -11.3711    205.8913    244.1654   4.1496411880e+01  -5.4643302419e-01    0.1510797    0.1245445 -35.45 0.0004555848    1.194    0.163
        37 -11.4916    143.3546    243.0011   5.2860812932e+01   4.6529696437e+00    0.3038141     0.144341 -57.95  0.001492976    2.172    0.540
        38 -11.8914    126.9145    242.4768   5.6342915612e+01   6.2642278682e+00    0.2096402    0.1901735  66.56 0.0005280562    1.432    0.302
        39 -10.4614    192.9785    242.5102   4.3412966202e+01   6.5936834538e-01     0.137771   0.09983695   7.71 0.0001258066    1.442    0.306
        40 -10.8461    186.8011    242.1597   4.4429859228e+01   1.1867048465e+00    0.1652869    0.1040043 -27.36  0.001072785    1.364    0.267
        41 -11.8260    117.6284    241.2928   5.8298924854e+01   7.3901739381e+00    0.2506263    0.1822436 -38.09 0.0008956213    1.295    0.228
        42 -10.6154     94.3050    242.6726   6.4010408715e+01   9.3532009267e+00     0.133562   0.09724112  53.66 0.0005953583    1.650    0.394
        43 -11.3235    246.2481    241.0269   3.5224739933e+01  -2.6370860219e+00    0.1365998   0.09047788 -38.13 0.0003764122    1.060    0.057
        44 -11.2917    167.9305    241.4787   4.7771394367e+01   2.8169866740e+00    0.1605768    0.1075761  15.66 0.0006978912    1.539    0.350
        45 -10.9352    180.8288    240.1847   4.5230648953e+01   1.9998081394e+00    0.1508052    0.1031055 -27.09 0.0002321476    1.238    0.192
        46 -11.0460    100.4842    240.4656   6.2253436265e+01   9.2351607089e+00    0.1317512    0.1202275  -2.96 -6.35539e-05    1.013    0.013
        47 -11.6520     65.5040    239.7430   7.1042122451e+01   1.2832601588e+01    0.3609549    0.1442261  49.04  0.001313133    3.093    0.677
        48 -10.5377    175.6900    238.7184   4.5971008750e+01   2.6778156918e+00    0.1190153   0.07150263 -24.96  0.000276676    1.566    0.361
        49 -11.1972    149.6741    238.6784   5.1005489951e+01   4.9283118606e+00    0.1318377   0.07841539 -25.17 0.0007047552    1.684    0.406
        50 -10.6336     79.5647    237.7608   6.7186178320e+01   1.1918469576e+01    0.1815971    0.1339934 -87.70 0.0009487887    1.668    0.400
        51 -12.3623     69.1974    235.7890   6.9683035088e+01   1.3409010316e+01    0.4211608    0.2821603  49.55  0.001162249    1.603    0.376
        52 -12.6613     73.3142    231.5143   6.8157187262e+01   1.4018175772e+01    0.5211423     0.313154 -49.89 0.0009327717    1.684    0.406
        53 -11.6408    210.2299    235.8010   3.9746918195e+01   5.1776087813e-01    0.2349103    0.1668136 -70.17  0.001551367    2.199    0.545
        54 -11.1926    137.8779    236.1572   5.3155388945e+01   6.5189502843e+00    0.1748463    0.1657652  35.06 0.0004905202    1.272    0.214
        55 -11.1642    103.6892    236.0788   6.0966512920e+01   9.8849078539e+00    0.1853722    0.1622262 -37.33 0.0003952152    1.114    0.103
        56 -11.5269     46.7042    235.4722   7.5686180998e+01   1.5648580303e+01    0.2838162    0.2026201  41.85 0.0007286504    1.330    0.248
        57 -11.1013    197.1927    234.4299   4.1665496823e+01   1.7200412191e+00    0.1644355    0.1073867 -48.84 0.0003648367    1.349    0.259
        58 -11.8311    165.5439    234.3483   4.7300373416e+01   4.3449632683e+00    0.1992333    0.1814511 -28.34 0.0002671934    1.162    0.140
        59 -11.6035    121.7182    235.0373   5.6595235465e+01   8.3145422496e+00    0.1771507    0.1544299 -32.64 0.0003017737    1.072    0.067
        60 -12.5940     61.6270    231.3172   7.1260804151e+01   1.5235663663e+01    0.6211187    0.2562899 -78.66  0.002254034    3.226    0.690
        61 -12.1958     56.5828    234.4873   7.2923282008e+01   1.4954145886e+01    0.4770994    0.2411618   9.96  0.002008434    2.136    0.532
        62 -12.3839    243.2436    233.4163   3.4688001012e+01  -1.3232082145e+00    0.1753371    0.1257805 -42.12 0.0003046019    1.166    0.142
        63 -10.5809    158.5133    233.5091   4.8557301272e+01   5.1308818645e+00    0.1219532    0.1014265 -27.34 9.219265e-05    1.003    0.003
        64 -12.2251    180.8141    230.3640   4.3948770294e+01   3.7637573816e+00    0.3058611    0.2094347  61.04   0.00114779    2.851    0.649
        65 -11.6186    194.7745    229.6076   4.1436092059e+01   2.7450066972e+00    0.2557455    0.1205464 -50.51  0.001016065    1.772    0.436
        66 -12.3269    149.9307    230.0213   4.9824975272e+01   6.6091350445e+00    0.2540756    0.2065478 -49.68 0.0009087618    1.214    0.176
        67 -12.2815    154.6966    227.8375   4.8566149969e+01   6.5902621244e+00     0.299091    0.1679386 -16.57   0.00150113    2.169    0.539
        68 -11.1392    141.5041    229.4861   5.1514708777e+01   7.5281533245e+00    0.1265849    0.1098187 -25.11 0.0001458392    1.000    0.000
        69 -11.9217    230.5674    227.8617   3.5719706424e+01   3.6465333439e-01    0.1406887    0.1174029   6.18 0.0008597451    1.452    0.312
        70 -12.6151    127.6874    227.1995   5.4239999269e+01   9.3858888323e+00    0.2258907     0.210213 -15.65 0.0002780348    1.063    0.059
        71 -11.6227     85.9054    228.1398   6.4492984403e+01   1.3526494560e+01     0.221063    0.2088992  -2.25  0.001332394    1.007    0.007
        72 -12.1909     80.6345    225.6432   6.5584022596e+01   1.4673802368e+01    0.3786529    0.2892484 -34.84  0.001339369    1.346    0.257
        73 -12.2969     41.8671    224.6801   7.6106747575e+01   1.8807181173e+01    0.6509099    0.2980863  87.06  0.002382546    3.050    0.672
        74 -12.9366     49.9572    215.7246   7.2983706709e+01   2.0335443366e+01      0.46275    0.3967044   7.93  0.001084932    1.176    0.150
        75 -12.5176     46.9962    224.4850   7.4647372872e+01   1.8370087258e+01    0.5592626    0.2379358  58.40  0.001939966    3.234    0.691
        76 -13.1981     50.4403    220.2923   7.3287636507e+01   1.9106792434e+01    0.5994599    0.3759884  -4.44  0.002702343    1.888    0.470
        77 -11.3658    138.1355    226.9252   5.1898387499e+01   8.3883282188e+00    0.1769192    0.1734993  85.71 0.0004800211    1.253    0.202
        78 -12.8166    116.2706    224.8019   5.6561443785e+01   1.1092779748e+01    0.5549936    0.3234512  78.89  0.002000624    3.910    0.744
        79 -12.2717    106.1287    226.4606   5.9205951533e+01   1.1789811690e+01    0.3023066    0.2287139 -23.65  0.001138348    1.336    0.252
        80 -10.7532    188.5066    226.4635   4.2081048523e+01   3.8171854499e+00    0.1173321   0.08847966 -31.81 6.550008e-05    1.071    0.066
        81 -11.7518    100.4437    224.6205   6.0379681640e+01   1.2813860093e+01    0.2370417    0.1986821   4.98 0.0003148753    1.162    0.139
        82 -11.8203     92.0409    224.3391   6.2468662478e+01   1.3776352562e+01    0.2974948    0.2077395 -37.65  0.001304586    1.453    0.312
        83 -12.2789    160.4592    222.6382   4.6719137175e+01   7.0652995207e+00    0.3833773    0.1789262  34.93  0.001914098    2.417    0.586
        84 -13.5977    123.7448    220.3567   5.4235085535e+01   1.1281814645e+01    0.4907494    0.3571366  82.82   0.00253892    2.043    0.511
        85 -12.9691    173.8697    219.4310   4.3731121336e+01   6.4150819643e+00    0.3390482     0.198986 -51.91  0.001429558    1.507    0.336
        86 -12.7370     76.4694    219.4400   6.5987893104e+01   1.6628753233e+01    0.4760474    0.2692747  49.54  0.000757099    2.003    0.501
        87 -11.5102    238.4987    220.4944   3.3693301834e+01   9.7304322574e-01    0.1030631   0.07196173 -38.82  0.000810664    1.006    0.006
        88 -10.4421    197.2930    220.2725   3.9773385650e+01   4.1780436806e+00    0.1121546   0.06879441 -28.02 0.0001880738    1.518    0.341
        89 -12.3698    190.3958    219.9424   4.0879638726e+01   4.8285719517e+00    0.2345434    0.1561985 -10.50  0.000399588    1.655    0.396
        90 -12.2908    165.8186    219.0558   4.5189751018e+01   7.2512383206e+00    0.2078407    0.1632423   0.11 0.0002983012    1.321    0.243
        91 -12.8558    144.7054    216.5998   4.9094535433e+01   9.8691786311e+00    0.3896463    0.2831443  48.72  0.002224149    1.755    0.430
        92 -13.1690    141.0455    210.4923   4.9019082992e+01   1.1551327054e+01    0.5241297    0.2758355 -70.42  0.002241397    2.706    0.630
        93 -12.0442     62.5606    216.6138   6.9500417798e+01   1.8815119251e+01      0.38804    0.2189489  55.65  0.001119638    2.092    0.522
        94 -11.8827    226.0364    216.3042   3.4862124245e+01   2.5484115041e+00    0.1831285    0.1183388 -47.21 0.0004092742    1.214    0.177
        95 -11.3796    138.1950    216.8288   5.0520640867e+01   1.0506051710e+01    0.1810889    0.1766553 -69.89 0.0005189392    1.199    0.166
        96 -12.5416    129.3080    217.0872   5.2524934666e+01   1.1400937049e+01     0.327991    0.1869251  16.49 0.0007394922    1.908    0.476
        97 -12.0110     93.2615    217.3366   6.1297381221e+01   1.5308898647e+01    0.5839279    0.1497019  31.17  0.001899712    3.315    0.698
        98 -11.7307     87.0482    215.3125   6.2670028195e+01   1.6487547906e+01    0.2606097    0.2292497 -38.86  0.001147528    1.126    0.112
        99 -11.2210     83.3968    213.6168   6.3433942366e+01   1.7310704932e+01    0.3651318    0.2670147 -83.17  0.001280573    1.601    0.375
       100 -12.7179    107.8205    214.7696   5.7288762498e+01   1.4292549007e+01    0.3497806     0.274498  74.73  0.001747264    1.641    0.391
       101 -11.0188    233.0029    214.2775   3.3631177251e+01   2.3530851416e+00    0.1366719    0.1041431 -34.15 0.0003187246    1.100    0.091
       102 -11.7781    156.4715    213.7122   4.6273430888e+01   9.2445058853e+00    0.2269881    0.1154332 -58.83 0.0007376866    1.983    0.496
       103 -11.6995    134.0768    214.0675   5.1042364135e+01   1.1541300566e+01     0.202295    0.1598772  67.69  0.001134146    1.725    0.420
       104 -12.3876     57.4025    220.9611   7.1395398235e+01   1.8239636897e+01    0.4756607    0.2055635 -46.73  0.000912002    2.475    0.596
       105 -10.9641    248.0087    213.5051   3.1568591752e+01   1.3957552663e+00    0.1057176   0.08349541  67.19 0.0008092118    2.434    0.589
       106 -11.3085     76.2790    212.6540   6.5247593063e+01   1.8341081259e+01    0.3947341    0.1702614  58.78  0.001182332    4.419    0.774
       107 -12.5799     41.9941    211.7679   7.4913687507e+01   2.2159593751e+01    0.7100648    0.3324751  22.91   0.00288096    2.001    0.500
       108 -13.7202     36.1681    204.6156   7.5980343619e+01   2.4636951457e+01    0.4717839    0.4014356 -43.66  0.001239715    1.242    0.195
       109 -11.7325     59.2279    211.0894   6.9849314137e+01   2.0588475057e+01    0.2480837    0.1934156  -1.10 0.0006472213    1.373    0.272
       110 -11.0230    209.6517    211.3151   3.6602830845e+01   4.7002073222e+00   0.09872221   0.08265146 -79.81 0.0005425201    1.724    0.420
       111 -12.4295    170.9670    209.7753   4.2920809229e+01   8.5573854784e+00    0.3213546    0.2295186  74.20 0.0009843989    2.529    0.605
       112 -12.1086     90.7701    210.2146   6.1045576283e+01   1.7315886808e+01    0.2367473    0.2225884 -72.58 0.0004316514    1.123    0.109
       113 -10.5315     70.6193    211.0858   6.6628466856e+01   1.9361713908e+01    0.2218854    0.1752469  68.50 0.0005418895    1.430    0.301
       114 -10.7786    250.6606    210.6911   3.0879819537e+01   1.6429664478e+00    0.1022409   0.05484489 -30.90 0.0004845471    1.686    0.407
       115 -12.5911    179.9423    207.7997   4.1009956962e+01   8.0493609872e+00     0.324543    0.2149144 -30.28 0.0005272925    1.429    0.300
       116 -12.7695    161.6190    207.7747   4.4415330192e+01   9.9121385847e+00    0.4039906    0.2638996 -75.73 0.0008279483    2.245    0.555
       117 -11.0967     97.0385    210.1284   5.9398110659e+01   1.6618209136e+01    0.2493798    0.1762207 -62.76  0.001029042    1.440    0.306
       118 -12.6356     52.9269    209.4092   7.1488147508e+01   2.1686973441e+01    0.3691157    0.3199961  33.56  0.001229427    1.107    0.097
       119 -11.7910    229.5356    205.4832   3.2944302194e+01   4.0478486813e+00    0.1680837   0.06989289 -42.58 8.849821e-05    1.766    0.434
       120 -12.7936     27.5176    206.5090   7.8752172484e+01   2.4919616919e+01    0.3842506    0.2739241 -50.92 0.0005148546    1.471    0.320
       121 -11.8747    105.1632    205.8112   5.6744102982e+01   1.6710391245e+01    0.3034221    0.2027049 -36.14 0.0009760988    1.548    0.354
       122 -11.3783     47.5842    206.6584   7.2770802078e+01   2.2963817287e+01    0.2822468    0.2200312  85.75 0.0008325286    1.381    0.276
       123 -12.9927    145.2508    201.3486   4.6805065613e+01   1.3040550923e+01    0.3607962     0.308229 -75.00  0.002216125    1.348    0.258
       124 -10.5007    130.2681    205.7040   5.0717194351e+01   1.3805214301e+01    0.1234465    0.1036451  74.91  0.000186512    1.516    0.340
       125 -11.5317    113.4681    205.4946   5.4640093541e+01   1.5808212032e+01    0.1369883    0.1283184 -30.39 -1.065321e-05    1.002    0.002
       126 -11.5245    229.4339    208.3079   3.3333702423e+01   3.5930716995e+00    0.1790444    0.1224328  43.39  0.001301688    2.190    0.543
       127 -11.6873    225.4678    203.9416   3.3298426313e+01   4.6323851194e+00    0.1513913    0.1214927 -36.05 0.0004051821    1.116    0.104
       128 -11.8509    213.1839    201.4278   3.4718191138e+01   6.1071756052e+00    0.3442422    0.1478615 -59.97  0.001666509    2.820    0.645
       129 -12.2982     91.3283    199.4194   5.9469317085e+01   1.9924652358e+01    0.4047704     0.264014 -33.88  0.001184134    1.692    0.409
       130 -12.4130     92.0507    193.5337   5.8459954387e+01   2.1313348055e+01    0.3730783    0.2637855 -70.47 0.0009873623    1.495    0.331
       131 -10.5952     82.7238    204.7249   6.2502951277e+01   1.9609906633e+01    0.1434356    0.1051781 -28.03 0.0002303119    1.493    0.330
       132 -10.9751    110.4698    202.4939   5.4955723943e+01   1.6869808344e+01    0.1388785    0.1295266 -30.76 0.0002093053    1.019    0.019
       133 -12.2357    136.0961    199.4851   4.8509737924e+01   1.4507639117e+01    0.4777878     0.279305 -89.93  0.001760552    3.989    0.749
       134 -11.4804    138.0500    196.9725   4.7707996297e+01   1.4831315678e+01    0.2093952    0.1643315 -29.81 0.0004804234    1.262    0.207
       135 -13.4623    121.6519    197.4626   5.1519556396e+01   1.6697287707e+01     0.529169    0.3329197 -50.28  0.002658751    1.468    0.319
       136 -11.5575     84.5707    199.7525   6.1348609312e+01   2.0651645810e+01    0.4273809    0.3089369  89.65   0.00205967    1.676    0.403
       137 -12.3498    177.3301    198.7098   4.0170375488e+01   1.0065042759e+01    0.3048864     0.189572  41.56  0.001770237    2.008    0.502
       138 -13.4784    172.6772    195.6339   4.0560849404e+01   1.1164224621e+01    0.3119824    0.2850602  34.81 0.0005521033    1.314    0.239
       139 -10.6359     50.6260    199.7321   7.1136593937e+01   2.4506734265e+01    0.1557125    0.1084893 -24.94 0.0003997951    1.674    0.403
       140 -12.3730    149.4729    196.9657   4.5275184701e+01   1.3492189886e+01    0.3278091    0.2019713 -78.15  0.001511596    2.523    0.604
       141 -12.9295     35.3562    195.7856   7.5392291594e+01   2.7128574698e+01    0.6916701    0.3253379  32.63  0.002776845    1.939    0.484
       142 -12.3210     37.2457    190.9078   7.4315180601e+01   2.8293149811e+01    0.4992045    0.1853298 -73.17  0.001711807    2.758    0.637
       143 -12.3335    192.8292    194.5159   3.6909538833e+01   9.2725846083e+00    0.3018074    0.2126163 -28.76  0.001364751    1.401    0.286
       144 -11.1647    212.0477    194.0269   3.3856152617e+01   7.5008428780e+00    0.1591087    0.1245875 -73.33 0.0006404897    1.643    0.391
       145 -11.7185    160.2101    192.4364   4.2439565385e+01   1.3204038310e+01    0.2762322    0.1906364 -65.40  0.001554277    1.557    0.358
       146 -12.8596    132.8262    191.7190   4.8079504808e+01   1.6636814753e+01    0.4344592    0.2356165 -37.77  0.001467457    1.957    0.489
       147 -11.5379     64.1598    193.2786   6.6342528795e+01   2.4744075486e+01    0.1995135    0.1876859  -2.56 0.0003073163    1.091    0.083
       148 -10.8856    102.3098    196.3223   5.6144574009e+01   1.9348300806e+01    0.1501877    0.1028511 -28.39 0.0003238104    1.649    0.393
       149 -12.9905    110.2369    188.1086   5.2916603921e+01   2.0343867426e+01    0.5210441    0.2986544 -73.57  0.002229285    2.162    0.538
       150 -11.6605     50.9989    190.3074   6.9963641980e+01   2.7026915816e+01    0.3915256    0.1964493  40.12  0.001073744    1.924    0.480
       151 -10.8477     42.0432    191.4667   7.2870629217e+01   2.7655551831e+01    0.2292712    0.1478092  16.27  0.001021668    1.592    0.372
       152 -11.3303    174.9318    188.7296   3.9125604195e+01   1.2284791815e+01    0.1629322    0.1479531 -32.14  0.000506192    1.112    0.100
       153 -11.5155    197.8629    188.1658   3.5180205662e+01   9.9379899138e+00    0.1576897    0.1161172 -30.16 0.0004334253    1.329    0.247
       154 -11.4758    151.4661    188.4979   4.3587376162e+01   1.5062644120e+01    0.1310105    0.1136628 -42.43 0.0008095968    1.024    0.023
       155 -11.1615    104.0968    188.1171   5.4485588432e+01   2.1134307179e+01     0.220262    0.1838211 -28.03  0.001185705    1.252    0.201
       156 -10.9480     76.3674    186.1426   6.1820200953e+01   2.5172843842e+01    0.3141664    0.1129566 -55.54  0.001098959    2.546    0.607
       157 -11.2343    227.8658    185.9390   3.0515656437e+01   7.4394047200e+00    0.1728132    0.1086777 -38.37  0.001209507    1.319    0.242
       158 -11.3571    209.3166    186.3198   3.3166294051e+01   9.1235996978e+00     0.114663   0.07088912 -31.15 0.0003278042    1.658    0.397
       159 -11.3940    186.1366    187.3417   3.6970380823e+01   1.1324744499e+01    0.1959549    0.1309995 -43.20 0.0003298652    1.237    0.191
       160 -12.0031    156.4861    185.9985   4.2193263592e+01   1.4986817399e+01    0.1982516    0.1120394 -52.58 0.0006101392    1.538    0.350
       161 -13.2639    126.9258    185.5289   4.8480966567e+01   1.8795259163e+01     0.439456    0.2516339  28.59  0.001234146    1.885    0.469
       162 -12.2904     32.6447    184.5344   7.5129783048e+01   3.0521135107e+01    0.3485356     0.232008  89.81  0.001574524    1.610    0.379
       163 -11.2117    247.2187    185.7854   2.8057669357e+01   5.7919953475e+00    0.1230288   0.07895157  10.49 0.0008747557    2.470    0.595
       164 -12.2407    163.6744    184.9435   4.0633304327e+01   1.4346374353e+01    0.2101246    0.1838705  51.76 0.0006317183    1.375    0.273
       165 -12.9220    134.2471    182.0360   4.6265640832e+01   1.8644436340e+01    0.2864574     0.249022 -64.90 0.0004150092    1.143    0.125
       166 -12.3386    105.1619    182.9692   5.3432080532e+01   2.2261065568e+01    0.3274064    0.1952678 -59.71 0.0005964602    1.617    0.381
       167 -12.1260     94.6543    182.0892   5.6088096090e+01   2.3870890145e+01    0.3937038    0.2285461 -62.85  0.001139188    1.707    0.414
       168 -10.2147     54.4614    184.5402   6.8200852529e+01   2.8220993567e+01    0.1472753    0.1472263  49.12  0.000807928    1.022    0.022
       169 -13.2326    138.0508    177.3874   4.4686062394e+01   1.9192089108e+01    0.5603036    0.3625018  80.77   0.00209338    2.651    0.623
       170 -13.0039    115.9531    178.6100   5.0023957262e+01   2.1873544266e+01     0.357842    0.2705702  -1.78  0.001785739    1.628    0.386
       171 -13.0818    154.9633    177.2885   4.1136709230e+01   1.7018130906e+01    0.3836834    0.2512236 -66.20  0.001067561    1.621    0.383
       172 -10.6310    228.2787    177.3050   2.9259765187e+01   8.8545771131e+00    0.1053862   0.06491182 -34.81 0.0002622851    1.551    0.355
       173 -11.7272    191.3862    177.2126   3.4591473295e+01   1.2676250183e+01     0.170416   0.09570631 -58.38 0.0007275784    1.641    0.391
       174 -13.3337    127.9286    175.5305   4.6668136799e+01   2.0972926639e+01    0.4063447     0.354227  82.30  0.001066503    1.296    0.229
       175 -11.7266     64.3951    176.4026   6.4054323611e+01   2.9263875088e+01    0.4911532    0.2508585   6.14  0.001731387    2.836    0.647
       176 -14.6518      4.9772    201.0682   8.5207074947e+01   2.8223284835e+01     1.484635    0.8755792  -0.82  0.006591784    1.960    0.490
       177 -12.2086    106.5951    175.1820   5.1845040909e+01   2.3983630732e+01    0.2610393    0.2033139  32.59 0.0007828429    1.332    0.249
       178 -13.2683     80.8096    172.6441   5.8565150930e+01   2.8151404623e+01    0.5024454      0.29386  25.47  0.001310283    1.773    0.436
       179 -11.9336     74.6266    169.9859   5.9999837356e+01   2.9678277651e+01    0.2691361    0.2130133  -3.26 0.0006984495    1.473    0.321
       180 -12.1264     91.0068    170.9284   5.5374887023e+01   2.7208085056e+01    0.3696833    0.2439827 -63.31  0.001162164    1.493    0.330
       181 -12.2636     87.2802    168.8147   5.6096732796e+01   2.8268079574e+01    0.2821204    0.2201332  13.27 0.0008255067    1.433    0.302
       182 -11.7088    145.5144    173.5200   4.2464425118e+01   1.9059180998e+01    0.1332144    0.1190338 -52.97 0.0008101559    1.011    0.011
       183 -12.0877     13.6201    171.9096   8.0257676339e+01   3.5774208516e+01    0.2684976    0.2024605 -14.98 0.0006509617    1.489    0.328
       184 -14.0409     17.0863    166.3330   7.8543615197e+01   3.7086345492e+01     1.092817    0.5998152  -1.74  0.004371394    2.208    0.547
       185 -12.7587     13.4237    162.0097   7.9420886217e+01   3.8616334414e+01    0.3512706    0.2589286  83.41 0.0004183778    1.391    0.281
       186 -12.4987      3.1813    159.9310   8.2899645129e+01   3.9948349579e+01    0.3580308    0.2576587  47.42 0.0006640709    1.387    0.279
       187 -13.7193      3.9493    166.3906   8.3143392860e+01   3.8054744889e+01    0.5442014     0.402832  83.19  0.001786695    1.349    0.259
       188 -12.6144      7.2826    163.6701   8.1749807542e+01   3.8601011297e+01     0.289775    0.2201397  75.44 0.0003294159    1.333    0.250
       189 -11.8742    197.6830    170.4682   3.2584927770e+01   1.3233527006e+01    0.2189606    0.1699788 -42.70 0.0007067744    1.123    0.110
       190 -11.2409    171.7823    177.9440   3.8048602614e+01   1.4804516574e+01    0.1864995    0.1417721 -39.77 0.0003821397    1.198    0.166
       191 -12.3340    153.3591    170.1225   4.0308700766e+01   1.8753487470e+01    0.2286723    0.2035002  72.65 0.0007839535    1.296    0.228
       192 -13.0079    153.0278    165.0173   3.9540522627e+01   1.9888906508e+01     0.357456    0.2592441 -46.85  0.001350304    1.242    0.195
       193 -11.4123     63.2893    170.8609   6.3619908170e+01   3.0907353847e+01    0.2663202    0.1940217  41.59 0.0006209444    1.361    0.265
       194 -12.5934     53.3432    170.3851   6.6728638772e+01   3.2252078008e+01     0.409376    0.2321461 -63.01 0.0002345029    1.712    0.416
       195 -13.3926    119.9839    167.9805   4.7314610881e+01   2.3845020064e+01    0.6010357    0.3384345  32.48  0.002758759    1.905    0.475
       196 -12.0239    145.0646    169.2734   4.1868038534e+01   2.0050423737e+01    0.1753829    0.1723586 -47.94 0.0004354158    1.102    0.093
       197 -12.1110     39.6816    168.6977   7.1029845541e+01   3.4264606896e+01    0.2400866    0.2005458  23.43 0.0009961948    1.202    0.168
       198 -12.3980    127.4230    166.3876   4.5284726891e+01   2.3158643523e+01    0.3010571    0.2149527 -35.22  0.001194746    1.530    0.347
       199 -12.4301    199.1775    164.2592   3.1416482588e+01   1.4212258689e+01    0.2498437    0.1539901 -55.22 0.0006249486    1.329    0.248
       200 -12.8973    110.9350    163.9280   4.8886070079e+01   2.6119340360e+01    0.4761732    0.2520944 -45.82  0.002043554    1.903    0.475
       201 -11.6154     97.0053    164.6840   5.2700130490e+01   2.7949902989e+01    0.2022215    0.1901972  37.20  0.000436581    1.097    0.089
       202 -12.5428     91.8647    162.5468   5.3777945573e+01   2.9231173000e+01    0.3753479    0.2794915  39.63  0.001005623    1.359    0.264
       203 -10.8641     78.2967    165.3198   5.8176879277e+01   3.0420199875e+01    0.1554782    0.1123899 -30.73 0.0001855996    1.615    0.381
       204 -13.0356     47.7336    156.6491   6.6694408194e+01   3.6729370154e+01     0.305749    0.2770359  71.82 0.0004582234    1.115    0.103
       205 -12.7176     43.9681    164.5185   6.9052893230e+01   3.4968777944e+01    0.4458674    0.2383979   0.30  0.001621774    2.613    0.617
       206 -12.6566    132.1355    169.2470   4.4679876698e+01   2.1837441865e+01    0.3083126    0.2660635  68.86  0.001049589    1.307    0.235
       207 -11.5758    141.7259    162.9911   4.1532032044e+01   2.1896829581e+01    0.1886913    0.1549723 -54.31 0.0003038392    1.091    0.083
       208 -12.7231    169.5653    160.6808   3.5705535509e+01   1.8572634043e+01     0.268174    0.2458472 -47.05 0.0008935374    1.112    0.101
       209 -11.3808    167.9819    156.9862   3.5384654434e+01   1.9532809384e+01    0.1901812    0.1620485 -60.17 0.0003395957    1.045    0.043
       210 -11.4131     39.8317    161.6237   7.0087807291e+01   3.6239204069e+01    0.2250211    0.1300403  34.97 0.0006584034    1.659    0.397
       211 -12.3362     25.9077    159.9570   7.4761744591e+01   3.8125792862e+01    0.3733963    0.2546792 -47.74 0.0004123332    1.501    0.334
       212 -10.9987     25.3064    156.3239   7.4558739203e+01   3.9214417814e+01     0.346792    0.1542911  11.01 0.0006949513    2.588    0.614
       213 -12.2766    190.8980    156.8690   3.1535711621e+01   1.6584402374e+01    0.4484886    0.1745538 -63.32   0.00163489    4.112    0.757
       214 -12.6058    105.4270    158.6923   4.9423927668e+01   2.8208206370e+01    0.4705449    0.2764671  56.37  0.001714695    2.099    0.524
       215 -11.8907     69.0270    158.9739   6.0027609096e+01   3.3373406928e+01    0.2215707     0.217522 -64.24            0    1.031    0.030
       216 -12.2686     31.7294    157.6307   7.2417349068e+01   3.8218040936e+01    0.4005737    0.2006977 -39.56   0.00103612    2.328    0.570
       217 -10.9980    250.2641    158.0662   2.3974606694e+01   9.9169954493e+00    0.1479958   0.09272785 -50.46 0.0005221451    1.096    0.087
       218 -12.5763    133.2347    157.3735   4.2429652592e+01   2.4379043586e+01    0.3647877    0.2331474 -58.69  0.001232064    1.449    0.310
       219 -12.5955    118.8505    157.5897   4.5827868955e+01   2.6467729489e+01    0.3397167    0.2451264  52.00  0.001437591    1.510    0.338
       220 -12.1962    141.3038    155.5285   4.0353704508e+01   2.3604864823e+01    0.2330126    0.1884452 -62.54 0.0003037959    1.134    0.118
       221 -11.3302    213.2970    156.6730   2.8259531468e+01   1.3967589432e+01    0.1097291   0.07561117 -71.50 0.0003162411    1.631    0.387
       222 -13.8313     82.5957    151.7834   5.4659501074e+01   3.3347782109e+01     0.717039    0.3859139 -36.36  0.002738037    2.464    0.594
       223 -10.8134     20.5804    154.8229   7.6101157092e+01   4.0070322832e+01     0.241417    0.1726259  31.06 0.0007026277    1.373    0.271
       224 -13.8051      3.8484    153.0802   8.2079206656e+01   4.1856038656e+01    0.6002802    0.4545518 -68.60  0.002576461    1.270    0.212
       225 -11.8677     67.0106    153.9971   5.9875488145e+01   3.4982478186e+01    0.2480554     0.175736 -30.50 0.0006422426    1.685    0.407
       226 -10.8554     14.6119    153.7827   7.8175462588e+01   4.0868591666e+01    0.2020956    0.1383746  85.96 0.0002760258    1.535    0.349
       227 -12.1294     52.4506    153.0133   6.4547908421e+01   3.7159020226e+01    0.3695588     0.149231  42.51  0.001289375    2.480    0.597
       228 -11.3575    154.1936    150.8948   3.6937172731e+01   2.2723722244e+01    0.1963276    0.1608761 -76.73 0.0005064389    1.243    0.196
       229 -12.4012    109.9392    149.0409   4.6552293687e+01   2.9863502462e+01     0.442947    0.2647833  41.01  0.001704341    1.723    0.420
       230 -12.8778     96.4542    148.8848   5.0139023730e+01   3.1992367700e+01    0.2837428    0.2563246 -68.64 0.0003639179    1.066    0.062
       231 -12.0771     28.3205    149.9744   7.2691091631e+01   4.0721591518e+01    0.4068003    0.2288394   4.89  0.001628901    2.103    0.524
       232 -11.3538     19.9399    148.6177   7.5632780430e+01   4.1887176220e+01    0.2521669    0.1970742 -55.04 0.0004506631    1.265    0.209
       233 -14.4975     11.8648    143.8010   7.8152840687e+01   4.3915289443e+01     1.058124    0.5581479 -52.57  0.004443616    1.837    0.456
       234 -10.5293    147.2547    148.6409   3.7924851893e+01   2.4223075933e+01    0.1338359   0.09699437 -81.90 0.0002674361    1.616    0.381
       235 -10.6484     48.7029    148.3121   6.5129777118e+01   3.8916795220e+01    0.1602818    0.1111715  61.23 0.0002110573    1.600    0.375
       236 -11.8304    157.2857    145.3890   3.5396398581e+01   2.3422431670e+01    0.2470006    0.2132188   4.01 0.0008902342    1.560    0.359
       237 -10.6589    122.2981    146.6354   4.3057392142e+01   2.8496798614e+01    0.1465493    0.1060619  84.97 0.0007032924    1.722    0.419
       238 -12.6894    102.9732    143.5812   4.7392090172e+01   3.2274801033e+01    0.5635107    0.3530781  75.21  0.002328595    2.359    0.576
       239 -11.0794     40.6584    145.6980   6.7602484057e+01   4.0597881884e+01    0.1613997    0.1118807 -30.02 0.0003374494    1.676    0.403
       240 -11.0100    187.0053    143.9917   3.0078108846e+01   1.9519532134e+01    0.1752145    0.1268278 -76.76  0.001079648    1.520    0.342
       241 -11.4548    143.2409    142.7339   3.7703286484e+01   2.6101929426e+01    0.4355519    0.2125393 -39.72  0.001826451    2.499    0.600
       242 -13.5812     75.7927    150.9311   5.6590499126e+01   3.4561395328e+01     0.499674    0.3866496  52.20  0.002160246    1.327    0.246
       243 -13.3829     49.1934    142.0738   6.3983346669e+01   4.0562619538e+01    0.7928055    0.2406708  36.85  0.002549076    2.933    0.659
       244 -12.7133     22.3603    142.8280   7.4020333692e+01   4.3301647811e+01    0.6044667    0.3159986  81.43   0.00226678    2.470    0.595
       245 -11.1554    201.4146    142.4505   2.7711186223e+01   1.7928652411e+01    0.1172237   0.08975198 -57.02 6.063244e-05    1.021    0.020
       246 -10.6555    151.0050    141.5161   3.5925663234e+01   2.5170624730e+01    0.1720476    0.1314561  45.37   0.00037427    1.475    0.322
       247 -12.0740     59.8815    140.4398   5.9985209492e+01   3.9589302642e+01    0.3315506    0.1706693 -48.20  0.001309009    2.022    0.505
       248 -12.2854     94.8103    139.2239   4.8835506003e+01   3.4637707645e+01    0.3207509    0.1974225 -50.11  0.001453307    1.619    0.382
       249 -12.6884     72.5310    139.1987   5.5569468717e+01   3.8098792215e+01    0.2811952    0.2133276  42.77 0.0004736472    1.301    0.231
       250 -12.6679     68.4755    137.0570   5.6504015787e+01   3.9254614333e+01    0.3361379     0.223249  50.58 0.0003950502    1.563    0.360
       251 -12.7661     40.4705    137.6886   6.6461747515e+01   4.2825029145e+01    0.4033775    0.2817572  60.85 0.0008772599    1.583    0.368
       252 -13.1269     59.4500    134.4567   5.9090740167e+01   4.1233972791e+01    0.4563291    0.3492914  51.30  0.001759556    1.325    0.245
       253 -13.0101     45.5094    135.3432   6.4224949095e+01   4.2851155072e+01    0.4727549    0.3062401 -85.61  0.001375709    1.795    0.443
       254 -12.2291      9.0063    131.3164   7.7886979738e+01   4.7623591630e+01    0.2297222     0.186473 -33.70 0.0003587638    1.261    0.207
       255 -13.2422     10.1648    126.0938   7.6787279422e+01   4.8976291879e+01    0.5913214     0.264405  45.05   0.00226615    2.385    0.581
       256 -12.5099     19.9459    137.9265   7.4332705132e+01   4.4892692476e+01    0.3749157    0.2761588 -26.89  0.001631194    1.486    0.327
       257 -13.6118     18.0627    131.1817   7.4207168361e+01   4.6931310875e+01    0.7658945    0.2471704  25.97    0.0026256    2.757    0.637
       258 -11.8313    175.0417    134.3147   3.0365561680e+01   2.3036736504e+01    0.2161403    0.1458026 -47.86 0.0006953808    1.332    0.249
       259 -12.4714     86.4415    134.6791   5.0412155809e+01   3.7096080127e+01    0.2818817    0.2601185  72.42 0.0004775887    1.062    0.059
       260 -11.3418    210.2584    133.9570   2.5192476221e+01   1.8314972219e+01    0.1624769    0.1195575 -55.08  0.000585653    1.042    0.041
       261 -11.3431    196.8031    134.5861   2.7105748875e+01   1.9950725746e+01    0.1467186     0.105843  71.18 0.0009456575    1.727    0.421
       262 -12.7192     52.6399    136.1702   6.1782918456e+01   4.1709869160e+01    0.3689655    0.2941875  21.68  0.001020486    1.294    0.227
       263 -12.7786     77.8628    132.8492   5.2696776139e+01   3.8908321687e+01     0.338158    0.2290251 -51.09 0.0005190273    1.492    0.330
       264 -13.0737     82.9119    128.3725   5.0264153896e+01   3.9221072494e+01    0.5019544     0.313682 -28.29   0.00203693    2.444    0.591
       265 -10.5881      2.3367    133.3097   8.0804272320e+01   4.7524252442e+01     0.159503   0.09839974 -37.87 0.0007043778    1.682    0.405
       266 -11.0831    234.6610    132.6864   2.2100422073e+01   1.5603238313e+01    0.0996639   0.07024777 -35.00  0.000704686    1.697    0.411
       267 -12.3991     50.4431    130.5066   6.1597801406e+01   4.3509878680e+01    0.2593869    0.2389246  28.53 0.0005989117    1.089    0.081
       268 -12.3018    104.8012    129.6160   4.4252669375e+01   3.5300512261e+01    0.2598404    0.2147838 -79.60  0.000561927    1.211    0.175
       269 -10.2689     34.6433    130.3029   6.7516914372e+01   4.5508526319e+01    0.1640339     0.105561  55.43 0.0007038929    1.714    0.417
       270 -10.9356    228.4578    129.4293   2.2310011855e+01   1.6853623391e+01    0.1089457   0.07797836 -58.77 4.066535e-06    1.053    0.050
       271 -11.7000    130.4259    128.6728   3.7846689581e+01   3.1204557680e+01    0.2209494    0.1922007  85.69 0.0003958448    1.135    0.119
       272 -11.8669    122.7780    128.3036   3.9515224510e+01   3.2568245743e+01    0.3122605    0.2230342 -57.50  0.001504782    1.306    0.234
       273 -11.3363    125.1701    123.4486   3.8017791432e+01   3.3226212845e+01    0.2975161    0.2101866  80.16  0.001495528    1.702    0.412
       274 -11.1735    121.7079    124.3199   3.8989361325e+01   3.3628366636e+01    0.1854302    0.1656378 -34.72 0.0005386843    1.325    0.245
       275 -13.8911     57.0434    127.6032   5.8695950411e+01   4.3366119532e+01    0.4699102    0.3847404  21.29  0.002395805    1.277    0.217
       276 -12.1166     26.5941    125.6342   6.9979434195e+01   4.7638527172e+01    0.2921939    0.2307998 -39.08 0.0007566008    1.313    0.238
       277 -13.8401     73.5818    114.2741   5.0372821888e+01   4.4169327598e+01    0.6862809    0.4647278 -71.97   1.8806e-05    1.620    0.383
       278 -11.6625     77.7509    113.2216   4.8796609955e+01   4.3729727835e+01    0.3067575    0.1893721 -65.45 0.0003002834    1.714    0.416
       279 -12.5437     67.8584    114.1957   5.2278036781e+01   4.5112605673e+01    0.2920049    0.2673663 -73.20 0.0003453944    1.097    0.089
       280 -13.6151     62.6138    111.1113   5.3462066394e+01   4.6687953408e+01    0.7097259    0.3256918 -56.68  0.002827369    2.172    0.540
       281 -12.8947     78.0055    119.4582   5.0013708286e+01   4.2195595740e+01    0.3874942    0.2731792  26.27  0.001479204    1.586    0.369
       282 -13.2577     81.9921    115.9983   4.8043343899e+01   4.2361011490e+01    0.5298725    0.3854844 -53.45 0.0003751835    1.393    0.282
       283 -13.3776    123.1173    134.7971   4.0676399335e+01   3.1062659830e+01    0.3708667    0.3282739  32.54 0.0005867038    1.302    0.232
       284 -11.0206     41.2890    124.3157   6.3953122137e+01   4.6326838081e+01    0.1537293    0.1105302 -31.56            0    1.591    0.371
       285 -11.0618     17.5148    124.4710   7.3524659255e+01   4.8817877149e+01    0.2146392     0.142653  89.50 6.740679e-05    1.682    0.406
       286 -12.8799      4.0281    112.5405   7.7725706658e+01   5.3070156909e+01    0.4659795    0.2076591 -56.45  0.001916946    2.049    0.512
       287 -13.5728     10.7259    111.8565   7.4658003470e+01   5.2765570514e+01    0.4239068    0.3771569 -25.07  0.001907399    1.120    0.107
       288 -13.6566     13.3505    119.4015   7.4573840300e+01   5.0543433221e+01    0.5740025    0.3570499  13.04  0.000602564    1.637    0.389
       289 -13.0146      8.6627    117.7386   7.6363387385e+01   5.1356362631e+01    0.4534534    0.2615307  -0.87  0.001980676    1.921    0.479
       290 -12.2997    193.8105    122.1206   2.5485152098e+01   2.2604661619e+01    0.1860983    0.1348092 -69.70  0.001227718    1.244    0.196
       291 -12.2896    104.9171    121.1862   4.2541608430e+01   3.7223885027e+01    0.3080944     0.205533  66.29  0.001034119    1.751    0.429
       292 -11.7353    179.0545    121.9289   2.7600999038e+01   2.4790912753e+01    0.1837859    0.1487188 -62.78 0.0003912793    1.021    0.020
       293 -12.9737     75.8385    123.8076   5.1585480760e+01   4.1483916739e+01    0.3466799    0.2953452 -49.10 0.0008610974    1.225    0.183
       294 -10.3644     36.6764    119.2631   6.4882857938e+01   4.8220158405e+01    0.1531763    0.1058601  54.10 0.0002615014    1.559    0.359
       295 -11.8990     29.7183    117.2249   6.7357655007e+01   4.9553622964e+01    0.3652891    0.1969848 -51.56 0.0007868985    1.836    0.455
       296 -11.9581     22.6796    118.0919   7.0430178250e+01   5.0054798483e+01     0.257609     0.188838  33.66 0.0006193643    1.336    0.251
       297 -12.3318     93.4957    116.4993   4.4716349084e+01   4.0276881929e+01    0.3372689      0.17229  47.92   0.00141956    1.967    0.492
       298 -12.7544     99.2700    113.8060   4.2534443446e+01   3.9880099171e+01    0.4448199    0.3410854  -5.28  0.001477409    2.108    0.526
       299 -11.1796    196.8653    115.1893   2.3923478664e+01   2.3392415889e+01    0.1462684    0.1224381 -49.03 0.0005225494    1.300    0.231
       300 -10.4100    125.6030    115.5080   3.6344207549e+01   3.4851275053e+01    0.1379201    0.1200941 -78.20  0.000801217    1.038    0.036
       301 -11.9641    114.7105    113.6210   3.8506296857e+01   3.7180695137e+01     0.305795    0.1623402 -49.58  0.001375098    1.870    0.465
       302 -10.8464    108.3078    111.6519   3.9691395175e+01   3.8750110570e+01    0.1479602    0.1043025  85.02  0.000704361    1.705    0.413
       303 -11.5987     20.3916    110.1104   7.0135203093e+01   5.2377943447e+01    0.2941855    0.1956217  29.35 0.0009461729    1.450    0.310
       304 -10.7081     36.2946    109.7562   6.3309508103e+01   5.0723205852e+01    0.1447337    0.1044601  53.44 0.0002755889    1.477    0.323
       305 -11.6370     76.7754    107.7898   4.7942548803e+01   4.5165837621e+01     0.302748    0.1872272  72.25  0.001085819    2.300    0.565
       306 -10.9355    139.9519    107.4741   3.1714202711e+01   3.3967167768e+01    0.1884436     0.126052  54.68   0.00102077    1.561    0.359
       307 -11.2843    121.7619    106.9296   3.5457608221e+01   3.7328213928e+01    0.2425709    0.1697673 -72.10  0.001023377    1.460    0.315
       308 -12.2767     11.8336    104.8875   7.3124142344e+01   5.4494966205e+01    0.3902368    0.2323001 -30.49  0.001371815    1.844    0.458
       309 -10.5539     93.9837    105.7672   4.2279989249e+01   4.2610245734e+01    0.1776067    0.1150241  43.79 0.0002165581    1.528    0.346
       310 -11.7858    104.0532    103.4044   3.9021815686e+01   4.1295449084e+01    0.3084572    0.2515326 -15.74  0.001433407    1.840    0.457
       311 -11.7183     78.8590    101.9754   4.5983821155e+01   4.6134232170e+01     0.255262    0.2027481  49.53  0.001153581    1.203    0.168
       312 -12.2678     55.8430    101.1609   5.3798204191e+01   5.0119624598e+01    0.3102778    0.2242412 -50.80  0.000643569    1.446    0.308
       313 -12.3447     57.8287     97.6381   5.2264831587e+01   5.0632727734e+01    0.3105078     0.224722  45.07  0.000884856    1.318    0.241
       314 -10.1727     27.9411    101.3141   6.5263838987e+01   5.3832700816e+01    0.2585183   0.06109861  41.69 0.0007032825    4.472    0.776
       315 -13.0636      6.2264     99.5877   7.4919378356e+01   5.6285515106e+01    0.4555121    0.3452568  17.87  0.002443847    1.288    0.224
       316 -12.4972     93.9972     98.6743   4.0695433886e+01   4.4144772732e+01    0.3653559    0.2515449  58.41 0.0009373423    1.450    0.310
       317 -10.8403     85.6859    100.0269   4.3425735976e+01   4.5359416703e+01    0.1982227    0.1820729 -77.03 0.0006853978    1.080    0.074
       318 -11.2991    115.6541     98.8313   3.5149341151e+01   4.0103949935e+01    0.2463452    0.1576496  76.05 0.0005979852    1.932    0.483
       319 -11.1163     68.5222     98.9402   4.8721851910e+01   4.8589993173e+01    0.2110206    0.1410057 -59.07  0.001017578    1.547    0.354
       320 -10.8699    233.5547     97.9734   1.7076089128e+01   2.1211423515e+01    0.1597335    0.0750081 -50.91 0.0005458526    1.546    0.353
       321 -11.5066    190.6429     98.1736   2.1857390961e+01   2.7240379449e+01    0.1837934    0.1367341  89.48 0.0005628323    1.339    0.253
       322 -10.9727    166.3364     97.2910   2.5127294328e+01   3.1319879475e+01    0.1069198   0.09852826 -22.62 0.0002781073    1.639    0.390
       323 -11.1470    118.2637     95.7521   3.3875778980e+01   4.0234609112e+01     0.156691    0.1542131 -79.39 0.0003083372    1.255    0.203
       324 -11.8408     82.1918     95.9371   4.3554510488e+01   4.6875508253e+01    0.2546621    0.1972733 -36.19 0.0007911143    1.583    0.368
       325 -10.8918     90.6340     94.2555   4.0640927586e+01   4.5697483292e+01    0.1450667    0.1008675  71.56 0.0002522179    1.632    0.387
       326 -12.8553     77.7117     92.4200   4.4140723297e+01   4.8434809655e+01    0.3806956    0.2089129  48.37  0.001416808    1.745    0.427
       327 -12.5679     73.9816     90.2564   4.4838593638e+01   4.9561216884e+01    0.3392456    0.2095994  40.95  0.001080513    1.550    0.355
       328 -11.5670     62.9810     92.4845   4.9176091564e+01   5.0965593627e+01    0.2051049     0.107167  56.65 0.0007080065    2.360    0.576
       329 -11.1656    121.1584     89.8959   3.1947778677e+01   4.0830741847e+01    0.2142314    0.1602865 -84.19  0.001195458    1.348    0.258
       330 -10.6040     28.5019     90.5074   6.2842250950e+01   5.6398428923e+01    0.1395845    0.1319295   3.32 0.0008103399    1.039    0.037
       331 -12.7424      3.2638     88.5328   7.4637347994e+01   5.9251478321e+01     0.414566    0.2581959 -77.99   0.00204159    1.773    0.436
       332 -11.5785    154.5125     89.5193   2.5519673327e+01   3.4751569496e+01    0.1267965    0.1038011 -76.42  -5.2201e-06    1.002    0.002
       333 -11.3643    125.1198     87.3473   3.0539581622e+01   4.0563135210e+01    0.2531317     0.213957 -22.14   0.00146054    1.810    0.447
       334 -12.4176     54.6333     85.5010   5.0616149799e+01   5.3867480988e+01    0.4820191    0.4021859  14.17   0.00250671    1.348    0.258
       335 -11.4200     55.2251     78.9039   4.8730380304e+01   5.5180444923e+01    0.4012057    0.2227742  20.99  0.001530148    2.561    0.609
       336 -11.7355    134.6437     84.1425   2.7939508133e+01   3.9353579562e+01    0.2104214    0.1815038  84.35   0.00035119    1.085    0.079
       337 -11.8210     95.3670     83.0782   3.6670894851e+01   4.7072578305e+01    0.3229018    0.2466675 -35.68  0.001479779    1.694    0.410
       338 -11.7334     79.3328     82.9588   4.1327307203e+01   5.0112332527e+01    0.1894258    0.1707649 -72.87 0.0004288444    1.135    0.119
       339 -11.3392     10.1851     81.7215   6.9914592869e+01   6.0350126306e+01    0.2407601    0.1881658 -72.77  0.001045723    1.403    0.287
       340 -11.7884      9.0578     77.4250   6.9655530260e+01   6.1446400414e+01    0.3047924    0.2002576 -69.48  0.001080505    1.660    0.398
       341 -11.9843    215.5986     81.2127   1.6212871860e+01   2.6213281707e+01    0.2097692    0.1353751 -69.74 0.0005266746    1.249    0.199
       342 -11.9971     66.3194     81.4268   4.5272985842e+01   5.2768112973e+01    0.2462993    0.1286553 -55.95  0.001095097    2.055    0.513
       343 -12.1880     88.4611     79.4487   3.7710796834e+01   4.9095624314e+01    0.2961619    0.2391451 -39.23  0.001100522    1.507    0.336
       344  -9.9910     28.9728     81.3027   6.0591309517e+01   5.8475107711e+01    0.2376688   0.06680114  43.77 0.0007034434    4.161    0.760
       345 -12.4274    112.0527     78.2375   3.1349562911e+01   4.4760848101e+01    0.4275862    0.2495313  81.11   0.00154524    2.423    0.587
       346 -12.2054    102.4071     77.1397   3.3400836550e+01   4.6842287505e+01    0.2265622    0.1922471  62.10 0.0003586446    1.127    0.112
       347 -11.8902     86.5239     73.4917   3.6766909636e+01   5.0600525883e+01    0.2658386    0.1833315 -67.98  0.001014105    1.604    0.376
       348 -10.6056    150.5887     75.4794   2.3336404539e+01   3.7883402383e+01      0.12423    0.1005033 -77.51 0.0001246857    1.017    0.016
       349 -11.4152     76.2297     70.1603   3.9016195096e+01   5.3183592947e+01    0.1855703    0.1447725  72.91 0.0004015956    1.317    0.241
       350 -12.3485     46.9464     62.8113   4.7716475883e+01   5.9761673496e+01    0.5015661    0.3234401 -76.53  0.002244181    2.279    0.561
       351 -14.0104     55.0443     68.9769   4.6164409656e+01   5.7221181769e+01    0.5613042    0.3541436  46.88 0.0008495729    1.458    0.314
       352 -12.9737     61.0146     68.1464   4.3675623108e+01   5.6347611056e+01    0.4599073    0.3197534 -87.73  0.001535274    2.007    0.502
       353 -11.6772      2.9267     71.4582   7.1771601760e+01   6.3295335380e+01    0.3109757    0.1965356 -71.64  0.001177472    1.758    0.431
       354 -11.5959    154.4044     68.4540   2.1313431670e+01   3.8327983219e+01    0.2032515    0.1628841 -75.70 0.0001671489    1.040    0.039
       355 -11.5760     71.9289     68.5730   3.9983913860e+01   5.4285267527e+01    0.3766133    0.2252175  22.56  0.001538304    3.053    0.672
       356 -10.8179    120.9881     68.0317   2.7040266773e+01   4.4801759070e+01    0.1575162    0.1298592 -72.50 0.0006100329    1.125    0.111
       357 -11.5316      8.0936     66.8518   6.7950193108e+01   6.3904419104e+01    0.2030101    0.1687435  40.52 0.0008698253    1.270    0.213
       358 -11.6132     38.9927     65.1395   5.1844968829e+01   6.0549569123e+01    0.1932826    0.1747075  35.40 0.0003966679    1.008    0.008
       359 -10.7159    164.5775     64.4463   1.9076749941e+01   3.7100347605e+01    0.1185699   0.09222882 -76.18 5.206468e-05    1.012    0.012
       360 -10.5929    193.3313     63.7452   1.5545056542e+01   3.2258929764e+01    0.1118768   0.06574562 -76.18 0.0001983103    1.560    0.359
       361 -11.4552     13.4450     59.9842   6.3339966420e+01   6.4857662269e+01    0.2689401    0.1860611  45.55  0.001484649    1.564    0.361
       362 -11.0619    136.4690     61.5056   2.2689418132e+01   4.2834498971e+01     0.125381    0.1014017 -85.19 0.0002268766    1.005    0.005
       363 -10.8999    123.9087     61.5041   2.4947688842e+01   4.5299856761e+01    0.1793582    0.1116105  62.79 0.0003498098    1.485    0.327
       364 -13.1723     37.2323     55.4095   4.9845809295e+01   6.2691557290e+01    0.5585414    0.3491407 -48.49  0.002987284    1.785    0.440
       365 -11.4484    179.7793     56.1143   1.5631915337e+01   3.5654550870e+01    0.1688434     0.114943 -72.35 0.0003474057    1.151    0.131
       366 -11.4205    160.3032     56.6765   1.8101795573e+01   3.9055897854e+01    0.1238204   0.07299902 -75.41 0.0005524321    1.637    0.389
       367 -12.1826    110.9620     55.9751   2.6221378810e+01   4.8769236755e+01    0.3314062    0.1936083  88.34  0.001593413    2.231    0.552
       368 -12.8997    107.3351     51.1034   2.5767971956e+01   5.0258543600e+01    0.4812279    0.1887824  58.08  0.001686759    2.295    0.564
       369 -11.5254    115.9530     54.0333   2.4718367988e+01   4.8066679963e+01    0.1932319    0.1444373 -87.00 0.0003528158    1.234    0.190
       370 -11.9351    114.1758     50.8135   2.4280589206e+01   4.8916777582e+01     0.197033    0.1686152  73.85  0.001008108    1.148    0.129
       371 -12.2891    153.3722     56.9932   1.9111785303e+01   4.0297825947e+01    0.2131973    0.1700989 -81.35 0.0003575159    1.039    0.037
       372 -12.5087     22.9738     55.0018   5.6808821061e+01   6.4764002572e+01    0.2633623    0.2064731  12.33  0.001210748    1.233    0.189
       373 -10.7051    126.2906     54.2974   2.2827100947e+01   4.5955870553e+01    0.1070493   0.09675352  45.20 0.0001761169    1.558    0.358
       374 -12.0922    172.6914     49.4458   1.5168985052e+01   3.7852583918e+01    0.3019913    0.1591776 -80.44 0.0004704207    1.997    0.499
       375 -11.6081    150.9895     50.9628   1.8187633798e+01   4.1638023739e+01    0.1793178    0.1395397 -79.87 0.0003352083    1.017    0.017
       376 -11.2408    131.5277     51.4704   2.1265414981e+01   4.5342049982e+01    0.2108259   0.09753221  52.65  0.001029125    2.336    0.572
       377 -13.4515     30.0464     49.9480   5.1650828724e+01   6.4762848585e+01    0.3171376       0.2848  63.25  0.001651392    1.263    0.208
       378 -12.2352     99.3075     49.4800   2.7137053686e+01   5.2135934423e+01    0.2711511    0.2068045 -85.70 0.0008980617    1.283    0.221
       379 -11.6790     18.2103     49.1793   5.7698081475e+01   6.6470297410e+01    0.3473641    0.1731458  19.86  0.001634988    2.022    0.505
       380 -10.8656      2.6832     47.3444   6.6424943604e+01   6.8426047938e+01    0.1764832    0.1038936   7.03 0.0006664738    1.623    0.384
       381 -12.3302    194.3188     44.1794   1.2016601152e+01   3.4842583530e+01    0.1909137    0.1355406 -74.64 0.0003078757    1.033    0.032
       382 -11.5316     49.7676     44.0128   4.0811517955e+01   6.2610086729e+01     0.206447    0.1559504  42.74 0.0003065538    1.156    0.135
       383 -13.5566     34.1768     40.2176   4.6456185435e+01   6.5838390176e+01    0.4599536    0.2691456  44.38  0.001925574    1.519    0.342
       384 -11.4535    167.0938     41.9296   1.4339453951e+01   3.9900514321e+01     0.168482    0.1249711 -77.01 0.0003182444    1.009    0.009
       385 -12.4541    155.1513     41.3784   1.5638632841e+01   4.2195355017e+01    0.2039907     0.153623 -75.96 0.0003540411    1.050    0.047
       386 -10.4831    130.2518     42.3421   1.9367003467e+01   4.6909913456e+01   0.09976026   0.09455344  47.50 0.0003827983    1.576    0.366
       387 -12.2139    120.5166     39.1807   2.0232758800e+01   4.9305520184e+01    0.2582566    0.1877222  77.25 0.0004480577    1.151    0.131
       388 -11.7413     80.0195     36.9900   2.8461790717e+01   5.7880171379e+01    0.2995148    0.1782129 -48.34  0.001146736    1.898    0.473
       389 -12.4877     23.0600     37.3440   5.1213036297e+01   6.7964636750e+01    0.2600522     0.129708  44.72  0.001181638    1.970    0.492
       390 -12.3562      9.1139     36.7957   5.9270809129e+01   6.9788905767e+01    0.2666349    0.1577802  34.48 0.0007728846    1.530    0.346
       391 -12.1058     88.8249     36.1574   2.5947097396e+01   5.6206563176e+01    0.1774537    0.1526319  86.37  0.000673086    1.090    0.083
       392 -11.5180     42.0449     33.9383   4.0656665642e+01   6.5536167072e+01    0.1877354    0.1587728  37.87 0.0004521961    1.078    0.072
       393 -11.2111     14.5038     33.4508   5.4811842350e+01   6.9746199158e+01    0.1226026      0.10238  18.30 2.522948e-05    1.025    0.024
       394 -12.4107     23.8060     42.1940   5.2431392362e+01   6.7026557262e+01    0.1732339    0.1382377   2.41 0.0006754727    1.334    0.251
       395 -12.7299     30.4550     31.6224   4.5280812007e+01   6.7798423717e+01    0.2666532    0.1916748  47.01  0.001417676    1.282    0.220
       396 -12.0502     82.0162     28.7528   2.5446763807e+01   5.8585322566e+01    0.1759331    0.1321698  65.92 0.0003535269    1.095    0.087
       397 -12.1111     75.8392     29.0599   2.7172401840e+01   5.9800467102e+01    0.1890979    0.1458675  84.91 0.0005944996    1.292    0.226
       398 -12.4800     44.9075     26.4770   3.6758737779e+01   6.6110997561e+01    0.2574421    0.1865409  74.61  0.001269084    1.729    0.422
       399 -11.0423      1.4712     25.9856   6.0762957314e+01   7.2455333756e+01    0.1565004    0.1153142 -50.70  0.001021341    1.560    0.359
       400 -10.8450    124.7135     25.3487   1.6180106407e+01   5.0243057659e+01      0.12187   0.07218602 -75.18 0.0007021658    1.657    0.396
       401 -12.4482     84.9170     24.3531   2.3400440621e+01   5.8544973948e+01    0.2190876    0.1696769 -89.27 0.0006101602    1.238    0.192
       402 -12.3257     74.3092     24.6915   2.6205798914e+01   6.0668680840e+01    0.2599393    0.1685214  60.44 0.0008380021    1.265    0.210
       403 -10.8325     66.4953     23.4764   2.8049165882e+01   6.2389831013e+01    0.1227572   0.09860711  69.64 -5.163603e-05    1.089    0.082
       404 -11.2144     70.4960     20.9224   2.6033386021e+01   6.1902158188e+01    0.1542229    0.1190485 -45.93 0.0008885835    1.552    0.355
       405 -11.8466    138.7141     19.4170   1.2903562196e+01   4.8149146300e+01    0.1906096    0.1499578  88.31  0.000416144    1.124    0.110
       406 -10.8741     93.0000     19.0496   2.0039850565e+01   5.7507697834e+01    0.1671593   0.06667601 -38.18 0.0008057581    2.966    0.663
       407 -11.8697    123.9389     16.0545   1.4022486637e+01   5.1486881193e+01    0.1705347    0.1292826 -88.83 0.0003510336    1.013    0.013
       408 -11.8480    101.9638     15.5016   1.7317526540e+01   5.6053161190e+01    0.1824023     0.155144 -72.22 -0.0002616886    1.233    0.189
       409 -11.1581    237.0381    249.3092   3.7481110211e+01  -3.3240102771e+00    0.1356486   0.09732194 -29.57   0.00040601    1.068    0.063
       410 -11.4389    190.2044    249.0480   4.4713501766e+01  -2.4330441145e-01    0.1595946    0.1106713 -30.79  0.001124764    1.121    0.108
       411 -12.1226     69.5793    247.9796   7.0766420074e+01   1.0535668394e+01    0.3868335    0.2705032  60.36  0.001223849    1.695    0.410
       412 -10.8202    118.6793     11.6735   1.3662658401e+01   5.3035558220e+01    0.1053669   0.07822083  52.81 0.0004169414    1.684    0.406
       413 -11.3618    178.0594    247.3299   4.6640482230e+01   9.5815901275e-01    0.1542753     0.122477 -14.25 0.0003687171    1.112    0.101
       414 -11.7122     99.3584    246.8868   6.3246921931e+01   7.9464432275e+00    0.2387036    0.1763564   3.64 0.0004689563    1.294    0.227
       415 -10.5695     86.3738    246.7906   6.6412142725e+01   9.2073052257e+00    0.1786453    0.1134826 -48.00 0.0003788145    1.586    0.369
       416 -11.1609     64.3997    246.7710   7.1986162714e+01   1.1298981421e+01    0.2211645    0.1342823 -71.84 0.0008439125    1.854    0.461
       417 -11.2294    163.3016    246.4136   4.9283133176e+01   2.2957646939e+00    0.1510094    0.1022506  27.36 0.0009472811    1.624    0.384
