#   1 NUMBER                 Running object number                                     
#   2 MAG_AUTO               Kron-like elliptical aperture magnitude                    [mag]
#   3 X_IMAGE                Object position along x                                    [pixel]
#   4 Y_IMAGE                Object position along y                                    [pixel]
#   5 X_WORLD                Barycenter position along world x axis                     [deg]
#   6 Y_WORLD                Barycenter position along world y axis                     [deg]
#   7 A_WORLD                Profile RMS along major axis (world units)                 [deg]
#   8 B_WORLD                Profile RMS along minor axis (world units)                 [deg]
#   9 THETA_WORLD            Position angle (CCW/world-x)                               [deg]
#  10 FWHM_WORLD             FWHM assuming a gaussian core                              [deg]
#  11 ELONGATION             A_IMAGE/B_IMAGE                                           
#  12 ELLIPTICITY            1 - B_IMAGE/A_IMAGE                                       
         1 -12.7595    123.4568     33.6560   2.4200740515e+00   4.9852411375e+01     1.448654     0.865666 -51.50  0.006984731    1.696    0.410
         2 -12.2332    126.7168     59.9678   1.0526894724e+01   4.5091455819e+01      1.23399    0.8476745 -42.02  0.006079188    1.432    0.302
         3 -10.7188    124.2594      2.1509   3.5123771420e+02   5.3073080491e+01    0.2895003    0.2648201 -69.33  0.001910234    1.115    0.103
         4 -10.3699    115.6813      2.6409   3.5245681876e+02   5.5148517988e+01    0.5622731    0.2348083  81.48  0.001339619    2.322    0.569
         5 -13.8094    199.7712    169.0862   2.2441045262e+01   1.1198776743e+01     1.813072     1.007364 -51.98  0.009133401    2.196    0.545
         6 -10.4463    247.6487    246.0129   2.7073533699e+01  -4.4943343026e+00    0.4258555    0.2027986   4.51  0.002759709    2.120    0.528
         7 -18.1258    136.0560    206.3254   4.1587826523e+01   1.3164079390e+01     4.772685     3.984211  13.67    0.0117966    1.071    0.067
         8 -10.4897    230.9429    168.2810   1.7361359779e+01   7.3469612246e+00    0.4090337    0.2254702 -46.87    0.0016168    1.913    0.477
         9 -10.6333     72.6205    165.7160   5.2026741264e+01   3.1021380443e+01    0.9328163    0.3423994 -68.10 0.0006060653    3.149    0.682
        10  -8.9511    164.8528    249.9790   4.1587028842e+01   2.5521332573e+00    0.1644002    0.1248318  -0.80 0.0002858084    1.062    0.058
        11  -8.6140     20.1688    165.7803   6.8298116029e+01   3.6879756975e+01    0.1860158    0.1587532 -44.42 0.0004458011    1.327    0.246
        12  -9.0540    222.1540    161.2406   1.7399009399e+01   9.5011410129e+00    0.2664332    0.1651849 -47.71  0.000769303    1.695    0.410
        13  -9.9279    240.8436    220.8633   2.4458015551e+01  -9.2139418153e-01    0.3012013    0.1132519 -31.96  0.001253432    2.140    0.533
        14  -8.3003    236.8519    158.8382   1.4849600275e+01   8.0281152894e+00    0.1789595    0.1243379 -21.93 0.0006272509    1.230    0.187
        15  -9.3743     68.1666    160.1061   5.2555343420e+01   3.3062988223e+01     0.343617    0.2595232 -41.04  0.001691489    1.455    0.313
        16  -8.7137      1.8427    155.8882   7.3456949138e+01   4.0864225616e+01    0.2066297    0.1774564 -59.15 0.0006934972    1.247    0.198
        17 -10.3906     71.9042    209.1142   5.7590504360e+01   2.0783240672e+01    0.4085122    0.2881411 -61.48   0.00142549    1.558    0.358
        18  -8.4412     59.8836    220.3043   6.1698492939e+01   1.9725247816e+01    0.2062743    0.1653725  70.05 0.0004549733    1.318    0.241
        19  -9.4752    181.4877    148.5710   2.1770603736e+01   1.7462148459e+01      0.27131    0.1994468 -42.05  0.001225656    1.240    0.194
        20  -9.7389     65.5077    209.8906   5.9318727793e+01   2.1358590485e+01    0.2616235    0.2218442  -4.30  0.001026057    1.325    0.246
        21  -9.4227    100.8807    146.1160   4.0265010233e+01   3.1634006842e+01    0.4159123    0.2447145  45.77 0.0007645636    1.767    0.434
        22  -8.0170     89.9357    250.5008   5.7295282616e+01   1.0550795467e+01    0.1713316   0.09555998  29.72 0.0004748882    1.423    0.297
        23 -11.4372      4.8075    217.2466   7.5225591715e+01   2.5609990450e+01    0.6692664    0.4771104  30.32  0.004168302    1.277    0.217
        24 -10.7578    121.1447    139.3365   3.3260565410e+01   2.9729749340e+01    0.4846451    0.3452672  55.40 0.0008793387    1.620    0.383
        25  -9.6928    189.2572    139.0126   1.8421245678e+01   1.7943300415e+01    0.3826744    0.2619285  32.39  0.001916725    1.685    0.407
        26 -11.0902    182.6897    134.8454   1.8717563216e+01   1.9771110929e+01    0.5680242    0.3848311  62.56  0.002036349    2.120    0.528
        27  -8.5546     83.5209    131.9078   4.2692740654e+01   3.8085540953e+01    0.3768587    0.2253584 -70.69  0.001518549    1.970    0.492
        28 -10.1866    106.1414    131.0036   3.5576841104e+01   3.4390551050e+01    0.4338844    0.3901137 -60.10  0.001843719    1.114    0.102
        29  -8.4755    201.1015    122.0124   1.2920711805e+01   1.8959401350e+01    0.2086807    0.1804124 -72.14 0.0007205019    1.390    0.281
        30  -7.7983     84.1408    122.1347   4.0384884820e+01   4.0485749014e+01    0.2069524    0.1785336  72.95 0.0002913688    1.259    0.206
        31  -9.2155    119.9845    119.8096   2.9117146393e+01   3.4415055602e+01    0.2386848    0.2016115  77.81  0.001191043    1.379    0.275
        32  -9.7667     82.5366    116.6974   3.9674418358e+01   4.2148307973e+01    0.8962278    0.5294185   3.08  0.002874193    3.648    0.726
        33  -7.5170     39.5967    118.4862   5.5903686353e+01   4.7944177154e+01    0.1497559    0.1407373 -73.62 0.0001294127    1.024    0.023
        34  -8.3691    211.0844    207.4059   2.7058086581e+01   3.8432519165e+00    0.1738623    0.1215765 -27.04  0.000480605    1.193    0.162
        35  -9.2700    121.1385    115.1692   2.7672836584e+01   3.5236393570e+01     0.226231    0.2126378 -13.37 0.0005813168    1.143    0.125
        36 -11.4313      5.9331    208.3767   7.4630331585e+01   2.7512985454e+01    0.5293967    0.4763793  86.04  0.002547557    1.186    0.157
        37 -10.8294     11.4592    206.2051   7.3131032429e+01   2.7571941780e+01    0.5403562    0.3194051  25.39  0.002745001    1.575    0.365
        38  -9.4321     74.0500    193.4964   5.5286614996e+01   2.4060691363e+01    0.3135636    0.2462078 -32.01 0.0006864844    1.471    0.320
        39  -8.6901    205.4992    110.0605   9.7209489174e+00   2.0212536151e+01    0.2108552    0.1811886  15.60 0.0007496191    1.444    0.307
        40  -8.8852     46.0042    107.6030   5.1298097702e+01   5.0156641952e+01    0.2763107    0.2190213 -66.32 0.0003552313    1.224    0.183
        41  -9.6107    245.0354    187.4757   1.8615565377e+01   3.0556151609e+00    0.2267648    0.1274674 -32.99 0.0009063116    1.364    0.267
        42  -8.1133    212.1302    242.1681   3.2059471891e+01  -1.0143579407e+00    0.1610355    0.1041695 -11.29 0.0004788666    1.221    0.181
        43  -8.3835     98.9635    102.0180   3.0627048009e+01   4.2673446701e+01    0.2214711    0.2177193 -82.24  0.001187514    1.010    0.009
        44  -8.1056     13.0186    183.1043   7.1564937557e+01   3.3011082716e+01     0.187038    0.1759663 -33.26 0.0004767535    1.266    0.210
        45  -8.4957    140.3062     92.9990   1.7214649537e+01   3.5939125932e+01    0.2237172     0.205166  66.91 0.0004006237    1.132    0.117
        46  -7.4925     70.3506     92.2497   3.7818302446e+01   5.0441576750e+01    0.1523218    0.1211267  -6.21 0.0005312625    1.590    0.371
        47 -12.2771      4.7951    244.3691   7.6058274206e+01   1.9960610620e+01     1.560579    0.8370322 -83.57  0.009242564    2.021    0.505
        48 -11.0820     11.4765    239.8270   7.4429604440e+01   2.0315529175e+01    0.4333608    0.2896552  33.75  0.002529314    1.226    0.185
        49  -8.8757    127.5623     85.2139   1.7990437268e+01   4.0249670895e+01    0.2558337    0.2229506 -63.74 0.0008103634    1.130    0.115
        50 -10.7250    121.3052     71.8241   1.5508092800e+01   4.4238823483e+01    0.4760605    0.4138674 -52.33  0.001132481    1.120    0.107
        51  -8.0680    183.9847     71.8148   3.9458284470e+00   3.0411299625e+01    0.1789154    0.1639103 -32.62 0.0002742656    1.210    0.173
        52  -8.0827     65.9057    178.8955   5.5790283644e+01   2.8595404290e+01    0.2038367    0.1829757 -28.73 0.0002902313    1.241    0.194
        53  -7.6600     34.8761     69.3640   4.7051177556e+01   6.1573068483e+01    0.1991984    0.1353668   7.55 0.0004845064    1.704    0.413
        54 -10.8275    126.1309     49.7559   7.3428346869e+00   4.6886610132e+01    0.5111873    0.4528009 -53.34 0.0005751334    1.110    0.099
        55  -8.0312     13.4820     59.5589   5.6411668081e+01   6.6215806498e+01    0.1391686    0.1237784 -36.45 6.324731e-05    1.041    0.039
        56  -7.7497    165.4780     56.9656   2.7157207169e+00   3.6635727623e+01    0.1940212    0.1225125 -40.43 1.312113e-05    1.452    0.312
        57  -8.2102    249.7864     53.8438   3.5337312563e+02   2.0963264041e+01    0.1571982     0.122088 -39.28 0.0005092526    1.200    0.167
        58  -7.2160     72.2710     44.6755   2.0492644303e+01   6.0312447432e+01    0.1403877    0.1126736 -80.00 0.0001950253    1.575    0.365
        59  -8.8208    159.9563    248.6408   4.2365561228e+01   3.2549829286e+00    0.3005674    0.1548958   7.47  0.000614558    2.082    0.520
        60  -8.1078     94.9338     36.0749   9.6622959716e+00   5.6479948109e+01    0.2034233    0.1973821  80.27 0.0003914779    1.051    0.049
        61  -8.7924     79.0575     34.0525   1.3510929120e+01   6.0523851037e+01    0.2056214    0.1947989  66.78 0.0002921236    1.030    0.029
        62  -8.6098    210.1601     31.1401   3.5148728070e+02   3.0731940922e+01    0.1636378     0.144549 -50.76 0.0004191779    1.210    0.174
        63  -8.9494     95.1916     19.8645   2.9093044392e+00   5.8530760443e+01    0.2264212     0.184483  60.35 0.0003461898    1.136    0.120
        64  -7.6152    208.5468     13.5835   3.4761413712e+02   3.3020307980e+01    0.1157523   0.09004227 -60.27 7.775419e-05    1.034    0.033
        65 -10.4039    117.5607    246.9518   5.0889793242e+01   8.1240587826e+00    0.2424679    0.2082004   6.65 0.0004178343    1.089    0.081
