#   1 NUMBER                 Running object number                                     
#   2 MAG_AUTO               Kron-like elliptical aperture magnitude                    [mag]
#   3 X_IMAGE                Object position along x                                    [pixel]
#   4 Y_IMAGE                Object position along y                                    [pixel]
#   5 X_WORLD                Barycenter position along world x axis                     [deg]
#   6 Y_WORLD                Barycenter position along world y axis                     [deg]
#   7 A_WORLD                Profile RMS along major axis (world units)                 [deg]
#   8 B_WORLD                Profile RMS along minor axis (world units)                 [deg]
#   9 THETA_WORLD            Position angle (CCW/world-x)                               [deg]
#  10 FWHM_WORLD             FWHM assuming a gaussian core                              [deg]
#  11 ELONGATION             A_IMAGE/B_IMAGE                                           
#  12 ELLIPTICITY            1 - B_IMAGE/A_IMAGE                                       
         1 -13.2099      4.4263     66.4617   8.6360418205e+01   6.0912952375e+01     1.537711    0.5278903 -69.26  0.006123529    2.671    0.626
         2 -13.3888     26.2050     38.1506   7.0371958509e+01   6.5073564020e+01    0.6575389    0.4670379 -21.40  0.001548271    1.267    0.211
         3 -10.9789     71.5493     28.8596   4.8704805764e+01   6.0802947493e+01    0.5878654    0.2115522 -35.38  0.001927639    2.673    0.626
         4 -11.5430      3.4206     16.3512   7.3132334685e+01   7.0579855154e+01    0.3093061    0.2633332  84.17  0.002164095    2.142    0.533
         5 -11.6378      2.3631     24.4970   7.6508742386e+01   6.9231136123e+01     0.417888    0.1808249 -42.56  0.002455816    1.658    0.397
         6 -11.8099     31.6698     13.5065   5.8255825188e+01   6.8612740141e+01    0.3424359    0.3166897  -4.43 0.0006173114    1.435    0.303
         7 -11.4497     60.0908     14.1952   4.6607120816e+01   6.4673561609e+01    0.4659212    0.3276383  14.85  0.002105429    1.300    0.231
         8 -12.3265    132.8380     19.0152   2.7675971972e+01   4.9039269238e+01    0.3531616    0.2455094  40.15 0.0003908904    1.354    0.262
         9 -10.6246     74.4547      2.5940   3.6232587765e+01   6.3479190142e+01    0.4293364    0.2409348 -28.09  0.002337761    1.854    0.461
        10 -11.2452     77.3079     10.0585   3.8676070234e+01   6.2176271390e+01    0.6431429    0.2193094  44.96  0.002381789    2.573    0.611
        11 -11.4421     76.3969     15.4364   4.1339808405e+01   6.1730407610e+01    0.2397396    0.2252303  25.75  0.001595267    1.272    0.214
        12 -11.1690     71.2827     14.5732   4.2704660746e+01   6.2752430226e+01    0.4617513    0.3313261 -48.27   0.00247848    2.022    0.505
        13 -12.2880    238.1132     17.6194   1.2426670524e+01   2.2540927759e+01    0.2718249    0.2211289 -54.91  0.000274421    1.132    0.116
        14 -11.5778    233.1221     15.3106   1.2358350568e+01   2.3989007534e+01    0.3224635    0.2120763 -49.57    0.0017737    1.399    0.285
        15 -10.2007     16.9993      3.3053   6.0613948314e+01   7.1565851922e+01     0.322714    0.1754374 -25.87  0.002033534    1.500    0.333
        16 -10.8187     19.0668     15.8684   6.5238414247e+01   6.9504719213e+01    0.3304605    0.2125723 -12.47  0.002179757    1.412    0.292
        17 -10.9651     11.1308     14.5730   6.8592950581e+01   7.0353564481e+01    0.3154539    0.1446801 -24.29  0.001336772    2.181    0.542
        18 -10.3793     15.1550     13.6417   6.6211868235e+01   7.0187167061e+01    0.1928657    0.1325324 -23.19 0.0002770858    1.118    0.105
        19 -11.8681      9.2188      7.8127   6.6708563884e+01   7.1560428704e+01    0.3029715    0.2377125   5.28  0.001430703    1.339    0.253
        20 -11.2752     10.8686      3.0447   6.3676141762e+01   7.2140724230e+01    0.2114319    0.1542908 -21.94 0.0004484984    1.055    0.052
        21 -10.1404     99.6112     13.8300   3.3649691166e+01   5.7280936234e+01    0.2542624    0.1778005 -32.36  0.001311999    1.577    0.366
        22 -10.6481     50.9686     14.9190   5.0525342081e+01   6.5957709472e+01    0.2710612    0.2468551 -37.18  0.001877603    1.537    0.349
        23 -10.9906    155.2612      9.3112   2.0279367122e+01   4.4379053685e+01    0.3132703    0.2575633 -51.14  0.001020616    1.353    0.261
        24 -11.3657    105.9753     12.4445   3.1422400891e+01   5.6035778882e+01    0.3670938    0.2176687  30.88 0.0004463099    1.684    0.406
        25 -10.1640    164.9769     11.6738   1.9504652395e+01   4.1639888378e+01    0.2032261    0.1680533  69.33 0.0005664394    1.077    0.071
        26  -9.8651    138.3367     11.3659   2.3909876715e+01   4.8468880434e+01    0.2697164    0.1401946 -46.93  0.001158048    2.414    0.586
        27 -11.0386    176.1893     11.0620   1.7707614740e+01   3.8791578083e+01    0.3268256     0.186949  66.35 0.0009027026    1.531    0.347
        28 -11.5615    145.5365      8.1181   2.1509033350e+01   4.6970761522e+01    0.5046209    0.3490216 -21.17  0.002667323    1.632    0.387
        29 -10.5288    149.6992      4.4229   1.9599538903e+01   4.6252780464e+01    0.3758795     0.201572 -53.76  0.001643299    2.424    0.587
        30 -11.4352    241.4712      9.0337   1.0194789324e+01   2.2748678677e+01    0.2414179    0.1698345  83.45 0.0004620714    1.296    0.229
        31 -12.4023    231.0818      5.9999   1.0390990646e+01   2.5517126761e+01    0.6430201    0.2540954  85.55  0.000758409    2.899    0.655
        32 -11.8073    213.2974      5.7867   1.1978639853e+01   2.9861027073e+01    0.6542765    0.3364637 -59.30  0.003036797    2.036    0.509
        33 -11.7041    130.2409     11.3753   2.5498530598e+01   5.0466265602e+01    0.4709903    0.3685701 -49.05  0.002611027    1.520    0.342
        34  -9.8286    118.1244      7.8449   2.6763099755e+01   5.3706332067e+01    0.1893413    0.1780723  89.27  0.000462626    1.252    0.201
        35  -9.5917     91.8031      7.1184   3.3019934000e+01   5.9615420750e+01     0.180316    0.1268344  27.61 0.0004308855    1.279    0.218
        36 -10.4264    222.8796      5.4056   1.0980851565e+01   2.7550352400e+01    0.2129551    0.1557178 -51.93  0.001233383    1.292    0.226
        37 -10.4247    171.9479      5.0192   1.6515585660e+01   4.0482234807e+01    0.2188431    0.1483113 -65.43 0.0006240314    1.648    0.393
        38 -10.3520    164.3679      4.7197   1.7472856534e+01   4.2467262394e+01    0.2299275    0.1923237 -71.29 0.0006229216    1.265    0.209
        39  -9.6433     68.5283      5.5320   3.9563409733e+01   6.4260940678e+01    0.1269649    0.1011311  14.20 6.506292e-05    1.024    0.024
        40 -10.0696    201.3913      3.7262   1.2666375580e+01   3.3053295746e+01    0.2311731    0.1364173  54.22  0.000771801    1.690    0.408
        41 -10.7766    179.0190      3.9308   1.5285328277e+01   3.8758286577e+01    0.2065186    0.1792149  77.48 0.0003065459    1.002    0.002
        42 -11.9289     27.4378      3.1754   5.5363604264e+01   7.0513593434e+01    0.2277082    0.2049474 -11.52 0.0009488473    1.467    0.318
        43  -9.5660    136.3564      3.2550   2.1473779078e+01   4.9706643645e+01    0.1459346   0.08490144  42.32  0.000156377    1.611    0.379
        44 -10.8251     36.5848      7.4221   5.3178543677e+01   6.8876362130e+01    0.2957984    0.2089126  42.25   0.00118631    1.936    0.483
        45 -11.3309    237.6530      1.6479   8.8652944552e+00   2.4439221045e+01    0.3433707    0.1533916  77.43  0.001616919    2.076    0.518
        46 -10.6271    168.0568      1.9290   1.6123995529e+01   4.1769691671e+01    0.2032481    0.1749334  72.64 0.0003047787    1.011    0.011
        47  -9.9099     90.9472      2.0788   3.1109043983e+01   6.0264304379e+01    0.1887647    0.1517451  22.80 0.0003135707    1.079    0.073
        48 -10.5659     34.8754      1.5173   5.1043578334e+01   6.9838110383e+01    0.3220093    0.1203894  40.85  0.001551667    3.037    0.671
        49 -10.1278     22.1525      1.7579   5.7249763979e+01   7.1270367877e+01    0.1596795   0.09999373  -8.82 0.0005018951    1.394    0.282
        50 -10.4057    126.0916      3.0437   2.3325551530e+01   5.2236633781e+01    0.2246027    0.1895142   5.69 0.0008741424    1.273    0.214
        51 -10.3052    249.5162    181.4909   4.8282812195e+01  -4.4906064639e+00    0.1333335    0.1090802   3.89 -3.583281e-05    1.046    0.044
        52  -9.9273    109.9992    249.7344   8.5528406526e+01   9.3814543199e+00    0.1758038    0.1242633  51.69  0.001164999    1.080    0.074
        53 -11.7525     89.4907    249.4366   8.9124920685e+01   1.2528612046e+01    0.2987553    0.1872312  46.33  0.001034995    1.316    0.240
        54 -12.7900      7.0809    245.5107   1.0235612622e+02   2.3460253979e+01     0.602503    0.3312963  76.19  0.003375698    1.322    0.243
        55 -11.8524     14.4163    244.7427   1.0120484822e+02   2.2834690348e+01    0.3283805    0.1501987 -80.46  0.001594756    1.941    0.485
        56 -11.2969    244.1940    178.8594   4.8681506986e+01  -3.1933585614e+00    0.2966276    0.1635737 -23.97 0.0008704528    1.850    0.459
        57  -9.4403      1.5166    179.9789   9.9880472655e+01   3.6398300878e+01    0.1457672   0.06542493 -58.95 0.0008077162    2.370    0.578
        58 -10.3517     22.3015    179.6134   9.5765246507e+01   3.4581828741e+01    0.2698028    0.1231619  66.11  0.001397951    2.181    0.542
        59 -11.0663     17.7775    172.4066   9.6102937490e+01   3.6555365821e+01    0.3248971    0.1455217  64.50  0.001679304    2.250    0.556
        60 -11.1399     36.4016    165.9091   9.1513925605e+01   3.6098721744e+01    0.3921002    0.2540366  59.79  0.002148235    1.458    0.314
        61 -10.5048     35.9115    160.9678   9.1099569963e+01   3.7252607643e+01    0.2762807    0.2286273 -12.30 0.0009828714    1.890    0.471
        62  -9.6039     25.6365    169.6842   9.4220945155e+01   3.6385563561e+01    0.1124181    0.0823923 -48.16 3.700861e-05    1.766    0.434
        63 -11.1183      5.6539    167.9144   9.8242323153e+01   3.8581916596e+01    0.1641137    0.1502864  84.79 0.0009820145    1.318    0.241
        64 -11.3038     51.4525    162.0350   8.7661494289e+01   3.5236598550e+01    0.6357528    0.3162637 -79.11  0.002556477    2.030    0.507
        65  -9.8944     67.2734    165.2426   8.4396326490e+01   3.2453060456e+01    0.2095921   0.08570614  47.87 0.0008901132    2.388    0.581
        66 -10.1149      9.9867    162.4570   9.6922675694e+01   3.9390776794e+01    0.1455688    0.1087578  39.56 0.0004665103    1.568    0.362
        67 -11.4799     20.9730    156.8840   9.4043206820e+01   3.9644386742e+01    0.4017677    0.3186993 -18.25  0.002643662    1.998    0.499
        68 -11.0876    247.3856    157.7965   4.3739822465e+01  -6.2061741432e-01    0.1923257    0.1183931 -22.22 0.0005523813    1.616    0.381
        69 -11.1056    235.9197    152.8367   4.4666300191e+01   2.3316949128e+00    0.3216668    0.1885923 -37.80  0.001527462    1.673    0.402
        70  -9.6827    216.4487    154.5221   4.8632555863e+01   5.9581467715e+00    0.1444068    0.1334853   5.33 4.668318e-05    1.009    0.009
        71 -10.5401     10.9732    153.0803   9.5917233416e+01   4.1352309190e+01     0.262371    0.1812021  44.62  0.001577521    1.572    0.364
        72  -9.4024    222.7170    151.3729   4.6749942029e+01   5.2091770520e+00    0.1406977    0.1139866 -66.67  0.000701486    1.706    0.414
        73  -9.5765     21.3547    147.8549   9.3054816144e+01   4.1623357230e+01    0.1677077    0.0858364 -64.38 0.0003895559    1.640    0.390
        74  -9.4247     85.1997    147.0293   7.7210296914e+01   3.3992088942e+01    0.1884426    0.1043551 -59.86  0.000500844    1.722    0.419
        75  -9.9092    216.5265    145.4754   4.6594134372e+01   7.5069641157e+00     0.147777    0.1351719   4.56 0.0001362022    1.039    0.037
        76  -9.6951    187.6778    144.0734   5.2069759892e+01   1.4036313427e+01    0.2047178    0.1925693   0.98 0.0004828302    1.065    0.061
        77 -11.1482    240.0395    140.0564   4.1112300277e+01   3.5893579063e+00     0.218999    0.1968468  -8.29 0.0005101128    1.018    0.018
        78  -9.9678     13.9812    139.9974   9.3981131081e+01   4.4011763637e+01    0.1430307    0.1141409 -85.18 0.0003781299    1.030    0.029
        79 -11.5089      9.1275    137.7324   9.4907790260e+01   4.4895003092e+01    0.3454566    0.1281554 -70.75  0.001710766    2.053    0.513
        80 -10.5735      2.9462    134.6806   9.6081826879e+01   4.6016863126e+01    0.1590143    0.1274898 -87.85 0.0005630182    1.072    0.067
        81 -10.2438    236.6698    137.6762   4.1156872756e+01   4.6555871906e+00    0.1485755    0.1060191   7.61 0.0003149025    1.700    0.412
        82 -11.8687    241.4315    134.1970   3.9553788977e+01   4.2647835875e+00    0.2783066    0.2376331 -18.92  0.000494376    1.086    0.079
        83 -10.4767     21.6583    134.8277   9.1545716554e+01   4.4540367704e+01    0.3102477    0.1690547  56.59  0.001699649    2.002    0.501
        84 -11.2301     54.2110    132.4502   8.2814947747e+01   4.1735493248e+01    0.3451217    0.2013847  32.87  0.001111371    1.946    0.486
        85 -11.6375     36.5355    131.0188   8.7259945495e+01   4.4028084711e+01    0.4305027    0.2190858 -58.74  0.001224327    1.682    0.405
        86 -11.1617     73.4585    128.9174   7.7013503925e+01   4.0009371096e+01    0.2958837    0.2720999  86.29  0.001175245    1.063    0.059
        87 -10.1048     56.7041    126.6368   8.1177321993e+01   4.2793184750e+01    0.2107611    0.1317567  26.68 0.0002304905    1.957    0.489
        88 -10.0700     22.2344    125.9437   9.0314016760e+01   4.6515780506e+01    0.1706419    0.1285863 -75.29 0.0003506721    1.067    0.063
        89 -11.1742     10.7154    122.2958   9.2861520352e+01   4.8238423341e+01    0.3078621    0.2054787  89.20  0.001275216    1.354    0.262
        90  -9.8629     17.3392    125.6937   9.1553086362e+01   4.6971915264e+01    0.1675182   0.09082115 -63.45 0.0009421316    1.484    0.326
        91 -10.6163     14.4816    125.4873   9.2264096268e+01   4.7240411610e+01    0.1919637    0.1772843  42.69  0.001427423    1.346    0.257
        92  -9.2413    219.3486    124.3067   4.1129794541e+01   1.0610641800e+01    0.1551293    0.1138416  12.87 0.0007042827    1.703    0.413
        93 -11.4083    243.7982    122.1590   3.6409939670e+01   5.7485880398e+00    0.2135908    0.1857754 -45.34 0.0006708499    1.183    0.155
        94 -10.8585     19.9930    121.0618   9.0274917142e+01   4.7813902474e+01    0.3009274    0.1344904 -62.90  0.001549695    1.749    0.428
        95 -10.1294      4.9224    122.5170   9.4371841741e+01   4.8587203344e+01     0.133115    0.1174651  26.52 0.0003338483    1.482    0.325
        96  -9.3246    220.3635    121.2985   4.0224141069e+01   1.0913290253e+01    0.1554392    0.1135214  14.72 0.0003695741    1.720    0.419
        97  -9.9357     71.0560    121.0005   7.6150097880e+01   4.2213173323e+01    0.1629241    0.1544756 -83.76 0.0005549819    1.061    0.058
        98 -10.6018     56.1159    119.4091   8.0061167308e+01   4.4559984212e+01    0.2791254    0.1814692 -71.27  0.001459108    1.460    0.315
        99 -11.5588     52.1888    114.9599   8.0364503896e+01   4.6070093059e+01    0.6197332    0.2319947 -68.32  0.002316125    2.941    0.660
       100 -11.4622     54.8960    109.5332   7.8539983630e+01   4.7011860037e+01    0.5346987    0.3265687 -77.63  0.002417093    1.864    0.464
       101 -10.3672     55.8794    105.1761   7.7366575176e+01   4.7901819503e+01    0.2726447    0.1850905  -0.86  0.001354239    2.203    0.546
       102 -10.9443     24.3552    118.4576   8.8748583434e+01   4.8049514227e+01    0.3172237    0.2043808 -80.68   0.00106812    1.389    0.280
       103 -11.2527     31.1040    116.9488   8.6671651950e+01   4.7802647760e+01    0.3190743    0.1804885  -2.34  0.001473147    3.313    0.698
       104 -11.2077    249.4561    117.7792   3.4504047295e+01   5.3033362548e+00    0.2442646    0.1969513 -40.12 0.0007965095    1.178    0.151
       105  -9.4858     45.0220    118.2303   8.2982449215e+01   4.6115245681e+01    0.1420043    0.1098916  31.60 0.0002468402    1.511    0.338
       106 -10.0129     72.1005    116.0491   7.4849322138e+01   4.3223403915e+01    0.2954236    0.1918382 -78.26  0.001393755    1.831    0.454
       107 -12.2960     22.1284    107.9384   8.7840068863e+01   5.0634150818e+01    0.7561698    0.3962925 -30.42  0.003685317    2.774    0.640
       108 -11.1833     15.9491    115.1906   9.0593176675e+01   4.9461826116e+01    0.2153339    0.1912049 -79.53 0.0004545573    1.127    0.113
       109 -11.8671     14.5747    110.1616   9.0296902469e+01   5.0700480842e+01    0.4075949    0.2824593 -79.88  0.002254179    1.237    0.192
       110 -11.0697    182.5709    114.3409   4.5921573688e+01   2.0988402889e+01    0.3853796    0.2673257  34.18 0.0006383507    1.586    0.369
       111 -10.6695      1.4013    118.6099   9.4852371401e+01   4.9681689621e+01    0.2112267   0.08657144 -73.00 0.0002841907    1.852    0.460
       112 -11.9453    248.9424    112.1122   3.3279852259e+01   6.3193366213e+00    0.4394016    0.2950609  39.20  0.001378783    1.660    0.398
       113 -10.2466      1.2224    108.8084   9.3799973279e+01   5.1868312214e+01    0.2550428    0.1237994 -69.27   0.00145434    1.536    0.349
       114 -10.6250      2.6267    104.8125   9.2929743886e+01   5.2673276630e+01    0.3893149    0.1781031 -88.16  0.001923625    2.366    0.577
       115  -9.4249     41.5256    108.4845   8.2286133613e+01   4.8745876206e+01    0.1296278    0.1099743 -67.51 -2.063943e-05    1.019    0.019
       116 -10.4379     31.1220    106.2135   8.4951602011e+01   5.0268633699e+01    0.2560899     0.155814 -39.09  0.001396246    1.808    0.447
       117 -10.0655    111.8063    105.8016   6.1099547001e+01   3.8785900878e+01    0.2384632    0.1812586  41.42            0    1.347    0.258
       118 -10.3024     94.2027    111.9947   6.7609685940e+01   4.0659363834e+01     0.291976     0.247514  67.33  0.001550429    1.300    0.231
       119 -10.1593     34.3174     97.3540   8.2407699910e+01   5.1999082743e+01    0.2600992    0.1520471 -32.81  0.001203643    2.056    0.514
       120 -11.4940     62.2684     99.3058   7.4145206084e+01   4.8444371302e+01    0.5045445    0.3339389 -31.03  0.002488195    1.779    0.438
       121  -9.0690     47.7227    100.3085   7.8850183873e+01   4.9967257432e+01    0.1261521   0.09602965  84.37 0.0002445858    1.555    0.357
       122  -9.6493    144.4376     99.2722   5.0687190608e+01   3.3111829795e+01    0.2189039    0.1501746 -52.87 0.0009375682    1.577    0.366
       123 -10.7522     21.4154     98.5113   8.6558660241e+01   5.2825819930e+01    0.2333729    0.1687589 -57.96  0.000595771    1.137    0.120
       124  -9.7775      9.7220     99.0444   9.0124098097e+01   5.3525353291e+01    0.1630245    0.1180016 -70.92 0.0003600944    1.097    0.089
       125 -10.6934     41.2526     97.0156   8.0187422631e+01   5.1403983255e+01    0.2092543    0.1855621  80.41  0.001351721    1.253    0.202
       126 -10.7781     37.3842    101.8421   8.2308609115e+01   5.0686239500e+01    0.4412704    0.2561994  66.60  0.002102535    2.546    0.607
       127  -9.6558     57.7536     96.3764   7.4885946418e+01   4.9687540781e+01    0.1690688    0.1300418  12.13 0.0008314585    1.589    0.371
       128 -10.6624    103.3584     95.2622   6.0691958968e+01   4.2744400485e+01    0.3407379    0.2157665  35.20  0.001525305    1.698    0.411
       129  -9.5618     92.7163     95.2972   6.3843411267e+01   4.4684424982e+01     0.140754    0.1150924  89.59            0    1.545    0.353
       130 -10.6794    227.4277     92.9748   3.2083727177e+01   1.4169560694e+01    0.2584853    0.2190436  61.15 0.0003593603    1.245    0.197
       131 -10.9954     38.4588     88.5189   7.9318106034e+01   5.3597794254e+01    0.5032879    0.1445018 -54.25  0.001993438    2.624    0.619
       132  -9.7076      1.5021     92.5328   9.1632045132e+01   5.5447058061e+01    0.1166804   0.08866814 -66.51 0.0008097523    1.010    0.009
       133 -10.0047     56.4188     90.7744   7.4013093044e+01   5.1116765812e+01    0.1917254    0.1085689 -47.40 0.0004604322    1.564    0.361
       134  -9.6920     10.6894     90.8622   8.8591024661e+01   5.5282050050e+01    0.1615783     0.123334 -66.77 0.0005380547    1.043    0.041
       135 -11.0497    159.6461     90.0909   4.4448421278e+01   3.1291517995e+01    0.4578769    0.2456955  51.35  0.001779959    1.835    0.455
       136 -10.9390    157.4761     85.9527   4.3762340865e+01   3.2616672526e+01    0.4089255    0.2572515 -60.73  0.001272173    2.126    0.530
       137 -10.8346     83.8777     89.0341   6.4852876484e+01   4.7562004400e+01    0.3296034    0.2815244  53.49  0.001820818    1.317    0.241
       138  -9.4595     97.6488     89.2870   6.0718374453e+01   4.5106160187e+01    0.1463757    0.1175045  81.93 0.0002930197    1.664    0.399
       139 -10.9729     66.2301     85.9382   6.9639614413e+01   5.0910360643e+01    0.5672507    0.2715003 -36.69  0.002331968    2.399    0.583
       140 -10.4354    250.2401     86.9965   2.7245902843e+01   1.0040694360e+01    0.1883558    0.1081548 -35.25 0.0004529872    1.584    0.369
       141 -10.8742     22.2097     86.8369   8.4251303604e+01   5.5376968258e+01    0.2190543    0.1442693 -54.96 0.0007123702    1.217    0.178
       142  -9.9181     54.1012     86.0508   7.3632413496e+01   5.2450481527e+01    0.1902092    0.1528196 -37.09  0.001120917    1.181    0.153
       143 -10.0792     10.1997     86.2971   8.8000611568e+01   5.6318819275e+01    0.2129348    0.1149243  50.36  0.001156427    2.469    0.595
       144 -10.6977    167.5134     83.3874   4.0766758075e+01   3.0596959173e+01    0.6599754    0.3332837  62.82  0.002353027    2.374    0.579
       145 -10.1014    107.1640     84.7473   5.6594026790e+01   4.4241622813e+01     0.206895     0.200272  85.84 0.0003831326    1.132    0.117
       146 -11.2924     30.4916     81.6983   8.0489554197e+01   5.5841067207e+01    0.3018738    0.2208259 -49.28 0.0007993262    1.140    0.123
       147 -10.9297     76.2206     82.2614   6.5410537891e+01   5.0248000257e+01    0.4224632     0.246027  39.47  0.001722198    1.856    0.461
       148  -9.3942     62.4747     82.4761   6.9963630230e+01   5.2176778090e+01    0.1356784    0.1208108 -43.84   1.1892e-05    1.014    0.014
       149 -10.1973     42.5912     82.3075   7.6562055688e+01   5.4560922972e+01    0.1880692    0.1455314  85.68 0.0006952587    1.669    0.401
       150 -10.2707      7.2253     81.2627   8.8107707401e+01   5.7594901458e+01    0.2740943    0.1500115 -38.72  0.001600059    1.814    0.449
       151 -10.4291    112.4887     78.0605   5.3038520344e+01   4.4516745750e+01    0.3516478    0.2052406  33.20 0.0007942151    1.936    0.484
       152 -10.4939     88.2575     77.4623   6.0171170603e+01   4.9281986513e+01       0.2683    0.2300046 -71.55 -1.870185e-05    1.404    0.288
       153 -11.2656    224.6369    247.8449   6.4533425862e+01  -8.9442086457e+00    0.3064871    0.1366176 -35.36  0.001637903    2.682    0.627
       154 -14.4603     16.7172     67.4644   8.2175051732e+01   5.9968286543e+01    0.6432953    0.4003677 -64.18  0.001314224    1.395    0.283
       155 -11.0607     10.9928     61.7828   8.3003484881e+01   6.1523539174e+01    0.3517976    0.1706291 -58.62  0.001452248    1.576    0.366
       156 -11.4932      3.4971     48.5316   8.2813575478e+01   6.4632276956e+01    0.3393001    0.3051054 -56.83  0.002663333    1.233    0.189
       157 -11.0912      7.0150     42.2402   7.9758303172e+01   6.5677642353e+01    0.4738189    0.1397119 -55.54  0.002236809    2.390    0.582
       158 -12.6117     12.3853     47.4086   7.8942219545e+01   6.4347592588e+01    0.7046906     0.312354 -61.05  0.001410501    2.019    0.505
       159 -10.7334     99.7951     76.6405   5.6349156905e+01   4.7339803728e+01    0.2679404    0.2292043 -44.09 0.0004877769    1.158    0.136
       160  -9.1709    184.2686     76.6368   3.5394130743e+01   2.7549415827e+01    0.1616516    0.1175252 -65.45 0.0006994362    1.651    0.394
       161 -11.7281    167.7301     73.4305   3.7828484203e+01   3.2329033005e+01    0.2939849    0.2625978 -47.30 0.0002859755    1.148    0.129
       162  -9.4992    167.5621     69.5425   3.6717044976e+01   3.3044011605e+01    0.2132721    0.1441168  44.72 0.0001168387    1.486    0.327
       163 -12.5646     51.2345     69.6395   7.0322446816e+01   5.6327308159e+01    0.5781205    0.4011546 -80.77  0.002268282    2.230    0.552
       164 -11.6214     44.7873     74.8210   7.3975777403e+01   5.5956186960e+01    0.2931577    0.2470348  87.12 0.0005251642    1.514    0.339
       165  -9.3263    115.5088     71.5110   5.0128576623e+01   4.5152711395e+01     0.149125    0.1442998  -0.06 0.0008104707    1.017    0.016
       166  -9.8084     77.9408     69.6811   6.1139779276e+01   5.2596882691e+01    0.1843596    0.1728722  -0.11 0.0003478738    1.079    0.073
       167 -11.1581    122.7676     67.3168   4.6768850600e+01   4.4340321664e+01    0.2648094    0.2456503 -27.72  0.000310631    1.082    0.076
       168  -9.5129     42.8325     67.5802   7.2756127024e+01   5.7696271603e+01    0.1591224    0.1171964  41.95 0.0009319115    1.668    0.400
       169 -10.2603    139.8643     66.0659   4.1944490332e+01   4.0570246155e+01    0.2756191    0.2108436  52.28 0.0009179208    1.282    0.220
       170 -11.7441     30.4468     61.9475   7.5790845123e+01   6.0058997569e+01     0.474262    0.4663398  11.42  0.003474396    1.262    0.207
       171 -12.7677     38.0655     49.9264   6.9364319030e+01   6.1736096736e+01    0.7144902    0.4700797 -34.45  0.003622124    1.302    0.232
       172 -11.3116     35.4269     41.8450   6.7768125350e+01   6.3525234368e+01    0.6257263     0.268597 -22.52  0.002264352    4.358    0.771
       173 -10.4298     27.5453     51.2344   7.3925591256e+01   6.2468677548e+01    0.6624652    0.2999774 -61.70  0.003120946    2.442    0.591
       174  -9.8129    160.5143    249.4865   7.6331044118e+01   1.2297083598e+00    0.1233628   0.09509172  39.04 -3.748717e-05    1.059    0.056
       175 -11.9708    156.0168     63.6294   3.7414511730e+01   3.6984554423e+01    0.3030105    0.2693271 -33.07 0.0003767988    1.164    0.141
       176  -9.1894     98.3049     65.3151   5.3205971482e+01   4.9839942231e+01    0.1482496    0.1104289  -0.89 0.0003963159    1.622    0.384
       177  -9.5543    131.2330     64.6245   4.3656707835e+01   4.2879236578e+01    0.2083301    0.1365783  40.60 0.0001008518    1.525    0.344
       178  -9.6581    106.2480     63.9606   5.0359261321e+01   4.8509313950e+01    0.1823634    0.1221775 -38.63            0    1.476    0.322
       179 -10.2371    202.0948     62.3725   2.8263913274e+01   2.5337718692e+01    0.2369467    0.2027947 -21.15  0.001226997    1.287    0.223
       180  -9.6025     84.3051     63.6902   5.7124861659e+01   5.2714675856e+01    0.1324303    0.1138161 -83.82 0.0002468216    1.612    0.379
       181 -10.9621     76.7913     62.2199   5.9148467332e+01   5.4253759203e+01    0.2395926    0.2020105 -12.83            0    1.152    0.132
       182  -9.4448    168.8293     62.6301   3.4398565032e+01   3.3873853333e+01    0.2004052    0.1444951  70.07 9.376946e-05    1.485    0.327
       183 -10.1403     69.4569     61.5548   6.1451852422e+01   5.5524491427e+01    0.2315063    0.1250855 -44.10 0.0007580434    1.695    0.410
       184 -10.9282    115.4350     59.1759   4.6108769555e+01   4.7418291512e+01    0.4803281    0.3204738 -14.28   0.00126178    1.866    0.464
       185 -10.5484     98.1516     60.1332   5.1524512415e+01   5.0830451600e+01    0.2334652    0.2141848   7.90            0    1.041    0.039
       186 -11.1620     46.2313     60.3807   6.9459522195e+01   5.8802243511e+01    0.3855128     0.212432 -44.47 0.0008856403    1.534    0.348
       187  -9.8945     46.7814     55.3832   6.7723213839e+01   5.9730907693e+01    0.2361069     0.141454  -8.78  0.001109406    2.275    0.560
       188  -9.8624    137.7644     59.6269   4.0395574709e+01   4.2181926011e+01    0.3471214    0.1766872 -48.40  0.000996006    2.337    0.572
       189 -10.0074    134.2984     57.7147   4.0627624116e+01   4.3335218939e+01    0.2576603    0.2071246  85.62 0.0004775347    1.589    0.371
       190  -9.9830    120.0305     60.4920   4.5276795077e+01   4.6171906951e+01    0.2354649    0.1425575  45.57  0.001032389    1.611    0.379
       191  -9.0605     93.4544     60.4475   5.3097227464e+01   5.1673119961e+01    0.1434457    0.1303688  -5.96 0.0001229066    1.030    0.029
       192  -9.9707    127.0878     58.7556   4.2811711641e+01   4.4861269047e+01    0.2074726    0.1817951  36.47 0.0002149841    1.101    0.092
       193 -11.0340     58.3348     58.7172   6.4496225418e+01   5.7649448109e+01    0.3309339    0.2434123  26.10   0.00117978    1.465    0.317
       194 -10.5733     80.9007     55.5936   5.5531425976e+01   5.4816249674e+01     0.431732    0.2555885 -10.39  0.001765202    2.676    0.626
       195 -11.4866     74.9908     56.0050   5.7686228057e+01   5.5720624080e+01    0.2594588    0.2025082 -15.30 0.0005025532    1.273    0.214
       196 -12.7670    105.2849     52.5817   4.6762765132e+01   5.0715219326e+01    0.4382123    0.3671003  79.77  0.000378303    1.625    0.385
       197  -9.6642    104.4983     46.4793   4.4823118725e+01   5.1880082197e+01    0.2063762    0.1353902 -20.80 0.0008312276    1.648    0.393
       198  -9.0496    182.2832     54.7220   2.9503624592e+01   3.1629846420e+01    0.1498737    0.1141358 -72.04 0.0001698127    1.510    0.338
       199 -11.1402    128.7617     50.4256   3.9582578045e+01   4.5832070802e+01     0.360363    0.2885769  -2.32  0.000658749    1.394    0.282
       200 -11.5001    132.3357     49.6536   3.8429019077e+01   4.5101728542e+01    0.7107549    0.4507711 -69.74  0.002591795    2.836    0.647
       201  -9.7035     62.0221     52.9781   6.1258462327e+01   5.8242711617e+01    0.1683757    0.1294969 -35.74 0.0004146491    1.162    0.139
       202  -9.7531    154.2878     52.5608   3.4333499887e+01   3.9206426327e+01    0.2092579    0.1360377  46.74 0.0003239684    1.483    0.325
       203 -10.5548     57.6117     50.2980   6.1970577724e+01   5.9349225582e+01    0.3149154    0.2257539   8.31  0.001745874    1.523    0.343
       204 -11.6637     51.7438     46.6907   6.2947344656e+01   6.0779529731e+01    0.5511528    0.2517694 -46.04  0.001856313    1.984    0.496
       205 -10.8536     53.8920     37.0651   5.8599638183e+01   6.2192293385e+01    0.3901397    0.2155399 -50.34  0.001092387    2.134    0.531
       206 -12.0757     57.6420     33.9888   5.5947443428e+01   6.2180069760e+01    0.3298859    0.2473861 -29.81 0.0005467886    1.202    0.168
       207 -10.5237     45.0102     50.5046   6.6837583460e+01   6.0875007395e+01    0.4251876     0.199324 -34.88  0.002002333    2.070    0.517
       208 -11.3964     44.5357     43.2551   6.4570180841e+01   6.2279097689e+01    0.3799318    0.2937188 -80.25  0.001073583    2.324    0.570
       209 -11.7311     44.8385     38.1168   6.2601776462e+01   6.3159298898e+01    0.2441408    0.2266154  49.84   0.00166101    1.534    0.348
       210 -10.9506     82.7218     47.2328   5.1949462585e+01   5.5973188489e+01    0.2641698    0.2050277  28.74 0.0007543325    1.274    0.215
       211 -10.7294     69.0640     48.0286   5.6976764593e+01   5.8102885890e+01    0.1994715    0.1718162 -11.18 0.0003688769    1.030    0.029
       212  -9.8743     78.4392     47.2622   5.3411351580e+01   5.6712278178e+01    0.1742941    0.1247382 -43.61 0.0002573477    1.460    0.315
       213  -9.5259    143.1635     45.7980   3.4589311285e+01   4.3033519111e+01    0.2040753    0.1677243  22.08 0.0005298621    1.310    0.236
       214 -10.0324    120.3630     45.9251   4.0199631498e+01   4.8485541024e+01    0.2383892    0.1826062  30.09   0.00064786    1.308    0.236
       215 -10.7156    112.4838     45.3910   4.2147095629e+01   5.0336647145e+01    0.2607666    0.2235512  13.90 0.0005333226    1.148    0.129
       216  -9.2600    171.1979     44.9325   2.8614183765e+01   3.5966178930e+01    0.1830571    0.1182831 -33.03  0.000820839    1.620    0.383
       217  -9.6593    164.0468     45.1268   3.0018261970e+01   3.7800700934e+01    0.2637619    0.1514587  37.72 0.0008808303    2.014    0.504
       218  -9.4477    151.4993     45.5088   3.2675789966e+01   4.0974392734e+01    0.1504578    0.1416034  49.69 -7.849885e-05    1.002    0.002
       219 -11.0217     96.1695     42.5270   4.5882823839e+01   5.4206825180e+01    0.4071502     0.244497  34.45  0.001254372    1.678    0.404
       220 -11.4271     89.2701     41.4342   4.7646220158e+01   5.5721177540e+01    0.2957901    0.2371626  37.80 0.0003394622    1.246    0.197
       221 -11.2183     72.6000     42.7755   5.3788543866e+01   5.8446715409e+01    0.2892136    0.2663971 -16.34            0    1.142    0.124
       222 -11.4973     67.1324     41.9720   5.5452871114e+01   5.9449865810e+01    0.3319943    0.2015724 -36.55 0.0007836635    1.523    0.344
       223  -9.1271    157.9757     42.0202   3.0233556011e+01   3.9812389296e+01    0.1742663    0.1624428  57.27            0    1.007    0.007
       224 -11.6203     82.1213     38.4413   4.8854729509e+01   5.7513690619e+01    0.7266131    0.3682038 -19.27  0.002968547    2.642    0.621
       225  -9.7047    130.6099     41.1685   3.5949534291e+01   4.6783893943e+01    0.2080506    0.1400429 -12.36 0.0009485208    1.764    0.433
       226 -10.6542    235.9678     39.7895   1.7841250947e+01   2.0243701746e+01    0.2185191    0.1859634 -45.31 0.0003965873    1.146    0.128
       227  -9.7957    226.4866     40.4641   1.9113883700e+01   2.2428265254e+01    0.1406723    0.1253299 -73.55 0.0001121578    1.014    0.014
       228  -9.9972    148.1113     38.8975   3.1238697600e+01   4.2769504090e+01    0.2226913    0.1953253 -83.66 0.0004577776    1.282    0.220
       229 -10.7819    193.6853     35.5211   2.2184629625e+01   3.1376121707e+01    0.4231846    0.2260232 -48.41 0.0009373902    1.973    0.493
       230 -12.3051     75.3493     35.1818   4.9903380123e+01   5.9209676536e+01     0.508563    0.3488859  11.83  0.001054536    1.578    0.366
       231 -11.1526     79.4192     28.6622   4.5894284141e+01   5.9456143689e+01     0.337979    0.2194862 -18.79  4.42841e-05    1.538    0.350
       232 -11.4274     28.4838    245.4825   9.9045381287e+01   2.1169234960e+01    0.3526405    0.1658176  87.08   0.00220868    1.940    0.485
       233  -9.9388      1.5956     37.0128   8.0632643357e+01   6.6967861150e+01    0.1658875    0.1044049 -48.95  0.001118779    1.173    0.148
       234 -10.8553    248.0688     36.1199   1.5688101702e+01   1.7926176071e+01    0.2010478    0.1746569 -66.67 0.0005113265    1.010    0.010
       235  -9.3083    214.4467     36.5342   1.9616977951e+01   2.5932249611e+01    0.1400487     0.129708 -86.43 9.572045e-05    1.039    0.037
       236  -9.9602    134.8916     35.1224   3.2855256626e+01   4.6580301321e+01    0.2525494    0.2139398 -33.05   0.00136386    1.263    0.208
       237 -10.2619    128.8533     35.8615   3.4520601198e+01   4.7946195658e+01    0.2380286    0.2137383 -36.43 0.0009325806    1.210    0.174
       238 -11.5023    111.3305     34.8028   3.8605738063e+01   5.2145720584e+01    0.2905178    0.2880976  35.67 0.0008002929    1.164    0.141
       239  -9.4468    101.4949     36.4728   4.2009861114e+01   5.4030657151e+01    0.1419763     0.125546  15.28 0.0001080471    1.027    0.026
       240 -11.6525      8.0799     31.7229   7.6208128151e+01   6.7596139542e+01    0.3816808    0.2596686 -69.89   0.00151725    1.906    0.475
       241 -10.0106     13.5427     34.4414   7.4641240586e+01   6.6742890103e+01     0.156521    0.1394192 -10.88 0.0007838374    1.258    0.205
       242 -10.7857     18.0446     31.2682   7.1585699831e+01   6.6990614484e+01    0.3606088    0.2220336   4.88  0.001814568    1.780    0.438
       243  -9.9205    177.7440     34.2020   2.4272577282e+01   3.5710703943e+01    0.2022621    0.1678661  29.84  0.001055443    1.366    0.268
       244 -10.1390    140.0752     33.9226   3.1292543326e+01   4.5456980683e+01    0.2125722    0.1962777  44.81 0.0003097035    1.003    0.003
       245 -10.1099    122.4329     33.4824   3.5237666374e+01   4.9789424714e+01    0.2993574    0.2195753  29.19  0.001521088    1.381    0.276
       246 -10.0561     33.0747     32.7917   6.5536993290e+01   6.5381133570e+01    0.3498034    0.1680467  43.49   0.00165657    3.286    0.696
       247 -11.1809    221.6001     31.6446   1.7504209153e+01   2.4789405804e+01    0.2607746    0.2034361 -64.06 0.0001785689    1.214    0.176
       248 -10.9046    207.0751     31.2496   1.9186169516e+01   2.8482226386e+01    0.2568896    0.1996041  18.52  0.001204342    1.745    0.427
       249 -10.7088     49.5024     29.0012   5.7177875831e+01   6.4095788018e+01    0.3626005    0.1873881 -31.41   0.00124966    1.759    0.432
       250  -9.3943    144.9779     30.0118   2.8941062510e+01   4.4725643170e+01    0.1678099    0.1614341  31.79 0.0003230457    1.063    0.059
       251 -11.3005    238.1309     27.8431   1.4788183076e+01   2.1289161013e+01    0.2417263    0.1879521 -60.22 0.0003400844    1.154    0.134
       252 -11.2557    197.8629     28.1115   1.9559378941e+01   3.1237773621e+01    0.3122947    0.1922629  68.76 0.0007344796    1.510    0.338
       253 -10.7192    156.8214     28.1180   2.6025620677e+01   4.1929523552e+01    0.2352796    0.1891513  63.69  0.000325273    1.151    0.131
       254 -11.1325    112.3398     27.0446   3.5432185692e+01   5.2944096203e+01    0.3836653    0.2905743  -2.92 0.0009063662    1.408    0.290
       255 -11.0994    244.5103     27.2309   1.4016429860e+01   1.9882873430e+01    0.3045868    0.1454871  67.34  0.001425367    2.040    0.510
       256  -9.6328    123.7464     26.9663   3.2560638385e+01   5.0314199187e+01    0.2058367    0.1629397 -88.49  0.001054139    1.671    0.401
       257 -10.9175    215.6499     25.3790   1.6622882963e+01   2.7052255312e+01    0.3438264    0.2085163  55.82 0.0008673537    1.662    0.398
       258 -11.5042    101.3930     28.7012   3.9061663837e+01   5.5126159079e+01    0.3565622    0.2811863 -42.38  0.001284754    1.482    0.325
       259  -9.4293     16.4525     26.4672   7.0610225669e+01   6.7958882796e+01    0.1164671   0.08637778 -29.96 0.0002524696    1.020    0.020
       260 -10.0843     10.9282     24.4917   7.2469346156e+01   6.8703714022e+01    0.2168671    0.1237798 -30.89  0.000612855    1.426    0.299
       261  -9.9851    181.7165    246.6626   7.2069553363e+01  -1.9081032752e+00    0.1188598   0.08305995  15.86 0.0004911191    1.625    0.385
       262 -10.3553    250.5103    244.9957   5.9624413858e+01  -1.2458610156e+01    0.1584213   0.08155507  -2.57 0.0007994057    2.539    0.606
       263  -9.9029      6.9168     25.2174   7.4606127085e+01   6.8837923303e+01    0.1717159    0.1300887 -34.49 0.0006934284    1.039    0.037
       264 -10.8490     22.2310     24.2562   6.7122596314e+01   6.7861618214e+01    0.2719237    0.1670704 -14.67  0.000665943    1.590    0.371
       265 -10.1541    238.1655    245.4053   6.1797519871e+01  -1.0711437371e+01     0.154741   0.09188601  41.34 0.0003962104    1.609    0.379
       266  -9.9368     24.4663     20.4639   6.4583871604e+01   6.8282606630e+01    0.1808745    0.1597671  11.52 0.0008162845    1.385    0.278
       267 -10.6117     28.5162     19.5369   6.2330999635e+01   6.8034926681e+01    0.2709441    0.1677728 -10.14  0.001375416    1.603    0.376
       268 -10.1121    226.1616     23.2857   1.4942886905e+01   2.4716139800e+01    0.2014529    0.1819713 -36.76 0.0003680333    1.233    0.189
       269  -9.2948    162.7040     28.3204   2.5032596307e+01   4.0379935197e+01    0.1475118    0.1080536 -68.43 0.0006351933    1.615    0.381
       270 -10.7150    159.2389     23.5849   2.4149801752e+01   4.1841349713e+01    0.2376108    0.1720041  16.91 0.0008790052    1.717    0.417
       271  -9.7856    125.0009    245.7309   8.2389255030e+01   7.6407265830e+00    0.1587376    0.0846521  44.45 0.0005111017    1.468    0.319
       272 -10.7137     67.0189     20.9837   4.7027282652e+01   6.2663277296e+01     0.371007     0.193262  48.05  0.001821613    2.208    0.547
       273 -10.0431     63.7060     19.3778   4.7551256985e+01   6.3420381844e+01    0.2277331    0.1610053 -49.62  0.001012818    2.071    0.517
       274  -9.4809    186.7868     22.6283   1.9557357774e+01   3.4769240698e+01    0.1984109     0.126043  80.64 0.0003489071    1.586    0.369
       275 -10.2718     93.9805     22.1137   3.8609893757e+01   5.7509501906e+01    0.2072795    0.1786153  24.08 0.0003476989    1.031    0.030
       276 -10.4537     83.0362     22.0576   4.1976809961e+01   5.9674790998e+01    0.2650913    0.1766639  34.73   0.00130316    1.383    0.277
       277 -11.6314     58.8306     20.9949   5.0105687667e+01   6.3964486392e+01    0.5578951    0.3162835  33.34  0.002725777    1.723    0.420
       278 -10.5282     72.9839    244.5205   9.1580485752e+01   1.5717483546e+01    0.2365378    0.1594926  39.36  0.001557221    1.582    0.368
       279  -9.6671     74.4422     21.1997   4.4486777719e+01   6.1361750885e+01    0.1851151    0.1523345   3.35 0.0006270809    1.049    0.047
       280 -12.2258     75.7239    238.4281   9.0588565874e+01   1.6394750913e+01    0.5351857    0.4611959 -78.01  0.003998111    1.398    0.285
       281 -10.0495    195.1502    238.3697   6.8390711072e+01  -3.0449227201e+00    0.1970066    0.1582543  -4.93  0.001021391    1.393    0.282
       282 -10.3113     35.1883    238.4274   9.7552046964e+01   2.1634422785e+01    0.1740256    0.1034183  87.82  0.001014367    1.442    0.307
       283 -11.6710     18.5381    236.8004   1.0016461870e+02   2.3787230229e+01    0.4522436    0.1407954  55.59  0.002443422    2.398    0.583
       284  -9.7877    181.4938     19.8677   1.9515940603e+01   3.6465248815e+01    0.1909461    0.1416966 -29.63 0.0004776923    1.478    0.323
       285  -9.2576    145.3439     20.2770   2.5607316641e+01   4.5778293095e+01    0.1513622   0.09609175  37.50 0.0005328566    1.626    0.385
       286 -10.2359    207.0383     21.0276   1.6515936941e+01   2.9742712434e+01    0.2080216    0.1844561 -83.29 0.0003459886    1.019    0.019
       287 -10.7634     41.7970     19.1631   5.6261151604e+01   6.6589748089e+01    0.2876121      0.20354  23.15   0.00129314    1.407    0.289
       288  -9.3228     34.0000     19.8725   5.9988736649e+01   6.7400987393e+01    0.1764574   0.05725652 -41.94 0.0002695526    2.712    0.631
       289  -9.6767    134.6925    237.6343   7.9638113427e+01   7.3395586906e+00    0.1169006   0.09330985  12.53 0.0007037491    1.749    0.428
       290 -12.2944     21.3863    248.3340   1.0030517524e+02   2.1470500587e+01    0.5391067    0.1639014  49.58  0.003053838    2.269    0.559
       291 -10.1498    108.3036     17.8687   3.2958948013e+01   5.4936517521e+01    0.2835113    0.1898332  -3.85  0.001450186    1.669    0.401
       292 -10.5699    194.2492     17.0147   1.7010653491e+01   3.3475573704e+01    0.3246161    0.2146384  59.41 0.0006753186    1.408    0.290
       293 -10.9825    160.4550    235.3560   7.4458918246e+01   3.3081305539e+00    0.2540255    0.1675022  24.21 0.0007472563    1.737    0.424
       294  -9.3976    110.2864    242.6908   8.4752060825e+01   1.0483243843e+01     0.121295    0.0757398  65.86 0.0002249505    1.573    0.364
       295 -11.3412     29.7627    233.8143   9.8170415737e+01   2.3086844155e+01    0.3930289    0.1558435  66.94  0.002117859    2.313    0.568
       296  -9.7086     24.0315    232.0107   9.9012350624e+01   2.4052619761e+01    0.1488463    0.1204085  82.84 0.0005420176    1.269    0.212
       297 -10.2394    166.5772    232.7051   7.2919992884e+01   2.6494038161e+00    0.2027167     0.125017 -39.35  0.001122442    2.042    0.510
       298 -10.3799    184.1577    230.0029   6.9172225941e+01  -1.0609975297e-02    0.2054048    0.1391412   0.54    0.0010913    2.087    0.521
       299 -10.7345    103.1395     16.9761   3.3962680672e+01   5.6175047566e+01    0.2112406    0.1733608  43.06 0.0003334263    1.125    0.111
       300 -10.0061    151.8940    228.5035   7.5149426807e+01   5.8661624798e+00    0.1797905    0.1664569  53.43  0.000899088    1.146    0.127
       301 -10.0981    175.2919     16.3174   1.9372465748e+01   3.8473943731e+01    0.1432358    0.1000253  37.85 0.0007008968    1.600    0.375
       302  -9.8404    159.3501     16.0940   2.1764644585e+01   4.2640790594e+01    0.1913906    0.1228272 -39.95  0.000572572    1.693    0.409
       303 -10.0097    120.2042     15.9402   2.9331908951e+01   5.2411832678e+01    0.2811362    0.1418009  37.21  0.001045311    2.013    0.503
       304 -11.1197      3.8411    226.1656   1.0198891187e+02   2.7196784096e+01    0.2575196    0.1073311 -75.26  0.001601449    2.088    0.521
       305  -9.9704    185.4130     14.2967   1.7394861110e+01   3.6058757874e+01    0.2452483    0.1434914  59.25 0.0003941581    1.537    0.349
       306 -10.0288    190.9905    226.4963   6.7328373250e+01  -6.9562487080e-01    0.1869398     0.169969  -5.60  0.001256092    1.230    0.187
       307 -11.6098     15.4027    222.0130   9.9883560029e+01   2.6810380978e+01    0.2649784    0.1261772  52.20  0.001249318    1.667    0.400
       308  -9.8071     42.2945    220.6470   9.5135189747e+01   2.4065601595e+01    0.1226284   0.06403907  69.47 0.0007032122    1.685    0.407
       309 -10.2340     21.5295    219.9634   9.8727567174e+01   2.6553437878e+01    0.1569372   0.08587243 -82.63 0.0006396048    1.563    0.360
       310  -9.9718    211.9822    218.5712   6.2061276290e+01  -3.2207763426e+00    0.1909536    0.1611888 -10.71  0.001005061    1.242    0.195
       311  -9.2640    120.5710    219.4902   8.0093367647e+01   1.2822996843e+01    0.1279095    0.1084431  53.04 0.0003268402    1.064    0.061
       312 -10.0810     51.1299    218.1052   9.3335473984e+01   2.3460541527e+01    0.1676658    0.1462965  79.81  0.001245126    1.259    0.205
       313 -11.1251    165.2520     16.8736   2.1057045837e+01   4.1027861475e+01    0.2434746    0.1890559  19.57 0.0004140112    1.540    0.350
       314 -11.4345      8.4829    216.4547   1.0074299392e+02   2.8546995164e+01    0.2945161     0.112216  59.70  0.001677234    2.117    0.528
       315 -12.0403     11.5421    209.5660   9.9839038491e+01   2.9563731096e+01    0.4459422    0.1795558  89.35  0.002426029    2.246    0.555
       316 -12.6337      5.5806    208.7786   1.0082553054e+02   3.0288112133e+01    0.5526695    0.2232565 -73.55  0.003183523    2.100    0.524
       317  -9.4108    136.3033    216.3074   7.6520822158e+01   1.0672325451e+01    0.1229285    0.1002326  14.08  0.000350567    1.603    0.376
       318 -10.8458     29.3638    215.6124   9.7084922781e+01   2.6530242826e+01    0.2016889    0.1656526  74.35  0.001053647    1.200    0.166
       319 -10.8636     24.0306    215.9787   9.8048488095e+01   2.7043594726e+01    0.1693467    0.1224836  77.02 0.0004262633    1.025    0.024
       320  -9.7353    169.4811    212.4892   6.9275234289e+01   5.3199960815e+00    0.1354494    0.1145504  39.13 0.0008102918    1.002    0.002
       321 -10.7967    237.0439    208.9913   5.5769272011e+01  -6.1574947054e+00    0.2034525    0.1306435   7.24 0.0006595664    1.654    0.396
       322  -9.5671    247.4754    205.5063   5.3281943847e+01  -7.3992554034e+00    0.1261998    0.1022481  10.05 4.776344e-05    1.022    0.021
       323  -9.0570     28.2797    205.6297   9.6589732725e+01   2.8603765191e+01    0.1222944   0.06345026  71.44  0.000701173    1.692    0.409
       324 -10.9949     19.8311    201.0145   9.7823509484e+01   3.0416389776e+01    0.4789046    0.1177441 -64.36  0.002110782    3.536    0.717
       325 -10.7654    175.3457    202.3547   6.6401730611e+01   5.9168189308e+00    0.2431797    0.2041063  44.45 0.0004547869    1.094    0.086
       326 -10.5354    238.6788    200.9044   5.3974613475e+01  -5.3478457803e+00    0.1779243    0.1474437  -7.03 0.0006789333    1.135    0.119
       327  -9.9387     68.3773    201.1828   8.8440885127e+01   2.4533686341e+01    0.1753299    0.1033766 -85.16 0.0009496232    1.724    0.420
       328 -10.9406      1.7683    206.1911   1.0134278954e+02   3.1139270113e+01    0.2065019    0.1271494 -78.30 0.0008927563    1.419    0.295
       329  -9.2854    215.4824    194.4340   5.7030154372e+01  -3.4156168313e-01    0.1365958    0.1153584  18.94 0.0002802457    1.022    0.021
       330 -11.6369     15.5211    193.1040   9.8088972483e+01   3.2442419119e+01    0.2814974    0.2052499  53.94  0.001132073    1.331    0.248
       331 -10.7304    244.5280    187.9871   5.0445200454e+01  -4.5541855722e+00     0.224289    0.1801104  46.93 0.0006148604    1.505    0.336
       332  -9.8801     61.9639    184.5440   8.7967996157e+01   2.8908902603e+01    0.2005138    0.1484159 -80.35  0.001228201    1.225    0.184
       333 -12.5576     17.1486    181.6532   9.6955483756e+01   3.4652869468e+01    0.5078817     0.268305  39.09  0.003093303    1.967    0.492
