#   1 NUMBER                 Running object number                                     
#   2 MAG_AUTO               Kron-like elliptical aperture magnitude                    [mag]
#   3 X_IMAGE                Object position along x                                    [pixel]
#   4 Y_IMAGE                Object position along y                                    [pixel]
#   5 X_WORLD                Barycenter position along world x axis                     [deg]
#   6 Y_WORLD                Barycenter position along world y axis                     [deg]
#   7 A_WORLD                Profile RMS along major axis (world units)                 [deg]
#   8 B_WORLD                Profile RMS along minor axis (world units)                 [deg]
#   9 THETA_WORLD            Position angle (CCW/world-x)                               [deg]
#  10 FWHM_WORLD             FWHM assuming a gaussian core                              [deg]
#  11 ELONGATION             A_IMAGE/B_IMAGE                                           
#  12 ELLIPTICITY            1 - B_IMAGE/A_IMAGE                                       
         1 -11.5328     80.3970     23.3991   8.3384271551e+01   6.0847283976e+01    0.5474849    0.2825368  32.50  0.002452845    2.291    0.564
         2  -8.7187    144.7187     23.3357   6.6149223458e+01   4.6627946506e+01    0.2558842    0.2270911  27.17 0.0003126753    1.097    0.088
         3  -9.8182    134.0481     13.6118   6.4548547291e+01   5.0470178416e+01    0.4104708    0.2420629  46.10  0.000306049    1.614    0.381
         4  -9.4275    129.8654     10.1199   6.4000271546e+01   5.1895128971e+01    0.2966487    0.2601471  -0.78 0.0009556939    1.112    0.100
         5  -9.0599    125.5267     10.3035   6.5011493899e+01   5.2938840760e+01    0.3002982    0.1965141  30.21 0.0004526241    1.585    0.369
         6  -9.7715     64.8285     13.9295   8.4668927481e+01   6.4969171869e+01    0.4188631    0.2517708  27.24  0.001404986    1.885    0.469
         7  -7.7229     65.2780      9.3362   8.2246772128e+01   6.5579179305e+01    0.1320001   0.08925676  -2.34 0.0001598671    1.612    0.380
         8  -9.8422     77.7930     13.0845   7.9553059085e+01   6.2868620493e+01    0.6497831    0.2430896  46.07  0.002675543    2.770    0.639
         9  -8.3633     96.5842     12.3409   7.3253213588e+01   5.9281080651e+01    0.3073906    0.1921608  14.80  0.001297095    1.928    0.481
        10  -9.2661     31.7240     10.9428   9.7587065556e+01   6.9878275420e+01    0.4393458     0.251454  -8.13 0.0004663457    2.496    0.599
        11  -9.2484     32.0993      6.0980   9.5083094822e+01   7.0663194347e+01    0.2411224    0.1924904 -14.19 0.0003026176    1.146    0.127
        12  -9.0520     70.8889      8.9979   7.9994162445e+01   6.4674217814e+01    0.3264936    0.1589516  42.14  0.001303076    2.139    0.533
        13  -9.2573     46.6120      6.3403   8.8406375331e+01   6.8839231053e+01    0.2474112    0.1958709 -12.08  0.001110176    1.107    0.097
        14  -8.9887     40.9533      6.0780   9.0839563772e+01   6.9621542274e+01    0.3605783    0.2067734 -19.27  0.001095193    1.895    0.472
        15 -10.1898      7.7462      5.4269   1.0756489199e+02   7.2917157915e+01    0.4715587    0.2321038  -5.21  0.002525344    2.949    0.661
        16  -8.8577    119.2646      6.8615   6.4939186284e+01   5.4821040549e+01      0.25144    0.1982803  31.84 0.0001937323    1.203    0.169
        17  -7.8025    100.2284      6.8075   6.9656454242e+01   5.9176225177e+01    0.1954105    0.1446905  22.07 0.0005313248    1.328    0.247
        18  -9.2100     76.2892      5.5834   7.6375838083e+01   6.4159185213e+01    0.4968747    0.2044361 -31.58  0.001697289    2.211    0.548
        19  -8.1978    133.8856      3.3772   6.0405701898e+01   5.1579502461e+01    0.2989005    0.1468414  43.26 0.0008051423    1.957    0.489
        20  -9.0590     92.6849      5.2943   7.1060064945e+01   6.0959697836e+01    0.4328694     0.200074  48.22  0.001932054    2.081    0.519
        21  -9.6374     84.9212      5.4982   7.3506145892e+01   6.2514687916e+01     0.284549      0.21405 -13.87  0.001625011    1.217    0.178
        22  -8.9635    208.9770      5.3158   5.0471381925e+01   3.1554470086e+01    0.2046672    0.1870113  79.71  0.001174956    1.077    0.071
        23  -8.8486    111.0767      3.0100   6.5132250265e+01   5.7150445070e+01    0.3953179    0.2315198 -46.48  0.001485188    2.136    0.532
        24  -8.3871    153.8371      3.1520   5.6826494640e+01   4.6444310640e+01    0.2150194    0.1533217  40.55 0.0004449033    1.362    0.266
        25  -8.5491    143.0514      2.3533   5.8315139349e+01   4.9334381677e+01    0.2528184    0.1866396  14.11 0.0002891907    1.427    0.299
        26  -8.6967    105.5991      2.0407   6.6023734818e+01   5.8505073136e+01    0.2738099    0.2393701  58.01  0.001214613    1.250    0.200
        27  -8.5896     56.3752      3.6081   8.2803826858e+01   6.7820167027e+01    0.3937047    0.1015657  39.68   0.00140433    4.338    0.769
        28  -7.9867    155.8001      7.3528   5.8086491803e+01   4.5528121059e+01    0.2078852    0.1212398  54.40 0.0003585744    1.583    0.368
        29  -7.2187      2.5149      1.4637   1.0885222451e+02   7.3968317208e+01    0.1139966   0.07830111 -40.37 0.0008078586    1.088    0.081
        30  -9.3226      9.8438    110.2643   1.2783326460e+02   5.0796743966e+01    0.3097903    0.1536035  79.46  0.001756073    1.971    0.493
        31 -10.8098    191.2607    248.9050   1.0771528638e+02   3.0115964604e+00    0.3285294    0.2396934  34.34  0.002604675    1.071    0.066
        32  -7.6172    142.7862    111.4220   9.4076369337e+01   3.2080104744e+01     0.206942    0.1326921  35.71 0.0009389755    1.696    0.410
        33  -8.1346      2.4743    109.4946   1.2961590816e+02   5.1444636341e+01    0.1496623    0.1049308  -7.83 0.0009247034    2.308    0.567
        34  -8.5734    124.0721    107.0639   9.7491644778e+01   3.6674722804e+01    0.3872458    0.2261874  23.40  0.001500122    2.908    0.656
        35  -7.8287    115.6326    107.3138   9.9640549714e+01   3.8214217494e+01    0.1469745    0.1078631  82.18 0.0007037739    1.771    0.435
        36  -8.0999    109.6761    106.6137   1.0098440989e+02   3.9438734142e+01     0.329809    0.2167025  16.29  0.001426375    2.579    0.612
        37  -7.3959     61.6577    106.2974   1.1362081859e+02   4.6754378354e+01    0.1299275   0.08813503  74.31 0.0002678945    1.666    0.400
        38  -8.4194     14.4598    105.4937   1.2617379812e+02   5.1489256232e+01    0.2460239    0.1227266 -46.18  0.001357802    2.426    0.588
        39  -8.4579     66.7733    104.7935   1.1196394403e+02   4.6440044916e+01    0.2093181    0.1252497 -30.95 0.0009511951    2.765    0.638
        40  -8.1547     94.1192    103.2989   1.0429218033e+02   4.2786865815e+01    0.2512167    0.1248314  33.15  0.001064985    2.472    0.596
        41  -8.4038    140.2922     99.6855   9.1766096678e+01   3.4859942523e+01    0.2715228    0.2115346  21.10  0.001342987    1.547    0.354
        42  -8.1944    130.4637     96.9795   9.3441327874e+01   3.7425805125e+01    0.3164919    0.1765286  30.23  0.001247854    2.470    0.595
        43  -9.5514     15.3471     94.7018   1.2471912448e+02   5.3757195613e+01     0.303876    0.1608317 -69.08   0.00114027    1.469    0.319
        44  -9.3786     12.4744     93.5237   1.2538424085e+02   5.4210898534e+01    0.4413904    0.1741522 -76.17  0.002261388    2.054    0.513
        45  -7.8723    150.6517     95.6926   8.8316394659e+01   3.3383440612e+01    0.1536387    0.1163609  12.94  0.000704332    1.704    0.413
        46  -8.1419     31.3950     95.1691   1.2024571141e+02   5.2387962400e+01    0.1716504   0.09540024 -81.73 0.0006331593    1.688    0.408
        47  -7.4808     83.3197     93.3766   1.0503547550e+02   4.6615258077e+01    0.1387189    0.1008582 -27.16 0.0004631822    1.814    0.449
        48  -8.4704     53.8310     93.2665   1.1346389458e+02   5.0551378333e+01    0.1942373    0.1462483  63.11  0.001177423    1.447    0.309
        49  -9.0545     43.8807     91.9776   1.1612860634e+02   5.1910198247e+01    0.2530085    0.1739958  -5.99  0.001398659    2.375    0.579
        50  -8.2049      1.4650     92.5138   1.2834044523e+02   5.5110609910e+01    0.1113691   0.08294913 -85.47 0.0001704602    1.044    0.042
        51  -8.6914    174.0558     90.8015   8.1907495189e+01   2.8918780126e+01    0.2416158    0.2102404 -26.19 0.0003789512    1.156    0.135
        52  -8.4067    110.0124     90.8508   9.7096024479e+01   4.2651628841e+01    0.3208806    0.1878452  21.55  0.001231623    3.020    0.669
        53  -8.5319     97.4870     89.9405   1.0026306565e+02   4.5070390848e+01    0.3616599     0.231645  14.78  0.001532717    2.742    0.635
        54  -8.6844     20.7630     91.0281   1.2271005922e+02   5.4162853606e+01    0.1572203    0.1146769 -38.99  0.001038375    1.653    0.395
        55  -8.2462     65.9151     84.4724   1.0808313381e+02   5.1011667242e+01    0.2081452     0.161553 -41.28 0.0006064877    1.341    0.254
        56 -10.2637     37.9643     80.9989   1.1593825220e+02   5.4916554703e+01    0.5458475    0.3458543  -3.61  0.002905164    2.655    0.623
        57  -9.3393    229.9520     82.2446   6.9620315389e+01   1.7044205396e+01    0.2452014    0.2130981 -15.90 0.0002732933    1.080    0.074
        58  -7.5315    127.0138     83.3246   9.0628826744e+01   4.0825331368e+01    0.2423316    0.1130563  29.17 0.0007051255    4.355    0.770
        59  -9.7744      7.3885     78.0373   1.2496256489e+02   5.7891557137e+01    0.4666135    0.2341004 -33.27  0.002525504    2.814    0.645
        60  -8.9696     89.3944     78.7868   9.9685584724e+01   4.8780176979e+01     0.597658    0.2569092  30.71  0.002181265    3.449    0.710
        61  -8.1146    235.0166     77.9810   6.7753791391e+01   1.6457657595e+01    0.2377767    0.1622399  19.85 0.0006735146    1.701    0.412
        62  -8.2641    184.2140     78.0333   7.6304187186e+01   2.8599744906e+01    0.2606286     0.216827  47.14 0.0006012465    1.192    0.161
        63  -9.2763     50.0532     76.7803   1.1128031988e+02   5.4610323645e+01    0.3372191    0.1874261  14.45  0.001600693    2.906    0.656
        64  -9.5716     29.1928     68.8022   1.1643267230e+02   5.8376509739e+01    0.4982549    0.2590722 -17.62  0.002181259    3.938    0.746
        65  -8.9502     23.5212     74.0027   1.1926055089e+02   5.7688144302e+01    0.4168531    0.1280541 -63.22  0.001878117    2.377    0.579
        66  -8.0667     23.4583     69.4919   1.1847905356e+02   5.8680978783e+01    0.1821455     0.145261  33.55 0.0005212656    1.538    0.350
        67  -7.5528    167.6626     75.0303   7.8753611582e+01   3.3116541863e+01    0.2480621    0.1293454  -9.58  0.000704184    4.284    0.767
        68  -7.9530    157.3302     74.3160   8.0763889559e+01   3.5714284322e+01    0.1588268    0.1175201  16.17 0.0003365683    1.681    0.405
        69  -8.1939     74.9439     74.2817   1.0284269117e+02   5.1974107121e+01    0.1754641     0.168645  11.21 0.0004690734    1.176    0.150
        70  -7.4769    151.6629     70.7108   8.0940531020e+01   3.7682176918e+01    0.1566063    0.1167067  18.47 0.0007021061    1.637    0.389
        71  -8.0457     81.0000     68.9535   9.9502662278e+01   5.2188346321e+01    0.2308865   0.07114409 -50.24 0.0008019949    2.939    0.660
        72  -8.0486    105.8203     67.4111   9.1634167639e+01   4.8190692390e+01    0.1986877      0.13579  32.27 0.0009499366    1.673    0.402
        73  -8.9686     27.2441     60.2334   1.1533454239e+02   6.0402194351e+01    0.1687748   0.08303126  40.41 0.0008908804    2.442    0.590
        74  -9.1968     24.5574     62.3869   1.1673228056e+02   6.0146562234e+01    0.3707024    0.1901703  61.97   0.00176854    3.087    0.676
        75  -8.8684     16.4958     64.0220   1.1983952210e+02   6.0370365854e+01    0.2722386    0.1064617 -43.11  0.001225473    2.742    0.635
        76  -8.8877     19.4819     61.4426   1.1832104550e+02   6.0725650847e+01    0.1863558    0.1727788 -39.08  0.001269387    1.252    0.201
        77  -8.2556     84.4654     63.8649   9.6924817559e+01   5.2687826613e+01    0.2545069    0.1810477  17.00 0.0009426268    1.864    0.463
        78  -9.6302     62.5218     61.5012   1.0336721876e+02   5.6408934565e+01    0.5613662      0.27615  22.74  0.002059181    3.114    0.679
        79  -8.5950     57.9896     62.2358   1.0510505942e+02   5.6832265198e+01    0.3189217    0.1577845  32.38  0.001430452    2.378    0.580
        80  -8.6472      5.3188     61.7111   1.2329329563e+02   6.1541725840e+01    0.2005135    0.1203484  50.70  0.001261953    2.026    0.506
        81  -9.8292     36.7846     59.1673   1.1169849913e+02   5.9800852658e+01    0.3930383    0.2474844 -21.69  0.002143925    2.196    0.545
        82  -8.7178     98.7574     56.2525   9.0104101397e+01   5.1693323873e+01    0.3020586    0.1806401 -19.62  0.001120831    2.450    0.592
        83  -7.7039    157.8452     58.5118   7.5729984117e+01   3.8241389039e+01    0.2949263    0.1666535 -52.29   0.00114287    2.216    0.549
        84  -7.9971    111.2086     58.5990   8.7278780550e+01   4.8823215942e+01    0.3049697    0.1719642  24.13  0.001140095    2.902    0.655
        85  -7.1214     49.7003     58.3245   1.0690507857e+02   5.8646915568e+01    0.1224608   0.09403137  89.46 0.0007027038    1.631    0.387
        86  -7.4343     88.3639     54.3065   9.2646757856e+01   5.3940981996e+01    0.1425137    0.1058481  -5.73  0.000703814    1.742    0.426
        87 -10.1039     75.0270     50.2761   9.5647506226e+01   5.6918446221e+01    0.4109592    0.3136466 -22.00 0.0003057485    1.414    0.293
        88  -9.6421    129.1950     51.1320   7.9923717642e+01   4.6280122953e+01     0.308302    0.2772754 -31.83  0.000370251    1.087    0.080
        89  -9.0512     45.8060     48.5269   1.0553183331e+02   6.1139030484e+01    0.2765657    0.2042634 -30.73 0.0005716117    1.390    0.281
        90  -8.6010    118.4147     51.0633   8.2713519907e+01   4.8680576367e+01    0.2564993    0.2099139  58.24   0.00044827    1.349    0.259
        91  -7.9843    106.8986     48.5883   8.5047012243e+01   5.1525025240e+01    0.2964675    0.1982681  14.81  0.001312282    2.109    0.526
        92  -9.6386     11.8029     46.3517   1.1806109069e+02   6.4467919392e+01    0.3702896     0.250085 -25.69  0.001304948    1.737    0.424
        93  -7.2057    141.4285     47.4882   7.5690230113e+01   4.4010626083e+01    0.1503195    0.1427733   0.27 0.0002906942    1.021    0.020
        94  -8.7748      3.3109     45.7147   1.2123752880e+02   6.5067419302e+01    0.3328154    0.1964488  51.19  0.002067054    2.223    0.550
        95  -8.4056     92.1511     43.6819   8.7702202067e+01   5.5260241347e+01    0.2472693    0.1830251 -46.62 0.0007170329    1.345    0.256
        96 -10.8500     83.1774     40.0758   8.9253236460e+01   5.7516643905e+01    0.3792525    0.2537211 -23.99 0.0002375778    1.585    0.369
        97  -9.4910     87.5707     38.1992   8.7091276671e+01   5.7075325747e+01    0.2611161    0.2430384   2.99 0.0007583278    1.085    0.078
        98  -9.3260     56.7839     42.6959   9.9552205092e+01   6.1012172377e+01    0.7419382    0.3118109 -29.15  0.002280813    5.351    0.813
        99  -8.4361      3.6286     40.8275   1.2012738201e+02   6.6083359383e+01    0.1625796   0.08702444 -77.06 0.0004914594    1.715    0.417
       100  -7.3733    124.2864     39.4056   7.6935756430e+01   4.9314222397e+01    0.1576993    0.1105345   8.93 0.0006986937    1.799    0.444
       101  -9.4157     68.7351     37.1358   9.3143579074e+01   6.0402085394e+01    0.4709656    0.2967184   4.43  0.002166112    2.538    0.606
       102  -8.4250     73.6343     34.1843   9.0245933400e+01   6.0174007223e+01    0.2929035    0.1875786 -38.48  0.001041026    1.391    0.281
       103  -8.2892     35.5910     37.8193   1.0621517413e+02   6.4391462236e+01    0.2204359    0.1236766 -51.38 0.0006669765    1.428    0.300
       104  -9.4056     38.7497     35.4153   1.0413246628e+02   6.4558055565e+01    0.4145077    0.2032918  24.19  0.002058321    2.576    0.612
       105  -8.4888     32.7685     43.0005   1.0892845450e+02   6.3594569322e+01    0.4235433    0.2256374   9.07  0.002119937    2.897    0.655
       106  -9.2884     22.0005     32.0586   1.1012618203e+02   6.6745395956e+01    0.2152424    0.1617628 -58.84  0.000420016    1.156    0.135
       107  -7.7619    106.4909     36.4914   8.0638355605e+01   5.3675605426e+01    0.1438135    0.1318925  -7.86 0.0008104805    1.020    0.020
       108  -8.4761     56.0598     35.5211   9.7269775964e+01   6.2503698752e+01     0.238014     0.172741 -25.18 0.0006575427    1.380    0.275
       109  -9.7120      6.1188     33.9432   1.1752848278e+02   6.7392717498e+01    0.3510636     0.263267 -16.25  0.002513559    1.580    0.367
       110  -9.5007      1.9071     30.0388   1.1841325188e+02   6.8410566684e+01    0.4638755    0.1553451 -66.48  0.002270062    2.304    0.566
       111  -8.3248    224.7171     33.6536   5.6993476702e+01   2.4527003645e+01    0.3116643    0.1698163 -32.55  0.001379729    1.700    0.412
       112  -9.5303     41.4458     26.8468   9.9899737413e+01   6.5932862366e+01    0.3538321    0.1890873 -58.68  0.001001157    2.102    0.524
       113  -7.5245    173.5112     27.4568   6.2326105847e+01   3.8622347554e+01    0.1483906    0.1445647  32.73 0.0004534861    1.004    0.004
       114  -9.0922     62.7461     26.8433   9.1266591671e+01   6.3161926248e+01    0.3818376    0.1723912  35.16  0.001258304    2.546    0.607
       115  -7.7532    151.6788     26.3390   6.5878666953e+01   4.4472411502e+01    0.1564827    0.1128981 -60.44 0.0003474909    1.715    0.417
       116  -9.1767    219.0139    249.5132   1.0357154756e+02  -1.0691543380e+00    0.1639133   0.07442719  41.08 0.0009661895    1.580    0.367
       117  -9.4532    204.6522    247.9057   1.0554494633e+02   1.1513547911e+00    0.2179706    0.1600324 -56.11  0.001603635    2.420    0.587
       118  -9.1538    199.7827     21.1588   5.6395094189e+01   3.2371996566e+01    0.3810161    0.2185166 -70.81  0.001516157    2.398    0.583
       119  -7.5666    128.7623     22.4532   6.9266190466e+01   5.0696035645e+01    0.2150819    0.1253123  44.28 0.0009472645    1.682    0.405
       120  -8.9976     28.7470     21.0932   1.0329704274e+02   6.8325013413e+01    0.3158552    0.1765958 -28.01  0.001743494    1.905    0.475
       121  -8.5650     92.1302     20.6836   7.8363007048e+01   5.9045376764e+01    0.2837993    0.1966037  36.30   0.00105689    1.473    0.321
       122  -8.2533    140.5656     19.9030   6.5684584532e+01   4.8099965136e+01    0.2413061    0.1856498  41.35 0.0003964699    1.258    0.205
       123  -8.4705      9.4323     19.7541   1.1199192082e+02   7.0076860692e+01    0.2259847    0.1407219  -7.90 0.0009327118    1.987    0.497
       124  -8.1741      5.4594     19.0601   1.1370809034e+02   7.0445757033e+01    0.1725662   0.08385651 -58.50 0.0003642142    1.536    0.349
       125  -8.8945     46.1893     21.0429   9.5508836193e+01   6.6440854133e+01    0.3482741    0.1522765 -48.06  0.001538732    2.068    0.516
       126  -8.2895    127.7903     16.8710   6.7230597584e+01   5.1629772907e+01    0.2435881    0.1804995  42.77 0.0004262984    1.298    0.230
       127  -9.2599    173.7224    249.3941   1.1048044228e+02   5.5275357721e+00     0.196995    0.1015259  38.00 0.0009670684    1.470    0.320
       128  -8.5124    151.9991    249.5065   1.1387381087e+02   8.6671666524e+00    0.1463756    0.0723704  29.82 0.0008102682    2.523    0.604
       129 -12.0218    239.7266    244.4805   9.9836289386e+01  -3.5862624556e+00    0.2106827    0.1572081  29.37 0.0004604672    1.149    0.130
       130  -8.6232    189.3581     15.6826   5.6027866996e+01   3.5727814426e+01    0.2959357    0.2230507  13.85  0.001000252    1.499    0.333
       131  -8.1655    169.3128    246.6294   1.1086687036e+02   6.4712664385e+00    0.1022633   0.06916972  62.85 0.0002104632    1.777    0.437
       132 -10.0371     18.1777    245.0237   1.3388496975e+02   2.5720631600e+01      0.16869     0.109945  76.13  0.001097113    1.199    0.166
       133  -8.1829    105.4725     14.0221   7.1524760943e+01   5.7157159739e+01    0.2008471    0.1140423   3.90 0.0008088711    2.452    0.592
       134  -9.4273      3.8697    237.3939   1.3566998598e+02   2.8143853072e+01    0.1605919    0.1105334  65.08 0.0004130164    1.121    0.108
       135  -9.8311    188.2478    234.1545   1.0641320557e+02   4.9886033912e+00    0.2184209    0.1580259 -42.62  0.001245144    1.894    0.472
       136  -8.1792     87.9806     13.0618   7.6189904896e+01   6.0937724805e+01    0.2154028    0.1474586  15.80 0.0006435887    1.608    0.378
       137  -9.8881     43.7823    221.7641   1.2898875932e+02   2.6614226513e+01    0.2280891    0.1572656  43.73  0.001833909    1.463    0.317
       138  -8.8357    192.4108    195.6233   1.0032774000e+02   8.8495222325e+00    0.2059869    0.1066817 -53.93 0.0009642839    3.365    0.703
       139  -8.6042    245.0244    166.9702   8.6448414951e+01   3.0959678473e+00    0.1840507    0.1498752  17.21            0    1.024    0.024
       140  -8.9213    245.9174    162.0038   8.5342691844e+01   3.5026440967e+00    0.2001363    0.1549508  28.53 0.0003027524    1.126    0.112
       141  -8.2367    167.1326    159.8017   9.8950739396e+01   1.8601887747e+01     0.189066    0.1647661  54.52 0.0003556808    1.132    0.117
       142  -9.2513    214.2947    155.1718   8.9269765920e+01   1.0201351726e+01     0.232039    0.1987289  27.83 0.0003041972    1.041    0.039
       143  -7.5368    188.6877    149.3503   9.2776811285e+01   1.6059834362e+01    0.1310089    0.1083845 -89.08 0.0006522381    1.722    0.419
       144  -9.4109     67.0282    144.4685   1.1795261757e+02   3.7944479922e+01    0.3949779    0.2492586  65.95  0.001870257    1.568    0.362
       145  -7.8166     34.8401    145.6138   1.2524479695e+02   4.1320202177e+01    0.1593209   0.08150273  50.53 0.0009399484    1.805    0.446
       146  -8.3632    233.2443    137.3927   8.2320323670e+01   8.8741637061e+00    0.2146866    0.1610018  51.34 0.0003932705    1.460    0.315
       147  -7.5752    218.7319    136.0137   8.4481103147e+01   1.1957275313e+01    0.1665875     0.115461 -27.07  0.000565592    1.466    0.318
       148  -8.1446    153.2110    123.6129   9.4543519692e+01   2.7640734036e+01    0.2064418    0.1276612  37.76 0.0006661524    1.665    0.399
       149  -7.2660     85.5099    121.4871   1.1009144470e+02   4.0231697023e+01    0.1284009    0.1174213 -83.75 -1.128037e-05    1.042    0.040
       150  -7.5432    195.4753    119.5178   8.4958334931e+01   1.9312972023e+01    0.1452766    0.1315891  18.73 0.0008095335    1.043    0.041
       151  -7.4151    119.6956    118.6880   1.0115029290e+02   3.5144417779e+01    0.1334767    0.1110525  -6.71 0.0007021084    1.615    0.381
       152  -7.8180    159.5859    117.2478   9.1704761243e+01   2.7473532824e+01    0.1860426    0.1391058 -27.50 0.0002388106    1.491    0.329
       153  -7.5836     65.9988    116.4691   1.1418442048e+02   4.3993834959e+01    0.1713412    0.1198765  42.89 0.0004227776    1.510    0.338
       154  -7.3737    203.3153    113.3326   8.2013470949e+01   1.8556222252e+01    0.1522431    0.1068126  15.17  0.000704644    1.685    0.407
       155  -9.3090    133.9292    107.9899   9.5330738920e+01   3.4549697824e+01    0.6887825    0.2873816 -45.09  0.002649748    2.422    0.587
