#   1 NUMBER                 Running object number                                     
#   2 MAG_AUTO               Kron-like elliptical aperture magnitude                    [mag]
#   3 X_IMAGE                Object position along x                                    [pixel]
#   4 Y_IMAGE                Object position along y                                    [pixel]
#   5 X_WORLD                Barycenter position along world x axis                     [deg]
#   6 Y_WORLD                Barycenter position along world y axis                     [deg]
#   7 A_WORLD                Profile RMS along major axis (world units)                 [deg]
#   8 B_WORLD                Profile RMS along minor axis (world units)                 [deg]
#   9 THETA_WORLD            Position angle (CCW/world-x)                               [deg]
#  10 FWHM_WORLD             FWHM assuming a gaussian core                              [deg]
#  11 ELONGATION             A_IMAGE/B_IMAGE                                           
#  12 ELLIPTICITY            1 - B_IMAGE/A_IMAGE                                       
         1 -13.6843    189.0852     48.4536   3.9698805718e+01   3.1421459752e+01     1.218753    0.9358653  36.19  0.003733833    1.519    0.342
         2 -14.1178    214.6917     18.6089   2.8590826595e+01   2.8912026147e+01     1.189242     1.056145 -15.95  0.005034562    1.275    0.216
         3 -11.4481     53.5576    243.5208   1.0561079005e+02   1.9624989332e+01    0.1725005    0.1507872  -3.92  0.001225343    1.902    0.474
         4 -13.8875    245.5777    236.6067   7.1226683892e+01  -5.5529984497e+00     1.891186    0.7146749 -26.81   0.01034308    2.786    0.641
         5 -19.2754     29.7466    137.3618   1.0178261916e+02   4.3862967764e+01     17.75768     6.299197 -78.19   0.07085415    2.908    0.656
         6 -11.8903     38.7328    199.4979   1.0541314958e+02   2.9354482968e+01    0.2388639    0.1356227  60.84  0.001122841    1.510    0.338
         7 -10.2084     60.3495    197.9648   1.0076757864e+02   2.7102140159e+01    0.1488006    0.1210437  81.46 0.0002556097    1.117    0.105
         8 -10.1748     83.1712    194.8404   9.5571682952e+01   2.4676861949e+01    0.2385587    0.2018504  68.94 0.0009000067    1.053    0.051
         9 -10.2565    191.3301    191.7697   7.3071275810e+01   7.7987494560e+00    0.5480868    0.3125049 -64.41  0.001919198    5.658    0.823
        10  -9.0318    168.2958    195.3323   7.8015198472e+01   1.1078542938e+01    0.1272718   0.09346649   4.53  0.000702742    1.640    0.390
        11 -10.0858     60.3183    189.6727   9.9972703093e+01   2.8780521401e+01    0.2379877    0.1418232  83.63 0.0006908893    1.795    0.443
        12 -11.0645     60.2628    186.3623   9.9650396096e+01   2.9469840228e+01    0.2889286     0.212428 -44.91  0.001247407    1.812    0.448
        13 -10.1279      1.6770    189.5671   1.1239581813e+02   3.4969722751e+01    0.1924644   0.08114757  70.00  0.001042256    2.071    0.517
        14 -10.4311     72.2713    188.2363   9.7198302269e+01   2.7509390187e+01     0.174841    0.1429014  80.58 0.0003704467    1.127    0.113
        15  -8.7777    202.2951    187.6427   7.0361097694e+01   6.5966259358e+00    0.1134474    0.1019033 -85.68 0.0007032427    1.697    0.411
        16 -11.1093     85.1149    186.0211   9.4096345208e+01   2.6164262471e+01    0.2840765    0.2426711  71.97  0.001571605    1.063    0.060
        17 -11.1830     77.9513    183.2379   9.5355522732e+01   2.7754250708e+01    0.4496399    0.3505395  60.43  0.002445707    1.139    0.122
        18 -12.6589    144.5040    182.0061   8.0595107970e+01   1.7392157562e+01    0.5168625    0.3011836  61.64  0.002317887    2.420    0.587
        19 -11.1364     68.7094    242.2393   1.0280902461e+02   1.8017556352e+01    0.1440292    0.1113039  43.89 0.0003904076    1.205    0.170
        20 -11.2298    181.4668    177.6760   7.2407910770e+01   1.1661671341e+01    0.5066224    0.2864191 -35.86  0.001833773    1.880    0.468
        21 -12.5819    147.9700    180.4806   7.9615230840e+01   1.7066165709e+01    0.6398141    0.4033218 -80.80   0.00264595    3.346    0.701
        22  -9.4167     89.0036    179.3356   9.2363344117e+01   2.6963546685e+01    0.2205684    0.1630779  42.56 0.0004919684    1.272    0.214
        23 -11.6040     84.7407    178.4310   9.3214005137e+01   2.7779946295e+01    0.2348554     0.191134  70.38 0.0004032044    1.143    0.125
        24 -11.0319     75.4388    248.7683   1.0208825141e+02   1.6130492893e+01    0.2462142   0.09323036 -61.75   0.00134192    3.087    0.676
        25  -8.9662    199.6827    173.8665   6.8295738094e+01   9.0824737496e+00    0.1765201    0.1130392 -44.62 0.0004286699    1.769    0.435
        26  -9.7383     93.8442    235.9278   9.7665270213e+01   1.5800647177e+01    0.1658188    0.1315324  57.65 0.0006380955    1.076    0.071
        27 -11.8765    229.5909    170.8105   6.2560118820e+01   4.4999392444e+00    0.3223738    0.1898699  26.87  0.001734701    1.751    0.429
        28 -10.1363    187.5611    169.7782   6.9762727802e+01   1.1859053961e+01    0.3080889    0.2122073 -48.67  0.001648035    1.692    0.409
        29  -9.8600     91.4546    176.2990   9.1391204681e+01   2.7224940370e+01     0.262279    0.1620941  69.21 0.0009825227    1.927    0.481
        30 -10.6120    144.8017    168.9835   7.8270079724e+01   1.9742123660e+01     0.214442    0.1595641 -85.39 0.0007908387    1.939    0.484
        31 -11.1519    246.6349    165.3641   5.8826696276e+01   2.5184826446e+00     0.307685    0.1041641 -28.28  0.001259409    2.982    0.665
        32 -10.1705     72.7024    226.7118   1.0084172789e+02   2.0148213549e+01    0.1164471   0.09079253  79.82 0.0002219648    1.238    0.192
        33  -9.0873     90.4708    226.6111   9.7423928768e+01   1.7813313772e+01    0.1170196   0.09077265  52.70  9.47433e-05    1.034    0.033
        34 -11.3326    134.3395    148.1555   7.6626270284e+01   2.5754090084e+01    0.7330329    0.2433628 -52.57  0.002435988    3.445    0.710
        35 -10.7287    133.0000    140.4800   7.5357721371e+01   2.7581017451e+01    0.4828458    0.1820327 -50.69  0.001728132    2.800    0.643
        36 -12.0334     96.4073    147.2753   8.5630915471e+01   3.2696200607e+01    0.5607562    0.4716955 -28.12  0.001293101    1.481    0.325
        37 -10.4647    111.8587    150.0412   8.2313325084e+01   2.9462126055e+01      0.53346    0.3039394  76.40  0.001850946    3.762    0.734
        38  -9.2978    108.2262    151.4398   8.3452695001e+01   2.9793004737e+01    0.1958181    0.1237102  52.15 0.0009343298    1.594    0.373
        39  -9.6339    120.6593    138.3681   7.7871625196e+01   3.0367195976e+01     0.306545    0.2135974  79.19  0.001381489    2.027    0.507
        40 -10.4362    118.2090    134.8992   7.7748490551e+01   3.1569237282e+01    0.2749646    0.2135591  47.61 0.0005940272    1.272    0.214
        41 -11.8507    106.7117    132.5555   8.0165177034e+01   3.4189908815e+01    0.7881039    0.4874794 -71.31  0.003445126    2.056    0.514
        42 -11.8104     96.5079    133.3292   8.2982199248e+01   3.5801207746e+01    0.2665763    0.2554009 -27.33 0.0002112512    1.182    0.154
        43 -11.1348     91.3082    152.2903   8.7773680434e+01   3.2409913997e+01    0.3209998    0.2370705  31.11 0.0003473682    1.496    0.332
        44 -11.2622     88.7201    132.1517   8.4823868023e+01   3.7366186969e+01     0.388833    0.2623777  51.40 0.0008936417    1.510    0.338
        45 -10.2802    136.2648    128.8318   7.2033925586e+01   2.9341724137e+01    0.3517195    0.1257232 -43.93  0.001201256    2.853    0.649
        46  -9.8111    111.6912    128.3105   7.7981038612e+01   3.4217195193e+01    0.2211836    0.1963214  70.06 0.0004294907    1.155    0.134
        47  -9.9885    115.0088    126.9895   7.6841667987e+01   3.3885192064e+01     0.255334    0.2090797  39.00 0.0005613919    1.255    0.203
        48  -9.5118     99.2526    127.6008   8.1084255500e+01   3.6619249242e+01    0.2559005    0.1681916 -67.47 0.0005994565    1.672    0.402
        49 -10.4059    103.1364    122.0813   7.8853792144e+01   3.7167288207e+01    0.2807893    0.2429482  -8.28 0.0007396925    1.440    0.306
        50  -9.8990    120.8110    121.4845   7.4115060682e+01   3.3960438256e+01    0.2863219    0.1977305 -13.22  0.001193382    2.378    0.579
        51  -9.1839    110.2493    116.7614   7.5739870740e+01   3.7027874373e+01    0.1874433    0.1712416  -6.70 0.0003909578    1.266    0.210
        52  -9.1558    183.5130    115.9874   5.8833154303e+01   2.1866460302e+01    0.2188729    0.1391616 -33.88  0.001010454    1.546    0.353
        53 -10.8561    134.7716    106.7550   6.7005985318e+01   3.4191762377e+01    0.6250741    0.1504891 -46.55  0.001691882    4.287    0.767
        54 -10.5867     56.7399    212.0233   1.0273911175e+02   2.4823419801e+01    0.1778317    0.1197122  79.37 0.0007734321    1.400    0.286
        55 -11.8581    118.6550    109.5006   7.1759407368e+01   3.6960624258e+01    0.6348397     0.448043 -74.95  0.002723892    1.885    0.470
        56 -11.0610    120.4662    104.0059   6.9875203360e+01   3.7761002905e+01    0.3240491    0.2221032 -40.10  0.001272294    1.479    0.324
        57 -10.0815    205.5030    110.2031   5.3482011243e+01   1.8175913678e+01    0.2493799    0.2370764  57.95 0.0005803832    1.160    0.138
        58 -10.2655     89.4624    104.6118   7.8608637313e+01   4.3543124401e+01    0.2712745    0.2295242  80.57 0.0005955333    1.310    0.237
        59 -10.0889    103.2352     87.9717   7.0166297733e+01   4.4639051761e+01    0.2408336    0.2110119  49.59  0.000482098    1.183    0.155
        60 -10.3324     67.2605     81.1445   7.9488803846e+01   5.2493123089e+01     0.330333    0.2152523  52.83  0.001600655    1.815    0.449
        61 -10.3624     63.0632     79.5379   8.0484043271e+01   5.3485005576e+01    0.2950985    0.2259018  49.53 0.0008503493    1.461    0.315
        62 -12.7660    173.1459     61.6323   4.6043402360e+01   3.3413200458e+01    0.6650121    0.5609819  21.96 0.0008142557    1.376    0.273
        63  -8.7718    186.9974    248.9751   8.2425507064e+01   8.5501707261e-01    0.1157149   0.09508344  18.26            0    1.105    0.095
        64 -12.3120    194.9371     42.3139   3.7162582252e+01   3.0815435985e+01    0.5306919    0.3996066  46.22  0.001507351    1.471    0.320
        65 -10.3679     67.6382     55.6137   7.1277745393e+01   5.7831537491e+01    0.3005668    0.2361083  58.16  0.000905052    1.563    0.360
        66 -10.2482    156.1055    208.1370   8.2364762308e+01   1.1039355275e+01    0.2405152    0.1484485  42.09  0.001355735    1.413    0.292
        67 -11.5957     40.8921    206.4977   1.0548849031e+02   2.7738562143e+01    0.1742214     0.138649 -71.60 0.0006081234    1.402    0.287
        68 -10.4030    165.7872    248.3644   8.5980657979e+01   3.8818586365e+00    0.2931636    0.1605339  29.94 0.0008309021    1.579    0.367
        69  -9.5852     60.5044     21.0353   5.9485852543e+01   6.5039580519e+01    0.1894867    0.1650022  23.30 0.0003740504    1.123    0.110
