#   1 NUMBER                 Running object number                                     
#   2 MAG_AUTO               Kron-like elliptical aperture magnitude                    [mag]
#   3 X_IMAGE                Object position along x                                    [pixel]
#   4 Y_IMAGE                Object position along y                                    [pixel]
#   5 X_WORLD                Barycenter position along world x axis                     [deg]
#   6 Y_WORLD                Barycenter position along world y axis                     [deg]
#   7 A_WORLD                Profile RMS along major axis (world units)                 [deg]
#   8 B_WORLD                Profile RMS along minor axis (world units)                 [deg]
#   9 THETA_WORLD            Position angle (CCW/world-x)                               [deg]
#  10 FWHM_WORLD             FWHM assuming a gaussian core                              [deg]
#  11 ELONGATION             A_IMAGE/B_IMAGE                                           
#  12 ELLIPTICITY            1 - B_IMAGE/A_IMAGE                                       
         1 -12.7249     42.6078     19.6080   9.3091446042e+01   6.7513410061e+01    0.8799323    0.8315656  75.06  0.006111161    1.513    0.339
         2 -12.7319     20.2034     26.4046   1.0614362378e+02   6.8530424681e+01     1.482981    0.3602521 -49.80  0.005491187    2.783    0.641
         3 -13.0622     10.5292     18.1456   1.0782535361e+02   7.0880939728e+01    0.5514686    0.5179895  41.51  0.002404876    1.452    0.312
         4 -10.8816     49.1949      2.5449   8.1454715233e+01   6.9311552352e+01     0.331107    0.2364091  44.72  0.001260492    1.710    0.415
         5 -12.2066     30.3407     38.5600   1.0581174880e+02   6.5183121753e+01    0.7397403    0.5144111 -36.67  0.002102704    1.316    0.240
         6 -11.2163     42.1117     10.1689   8.8726745425e+01   6.9168254984e+01    0.2735848    0.2280627  -9.12 0.0006984765    1.116    0.104
         7 -12.1172     50.2788      8.5291   8.4267247465e+01   6.8286069561e+01    0.7241271    0.5219964  55.01  0.004222826    2.055    0.513
         8 -12.1637     16.7403     51.7179   1.1496145097e+02   6.3478331402e+01     1.224307    0.2756976 -60.23  0.004645629    2.873    0.652
         9 -11.9482     32.5366     29.7974   1.0179920456e+02   6.6738727564e+01    0.9614484    0.4986529  -3.65  0.003949469    4.125    0.758
        10 -11.8083     65.5665     26.7966   8.6976937632e+01   6.3005240661e+01    0.4387012    0.3488758   9.12  0.001811082    1.352    0.260
        11 -12.5666    246.4843     23.1736   4.9657139929e+01   2.0285309204e+01    0.7156182    0.4868023  27.56  0.003594476    1.895    0.472
        12 -12.2968      2.2823      9.9308   1.0904160308e+02   7.2987036861e+01    0.9462307    0.1880654 -45.36  0.001114689    3.196    0.687
        13 -11.6912     31.3301     15.0354   9.6171483583e+01   6.9632916231e+01    0.6402423    0.2759205 -50.77  0.002507624    2.173    0.540
        14 -11.6552     58.3876     16.4022   8.4929701428e+01   6.5848052112e+01    0.4536196    0.3283823  51.11  0.001458853    1.817    0.450
        15 -10.8337     59.9990     11.3268   8.1749248625e+01   6.6371343973e+01    0.4439632    0.2822102  13.82  0.001511818    1.910    0.477
        16 -11.3206     82.7382      7.7482   7.1896531528e+01   6.2750918231e+01    0.3448885    0.3086075  43.73  0.002138451    1.251    0.201
        17 -12.1492     68.9367      7.8836   7.6601672992e+01   6.5337377402e+01    0.7028571    0.4409115   1.82  0.003556134    1.878    0.468
        18 -12.1394     75.9467      3.7465   7.2014961096e+01   6.4562183547e+01    0.8470811    0.4920787  15.84  0.004023591    2.100    0.524
        19 -11.2503     86.6371     13.6332   7.3576787603e+01   6.1219020565e+01    0.3102286    0.2136027 -40.19  0.001366968    1.538    0.350
        20 -11.0592     19.3105     10.7923   1.0021724844e+02   7.1574587077e+01    0.3073492    0.2812462  26.39  0.002331595    1.450    0.310
        21 -11.0688     25.9832      7.5122   9.5166410954e+01   7.1505779187e+01    0.3312605    0.2441329 -18.86 0.0003576464    1.230    0.187
        22 -11.3389     21.9743      3.5262   9.5198226090e+01   7.2584951009e+01    0.4699095    0.2563341 -27.13  0.002695999    1.717    0.417
        23 -11.3353     16.4444      3.3888   9.8145762681e+01   7.3132445904e+01    0.3067144    0.2712603 -32.77  0.001136693    1.252    0.201
        24 -10.4950     59.4854      2.5043   7.7227722149e+01   6.7678565250e+01    0.2874954    0.1575856 -24.66   0.00107626    1.627    0.385
        25  -9.1338    148.1685      5.8546   5.6051963892e+01   4.7545671093e+01    0.1992523    0.1558394  32.89 0.0003638899    1.285    0.222
        26 -10.6216    247.7298      3.9121   4.4533740965e+01   2.1988356698e+01    0.3408667    0.1613432  -2.62  0.001287209    3.401    0.706
        27  -9.5149    222.5247      3.5374   4.6422302573e+01   2.8164064982e+01    0.1369997    0.1271963 -58.89 4.124285e-05    1.003    0.003
        28  -9.6613     35.1743      2.2129   8.7699384129e+01   7.1300736598e+01    0.1803431      0.13046 -16.77  0.001162259    1.188    0.159
        29  -9.6644     41.5494    244.8034   1.2914850778e+02   2.2422252039e+01    0.1429056    0.1004037  51.32 0.0005901019    1.299    0.230
        30  -9.5195    249.9202    250.0556   9.7500955713e+01  -6.6310812359e+00    0.1603837   0.08649708  20.13 0.0007197437    1.603    0.376
        31 -11.1703    225.2183    247.8318   1.0083762013e+02  -3.0494809475e+00    0.2826504    0.2154933  59.31  0.001939068    2.040    0.510
        32 -10.4439    232.9026    249.2497   9.9879910452e+01  -4.2477275792e+00    0.3239489    0.1809415  11.65  0.002124038    2.028    0.507
        33 -10.7346    233.8625    244.0177   9.9036475278e+01  -3.9347186926e+00    0.3450791    0.1391571  37.33  0.001355216    1.820    0.450
        34 -10.1625    218.5474    250.0387   1.0212405416e+02  -2.3019835832e+00    0.2446593    0.1046394  32.01  0.001434848    1.946    0.486
        35 -11.3335    166.3155    248.5645   1.1000028271e+02   5.4353596561e+00    0.1902249    0.1577124  42.53 0.0003499867    1.139    0.122
        36 -12.0150    139.7755    246.8508   1.1401600056e+02   9.5018086585e+00    0.3839188    0.2422612  26.48 0.0008664794    2.018    0.505
        37  -9.7143     87.5087    249.9619   1.2247705594e+02   1.6229489431e+01    0.1459906    0.1004556  54.54 0.0004854481    1.055    0.052
        38  -9.4433     72.7336    250.6562   1.2478053150e+02   1.7975226749e+01     0.132532   0.06320168  50.19 0.0004062343    1.469    0.319
        39 -11.0259     61.3792    248.4808   1.2636782607e+02   1.9641946108e+01    0.2043071    0.1564264  69.50  0.000619419    1.175    0.149
        40 -11.2516     46.1546    250.0069   1.2871872878e+02   2.1155720047e+01    0.2768794    0.1209308  45.71  0.001270633    1.695    0.410
        41 -10.0564      1.6550    249.0595   1.3503150542e+02   2.5771774117e+01    0.1842975   0.08830546 -84.23  0.001478017    1.902    0.474
        42 -11.1822    177.0345    243.3702   1.0772228590e+02   4.4327784883e+00    0.2281985    0.1613132  32.19 0.0005219954    1.215    0.177
        43 -10.0262     98.5196    241.3526   1.2010433029e+02   1.5993610555e+01    0.1818511     0.152477  69.84 0.0008100795    1.209    0.173
        44 -10.5573    103.3747    240.1325   1.1922685929e+02   1.5510737003e+01    0.1835752    0.1294504  49.40 0.0004163717    1.128    0.114
        45 -10.4757     68.8852    240.1181   1.2470555748e+02   1.9966435241e+01    0.1947483    0.1327249  40.17 0.0005539992    1.557    0.358
        46 -10.8414     51.2147    240.2424   1.2745244383e+02   2.2028377313e+01    0.2626756    0.1318852  56.95  0.001614616    1.414    0.293
        47 -10.0808    246.9930    238.9843   9.6388620627e+01  -5.3413653735e+00    0.1781292    0.1156983  15.18  0.000741124    1.297    0.229
        48  -8.9594     35.5017    240.4153   1.2984545671e+02   2.3729579564e+01   0.09520737   0.06568421  63.83 0.0001676247    1.061    0.057
        49 -11.2789     26.5371    238.6394   1.3110701557e+02   2.4932649269e+01    0.2824527    0.2377882 -34.87  0.001283175    2.629    0.620
        50 -11.5845     35.0567    230.9067   1.2945967245e+02   2.5244363055e+01    0.3678713    0.2276809  41.78   0.00271708    1.620    0.383
        51 -10.6111      9.6246    238.8273   1.3359705732e+02   2.6560700673e+01    0.1703844    0.1143611  72.97 0.0005790045    1.113    0.101
        52  -9.9763    249.1280    232.6119   9.5151582812e+01  -5.1011521039e+00    0.2767248    0.1495283  11.00  0.001721056    1.993    0.498
        53 -10.5636    238.9220    215.8955   9.4161752127e+01  -2.0861268236e+00    0.3374629    0.1834752 -11.49  0.001106541    2.200    0.545
        54 -10.9970    245.7544    166.8804   8.4470515251e+01   2.0910309711e+00    0.5728651    0.2839227  29.60  0.002821397    2.036    0.509
        55 -10.6210    234.1889    209.5294   9.3891816895e+01  -7.2227830484e-01    0.4400333    0.2805988 -15.46  0.002620314    1.690    0.408
        56 -11.5036    241.5650    175.5051   8.6790915755e+01   1.8022843221e+00    0.7558144    0.2497415 -29.14  0.003154836    3.157    0.683
        57 -11.5813    234.8963    238.4891   9.8120157215e+01  -3.5973071692e+00     0.707253    0.1644321  39.64  0.003149105    3.187    0.686
        58 -12.3159    247.5364    204.4503   9.0983567910e+01  -2.2710426546e+00    0.8589944    0.3835835  -8.58  0.003776852    3.744    0.733
        59 -11.8031    237.4749    196.6872   9.1246237006e+01   1.1017487664e-01    0.6695371       0.3236 -12.88  0.003247573    2.847    0.649
        60 -12.0555    245.2158    191.8564   8.9189085302e+01  -6.1489121610e-01    0.6186794    0.4271682  28.93  0.004058219    1.189    0.159
        61 -11.2353    239.2417    205.8309   9.2498857511e+01  -1.1293032006e+00    0.3814347    0.2428927 -27.00  0.001429232    1.736    0.424
        62 -11.7623    242.7287    198.5030   9.0728045429e+01  -9.1902132693e-01    0.6224956    0.3042037  19.50  0.003078789    2.485    0.598
        63 -10.9247    250.6259    172.1684   8.4729811341e+01   6.5487638355e-01    0.3475037    0.1096189 -26.54 0.0008365448    3.356    0.702
        64 -11.2753    248.5238    212.7968   9.2197367034e+01  -3.2292421568e+00    0.2936296    0.2005165   4.02  0.000512774    1.346    0.257
        65 -12.1993    249.5886    183.9393   8.7090024852e+01  -4.7171319313e-01    0.3980535    0.2670305  -6.10  0.001356867    1.431    0.301
        66 -11.9856    247.2195    176.7478   8.6129874879e+01   7.0890585009e-01    0.5224032    0.2470768 -19.48  0.001831303    2.315    0.568
        67 -11.7303    243.5627    231.6042   9.5833435837e+01  -4.2255702981e+00    0.5013066    0.2315079  25.14  0.002284501    2.050    0.512
        68 -12.2707    245.1053    224.9732   9.4614273569e+01  -3.8549821134e+00    0.4369338    0.3154204  39.49   0.00195751    1.383    0.277
        69 -11.9227    246.7709    218.0610   9.3298358374e+01  -3.4638635284e+00    0.2652537    0.1849269 -25.65 0.0008019104    1.665    0.399
        70 -10.8089    148.4532    238.1845   1.1173040656e+02   9.3187602061e+00    0.2411311    0.1423118  42.15 0.0004277478    1.301    0.231
        71 -10.0649    134.9708    238.8078   1.1398901499e+02   1.1226992044e+01    0.1581731    0.1353211  54.77 0.0003653709    1.155    0.134
        72  -9.8944     61.9815    239.0483   1.2571739587e+02   2.0956508687e+01    0.1512754    0.1101154  61.12 0.0005494911    1.080    0.074
        73 -11.0166    184.0724    236.6117   1.0578536840e+02   4.1281045404e+00    0.2301759    0.1559911  30.44 0.0004909243    1.285    0.222
        74  -9.9044     41.3893    236.5143   1.2876289538e+02   2.3690034347e+01     0.192927    0.1071208  60.68  0.001072417    1.266    0.210
        75 -11.3188    159.0959    235.0360   1.0964396340e+02   8.1134849175e+00    0.3017181    0.1684162  41.23 0.0008111989    1.379    0.275
        76 -11.0457    140.3603    234.6430   1.1267677173e+02   1.0981506261e+01    0.3368588    0.1574061  48.18  0.001109715    1.654    0.395
        77 -10.6876    145.5117    230.5989   1.1138450109e+02   1.0743644245e+01    0.2259404    0.1946278  23.08 0.0007322192    1.380    0.275
        78  -9.9686    143.9073    225.8744   1.1112214741e+02   1.1623856144e+01    0.1727108    0.1683642  -2.72 0.0004097227    1.343    0.255
        79 -10.5925     91.1753    235.7982   1.2084365987e+02   1.7772070479e+01    0.2014751    0.1515974  35.75 0.0005639411    1.574    0.365
        80 -11.5412     86.8320    233.0702   1.2133546368e+02   1.8748996415e+01    0.4139549    0.1883825  52.54  0.001707206    1.667    0.400
        81 -10.6005     77.1702    235.3151   1.2306598525e+02   1.9655693619e+01    0.2595599    0.1464021  59.52 0.0009906437    1.365    0.267
        82 -11.1672    128.7119    233.7731   1.1450865158e+02   1.2817369264e+01    0.3314249     0.268539 -82.51  0.002592579    1.482    0.325
        83 -10.8175    123.9932    230.6080   1.1497464086e+02   1.3946746476e+01     0.325794    0.1792909  33.26 0.0005454926    2.011    0.503
        84  -9.9950      3.7899    235.2310   1.3432610181e+02   2.7651137089e+01    0.1102512   0.08721115  74.73 0.0005451154    1.350    0.260
        85 -10.8973    230.4133    233.3541   9.8076251369e+01  -2.4847264778e+00    0.2026743    0.1478658  28.64 0.0004073985    1.039    0.037
        86 -10.7783    177.7084    232.1367   1.0625603432e+02   5.6155068691e+00    0.2462468     0.172361  20.44  0.001017077    1.585    0.369
        87 -10.0454    164.9869    232.3187   1.0836021785e+02   7.5506569476e+00    0.2739538     0.104289  39.68  0.001062326    2.124    0.529
        88 -10.5358    188.7740    231.0368   1.0431862597e+02   4.0356624207e+00    0.4025484    0.1362559  39.40   0.00195832    2.353    0.575
        89 -11.0755     55.3370    230.4300   1.2623981562e+02   2.3059782744e+01    0.2682869    0.2040676 -82.18   0.00147091    1.437    0.304
        90 -10.4570      9.7406    231.7537   1.3333870662e+02   2.7641304660e+01    0.1638259    0.1144251  72.44  0.000567867    1.121    0.108
        91 -10.5261    226.5841    229.7256   9.8146595454e+01  -1.5774365253e+00    0.3301815     0.181491 -13.24  0.001429289    2.351    0.575
        92 -11.0735    236.2921    226.2606   9.6146834299e+01  -2.6851165848e+00    0.2411872    0.1601461  17.65 0.0004376629    1.295    0.228
        93  -9.9622    229.5183    225.1626   9.7027918970e+01  -1.5735931098e+00    0.1754667    0.1411557  -7.98 0.0008374602    1.348    0.258
        94 -10.4512    233.2146    222.0966   9.5997715991e+01  -1.8300360897e+00    0.3342459     0.145989  37.54  0.001080279    1.785    0.440
        95 -10.9842    216.7719    230.4040   9.9770379230e+01  -1.7559045670e-01    0.2300985    0.1485071  27.73 0.0004912736    1.254    0.202
        96 -10.2902    100.5119    230.4707   1.1887098966e+02   1.7299227109e+01    0.1779144    0.1422311  57.46  0.000709459    1.105    0.095
        97 -10.9976    103.8636    227.8666   1.1808087249e+02   1.7222354852e+01    0.2947472    0.1687469  43.13  0.001049697    1.456    0.313
        98  -9.8599    134.3997    230.3056   1.1320599937e+02   1.2453455625e+01      0.20838    0.1148835  45.40 0.0007020736    1.389    0.280
        99 -10.3117     45.0517    229.3336   1.2781119495e+02   2.4404717085e+01    0.1644621    0.1316676  74.06 0.0005317804    1.235    0.190
       100  -9.2000    158.4973    229.0622   1.0904581529e+02   8.9583821501e+00    0.1260113    0.1125286 -44.50 0.0003636657    1.459    0.315
       101 -10.8308    113.7070    227.8866   1.1643046522e+02   1.5826340129e+01    0.2846799    0.1799172  35.74 0.0005265555    1.633    0.388
       102 -10.7806    115.1081    222.2369   1.1563699594e+02   1.6460261608e+01    0.3544368    0.2018148 -83.69  0.001845146    2.585    0.613
       103 -10.6820    169.9533    222.4306   1.0630863587e+02   8.0142403379e+00    0.2986843    0.2086901 -67.80   0.00190158    2.251    0.556
       104 -11.3578    164.0492    225.0883   1.0763612533e+02   8.6048055282e+00    0.3978665    0.2611497  47.29  0.001525566    1.226    0.184
       105 -10.3981    165.9487    220.3090   1.0671200644e+02   8.9229234082e+00    0.2354217     0.143804  33.63   0.00066313    1.505    0.336
       106  -9.4606     92.9033    227.8681   1.1991306942e+02   1.8726976009e+01    0.1457956    0.1226105  50.68 0.0004583384    1.273    0.214
       107 -10.2315     78.7555    226.8573   1.2218310047e+02   2.0747710064e+01    0.2927609    0.1477686 -82.41  0.001270072    2.318    0.569
       108 -10.4125     19.2634    227.6203   1.3174594039e+02   2.7380447150e+01     0.216234     0.186297 -81.56 0.0009146582    1.615    0.381
       109 -11.1021     16.4757    222.3243   1.3195769002e+02   2.8504580151e+01    0.3653961    0.1869079  74.59  0.002030623    1.484    0.326
       110  -9.7408    174.3636    227.1552   1.0617744047e+02   6.7315437262e+00    0.1811301     0.122807  35.57 0.0004779461    1.219    0.180
       111  -9.2549    138.9637    226.7436   1.1205444127e+02   1.2257699660e+01    0.1565831    0.1154265  48.51 0.0004450722    1.046    0.044
       112 -10.4271     68.0455    227.0388   1.2396135646e+02   2.2068419111e+01    0.2008462    0.1245595  42.92 0.0005212617    1.493    0.330
       113  -9.5729      1.6247    227.1366   1.3438986508e+02   2.9111703268e+01    0.1270623   0.08386152  76.41  0.001112952    1.127    0.113
       114 -11.1305    228.2448    217.6691   9.6101596202e+01  -6.3527182085e-01     0.271622    0.1962105   7.29  0.000577657    1.330    0.248
       115  -9.9424    210.8376    210.8087   9.7848092010e+01   2.8459145976e+00    0.1805156    0.1507734   7.40  0.000510224    1.193    0.162
       116 -11.7179    223.7518    213.1663   9.6120856966e+01   5.3020485821e-01    0.4397987    0.2954384  -7.77   0.00222332    1.655    0.396
       117 -10.6277    210.9869    215.8680   9.8589379415e+01   2.2538857190e+00    0.2614762    0.1934714   2.33 0.0004030413    1.452    0.311
       118 -11.1908    222.6165    225.1554   9.8103371615e+01  -5.3216337722e-01    0.3979613    0.1737553  37.99  0.001438223    1.775    0.437
       119 -11.8674    216.3793    220.3963   9.8392804858e+01   9.1626144045e-01     0.429703    0.3430263 -23.80  0.001358806    1.494    0.331
       120 -12.4752    216.8020    205.7537   9.6080689547e+01   2.4541669039e+00    0.4846729    0.3424196 -14.10  0.003193276    1.569    0.363
       121 -12.2159    224.7484    203.7370   9.4462724063e+01   1.3923591611e+00     0.391212    0.3758631 -47.21  0.001057895    1.543    0.352
       122  -9.6481    184.8468    225.8982   1.0428456010e+02   5.2400782581e+00     0.165221    0.1243826  28.28 0.0003779688    1.193    0.162
       123  -9.7470    199.7995    224.7157   1.0168163439e+02   3.0328928976e+00    0.1668611    0.1325737  12.36 0.0004627572    1.280    0.219
       124  -9.7481    120.7840    224.8913   1.1493738610e+02   1.5236962204e+01    0.1530657     0.128333  46.35 0.0004826513    1.191    0.160
       125  -9.9494      7.9423    225.0451   1.3337158966e+02   2.8871182176e+01    0.1437212   0.09811766  67.76  0.000506617    1.069    0.065
       126  -9.9396    191.0791    223.1603   1.0289099666e+02   4.5801083899e+00    0.1675811    0.1454129  17.32 0.0004639195    1.190    0.160
       127  -9.7436    129.5901    223.8361   1.1332736655e+02   1.4081649131e+01    0.1789312    0.1239832  40.83 0.0004717532    1.270    0.213
       128 -10.7122    207.1375    222.5570   1.0019050922e+02   2.1243637483e+00     0.198606    0.1574372  24.17 0.0004454238    1.088    0.081
       129  -8.8243    155.4831    223.4193   1.0887493076e+02   1.0163609902e+01    0.1141761   0.08801399  44.19 0.0001458697    1.021    0.021
       130  -9.9662    135.9225    222.9728   1.1215180474e+02   1.3247130890e+01    0.1757434    0.1348936  53.73 0.0005247011    1.065    0.061
       131  -9.4973     82.7879    222.8954   1.2119762020e+02   2.0845112470e+01    0.1466967    0.1236647  57.22 0.0005703375    1.239    0.193
       132 -10.0683     50.1521    222.4856   1.2659194542e+02   2.4925914815e+01    0.1551473    0.1380903  77.32 0.0005276761    1.412    0.292
       133  -9.2347     97.8328    222.0689   1.1857530738e+02   1.8943491418e+01    0.1286337    0.1144325  52.72 0.0004324096    1.296    0.228
       134  -9.8312     74.2141    222.1962   1.2258464969e+02   2.2064396418e+01    0.1455772    0.1193867  60.58 0.0004467659    1.196    0.164
       135  -9.9448     28.7392    221.9747   1.3001514945e+02   2.7337909619e+01     0.162325    0.1062977  58.13 0.0004875924    1.155    0.135
       136  -9.7850    180.8712    220.8543   1.0427020476e+02   6.4760727780e+00    0.1681684    0.1259625  29.51 0.0003869325    1.202    0.168
       137  -9.6763    174.9037    220.6715   1.0524647028e+02   7.4502106040e+00    0.1654084    0.1438426  16.30 0.0003271683    1.251    0.201
       138 -10.3939    148.5506    220.0338   1.0964774980e+02   1.1708115755e+01    0.2005284    0.1873398  47.66 0.0006834347    1.195    0.163
       139 -10.2159     68.3442    221.0114   1.2348078667e+02   2.2992918342e+01    0.1602294    0.1387719  37.68 0.0007350584    1.575    0.365
       140 -10.0742     59.6061    220.2820   1.2488966820e+02   2.4177623411e+01    0.3015185    0.1355353  45.97  0.001891496    1.745    0.427
       141 -10.0792     56.0746    216.8613   1.2524880634e+02   2.5160350695e+01       0.1752    0.1175041 -89.10 0.0007628806    1.378    0.274
       142 -10.5627     40.2043    220.7371   1.2810966793e+02   2.6324018315e+01    0.1824165    0.1585563  54.51 0.0006720327    1.469    0.319
       143  -9.7714    186.1286    219.0158   1.0314110473e+02   5.8604652867e+00    0.1715631     0.135227  34.61 0.0004434487    1.030    0.029
       144  -9.4641    128.8340    219.1182   1.1294269226e+02   1.4881682401e+01     0.142413    0.1188986  36.20 0.0003933334    1.290    0.225
       145  -9.8293    109.3333    218.8567   1.1629346249e+02   1.7812120348e+01    0.1922442    0.1172604  52.42 0.0005001992    1.290    0.225
       146 -10.2268    159.0825    217.8666   1.0757129569e+02   1.0340533112e+01     0.204252    0.1522176  37.61 0.0005838738    1.158    0.137
       147 -11.3153    132.3814    213.4150   1.1167496841e+02   1.5184679917e+01     0.271881    0.1613869  38.77 0.0006798894    1.523    0.344
       148 -11.6262    137.7286    213.9750   1.1080040435e+02   1.4268518473e+01      0.30751     0.269332  73.21  0.002105067    1.203    0.169
       149  -8.8435    104.2884    218.3181   1.1711430233e+02   1.8619581793e+01   0.09453677    0.0847391  20.44 0.0007003829    1.595    0.373
       150 -10.4849    193.7945    215.8151   1.0141135868e+02   5.0136537997e+00    0.2523349    0.1832074  16.37 0.0004719393    1.452    0.311
       151 -10.4508    200.6954    209.6627   9.9353174538e+01   4.6279041911e+00    0.2962568    0.1774573  41.48  0.001079083    1.361    0.265
       152 -10.7710    202.5014    215.5187   9.9925870199e+01   3.6477386299e+00     0.321573    0.2421667   0.37    0.0014251    1.490    0.329
       153 -11.0613    198.5769    212.7333   1.0016546555e+02   4.6071026337e+00    0.2535043    0.2385126  37.58   0.00138096    1.271    0.213
       154 -10.1420    119.7932    216.5002   1.1423016484e+02   1.6635604320e+01    0.2030468    0.1737292 -59.35 0.0008717754    1.466    0.318
       155 -10.6607    119.0020    212.3723   1.1392136184e+02   1.7389891262e+01    0.2921668    0.1664041  37.83  0.001201033    1.682    0.405
       156 -10.4521      7.9324    216.0881   1.3304404543e+02   3.0332612896e+01    0.1787401    0.1669497 -85.93  0.001119555    1.695    0.410
       157  -9.2550     21.6857    216.6959   1.3089058880e+02   2.8920823767e+01   0.08021746   0.07121734 -79.09 0.0003056582    1.619    0.382
       158  -9.2204    179.8103    215.3830   1.0370165020e+02   7.3294983196e+00    0.1559456   0.08872275  36.49 0.0002454386    1.479    0.324
       159  -9.3127     83.0705    215.3317   1.2051983676e+02   2.2022229604e+01    0.1503492    0.1080833  54.17 0.0005454227    1.124    0.111
       160 -10.1671     31.4226    214.2887   1.2919246518e+02   2.8333665643e+01    0.1663998      0.14453  71.90 0.0006839327    1.388    0.280
       161  -9.2630    186.4419    213.7439   1.0234862987e+02   6.4578890494e+00    0.1300219    0.1071532  -4.08 0.0003384843    1.411    0.291
       162 -10.2721    171.3014    213.7976   1.0493640125e+02   8.9163671893e+00    0.2009014    0.1645298  44.64 0.0004716468    1.068    0.064
       163  -9.6313    165.8614    213.8461   1.0587978939e+02   9.7931737157e+00    0.1738984    0.1336809  28.88 0.0004615153    1.278    0.218
       164  -9.7995    143.3890    214.1951   1.0983442464e+02   1.3346524246e+01    0.1900899    0.1287181  38.81 0.0005103259    1.307    0.235
       165 -10.9241     63.7802    213.3682   1.2369220808e+02   2.4814938236e+01    0.2457131    0.1549265  54.03 0.0005789277    1.236    0.191
       166 -10.7610    124.3780    210.6988   1.1277898215e+02   1.6832816602e+01    0.2585958    0.1586874  71.68   0.00149426    1.995    0.499
       167  -9.7406     51.8631    212.5683   1.2567245063e+02   2.6372497273e+01    0.1525695    0.1215761  88.39 0.0004919189    1.262    0.207
       168 -10.4115     41.2759    212.3360   1.2744634304e+02   2.7608060307e+01    0.1578313    0.1300548  71.06  0.000619083    1.243    0.196
       169  -9.3153    154.7693    212.1915   1.0758987215e+02   1.1815711938e+01    0.1478233    0.1218775  25.41 0.0004205926    1.317    0.240
       170  -9.5242     96.9431    212.3571   1.1782300759e+02   2.0608599234e+01    0.1545951    0.1150932  51.50 0.0004862368    1.135    0.119
       171  -9.7160     25.4998    210.4746   1.2997026634e+02   2.9587786836e+01     0.138875    0.1183724 -72.36 9.249354e-05    1.621    0.383
       172 -10.2595     18.2618    210.6847   1.3116755216e+02   3.0267218856e+01    0.1684636    0.1489683  81.18 0.0009173674    1.468    0.319
       173  -9.3103    106.7963    210.1713   1.1585600561e+02   1.9549687967e+01    0.1359604     0.124772  44.10 0.0004069218    1.325    0.245
       174  -9.8042     56.2925    209.9497   1.2473319864e+02   2.6297506112e+01    0.1602839     0.126256  39.82 0.0004955429    1.541    0.351
       175 -10.2609    161.2248    208.5146   1.0596939388e+02   1.1282503423e+01    0.2003773    0.1670124  25.01 0.0004542591    1.265    0.210
       176  -8.8699    149.2965    209.7077   1.0823155278e+02   1.3054082751e+01    0.1137164   0.08019258  65.38 0.0002682366    1.560    0.359
       177  -9.1790     93.4412    208.7649   1.1809848286e+02   2.1689034779e+01    0.1303804    0.1023272 -59.88 0.0006197672    1.583    0.368
       178  -9.0584     78.4193    208.8115   1.2077345923e+02   2.3720371635e+01    0.1267787   0.09676993 -65.96 0.0004775912    1.551    0.355
       179  -9.5495    177.0810    208.1243   1.0314667366e+02   8.7183749920e+00    0.1677122    0.1324232  28.35  0.000310177    1.186    0.157
       180 -10.3903    145.6765    207.6726   1.0861246806e+02   1.3936766574e+01    0.3342882    0.1471199  33.52  0.001521542    2.685    0.628
       181  -9.5359    148.8610    205.3777   1.0774387727e+02   1.3760278887e+01    0.2161275    0.1553749  26.80  0.001345708    1.577    0.366
       182 -10.9969    145.0190    200.2431   1.0775350610e+02   1.5165504284e+01    0.2960289    0.1759476  43.78   0.00108756    1.405    0.288
       183 -11.0761    132.5597    206.9916   1.1087683971e+02   1.6133715240e+01    0.3464043    0.2300679  40.38   0.00140206    1.343    0.256
       184 -11.3890    139.2006    203.6702   1.0926213698e+02   1.5586406902e+01    0.4084882    0.2855237   8.17  0.001159263    2.623    0.619
       185 -11.0900    114.6850    206.5990   1.1405485026e+02   1.8955169422e+01    0.3557695    0.1799837  59.82  0.001809033    2.033    0.508
       186 -10.9405    110.1679    201.7806   1.1433833810e+02   2.0424189646e+01    0.3428324    0.2263943 -89.10  0.002105848    1.799    0.444
       187  -9.5189     72.8454    207.6872   1.2166426072e+02   2.4636456605e+01    0.1552324     0.119016  44.07 0.0005083546    1.381    0.276
       188  -9.0629    193.2320    207.5934   1.0029857077e+02   6.1090947599e+00    0.1555817   0.09205091  35.40 0.0003037788    1.422    0.297
       189  -9.9667    206.8100    206.0153   9.7772690087e+01   4.0585602430e+00    0.2017946    0.1378125  35.37 0.0004051621    1.181    0.153
       190 -10.0684    124.3222    205.9394   1.1223657973e+02   1.7586692762e+01    0.2339871    0.1413134  37.20 -0.000275831    1.614    0.380
       191 -10.2004     47.1991    206.0550   1.2603774536e+02   2.8024983056e+01    0.1739498    0.1324911  47.97  0.000585136    1.372    0.271
       192  -9.1431     32.1902    206.5581   1.2864183539e+02   2.9574329134e+01    0.1172843   0.08964771  41.08  0.000460593    1.570    0.363
       193 -10.5154     15.9613    205.8374   1.3132250335e+02   3.1318909933e+01    0.2069287    0.1468739  39.03  0.001197425    1.674    0.403
       194  -8.5486    183.5543    205.4589   1.0163788948e+02   7.9922720108e+00    0.1199635   0.09663088  33.82 0.0001092262    1.045    0.043
       195  -9.8072     86.4724    204.9193   1.1898230167e+02   2.3299311602e+01    0.1825104     0.141156  39.21 0.0005905901    1.444    0.308
       196  -9.0287     38.7011    205.2982   1.2745635777e+02   2.9100019598e+01    0.1094397   0.05608597  65.91 0.0002080168    1.575    0.365
       197 -10.6383      6.7764    203.9457   1.3275258144e+02   3.2494363736e+01    0.1766668    0.1730092  75.82  0.001059959    1.727    0.421
       198  -8.9180    156.6756    204.7347   1.0625998676e+02   1.2571173469e+01    0.1144667   0.08364769  24.08 0.0002957225    1.564    0.361
       199  -9.0452    179.2340    202.3595   1.0192866198e+02   9.1304537699e+00    0.1557094   0.09550157  47.58  0.000252441    1.421    0.296
       200  -8.6952    173.3072    202.3003   1.0296190431e+02   1.0138281910e+01    0.1175184   0.08467861  19.41 0.0002791035    1.596    0.373
       201 -10.9126     56.2966    201.7458   1.2413175749e+02   2.7720903995e+01    0.1844643    0.1534581  74.51 0.0004271632    1.181    0.153
       202  -9.7874     21.0728    202.0950   1.3028591684e+02   3.1478426465e+01    0.1388523    0.1154655  80.70 0.0005542326    1.305    0.234
       203  -9.9260    198.3521    201.0771   9.8424945940e+01   6.0699516486e+00    0.1847529    0.1366808  29.56 0.0003983073    1.157    0.136
       204  -9.2010    186.9754    200.9785   1.0036901747e+02   8.0055430676e+00    0.1403435    0.1159776  34.52 0.0003209297    1.011    0.011
       205  -9.7040    161.6886    201.3071   1.0488522379e+02   1.2233701235e+01    0.2329029    0.1535027  62.28  0.001078769    1.752    0.429
       206 -10.5788    165.2635    200.0372   1.0406212966e+02   1.1815324863e+01    0.2617753    0.1755801  23.87 0.0008433532    1.747    0.428
       207  -8.8087     34.2854    201.2944   1.2797555357e+02   3.0276323788e+01   0.08555309   0.07536379 -74.40 0.0002364807    1.543    0.352
       208 -10.2222     26.8812    200.7107   1.2922112277e+02   3.1145124102e+01    0.2857338   0.08721066  49.93  0.001576231    2.385    0.581
       209  -9.8857    132.2920    199.6988   1.1001510257e+02   1.7321257225e+01    0.2129112    0.1585179  14.39 0.0008510906    2.036    0.509
       210  -9.3116     98.6941    200.4505   1.1630508470e+02   2.2340699136e+01    0.1506975    0.0996683  37.59 0.0009354501    1.574    0.365
       211 -10.1353     69.2177    200.3289   1.2169296996e+02   2.6377142291e+01    0.1522505    0.1261911  43.96 0.0006322557    1.405    0.288
       212 -10.7552    230.1107    198.3140   9.2699670381e+01   1.1230676896e+00    0.2752014    0.1802208  33.48 0.0007206643    1.250    0.200
       213 -10.5351    231.2675    192.2622   9.1479443499e+01   1.6101117212e+00    0.4838338     0.241069  12.16  0.002035347    3.484    0.713
       214 -10.4261    209.9547    198.1387   9.5988125168e+01   4.4794594947e+00    0.2745963    0.2034133 -50.54  0.001057138    1.944    0.486
       215 -10.2220    209.5996    192.3176   9.5081835984e+01   5.2552354006e+00    0.2479237    0.1670073  15.38 0.0007854087    1.591    0.371
       216 -10.2437    202.6705    194.7912   9.6675197547e+01   6.1310934311e+00    0.2236836    0.1769787  18.65 0.0004796756    1.182    0.154
       217 -11.1821    207.2701    188.1678   9.4774006989e+01   6.1822220992e+00    0.5458236    0.3282668  20.07   0.00224474    1.920    0.479
       218  -9.7100    120.2057    206.7529   1.1307513802e+02   1.8091754562e+01    0.1739003    0.1340279  61.39 0.0006265118    1.119    0.106
       219  -9.5844     42.0026    199.1620   1.2648761562e+02   2.9821856388e+01    0.1431063    0.1236601  74.90  0.000503125    1.293    0.227
       220 -10.2425    103.4814    197.6113   1.1510931662e+02   2.2125565719e+01    0.2718539    0.1721012  71.56  0.001128042    1.656    0.396
       221  -9.9333     49.4800    198.0736   1.2507903621e+02   2.9173395581e+01    0.1629559    0.1379774  48.40 0.0005267793    1.413    0.292
       222 -10.2001    215.5165    196.0273   9.4708495811e+01   3.7987951226e+00    0.2414063      0.17997  -7.75 0.0008836298    1.430    0.301
       223  -9.4828    169.9274    195.9043   1.0261264327e+02   1.1616762102e+01    0.1786101    0.1438446  29.59 0.0003786182    1.189    0.159
       224 -10.4676    157.5904    194.5125   1.0464795103e+02   1.3933970721e+01    0.2967851    0.2132889 -44.05  0.001394322    1.661    0.398
       225  -9.5892    149.0993    196.4983   1.0649183091e+02   1.5065030767e+01    0.1832913    0.1025964  42.63 0.0005219465    1.514    0.340
       226  -8.7096    125.2401    196.3236   1.1089330836e+02   1.8996677928e+01    0.1021254     0.092307   1.70 0.0002423251    1.523    0.344
       227 -10.2635     89.0567    195.9261   1.1762214585e+02   2.4499018247e+01    0.1725179    0.1424928  63.57 0.0004974318    1.074    0.069
       228  -9.2062     60.8254    196.1114   1.2286981664e+02   2.8178042370e+01    0.1332672    0.1208309  84.81  0.000441454    1.336    0.251
       229  -9.4277    176.3155    195.4301   1.0139420189e+02   1.0585551718e+01    0.1538616    0.1020024  48.51 0.0002913412    1.345    0.257
       230  -9.3815    140.4510    195.1924   1.0790987648e+02   1.6709848837e+01     0.150104    0.1142738 -77.12 0.0005240273    1.616    0.381
       231 -10.0351    143.9038    193.7263   1.0706502368e+02   1.6368645033e+01    0.2172562    0.1502504  85.84 0.0008760065    2.074    0.518
       232 -10.0061    113.2443    193.9385   1.1285089643e+02   2.1278462934e+01    0.1576033    0.1378399  68.11 0.0003898283    1.082    0.076
       233 -10.5469     81.6398    193.6607   1.1878361435e+02   2.5926976855e+01    0.2176942    0.1183229  47.41 0.0005902096    1.555    0.357
       234  -9.8463    184.3458    194.4223   9.9808277982e+01   9.3386350341e+00    0.1979326    0.1482722  28.63 0.0005733531    1.238    0.192
       235  -8.9154    194.4096    192.4672   9.7723258314e+01   7.8579226842e+00    0.1220961    0.1025067  30.43   0.00010871    1.015    0.015
       236 -10.3808    151.7104    191.4304   1.0528330473e+02   1.5411704890e+01     0.229343     0.213678  19.37 0.0008943451    1.215    0.177
       237  -9.8073    104.2984    191.8940   1.1430412742e+02   2.2994883802e+01    0.1682446    0.1373924 -26.34  0.001070519    1.971    0.493
       238  -8.9999     36.4706    192.5832   1.2703966758e+02   3.1611820666e+01    0.1060444   0.07918283  72.43 0.0001371091    1.037    0.035
       239  -9.7907    162.0073    190.2649   1.0320065143e+02   1.3819375523e+01    0.1867889    0.1812654  80.01 0.0004718804    1.181    0.153
       240 -11.0704    158.7498    186.5702   1.0323874395e+02   1.4956300002e+01    0.3604293    0.2371058  45.67  0.002084854    1.305    0.233
       241 -10.1236    224.6607    189.9101   9.2149599422e+01   2.9845105612e+00    0.2097719    0.1898581  55.30  0.001452246    1.478    0.323
       242 -10.0937     96.8358    188.9218   1.1538943422e+02   2.4629863352e+01    0.2788521    0.1622881 -63.48 0.0009411003    1.842    0.457
       243 -10.3046    199.3134    188.8018   9.6258256677e+01   7.4892230028e+00     0.225996    0.1773399  22.76 0.0003692166    1.172    0.147
       244  -9.3394    172.6649    188.9802   1.0104480839e+02   1.2150564609e+01    0.1589317    0.1488539  24.47  0.000332334    1.120    0.107
       245 -11.0226     72.7796    188.3628   1.1994382238e+02   2.8075658747e+01    0.2654494    0.1468643  68.35  0.001533346    1.766    0.434
       246 -10.1064    215.0393    186.8158   9.3216065717e+01   5.0039500327e+00    0.2198871    0.1673286  -5.73 0.0009174067    1.372    0.271
       247  -9.0574    179.2710    188.0132   9.9689153685e+01   1.1127965677e+01    0.1302542    0.1106006 -33.12  0.000326475    1.362    0.266
       248  -9.2028     64.4849    189.5647   1.2162945942e+02   2.8918023418e+01    0.1123845   0.08873994  70.40 6.159797e-05    1.035    0.034
       249 -12.3253    233.9233    185.1846   8.9800705903e+01   1.9753876417e+00    0.5238016    0.2699064  38.41  0.001563405    1.669    0.401
       250  -9.6709    116.6316    187.5090   1.1140173595e+02   2.1859933393e+01    0.3305667    0.1517306  33.66  0.001488855    2.688    0.628
       251  -9.0471    193.7676    186.0169   9.6761602041e+01   8.8416679455e+00    0.1396525    0.1041846 -33.29 0.0003755566    1.525    0.344
       252 -10.1827    127.7056    185.3956   1.0898027642e+02   2.0437553249e+01     0.324839    0.1671315  35.10  0.001474184    2.118    0.528
       253  -9.5473    166.9458    184.3178   1.0135426350e+02   1.3861030731e+01    0.1774773    0.1417154  39.31 0.0003977956    1.095    0.087
       254  -8.8258     80.6798    184.6917   1.1805158932e+02   2.7696588400e+01    0.1001855   0.09368683 -21.01 0.0002894345    1.641    0.390
       255  -9.2758     34.7725    184.4330   1.2680099040e+02   3.3303952649e+01    0.1256085   0.09900032  36.93 0.0009364154    1.608    0.378
       256 -10.9713    211.1753    179.8204   9.2634793491e+01   6.5747564515e+00    0.3208225    0.2365927 -15.16  0.001149444    1.458    0.314
       257 -10.1747    210.1437    173.9221   9.1735684110e+01   7.5412508206e+00    0.3116081    0.2217071  40.66  0.000876457    1.262    0.208
       258 -10.4796    205.0966    175.0150   9.2819901910e+01   8.3115348001e+00    0.2408402    0.1908711   2.58 0.0006769848    1.308    0.236
       259 -10.1811    141.3039    182.3902   1.0592006355e+02   1.8660428452e+01    0.3006452    0.2136508  -7.69  0.001227066    2.605    0.616
       260  -9.4787     67.1266    182.6702   1.2048507147e+02   2.9871604032e+01     0.156625    0.1238541  61.96 0.0005877154    1.108    0.097
       261  -9.1092    224.0289    181.9242   9.0837595752e+01   4.0504225023e+00    0.1429837     0.118184  20.61 0.0003500996    1.008    0.008
       262  -8.8536    218.2613    181.6911   9.1762871870e+01   5.0838941194e+00    0.1050267   0.09921481  86.58 0.0002639401    1.528    0.346
       263 -10.0872    203.1931    180.2375   9.4096607945e+01   7.9463592024e+00    0.3221337    0.2150372 -50.23  0.001661443    2.038    0.509
       264  -9.5163    184.2151    180.8167   9.7591244879e+01   1.1287736352e+01    0.1698758    0.1329134  21.28 0.0003888756    1.298    0.229
       265 -10.3587    156.2933    181.3713   1.0288876609e+02   1.6212918357e+01    0.2937528    0.1565952  40.75  0.001485705    1.681    0.405
       266  -8.7251    197.6738    180.7151   9.5154205211e+01   8.8730284939e+00    0.1288035   0.08795077  18.96 0.0002949324    1.604    0.377
       267 -10.3765    175.1733    179.5739   9.9042739639e+01   1.3109069681e+01    0.2291617    0.2224956  24.46 0.0004584709    1.128    0.113
       268  -9.3951     55.5028    179.9604   1.2249736698e+02   3.1826598128e+01    0.1556762   0.09679558 -74.92 0.0005195565    1.506    0.336
       269  -9.4199    235.7901    179.1238   8.8394293334e+01   2.3636565241e+00    0.1691094    0.1194661  12.37 0.0004224004    1.328    0.247
       270  -8.9999    231.2450    178.2854   8.8979611824e+01   3.2428467139e+00    0.1196143   0.08153847  12.08 0.0002234406    1.463    0.316
       271  -9.7096    191.0191    176.9103   9.5674559456e+01   1.0616516253e+01    0.1922447    0.1629126  27.01 0.0003905388    1.061    0.058
       272 -10.9051    140.6003    176.3591   1.0513942724e+02   1.9807625472e+01    0.3272511    0.2771061  73.27  0.001478984    1.216    0.178
       273  -9.0027    134.5258    177.5467   1.0651725894e+02   2.0651106138e+01     0.126768    0.1099683  55.96 0.0002357358    1.003    0.003
       274  -8.9471     69.3558    177.3065   1.1951455836e+02   3.0608297968e+01    0.1023053   0.09255939 -29.33 0.0007041499    1.721    0.419
       275  -9.1265    169.5062    176.4375   9.9572550597e+01   1.4622718929e+01    0.1293126    0.1120723  38.04 8.886774e-05    1.030    0.029
       276 -10.1074    101.0479    175.9592   1.1298944812e+02   2.6380708735e+01    0.1769439    0.1448759  68.85            0    1.055    0.052
       277  -9.4882     60.4489    176.4681   1.2120335450e+02   3.1898826628e+01    0.1166684   0.09061116  74.58 -1.638225e-05    1.019    0.019
       278  -9.4638    219.3372    175.0483   9.0365224426e+01   5.7367551714e+00    0.1654222    0.1416445  -0.43 0.0003625774    1.131    0.115
       279 -10.4282    197.8966    174.2747   9.3962437841e+01   9.7318565879e+00    0.2212637    0.2101627 -78.03  0.001089186    1.368    0.269
       280  -8.9710     46.6591    175.2973   1.2382490330e+02   3.3757483638e+01    0.1209928   0.06537633  66.79 0.0007033278    1.663    0.399
       281  -9.1908    182.8602    173.8788   9.6629831697e+01   1.2563192883e+01    0.1630686    0.1474083  65.52 0.0003758013    1.272    0.214
       282 -10.9197    161.6461    174.0158   1.0066076935e+02   1.6442619947e+01    0.2812337    0.1711726  35.21  0.000597808    1.629    0.386
       283 -10.8340    153.1088    173.7049   1.0226314464e+02   1.8041096409e+01    0.3330147    0.2222563  28.10  0.001321882    1.737    0.424
       284  -9.1745    129.1722    172.8593   1.0687562239e+02   2.2395998032e+01    0.1604208    0.1471209  24.41 0.0003569593    1.287    0.223
       285  -9.2290    233.3898    172.4624   8.7536040281e+01   3.5735710332e+00    0.1250401    0.1028556  13.19 0.0001091682    1.029    0.028
       286  -8.9684     24.4113    172.2423   1.2793605747e+02   3.6685693085e+01   0.08962551   0.08060423 -47.93 0.0005016319    1.705    0.413
       287 -10.1593    225.8758    170.7791   8.8458615020e+01   5.1122885857e+00    0.1887934    0.1435061  20.44 0.0004186694    1.171    0.146
       288  -9.4844    193.0090    171.2429   9.4290197347e+01   1.1071206206e+01    0.1811867    0.1501246  34.08 0.0003654576    1.060    0.056
       289  -8.9557     76.4758    171.4564   1.1744625741e+02   3.0798689320e+01    0.1190102   0.09961304  74.67 0.0002298315    1.040    0.038
       290  -9.5701    201.1562    169.8677   9.2565349698e+01   9.7532891804e+00    0.1754342    0.1384173  11.54 0.0003449554    1.295    0.228
       291  -9.1967    188.1693    170.6378   9.5065148341e+01   1.2062697505e+01    0.1833779    0.1069741  36.18 0.0003576141    1.605    0.377
       292  -8.7532     44.6723    170.6664   1.2382454265e+02   3.4889399828e+01    0.1020632   0.08311001 -50.61 0.0007051723    1.718    0.418
       293  -9.3983    197.3639    168.7069   9.3029687249e+01   1.0627020002e+01    0.1725328    0.1197073 -21.11 0.0009417761    1.636    0.389
       294 -10.0812    158.6139    168.7730   1.0035343620e+02   1.7864757916e+01    0.1784634    0.1503663  37.84 0.0005024378    1.112    0.101
       295 -10.3672    233.1445    151.5943   8.3421177086e+01   6.2560879394e+00    0.2578492    0.1895989 -47.07  0.001211464    1.778    0.438
       296 -10.1081    240.0572    162.4575   8.4506572708e+01   3.6191202283e+00    0.2648944    0.1699052  15.92 0.0005094972    1.605    0.377
       297 -10.6742    237.4872    156.9745   8.3818602521e+01   4.7630631291e+00    0.3790838     0.215521 -13.70  0.001028351    1.966    0.491
       298 -10.9007    239.5834    151.1818   8.2286896880e+01   5.1140644357e+00    0.5527974    0.2490602  37.43  0.002517948    2.156    0.536
       299 -10.7956    237.5990    166.8575   8.5770588896e+01   3.5165635600e+00    0.3280013    0.2245523 -28.58 0.0009502921    1.509    0.337
       300 -10.8022    234.1884    162.4420   8.5456558828e+01   4.6715488703e+00     0.308081    0.2395139 -30.93 0.0006930617    1.404    0.288
       301  -9.3646    134.9701    167.6790   1.0489254350e+02   2.2325209135e+01    0.1816405    0.1525765  49.88 0.0004262253    1.079    0.073
       302 -10.1066    213.1989    160.2863   8.8582644553e+01   8.8399301359e+00    0.3040237    0.1876425  22.72 0.0004161419    1.803    0.445
       303  -9.1109    211.8123    167.5811   9.0249586081e+01   8.0937352556e+00    0.2335437    0.1891299  73.77 0.0008057046    1.833    0.454
       304 -10.0006    209.6867    164.6760   9.0061537665e+01   8.8900928363e+00    0.2661845    0.1802646   6.07  0.001033843    1.775    0.437
       305 -10.7975    205.5060    166.2112   9.1096943273e+01   9.4583956898e+00    0.3440938    0.2199881 -16.39  0.001635066    1.868    0.465
       306 -10.2156    150.2522    166.7670   1.0166166784e+02   1.9742997957e+01    0.1713025    0.1470028  21.40 0.0004276824    1.310    0.237
       307  -9.0720    140.5805    166.7695   1.0360607965e+02   2.1492996218e+01    0.1641554    0.1241501 -68.48  0.000819369    1.530    0.346
       308  -9.0169     84.5427    167.4135   1.1529834698e+02   3.0469798858e+01    0.1218585    0.1020625  72.51 9.917404e-05    1.014    0.014
       309 -10.4167    218.9488    165.2582   8.8566546891e+01   7.0883397459e+00    0.2099413     0.171522  -2.02 0.0003758734    1.184    0.155
       310  -9.2438    179.0386    166.4700   9.6004818597e+01   1.4417569693e+01    0.1937975    0.1179453  43.59 0.0003944811    1.474    0.322
       311  -9.5441    169.7763    166.4326   9.7768387527e+01   1.6171332506e+01    0.1806706    0.1148442  36.16 0.0004060776    1.516    0.340
       312  -9.7959    200.2462    162.3779   9.1299349821e+01   1.1003058000e+01    0.2581286    0.1752086  17.29 0.0009252877    1.697    0.411
       313  -9.6382    192.0070    162.5090   9.2831601700e+01   1.2558429276e+01    0.1837738    0.1672283  16.38 0.0003650506    1.054    0.052
       314  -9.9577    184.3896    163.0186   9.4349601090e+01   1.3939104369e+01    0.2953014    0.1797715  58.78 0.0008232568    1.967    0.492
       315  -9.3996    159.5108    163.0005   9.9157672818e+01   1.8674403393e+01    0.1783178    0.1327866 -43.78 0.0003213641    1.484    0.326
       316  -8.5993    120.2832    163.3245   1.0722948537e+02   2.5671163992e+01    0.1184341    0.1034841  -7.44 0.0005542241    1.598    0.374
       317  -9.3676    111.1657    162.8983   1.0908004377e+02   2.7271963801e+01    0.1584486    0.1528824 -33.35 0.0005017817    1.309    0.236
       318  -9.0141     80.5410    163.5013   1.1565447701e+02   3.1814839383e+01    0.1232274    0.1029155  76.79 9.147583e-05    1.003    0.003
       319  -8.5324    172.6665    162.2820   9.6448049016e+01   1.6299884804e+01    0.1299089    0.1026219  74.57 0.0003709856    1.614    0.380
       320  -9.6620    221.0924    159.7322   8.7107466148e+01   7.4307628223e+00    0.2078794    0.1852346 -56.37  0.000739913    1.527    0.345
       321 -10.6970    206.0524    152.4496   8.8264028517e+01   1.1337784553e+01    0.1979429    0.1726127 -10.08  0.000413314    1.142    0.124
       322 -11.2256    205.3716    159.0984   8.9731395797e+01   1.0499636796e+01    0.3140689    0.2392098   6.29 0.0005026579    1.409    0.290
       323 -10.1167    153.0259    159.9689   9.9909854787e+01   2.0417561593e+01    0.2550735    0.1794006  28.20 0.0004580813    1.625    0.384
       324 -11.2401    156.7961    157.5065   9.8697773842e+01   2.0137943417e+01    0.3920715    0.2454072  57.96  0.001874616    1.723    0.419
       325 -10.2327    250.4670    156.7242   8.1706608219e+01   2.4731979462e+00    0.2845041    0.1318298 -25.83  0.001165544    2.100    0.524
       326 -10.1922    231.8619    157.4333   8.4833241175e+01   5.7343393565e+00    0.2338169    0.1708196 -10.15 0.0005175879    1.345    0.257
       327  -9.7803     54.6673    158.1275   1.2055533318e+02   3.6268955740e+01    0.2935549    0.1182323  38.32  0.001452835    2.468    0.595
       328  -9.6320    140.7799    156.9275   1.0187753578e+02   2.3242594021e+01    0.2114945    0.1508373 -87.09 0.0006509622    1.922    0.480
       329  -8.8038     99.2736    156.2893   1.1064108864e+02   3.0483876851e+01    0.1121294     0.101821 -23.33 0.0002451942    1.513    0.339
       330  -9.0067    246.4233    155.4855   8.2086267910e+01   3.3378699864e+00    0.1294136    0.1056073   7.94 0.0001173596    1.036    0.035
       331  -9.4064    226.1247    154.5008   8.5191766354e+01   7.1888022549e+00    0.2119479    0.1467351  26.17   0.00103432    1.375    0.273
       332  -9.6575    228.0072    150.6442   8.4076218204e+01   7.3502269492e+00    0.1870547    0.1538445  28.56 0.0005241689    1.113    0.102
       333  -9.9824    221.5495    150.7015   8.5181913944e+01   8.5765998393e+00    0.2819158    0.1239955 -34.33 0.0008267713    2.312    0.567
       334  -9.6757    216.3795    154.1636   8.6790736438e+01   9.0885185966e+00    0.2491233    0.1920335 -59.27 0.0008494603    1.907    0.476
       335 -10.7896    213.1439    149.2003   8.6327128540e+01   1.0421214831e+01    0.4972417    0.4054419  14.55  0.002914661    1.172    0.147
       336  -9.3730    197.2945    154.5672   9.0289049107e+01   1.2737532253e+01    0.1763906    0.1174682  35.00 0.0003347747    1.421    0.296
       337 -10.4853    166.9886    153.6641   9.5922781986e+01   1.8838649080e+01    0.1916927    0.1655161  43.57 0.0004505118    1.069    0.065
       338 -10.4771    144.8541    149.4850   9.9659989418e+01   2.3860171297e+01    0.4270376     0.221912 -52.50  0.001791944    2.118    0.528
       339  -9.6095     20.4576    151.4655   1.2724607246e+02   4.1222899003e+01    0.1126665   0.08371382  82.88 0.0001939587    1.008    0.008
       340 -10.5886    249.5792    148.1046   8.0062945025e+01   3.6754405648e+00    0.3950514    0.2136163 -14.99  0.001534877    1.967    0.492
       341 -10.8972    243.7253    145.5320   8.0436423855e+01   5.0680914875e+00    0.4313735    0.2257232 -31.76  0.001135457    1.864    0.464
       342 -11.1004    249.6336    140.1250   7.8354309809e+01   4.6581958536e+00    0.4673809      0.28643  -5.88  0.001595085    1.764    0.433
       343 -10.4740    248.5536    133.5852   7.7090686899e+01   5.6912462280e+00    0.3241748     0.215683  -7.31 0.0008393298    1.510    0.338
       344  -9.1248    157.5108    150.5749   9.7238051307e+01   2.1226897580e+01    0.1362701    0.1253075  42.65 0.0001313407    1.028    0.027
       345  -8.9370    202.5137    149.5141   8.8296338435e+01   1.2472567419e+01    0.1363094    0.1226918  20.60  0.000326982    1.001    0.001
       346 -10.1098      5.7255    148.5888   1.3014176695e+02   4.3052810631e+01    0.1939419    0.0945463  78.20  0.001166381    1.723    0.420
       347 -10.1930    159.7574    144.2644   9.5522861322e+01   2.1916895508e+01    0.2374208    0.1864823 -35.30 0.0003572681    1.386    0.278
       348  -9.0387    107.8083    151.3790   1.0800911237e+02   3.0099644771e+01    0.1716203    0.1203864  36.00 0.0004106789    1.566    0.362
       349  -8.7516     98.3118    146.3293   1.0931814768e+02   3.2670419467e+01    0.1225634    0.1043376 -22.93 0.0005163052    1.669    0.401
       350  -9.9672    161.5586    147.4927   9.5802973808e+01   2.0982205833e+01    0.2609754    0.1281044  49.18 0.0005939273    1.955    0.488
       351  -9.6606    119.2485    144.5934   1.0431346467e+02   2.9513396535e+01    0.3634194    0.2412274   7.72  0.001465127    3.440    0.709
       352 -11.2532     37.1048    144.0746   1.2296066224e+02   4.1166317596e+01    0.3680996    0.2152596 -70.01  0.002243859    1.487    0.327
       353 -11.0616     25.4883    143.4611   1.2549860668e+02   4.2432632353e+01    0.3146335    0.1500394  68.80   0.00129813    2.086    0.521
       354  -9.3194    223.5225    144.4907   8.3530200251e+01   9.0565834796e+00    0.1368306    0.1179051  11.88 8.533881e-05    1.037    0.036
       355  -9.2538    208.5058    142.9857   8.5829086197e+01   1.2254885953e+01    0.1927503    0.1320209 -28.63 0.0003931279    1.490    0.329
       356  -9.3500    113.2362    142.4252   1.0527686690e+02   3.1001858870e+01    0.1968669    0.1156775  55.51 0.0007854961    1.738    0.425
       357 -10.1181    238.6442    139.1529   7.9872052687e+01   6.8529675391e+00    0.2494729    0.1783569 -31.89 0.0004671732    1.414    0.293
       358 -10.2232    234.9047    143.9205   8.1510086608e+01   6.9358825783e+00    0.2174993    0.1717624  27.82 0.0005218827    1.168    0.144
       359 -10.4738    135.4190    138.8721   9.9640205111e+01   2.7684821890e+01     0.225477    0.2214092 -75.82 0.0006858028    1.076    0.071
       360  -9.6704    131.3074    139.0350   1.0058347824e+02   2.8429177480e+01    0.1890572    0.1734178 -66.01 0.0004536882    1.110    0.099
       361  -9.6245    109.5066    138.7957   1.0547885747e+02   3.2389582014e+01    0.1943667    0.1857055   2.72 0.0006062994    1.302    0.232
       362  -9.1530    243.5392    138.0189   7.8845815677e+01   6.0685542758e+00    0.1863312    0.1199109 -22.47 0.0003460919    1.468    0.319
       363 -10.4665    166.2405    137.2906   9.2729835246e+01   2.1859289223e+01    0.2856529    0.2261036 -55.07 0.0007595862    1.406    0.289
       364  -9.8794     11.0069    134.2920   1.2798342881e+02   4.5615763599e+01     0.151055    0.1174942  83.80 0.0003215278    1.066    0.062
       365  -9.0478    218.6020    135.5553   8.2418798853e+01   1.1310053671e+01     0.135409    0.1236989   3.97 6.902145e-05    1.039    0.038
       366 -10.7521    249.0681    122.7032   7.4562943614e+01   7.0035359464e+00    0.3241853    0.2428174  17.45 0.0008006186    1.318    0.241
       367 -10.5424    242.2576    131.5868   7.7624486860e+01   7.1579901976e+00    0.2491126    0.1966553  -3.52 0.0004303584    1.168    0.144
       368 -11.1386    246.7416    127.7949   7.6074919069e+01   6.7886902952e+00    0.4974545     0.298916   2.63  0.001838877    2.062    0.515
       369  -9.3448     39.0462    131.4893   1.2115381292e+02   4.3681590351e+01      0.15609    0.1138168  41.61  0.000449313    1.524    0.344
       370  -9.3939    203.1562    133.1648   8.4630796483e+01   1.4853716603e+01    0.2160265    0.1782022  15.11 0.0006145907    1.221    0.181
       371 -11.8141    229.3336    121.1690   7.7310402486e+01   1.1182832828e+01     1.005412    0.4719159 -11.04  0.003300106    3.950    0.747
       372 -10.6969    234.9962    115.0141   7.4940942541e+01   1.0878442263e+01    0.2426033    0.2189396   0.10 0.0003848003    1.020    0.019
       373 -11.9401    248.5471     94.2388   6.7854514914e+01   1.0895034626e+01    0.5957668    0.3015355 -40.76  0.002637396    1.985    0.496
       374 -11.4180    240.2363    123.9044   7.6197842215e+01   8.5853883900e+00     0.500268    0.2699088 -14.05  0.002206823    2.144    0.534
       375 -12.3946    247.9604    102.8138   7.0037078182e+01   9.8668217338e+00    0.6893524    0.4964025 -30.17   0.00274011    1.281    0.219
       376 -10.6468    231.6789    128.2506   7.8566561201e+01   9.7046042843e+00    0.5617247    0.3411888  12.16  0.002535589    2.158    0.537
       377 -12.0493    235.9653    121.0985   7.6222596197e+01   9.8308866337e+00    0.8052058     0.306723  35.91  0.002835938    3.360    0.702
       378 -13.0616    239.5568    111.8528   7.3472847373e+01   1.0372866246e+01      1.05617    0.4175957 -27.46  0.004143234    2.432    0.589
       379  -8.8188     80.4813    130.5053   1.1093342279e+02   3.8761473971e+01    0.1304476    0.1152852 -86.50 0.0001407943    1.027    0.026
       380  -9.0709    137.2994    129.6878   9.7333882378e+01   2.9134820284e+01    0.1422095    0.1096971  86.87 0.0002697764    1.605    0.377
       381 -10.3119    102.7144    125.6441   1.0462649178e+02   3.6323199347e+01    0.3148472     0.240313 -14.18  0.001299858    2.103    0.524
       382 -10.8893    221.8937    126.2259   7.9732195200e+01   1.1995475477e+01    0.2678749    0.1728441   5.45  0.001226389    1.983    0.496
       383  -9.6687    145.7280    123.1763   9.4010759042e+01   2.8726978532e+01      0.20959    0.1812808  60.11  0.001137748    1.164    0.141
       384  -8.8824    108.2617    123.6728   1.0288484538e+02   3.5791067266e+01    0.1384895    0.1031162  89.04 0.0002441468    1.563    0.360
       385  -9.2115    127.5326    121.5005   9.7809718131e+01   3.2693620724e+01    0.1412576    0.1348781  88.13 -3.354327e-05    1.006    0.006
       386 -10.3686     12.9639    118.7564   1.2617675803e+02   4.8811699078e+01    0.2516245    0.1059782  79.94  0.001096295    2.642    0.621
       387  -8.8985      2.3274    114.3187   1.2842045525e+02   5.0532498257e+01    0.1095397   0.06837364 -55.66 0.0007046588    1.681    0.405
       388  -9.9136     90.4397    111.7792   1.0494064746e+02   4.1373063323e+01    0.2243104    0.1876177  49.50 0.0004882621    1.255    0.203
       389 -11.0616      5.9924    111.9819   1.2729387810e+02   5.0796376553e+01    0.1843279    0.1050421  72.02 0.0006843913    1.643    0.391
       390  -9.3467    221.3252    110.3257   7.6029458186e+01   1.4463764530e+01    0.1514887    0.1051916  14.36 0.0007049138    1.693    0.409
       391 -11.4478     27.2405    107.1812   1.2118198717e+02   5.0213969122e+01    0.4709171    0.2845791 -29.08  0.002491823    2.778    0.640
       392 -10.3240      2.1897    108.6545   1.2796477255e+02   5.1774337408e+01     0.202353    0.1312131 -53.54 0.0007922802    1.655    0.396
       393  -8.6697    133.6838    107.6646   9.3120073491e+01   3.4304258126e+01    0.1477955    0.1181119  -2.12 0.0007047745    1.694    0.410
       394 -10.0835     21.6348    107.7294   1.2275962802e+02   5.0566404422e+01       0.1124   0.07826806 -47.11  0.000699818    1.660    0.398
       395  -9.3321     60.5356    104.9657   1.1167106261e+02   4.7182857780e+01    0.1879159   0.08840801 -44.90 0.0006702377    2.489    0.598
       396 -11.7951    230.5618    112.9943   7.5164447908e+01   1.2093512695e+01    0.5718692    0.2568479 -24.24  0.002081482    2.337    0.572
       397  -9.7101     89.2619    102.9364   1.0335297935e+02   4.3524636068e+01    0.2155221    0.1985618  50.34 0.0006330894    1.179    0.152
       398 -11.8036      4.6534    100.9013   1.2657619804e+02   5.3320641548e+01    0.4240912    0.1730104  41.64  0.002325943    2.604    0.616
       399  -8.9884     34.6426    100.7210   1.1822338076e+02   5.0999195280e+01    0.1188208   0.08347131 -42.99 0.0006197172    1.660    0.398
       400 -10.8227     24.9884     99.0967   1.2071957991e+02   5.2229540730e+01    0.2969475    0.1724219 -52.27  0.001197049    1.688    0.407
       401 -10.1245    214.4920     97.4914   7.3934168696e+01   1.7925079010e+01    0.2588359    0.2366816 -18.84 0.0005757203    1.042    0.040
       402 -10.4449     87.0604     96.0826   1.0238758229e+02   4.5402003198e+01    0.3415192    0.2852869 -24.80  0.001121963    1.470    0.320
       403 -11.1320     20.9053     94.8052   1.2129311877e+02   5.3530308677e+01    0.4820755    0.1840208 -41.36  0.001924581    4.170    0.760
       404  -9.7550     68.9603     93.7149   1.0701467474e+02   4.8629476945e+01    0.1853929    0.1680637 -78.63 0.0008914803    1.058    0.055
       405 -10.3200     39.4681     94.0580   1.1575018136e+02   5.2045448084e+01    0.2461663    0.1854925   6.13  0.000926971    1.929    0.482
       406 -10.6497     43.9915     90.8782   1.1383391159e+02   5.2305872120e+01    0.4506239    0.2343946  60.73   0.00210741    2.611    0.617
       407  -9.5854     44.1745     98.6378   1.1516759899e+02   5.0517203616e+01    0.2431904    0.1265912 -46.28 0.0007829185    2.091    0.522
       408  -9.9692    198.6710     92.3173   7.5326596021e+01   2.2415105122e+01    0.2424829    0.1790747 -65.78  0.001107389    1.796    0.443
       409 -11.8611    245.8271    109.8655   7.2047184915e+01   9.3559648436e+00    0.6699322    0.4426412  76.29  0.003087746    2.545    0.607
       410  -9.3893     35.2906     91.5832   1.1656554012e+02   5.3015979881e+01    0.1381237     0.121978  -5.65 0.0005181827    1.522    0.343
       411  -9.8247     23.8533     88.2164   1.1945456936e+02   5.4785029504e+01    0.2558342    0.1445906 -37.61  0.001375989    2.283    0.562
       412 -11.3016     10.9640     86.0325   1.2303183355e+02   5.6224158524e+01    0.6218769    0.1383112 -52.34  0.002394116    3.907    0.744
       413 -10.1070    249.5224     86.7139   6.5847707693e+01   1.1693864861e+01    0.2681284     0.128803 -22.67 0.0009624362    2.013    0.503
       414  -9.8306    229.9693     84.2803   6.8015177812e+01   1.6342513929e+01     0.327159    0.1792502 -37.42  0.001142257    1.720    0.419
       415  -9.1203    220.3472     85.7513   6.9887100574e+01   1.8342191215e+01    0.1414713    0.1138178 -70.54 0.0002405428    1.581    0.368
       416  -9.4998    201.9945     84.4747   7.2594167939e+01   2.2875614768e+01    0.2177583    0.1494532  55.10 0.0004147243    1.513    0.339
       417  -9.5901    193.3721     83.2032   7.3777121883e+01   2.5158451372e+01    0.2238146    0.1329097 -41.08 0.0008942068    1.671    0.401
       418 -11.2354      2.4290     82.3776   1.2514724155e+02   5.7562826363e+01    0.3066912    0.1582114  83.22  0.001711775    1.954    0.488
       419 -12.6196    248.8257     78.4151   6.3845873904e+01   1.2945705564e+01    0.6673492    0.5512404 -71.39  0.002555773    1.516    0.340
       420 -11.2101    242.9432     81.5996   6.5453308237e+01   1.3807099971e+01    0.2486438    0.1842439 -11.31  0.001144537    1.338    0.253
       421 -11.7188    236.5826     80.2167   6.5986752885e+01   1.5414215480e+01    0.3656008    0.3070666  55.30  0.002023436    1.302    0.232
       422 -11.3811     46.2846     79.7921   1.1089362785e+02   5.4581320574e+01    0.3268095    0.2629214 -18.30  0.002008798    1.615    0.381
       423 -10.4035     37.5745     80.2943   1.1378261935e+02   5.5364458437e+01    0.3701868    0.1927954 -50.68  0.001937191    1.715    0.417
       424 -11.4952      7.2460     74.8791   1.2262992151e+02   5.8954238843e+01    0.3689718    0.1820403  63.35  0.001913596    2.621    0.619
       425  -9.9625    217.5647     72.8757   6.6826163919e+01   2.0887174556e+01     0.384082    0.2393521   2.29  0.001567363    2.246    0.555
       426  -9.7351     48.4762     74.4778   1.0898509080e+02   5.5537814017e+01    0.1302532    0.1086231 -61.72 0.0002772164    1.001    0.001
       427  -9.4483    125.5006     73.4460   8.5650230054e+01   4.2925755683e+01    0.1492709    0.1431245 -50.45 0.0001359734    1.035    0.034
       428 -11.4078     53.0223     70.9628   1.0662378534e+02   5.5797137316e+01     0.351991    0.2826135  82.55  0.001819675    1.458    0.314
       429 -10.9111     10.2223     71.4458   1.2112711732e+02   5.9538929940e+01    0.3699825    0.1989152  81.40  0.001538605    2.206    0.547
       430 -12.4433    241.6836     69.5088   6.2484558828e+01   1.5715217056e+01    0.4445102    0.4124216 -31.26  0.002618201    1.059    0.056
       431 -11.1147    101.7454     68.7260   9.0658113384e+01   4.8710235940e+01    0.3956125    0.2282431 -41.53  0.001208904    1.627    0.385
       432  -9.1339     58.6702     65.6934   1.0332586967e+02   5.6258279369e+01    0.1340091   0.09391105 -29.40 0.0003448511    1.659    0.397
       433 -11.0964     42.9701     64.1162   1.0832019762e+02   5.8449339938e+01    0.3390018    0.3007429 -33.94  0.002263237    1.218    0.179
       434  -8.9143     28.8459     64.1924   1.1332417160e+02   5.9786174907e+01    0.1692667     0.115693 -45.12 0.0005289835    1.378    0.274
       435 -11.9969    247.4680     61.6696   5.9699439683e+01   1.5434538424e+01    0.3898531    0.2818449 -36.86  0.002060386    1.260    0.207
       436 -10.9727    170.9794    232.8941   1.0744754537e+02   6.5606693340e+00    0.2643601    0.1871548 -64.45  0.001674539    2.167    0.539
       437 -11.5177    157.9452    245.3471   1.1097439512e+02   7.0366221021e+00    0.5206533    0.2692217  32.42  0.001942865    1.950    0.487
       438 -11.0925    154.5380    241.0362   1.1105379667e+02   8.0587953807e+00     0.305508    0.1441095  52.79  0.000970925    1.933    0.483
       439 -11.5049    170.1721    240.0724   1.0843155375e+02   5.8351548737e+00    0.4073017    0.2257315  33.50  0.001590552    1.619    0.382
       440 -12.0365      5.0950     59.7006   1.2093522370e+02   6.2447253193e+01      0.61917    0.3203971   0.41  0.002473415    2.996    0.666
       441 -11.9770      6.0445     53.4576   1.1943120156e+02   6.3766268397e+01     0.667484    0.5598305  50.90  0.004969273    1.496    0.332
       442 -10.7320    165.9862    240.2817   1.0912769118e+02   6.4393367059e+00    0.2724888     0.182311  24.76  0.001334747    1.657    0.397
       443 -10.7388     17.3432    248.3043   1.3281528148e+02   2.4403923332e+01      0.21562     0.163733 -66.26  0.001236741    2.004    0.501
       444 -10.3368      8.9165    248.3734   1.3400420378e+02   2.5201326021e+01    0.1519939    0.1136826  69.68 0.0004495334    1.265    0.209
       445 -12.2582     79.7307     56.1083   9.3313244546e+01   5.5192989772e+01    0.5935419    0.3487137 -26.61  0.002613255    2.187    0.543
       446 -11.4272     81.3832     48.8119   9.0214081816e+01   5.6362327712e+01     0.433586    0.3222516 -85.52  0.001526761    2.180    0.541
       447 -10.1795     65.1596     56.8566   9.8465742436e+01   5.7273872995e+01    0.1864575    0.1461035 -27.68 0.0004112135    1.339    0.253
       448  -9.9975    198.4091     55.4185   6.4789094374e+01   2.8171832381e+01     0.257789    0.2485696 -31.94 0.0004582578    1.016    0.016
       449 -10.6173     27.7619     55.6882   1.1171538297e+02   6.1757595269e+01    0.4635723    0.1916995  27.71  0.001855758    2.947    0.661
       450  -9.8606    119.3365    248.2106   1.1737590112e+02   1.2219471797e+01    0.1484692    0.1002204  46.76  0.001118856    1.131    0.116
       451  -9.4199    221.3330     53.3131   6.0790372378e+01   2.2704237905e+01    0.1531758    0.1094605  23.84 0.0005170158    1.681    0.405
       452  -9.2387     63.3222     52.3420   9.7639478403e+01   5.8472923896e+01    0.1392911   0.09524681 -23.99 0.0007050471    1.726    0.421
       453 -11.0548     45.7200     54.0085   1.0454944548e+02   6.0351274786e+01    0.3170605    0.2133751 -33.26  0.001427402    1.559    0.359
       454  -9.4100    245.2816     50.3797   5.6988963325e+01   1.7364375195e+01    0.1449431    0.1035589  13.94 0.0005222386    1.719    0.418
       455  -8.9236    172.1730     49.8536   6.7550779337e+01   3.5747992457e+01    0.2001633    0.1712652  19.16            0    1.259    0.206
       456  -9.4688    137.2641     49.6269   7.4768090980e+01   4.4549375240e+01    0.2039428    0.1867608 -37.99 0.0005771339    1.083    0.077
       457 -10.3680     50.7208     50.3206   1.0155726894e+02   6.0547661022e+01    0.1976001    0.1679601 -60.52 0.0005777952    1.163    0.140
       458 -10.9197     48.4108     47.8133   1.0161635921e+02   6.1349044649e+01    0.2317878    0.1768763 -41.37 0.0007650604    1.134    0.118
       459  -9.5080     42.1375     49.7115   1.0460472499e+02   6.1662249794e+01     0.249622    0.1261586 -37.67 0.0008293286    2.053    0.513
       460 -10.6470     31.4289    246.9808   1.3073853228e+02   2.3177630984e+01    0.2311299    0.1271285  66.35 0.0007378279    1.280    0.218
       461 -10.1576     69.7760     48.4007   9.4012523241e+01   5.8324124876e+01    0.1773351    0.1288609  20.60 0.0006059078    1.675    0.403
       462 -10.4600    105.1820     47.1744   8.2239477832e+01   5.2169272493e+01    0.2638579    0.2026535  14.72 0.0004297276    1.547    0.354
       463 -10.3619    108.4702     45.1003   8.0522164319e+01   5.1848037109e+01     0.212556    0.1811061 -31.06 0.0007002934    1.100    0.091
       464 -10.5146     11.9127     44.3838   1.1513615949e+02   6.5387440764e+01     0.282676    0.1705022 -41.05  0.001092798    1.548    0.354
       465  -9.6352    246.2956     45.6777   5.5629844041e+01   1.7711427302e+01    0.1470143   0.09529039 -52.88 0.0002350367    1.618    0.382
       466 -10.1379    121.7632     42.5279   7.5970868131e+01   4.9352543426e+01    0.2682355    0.2560796  86.69 0.0004246069    1.183    0.155
       467 -10.3474    118.2171     41.7892   7.6610050974e+01   5.0278078848e+01    0.2862022    0.2380842 -23.37  0.000533314    1.156    0.135
       468 -11.2228     50.4300     42.6918   9.9109801160e+01   6.2154857477e+01    0.3576598    0.2223184  15.03  0.001844179    2.224    0.550
       469  -9.5027    127.0543     40.8288   7.4001006456e+01   4.8398583475e+01    0.3012032    0.1968151   5.38  0.001244702    2.167    0.538
       470 -11.4388     59.9028     36.0913   9.3006172003e+01   6.2180744249e+01    0.4654754    0.3097674 -72.26  0.002171493    2.648    0.622
       471 -12.0364     58.7818     28.2567   9.0211347690e+01   6.3785541091e+01    0.4139109    0.3721554  83.05  0.001543366    1.582    0.368
       472 -11.8172    210.8629    246.0685   1.0278265414e+02  -8.3339491497e-01    0.2314484    0.1603472  26.43  0.000529431    1.170    0.146
       473  -9.6763      3.0000     33.4888   1.1621343906e+02   6.8213640101e+01    0.2618372    0.1390596 -33.51    0.0015554    1.958    0.489
       474 -10.0997      6.1770     28.3955   1.1335913281e+02   6.9097931509e+01    0.4145494    0.2010956 -31.96  0.002296586    2.217    0.549
       475 -11.6549    248.4798     35.6992   5.2765772103e+01   1.8399518797e+01    0.4046866    0.2777919  53.92  0.002121987    1.594    0.373
       476 -10.4979     49.3680     32.7259   9.5811894686e+01   6.4249650633e+01    0.2568851    0.1865677  36.61  0.001532864    1.634    0.388
       477  -9.9654    124.1567    246.9707   1.1650429009e+02   1.1708469269e+01    0.1545019    0.1148817  50.99  0.000443142    1.033    0.032
       478 -11.4741     78.4461     21.2162   7.9831625275e+01   6.1706832661e+01    0.3916602    0.3122918  77.07  0.001253309    1.928    0.481
       479 -11.0745    125.4020    240.1305   1.1567128204e+02   1.2434422159e+01    0.3994623    0.2274147  69.44  0.002150043    2.207    0.547
       480 -11.7598    246.4892     31.9933   5.1986310355e+01   1.9292200533e+01    0.3357157     0.212348   0.87  0.001555804    2.043    0.511
       481 -10.5249    235.8876     20.1398   4.9825119936e+01   2.3150419192e+01    0.2266162    0.1687549 -54.76 0.0008412447    1.303    0.233
       482 -10.7334    113.0880    244.7429   1.1806443507e+02   1.3544238466e+01    0.2731724    0.2218454  -2.45  0.001534778    2.314    0.568
       483 -10.1561    114.6091    239.8327   1.1738988341e+02   1.4002340681e+01    0.3130752    0.1577777  67.60  0.001590814    2.561    0.610
       484 -10.8356    118.1330    238.8590   1.1673080811e+02   1.3640682389e+01    0.3319709    0.2384272  25.09  0.001753873    1.913    0.477
       485 -10.5706    132.9902    245.3305   1.1494795586e+02   1.0667640039e+01     0.188143    0.1461373  51.28 0.0004280407    1.064    0.060
       486  -8.9845    243.4078    245.4431   9.7818658236e+01  -5.3811600818e+00     0.103673   0.07212061  24.61  0.000177675    1.015    0.015
       487 -11.6840    204.9861    231.6236   1.0179773178e+02   1.4848314440e+00    0.4236429    0.2074193  34.78 0.0004704053    1.647    0.393
       488  -9.4713    179.0029     15.0085   5.4747831803e+01   3.8421408158e+01    0.2142963    0.2128455 -33.61 0.0003892731    1.016    0.015
       489 -11.6503    192.0044    244.0756   1.0545030746e+02   2.1308554645e+00    0.2904243    0.2153563   4.38 0.0005369351    1.627    0.386
       490 -10.9438    225.7618    240.2357   9.9741769854e+01  -2.4443433095e+00     0.230491    0.1790848  18.07  0.000457496    1.143    0.125
       491 -11.4706    217.8906    241.2194   1.0107490004e+02  -1.3948059853e+00    0.3668981    0.2757615  72.45  0.002387103    2.749    0.636
       492 -11.8171    210.7379    237.5417   1.0168945663e+02   1.4095401489e-02    0.4681468    0.2449525  37.54  0.001929179    1.427    0.299
       493 -11.2567    221.8182    236.7279   9.9864889462e+01  -1.5434828641e+00    0.3919945    0.2113164  20.75    0.0014028    1.955    0.488
       494  -9.8374     59.9956     60.0000   1.0122502947e+02   5.7316652759e+01    0.3272392   0.07740955  35.48  0.001051661    4.937    0.797
       495 -10.5503    202.2796    239.9649   1.0332695429e+02   1.0284539353e+00    0.1989785    0.1444911  32.42 0.0004778304    1.036    0.035
       496 -11.7186    198.4844    237.8396   1.0364895011e+02   1.8158288025e+00    0.4329095    0.2258551  35.16  0.001789794    1.509    0.337
       497 -10.1301     93.5611    244.6662   1.2114860501e+02   1.6183940383e+01    0.1764134     0.115852  47.59 0.0005640967    1.214    0.176
       498 -10.1986     80.7507    244.4025   1.2313723169e+02   1.7869921503e+01    0.1685114    0.1272242  53.51 0.0005222855    1.179    0.152
