#   1 NUMBER                 Running object number                                     
#   2 MAG_AUTO               Kron-like elliptical aperture magnitude                    [mag]
#   3 X_IMAGE                Object position along x                                    [pixel]
#   4 Y_IMAGE                Object position along y                                    [pixel]
#   5 X_WORLD                Barycenter position along world x axis                     [deg]
#   6 Y_WORLD                Barycenter position along world y axis                     [deg]
#   7 A_WORLD                Profile RMS along major axis (world units)                 [deg]
#   8 B_WORLD                Profile RMS along minor axis (world units)                 [deg]
#   9 THETA_WORLD            Position angle (CCW/world-x)                               [deg]
#  10 FWHM_WORLD             FWHM assuming a gaussian core                              [deg]
#  11 ELONGATION             A_IMAGE/B_IMAGE                                           
#  12 ELLIPTICITY            1 - B_IMAGE/A_IMAGE                                       
         1 -12.3737    246.5276     37.7734   4.2580736255e+01   1.9309411137e+01     1.560581    0.7876197 -28.98  0.002866901    2.034    0.508
         2 -13.5484    229.0208     54.3929   4.8504022773e+01   2.0973744444e+01     3.119652     1.565348 -52.63   0.01343592    2.063    0.515
         3 -10.1824    247.4277     23.2139   3.9200790632e+01   2.0943451789e+01     0.395898    0.2637934 -11.46  0.001146042    2.178    0.541
         4 -10.5064    248.7469     10.9326   3.6392702507e+01   2.2085144210e+01    0.8183291    0.2586982 -38.05  0.002735015    2.523    0.604
         5  -8.9887    242.9234      8.6928   3.6339445577e+01   2.3606914232e+01    0.2409512     0.175028  -5.63  0.001189451    2.043    0.511
         6  -7.8480    236.2616      7.3206   3.6544227354e+01   2.5242097305e+01    0.1108933   0.09605273  35.95 0.0006947893    1.551    0.355
         7  -9.8194    245.2520      2.9464   3.4917588886e+01   2.3715128139e+01     0.211204     0.188098 -36.42 0.0003672213    1.308    0.236
         8 -10.6745    140.9516    245.3226   1.0621368598e+02   4.9074387148e+00    0.2721533    0.2065026 -22.87  0.001700213    1.870    0.465
         9 -11.6603    238.1095    249.0327   8.8868698262e+01  -1.0340744860e+01     1.103975    0.3811375  26.20  0.004663331    3.293    0.696
        10  -9.3487    129.9865    249.9840   1.0882935488e+02   5.8841064811e+00    0.1801541    0.1351194  17.34 0.0008044368    1.692    0.409
        11  -9.9268    121.7336    247.1862   1.1006365258e+02   7.5920759327e+00    0.3263096    0.1484284  30.10  0.001480343    2.683    0.627
        12 -10.1617     89.7048    246.1820   1.1591591469e+02   1.2478893590e+01    0.2402065     0.144698  35.44 0.0009879021    1.654    0.396
        13  -8.7755     51.0273    246.3562   1.2282509729e+02   1.7543958563e+01    0.1985159   0.03469895  51.71 0.0007044748    4.537    0.780
        14 -10.5331    186.0032    249.2577   9.8260786503e+01  -2.7339018640e+00    0.2953796    0.1959708   1.17  0.001725262    1.916    0.478
        15 -11.8540    176.0121    243.8583   9.9364666208e+01  -4.3268812138e-01    0.5040798     0.206283  39.80  0.002426384    1.969    0.492
        16  -8.9990      7.4964    244.9638   1.2994531893e+02   2.2566019777e+01     0.153589   0.05416992  73.28 0.0008097597    2.599    0.615
        17  -9.2886     13.0080    247.5011   1.2918268851e+02   2.1573685347e+01    0.1505171   0.07987577  44.63  0.001043199    1.621    0.383
        18 -10.8016    175.6875    249.2854   1.0018043665e+02  -1.1381503594e+00    0.4029768    0.1784307  29.97  0.001916439    2.228    0.551
        19 -10.7860    204.9750    243.4678   9.3909634498e+01  -4.8864708630e+00    0.3190177    0.1587724  44.83  0.001661697    2.015    0.504
        20 -11.7200    165.9130    239.5888   1.0068730064e+02   1.8009872955e+00    0.6784037    0.3491951  18.10  0.002744611    3.527    0.717
        21  -8.7822      5.6524    237.3103   1.2992018118e+02   2.4108506975e+01    0.1140661    0.0502714  63.45 0.0007045158    1.710    0.415
        22  -7.8918    174.9906    179.0000   8.8687505151e+01   1.0504640638e+01    0.2431958   0.07785054  42.01 0.0008024261    2.942    0.660
        23  -9.0911    228.5617    101.8986   6.0393692189e+01   1.3536486961e+01    0.3503951    0.1804849 -63.18  0.001091595    4.203    0.762
        24 -10.3961    249.2173     97.3022   5.6174409389e+01   9.9566487853e+00    0.4394673    0.2560238 -39.25  0.001885949    1.491    0.329
        25  -8.9315    245.4823     96.4419   5.6502758715e+01   1.0857363753e+01    0.2025024    0.1164301 -43.31 6.223967e-05    1.575    0.365
        26 -10.1840    239.6304     99.1100   5.7995236233e+01   1.1640187036e+01    0.4478455    0.2185698  64.93  0.001772033    2.859    0.650
        27 -10.4827    135.4901     94.8250   7.7929855782e+01   3.6610079366e+01    0.2938812    0.2084401  62.13  0.001244913    1.679    0.404
        28 -11.2185    234.2363     90.8318   5.6798815472e+01   1.4148578503e+01    0.5437223    0.3878841 -61.92  0.002620085    1.614    0.380
        29 -10.1055    248.2999     89.7057   5.4520630705e+01   1.1350117851e+01    0.2709296    0.2554173 -53.90 0.0005265742    1.096    0.088
        30 -10.4187    242.2971     89.0604   5.5200886943e+01   1.2706508134e+01    0.5320094    0.2469761 -55.17  0.001970208    2.941    0.660
        31  -9.6719    216.6782     87.5815   5.8725004215e+01   1.8628578458e+01      0.34691    0.1932028 -60.62  0.001319903    2.548    0.608
        32 -10.6035    225.2502     85.3774   5.6806356886e+01   1.7036497885e+01    0.4185677    0.2400385 -37.62  0.001883894    1.586    0.370
        33 -10.9165    126.7102     82.3848   7.6547498251e+01   4.1138494393e+01    0.4626902    0.2196853 -29.72  0.001577446    2.658    0.624
        34 -13.0163    229.9855     75.7141   5.3686777828e+01   1.7524826686e+01      1.82194     1.003048 -88.35  0.006449328    3.633    0.725
        35 -10.0152    199.2268    249.5888   9.5877274293e+01  -4.7952905988e+00    0.2382413   0.09302369  41.09  0.001144317    2.154    0.536
        36 -11.4657    243.2818     74.8011   5.1656636472e+01   1.4732468639e+01     1.067666    0.5580385  84.80  0.003946907    3.605    0.723
        37 -11.4431    161.6665    248.5724   1.0270922469e+02   1.1577191231e+00    0.6057755    0.1944929  37.37  0.002566433    2.593    0.614
        38 -10.0620    193.2879     71.9787   5.8517063002e+01   2.6867242258e+01    0.4838129    0.1812885 -40.45  0.001675971    2.522    0.603
        39 -11.0047    236.6800     35.8959   4.3131637965e+01   2.1751323927e+01    0.5821279    0.3780028 -21.93  0.002999478    1.804    0.446
        40 -11.8839    247.8198     62.0455   4.8077459519e+01   1.5665213598e+01     1.393951    0.4585043 -35.17  0.005319357    2.607    0.616
        41 -11.1971    210.9110     64.7844   5.3673474391e+01   2.3704905102e+01    0.6854112    0.2144649 -47.16  0.002095911    3.612    0.723
        42 -11.3705    210.4627     57.5055   5.1808004532e+01   2.4924382682e+01     0.681527    0.2112785 -44.31  0.002235338    3.154    0.683
        43 -11.1512    215.3550     59.8671   5.1726743901e+01   2.3388090142e+01     0.463704    0.2478605 -37.60  0.002040986    1.736    0.424
        44 -11.8083    237.1294     53.0653   4.7194690020e+01   1.9312585541e+01      0.76201    0.6535445 -77.89  0.002023637    1.143    0.125
        45 -10.6522    138.9906     72.9969   7.0357748373e+01   4.0125085212e+01    0.3012803    0.2119808 -35.62  0.001364224    1.419    0.295
        46 -10.0884    176.5486     73.3173   6.2033201338e+01   3.0816942156e+01    0.4626876      0.12068 -40.43  0.001312358    3.618    0.724
        47  -9.3158    150.6618     81.6720   7.0187492799e+01   3.5697977186e+01      0.16599    0.1240515  12.65 0.0005605546    1.731    0.422
        48 -10.1268    183.5999     68.2032   5.9196561319e+01   2.9911090266e+01    0.3758627    0.2160692 -42.76  0.001578815    1.719    0.418
        49 -11.0075    168.8303     67.4896   6.1854895533e+01   3.3750459965e+01    0.5611768    0.2226612 -37.58  0.001959787    2.448    0.592
        50 -11.0791    160.4332     66.2584   6.3235475544e+01   3.6069531223e+01    0.5136119    0.2989529 -19.60  0.001995062    2.210    0.547
        51  -9.1888    114.3177     69.3488   7.5851115635e+01   4.6412659320e+01    0.1602352    0.1173946   2.90   0.00070481    1.732    0.422
        52 -10.5436    132.1312     64.1212   6.9218675894e+01   4.3353191882e+01    0.2998587    0.2242791  -2.20  0.001368305    1.641    0.391
        53  -9.9173     95.4069     66.2982   8.0613135036e+01   5.0846109507e+01    0.2909295    0.1350741 -37.26  0.001133999    2.118    0.528
        54  -9.7355    205.1848     64.9234   5.4593573975e+01   2.5075037474e+01    0.2384013    0.1905667 -61.66 0.0006534775    1.286    0.222
        55  -9.3847    195.5112     63.5240   5.5775123685e+01   2.7684288332e+01    0.2670666    0.1239254 -43.83  0.001007522    2.122    0.529
        56 -10.4168    148.8024     60.7152   6.4055206625e+01   3.9901810857e+01    0.4038288    0.2397968  -3.15  0.001402882    3.048    0.672
        57 -10.5202    200.1200     58.3604   5.3598893622e+01   2.7338096458e+01    0.3483799    0.2479322 -38.35  0.001410388    1.359    0.264
        58  -9.8334    188.1409     55.0842   5.4616607916e+01   3.0839619700e+01    0.4595043    0.2111392 -17.78    0.0014686    3.627    0.724
        59  -9.4486    107.4058     61.7984   7.5322551770e+01   4.9291146089e+01    0.2178933    0.1373003 -25.28 0.0008890139    1.721    0.419
        60 -10.5122    204.6832     48.8530   5.0320151592e+01   2.7607469892e+01     0.409887    0.2498292 -26.43  0.001875297    1.767    0.434
        61  -7.9915    187.2794     48.6442   5.2904917016e+01   3.2007975540e+01    0.1557135    0.1064113 -62.17 0.0003432827    1.657    0.397
        62  -8.9376    190.4428     43.1521   5.0834618158e+01   3.1978553663e+01    0.3671412    0.1297635 -33.60  0.001311248    2.697    0.629
        63  -9.4496    111.9350    248.9601   1.1208226411e+02   8.7817765881e+00    0.1933147    0.1187536  64.19 0.0007148479    1.712    0.416
        64  -7.8790    197.2990     32.3217   4.6823983201e+01   3.1674846866e+01    0.1398035    0.1062306  32.34 0.0007023805    1.624    0.384
        65  -9.2078    241.5244     25.6368   4.0268476732e+01   2.1953070196e+01    0.3229504    0.2188668  11.23   0.00156773    2.676    0.626
        66 -10.3800     82.3660     77.0003   8.8406653657e+01   5.0988615845e+01    0.3514678    0.1296213 -47.33  0.001260614    2.522    0.604
        67  -8.4558     26.1630    249.6582   1.2717765801e+02   1.9821543313e+01    0.2151045   0.05395496  44.71  0.001092304    2.656    0.624
        68 -11.2881    109.2822     76.1860   7.9577212725e+01   4.6129783585e+01     0.396249    0.2649217  35.01 0.0002485149    1.571    0.363
        69  -8.7872     99.6502    248.6788   1.1432333377e+02   1.0633637950e+01    0.1067163   0.08930358  11.96 0.0007048554    1.743    0.426
        70  -9.8095     71.0042    248.3645   1.1947367179e+02   1.4657513644e+01    0.2652016   0.08728938  39.47  0.001261912    2.532    0.605
