#   1 NUMBER                 Running object number                                     
#   2 MAG_AUTO               Kron-like elliptical aperture magnitude                    [mag]
#   3 X_IMAGE                Object position along x                                    [pixel]
#   4 Y_IMAGE                Object position along y                                    [pixel]
#   5 X_WORLD                Barycenter position along world x axis                     [deg]
#   6 Y_WORLD                Barycenter position along world y axis                     [deg]
#   7 A_WORLD                Profile RMS along major axis (world units)                 [deg]
#   8 B_WORLD                Profile RMS along minor axis (world units)                 [deg]
#   9 THETA_WORLD            Position angle (CCW/world-x)                               [deg]
#  10 FWHM_WORLD             FWHM assuming a gaussian core                              [deg]
#  11 ELONGATION             A_IMAGE/B_IMAGE                                           
#  12 ELLIPTICITY            1 - B_IMAGE/A_IMAGE                                       
         1 -11.8827      6.2830     42.4371   9.3864022348e+01   6.6788584482e+01     1.672525          nan -52.19   0.00471732    6.510    0.846
         2 -11.9606     75.1139     35.7260   6.1603263487e+01   5.9641144925e+01     1.024242    0.4218565  28.83  0.003748449    3.421    0.708
         3 -11.1143     20.9411     15.0898   7.6162912080e+01   7.0250161662e+01    0.5903473    0.3073051 -14.42  0.003221426    2.062    0.515
         4 -11.2800     99.4296     22.7616   4.9119096160e+01   5.6488391738e+01    0.5869626    0.2951577  38.48  0.002772615    1.906    0.475
         5 -12.2048    128.8227     18.9262   4.1023596919e+01   5.0337642777e+01    0.2989954     0.225423  31.79 0.0003415977    1.398    0.285
         6 -11.0649      9.5912     15.9943   8.2664232455e+01   7.1150019874e+01    0.2854861    0.1482142 -22.71  0.001218785    1.712    0.416
         7 -11.8279      4.0728     17.0391   8.6168186035e+01   7.1394393266e+01    0.3946219     0.267739  34.89  0.001799085    2.100    0.524
         8 -11.5048    238.1906     17.9595   2.6921405423e+01   2.5502336683e+01    0.2153001    0.1680513 -50.47 0.0002796376    1.227    0.185
         9 -11.2535     48.4963     15.6102   6.3378760492e+01   6.6676207711e+01    0.6239232    0.3506873  15.36   0.00333361    1.933    0.483
        10 -11.1334     39.9122     11.0341   6.5003551261e+01   6.8478339923e+01    0.3855534    0.2286545  44.46  0.001883147    2.040    0.510
        11 -11.5355     40.0974     15.6339   6.7060169482e+01   6.7880573129e+01    0.3388945    0.2555782  17.26  0.001318092    1.149    0.130
        12 -10.2858     44.2541      8.9723   6.2108685500e+01   6.8092245450e+01     0.286433    0.2558367 -61.61   0.00193966    2.047    0.512
        13 -10.5895     33.3904     16.4094   7.0537169778e+01   6.8654005147e+01    0.4059512      0.20673  10.23  0.001587049    2.453    0.592
        14 -10.5316     70.6528     13.6941   5.4141074875e+01   6.3175380659e+01    0.2254255    0.1803836  -5.86 0.0007330033    1.227    0.185
        15 -10.6972     76.6112     11.2487   5.1167430610e+01   6.2305842821e+01    0.4781732    0.1969173  51.53  0.002230119    2.187    0.543
        16 -10.7144    117.8941     11.4185   4.0713434915e+01   5.3568639959e+01    0.5118576    0.2462684 -15.28  0.002360066    2.676    0.626
        17 -12.2685    128.5972     11.4036   3.8625342636e+01   5.1119697228e+01    0.3761774    0.2551201  79.87 0.0007646848    1.578    0.366
        18 -10.9522    157.5741     12.7127   3.4309282470e+01   4.4193755543e+01    0.4133997    0.1346841 -44.78  0.001589601    3.466    0.711
        19  -9.7637    100.2720     11.9618   4.4870067941e+01   5.7411809756e+01     0.145249    0.1104852 -18.56 0.0003171085    1.459    0.314
        20 -10.7108    233.8369     10.8655   2.5842721106e+01   2.7200574750e+01    0.1733652    0.1109465 -65.68 0.0008185988    1.326    0.246
        21 -10.1822    138.0951     11.0206   3.6830827791e+01   4.8944405380e+01    0.1937755    0.1695475  75.62 0.0004152355    1.084    0.077
        22 -10.9020    240.9341      9.5482   2.5054097728e+01   2.5898522920e+01    0.1881566     0.123085 -65.80 0.0004214505    1.256    0.204
        23 -10.6408    164.0191      9.0166   3.2410376436e+01   4.3028176346e+01     0.227178    0.1755835 -42.07 0.0003303246    1.409    0.290
        24 -10.4446    164.5488      5.4948   3.1394175001e+01   4.3230458578e+01     0.207369     0.164321 -54.82 0.0007126235    1.326    0.246
        25 -10.0239     15.9967      6.8133   7.4931193250e+01   7.1896628792e+01    0.4530295    0.1985254 -35.91  0.002561505    2.038    0.509
        26 -10.9173     26.8780      2.7518   6.7158962192e+01   7.1179819699e+01    0.2386427     0.190255  28.32  0.001738082    1.472    0.321
        27 -11.3454     21.9819      6.8464   7.1730450407e+01   7.1257770102e+01    0.3719254    0.3414878  51.35   0.00244237    2.072    0.517
        28 -10.3489     21.5866      1.5881   6.9295322354e+01   7.1952382732e+01    0.3227016    0.1231794  30.68  0.001685099    2.420    0.587
        29 -11.6588      8.6311      8.8673   8.0037861486e+01   7.2290599610e+01    0.3955011    0.1911996  27.47  0.001708486    2.146    0.534
        30 -12.7565    213.6356      5.6618   2.6388207524e+01   3.2040407839e+01    0.7853567    0.4304769 -78.77  0.004306637    1.782    0.439
        31 -11.1412    190.5757      6.9054   2.8808891326e+01   3.7060719343e+01    0.3972991    0.3482344 -85.59  0.002529334    1.073    0.068
        32 -11.5443    194.8479      2.0314   2.7247368716e+01   3.6564004179e+01     0.410927    0.1915934  86.13  0.001994244    2.133    0.531
        33 -11.1384    146.3865      6.8115   3.4248333875e+01   4.7379905581e+01     0.320959    0.2288276  38.24  0.001346108    1.525    0.344
        34 -11.5103    148.4509      2.2484   3.2620471750e+01   4.7288246142e+01    0.4043098    0.3423124  78.63  0.001694553    1.057    0.054
        35 -10.3430    156.0789      6.4228   3.2754191423e+01   4.5135917368e+01    0.2132032    0.1711243  22.99 0.0007918846    1.550    0.355
        36  -9.0696    113.2883      7.6518   4.0362141097e+01   5.4940161033e+01    0.1214293    0.0942595 -68.77 0.0007024147    1.660    0.397
        37 -10.7011     90.3769      6.7477   4.5381149308e+01   5.9970831579e+01    0.4716334    0.1712493  49.72  0.002125716    2.169    0.539
        38 -10.3483     73.0306      5.9287   5.0030701989e+01   6.3494196952e+01    0.2679994    0.2255803 -81.28  0.001694754    1.912    0.477
        39 -10.2499     74.4723      2.3298   4.8037363360e+01   6.3533936070e+01    0.2239468    0.1779438  67.47 0.0009205242    1.581    0.368
        40 -11.4075    232.9792      5.9837   2.4932661454e+01   2.7907471742e+01    0.3288181   0.09376144  61.47  0.001422939    3.355    0.702
        41  -9.5594     81.5503      5.9758   4.7490562729e+01   6.1832320345e+01     0.168379    0.1165431 -16.19 0.0005257673    1.561    0.359
        42 -10.8229     67.9152      4.0243   5.0844126694e+01   6.4624870439e+01    0.2279082    0.2056689   7.93 0.0009487426    1.208    0.172
        43 -11.4305    179.0058      4.1896   2.9367232000e+01   3.9981290754e+01    0.2220675    0.1875488  89.31 0.0002774515    1.022    0.021
        44 -10.7517     98.4560      3.9631   4.2299254250e+01   5.8501537368e+01      0.32318    0.2300997  41.49  0.001189547    1.192    0.161
        45  -9.4769     61.5438      5.4343   5.3656681635e+01   6.5644210475e+01    0.1216777   0.09562767  22.71 0.0001246263    1.013    0.013
        46 -10.6712    223.3473      3.9834   2.5252726407e+01   3.0129991897e+01    0.1994532    0.1435641  59.04 0.0006529237    1.587    0.370
        47 -10.3356    126.4854      2.8044   3.6217518092e+01   5.2346680959e+01    0.2217662    0.1639602  15.81 0.0005089265    1.608    0.378
        48 -11.0161    243.0159      2.9845   2.3648741669e+01   2.6191801295e+01    0.1798672    0.1358939 -71.70 0.0006320516    1.012    0.012
        49 -10.6035     60.7255     13.7189   5.7675529605e+01   6.4930966203e+01    0.3857074    0.2932997 -64.21  0.002135439    2.674    0.626
        50 -10.8009     12.1544      2.1922   7.4790479188e+01   7.2883436921e+01    0.2498562    0.1427473  -2.24  0.001345859    1.629    0.386
        51 -10.8241    237.5165      2.3356   2.3894858618e+01   2.7365591765e+01    0.1970831   0.09129934  77.75  0.001083781    1.956    0.489
        52 -10.0102    230.7777      1.4332   2.4187700678e+01   2.8838877531e+01    0.1511265   0.09196433  67.99  0.000461783    1.611    0.379
        53  -9.2215    158.6240      1.7532   3.1126464584e+01   4.4948190157e+01    0.1296178   0.07765891  50.00 0.0002981126    1.637    0.389
        54  -9.7365     82.1076      1.3883   4.5439044990e+01   6.2107658119e+01    0.1842442   0.09721932  51.27 0.0006525843    1.568    0.362
        55  -9.9662     32.5057      1.4315   6.3726223661e+01   7.0596939999e+01    0.2218651   0.09567846  37.95  0.001191806    2.148    0.534
        56  -9.2755    177.2809    168.7023   7.0821974790e+01   1.2430221169e+01     0.139939    0.1201056 -88.81 0.0002089904    1.541    0.351
        57 -12.3310    226.5342    245.3412   7.5025332942e+01  -8.8011462661e+00    0.6911386    0.3530114  -4.69  0.003125172    2.965    0.663
        58 -11.6128    238.1664    246.3954   7.3082524710e+01  -1.0423863664e+01    0.2477436    0.1631409  41.12  0.001301077    1.978    0.494
        59 -12.1894    232.5753    244.9978   7.3862924204e+01  -9.5329444144e+00     0.582366    0.2301187 -28.92  0.002729679    2.702    0.630
        60 -11.6055     88.9709    249.4198   1.0323332253e+02   1.0559188385e+01    0.3081374    0.2304629  43.93 0.0007983883    1.145    0.127
        61 -10.1975     72.5002    250.1407   1.0659001690e+02   1.2656516399e+01     0.202858    0.1629085  19.47  0.001089858    1.602    0.376
        62 -13.1011     19.2616    237.3335   1.1589237730e+02   2.1462700396e+01      1.47297    0.3985736  56.66  0.006067976    3.515    0.715
        63 -11.7300      5.0337    235.9861   1.1842351948e+02   2.3124031376e+01    0.3827486    0.2945011  51.62  0.002875795    1.270    0.213
        64 -13.3221      6.0354    245.1634   1.1868719659e+02   2.1224464228e+01    0.8741375    0.5780723  39.14  0.004879529    1.551    0.355
        65 -12.6192     22.2010    249.0446   1.1602247450e+02   1.8850570768e+01    0.7844592    0.2279222  35.36  0.003710837    2.983    0.665
        66 -11.3713     17.2523    247.4005   1.1681867636e+02   1.9681499863e+01    0.2687993    0.1647732  49.53  0.000884617    1.351    0.260
        67 -10.1067      4.8002    168.8497   1.1426762239e+02   3.7914581318e+01    0.1687051    0.1190919  73.74 0.0005193224    1.283    0.220
        68  -9.3397     99.4159    164.5729   8.9212886251e+01   2.7744772310e+01    0.1461166    0.1405737 -84.55 0.0001202743    1.004    0.004
        69  -9.4983      9.1607    162.3496   1.1267037021e+02   3.9137528507e+01    0.1676545    0.1004637  42.62 0.0009472543    1.760    0.432
        70 -12.7928     21.2036    157.4647   1.0914923262e+02   3.9358154562e+01    0.5915744    0.4496171  11.08   0.00090375    1.712    0.416
        71  -9.5684    216.2256    155.1727   5.9963873237e+01   7.8138910884e+00    0.1829186    0.1615349 -58.45 0.0003703366    1.304    0.233
        72 -10.2654     11.0861    153.2355   1.1133350583e+02   4.1193514215e+01    0.2606905    0.1551457  35.06  0.001464465    1.863    0.463
        73  -9.9351    177.1628    150.7198   6.6949611702e+01   1.6222265025e+01     0.240786    0.1979728  67.52  0.001183548    1.497    0.332
        74 -10.1648    207.0317    146.6786   5.9867059586e+01   1.1153770114e+01    0.1975211    0.1858246  20.25 0.0004908254    1.119    0.107
        75  -9.3440     41.0491    146.0382   1.0232980675e+02   4.0333318652e+01    0.1560384    0.1436916 -77.99 0.0002916889    1.060    0.057
        76  -9.3060     19.3796    146.1651   1.0837976509e+02   4.2285043191e+01    0.1872483     0.105879 -84.63 0.0005472932    1.672    0.402
        77  -9.8230    220.4517    143.9629   5.6772202388e+01   9.1362967882e+00    0.2174176     0.127242 -40.26 0.0006731553    1.539    0.350
        78  -9.6059     13.9954    139.9908   1.0915098027e+02   4.4212388314e+01      0.14874    0.1329046 -78.61 0.0003437245    1.093    0.085
        79  -9.2366    230.3300    139.6676   5.4119143110e+01   8.1137479751e+00    0.1385584    0.1059163 -68.35  0.000705198    1.721    0.419
        80 -10.3125     54.7915    138.5882   9.7171299432e+01   4.0680805721e+01    0.2758517    0.2215908  53.64   0.00146423    1.351    0.260
        81 -10.0607     17.2603    137.5595   1.0795023804e+02   4.4568083546e+01    0.1773292    0.1416396 -78.15 0.0006376568    1.065    0.061
        82 -10.4478      2.4723    136.7564   1.1197474446e+02   4.5762192540e+01    0.3155751   0.09356405 -71.29   0.00129414    2.542    0.607
        83  -9.2115    143.7135    137.3455   7.1778305699e+01   2.5997793049e+01    0.1580704    0.1256611 -86.41 0.0007020803    1.650    0.394
        84 -10.6479      9.1442    136.7054   1.1012902264e+02   4.5352391514e+01     0.227396    0.1459949 -68.61 0.0003265256    1.252    0.201
        85  -9.4761    122.6916    135.3005   7.6809573696e+01   3.0679207710e+01    0.1559053    0.1244715  81.72 0.0002391625    1.599    0.375
        86  -9.6826     20.8646    135.1453   1.0661825376e+02   4.4886032899e+01    0.1866368     0.124643 -56.20 0.0008756426    1.316    0.240
        87  -9.9263    249.2715    134.0611   4.9900378056e+01   5.7715528768e+00    0.1918691    0.1508799 -37.57 0.0005874079    1.072    0.067
        88 -10.6935     54.2040    132.5829   9.6298713695e+01   4.2262109933e+01    0.3149222    0.2431105  50.76  0.001131221    1.431    0.301
        89 -10.1394    112.3574    131.8484   7.8865228881e+01   3.3470892734e+01    0.2390096    0.1358185 -41.75 0.0009548011    1.807    0.447
        90  -9.4740     79.6926    132.7121   8.8601931188e+01   3.8798440900e+01    0.1485307    0.1118716 -25.46 0.0003013697    1.572    0.364
        91 -11.2850     36.3321    130.3641   1.0135456645e+02   4.4729674269e+01    0.5237201    0.2535853 -44.46  0.002332296    2.098    0.523
        92 -11.0504     73.8000    129.2331   8.9666265827e+01   4.0533112537e+01    0.3239857    0.2859481 -61.84 0.0008938406    1.070    0.066
        93 -11.0047     24.1942    126.0066   1.0437854156e+02   4.6878028567e+01    0.2368806    0.1893322  30.59 0.0005412372    1.458    0.314
        94 -10.7824     20.7971    121.7925   1.0480476987e+02   4.8178314161e+01    0.3380546    0.1659873 -32.84  0.001511416    2.568    0.611
        95 -10.5745     17.8655    125.8042   1.0626298498e+02   4.7411962732e+01    0.2810317     0.206981 -33.54  0.001107261    1.501    0.334
        96 -10.5161     13.6405    125.7275   1.0751688405e+02   4.7728292365e+01    0.2165428    0.1761225 -27.26 0.0005209123    1.417    0.295
        97 -11.0515     10.8738    123.0978   1.0800445843e+02   4.8551711684e+01    0.3111588    0.2337153 -76.26  0.001317759    1.138    0.121
        98  -9.9873    220.0092    124.2868   5.2505803112e+01   1.2877893667e+01    0.1924242    0.1830215 -37.38 0.0005044129    1.058    0.055
        99  -9.9490      2.7906    122.9366   1.1038545697e+02   4.9075035541e+01    0.1679614    0.1117865 -40.97 0.0003168122    1.551    0.355
       100 -11.1226     15.2918    116.9078   1.0580848215e+02   4.9763554990e+01    0.4256607     0.220332 -52.47  0.001523927    1.618    0.382
       101  -9.8576      1.4160    118.9952   1.1033159462e+02   5.0095464063e+01    0.1895791   0.09851161 -72.23  0.000332247    1.533    0.348
       102 -10.1497     72.4800    117.7401   8.7601984450e+01   4.3559503260e+01    0.2802207    0.1401512 -60.30 0.0008458306    1.995    0.499
       103  -9.6258    179.4563    116.4718   5.8376454916e+01   2.2851630710e+01    0.1515506    0.1451893 -42.56 0.0003943747    1.003    0.003
       104  -9.8711     85.8218    116.4185   8.3087778074e+01   4.1837984160e+01    0.1955114    0.1454782  15.55 0.0002427806    1.580    0.367
       105  -9.7044    213.9982    115.3468   5.1512412931e+01   1.5731857623e+01    0.1889866    0.1848919  45.48 0.0004821875    1.123    0.110
       106 -10.8981    249.4018    112.3804   4.5354319246e+01   9.4439195079e+00    0.2493506    0.1968667 -51.49 0.0006307117    1.155    0.134
       107  -9.4621     74.2209    112.9942   8.5955814475e+01   4.4457516518e+01     0.197291     0.113415 -54.57 0.0005706534    1.622    0.383
       108 -11.7048     37.1201    110.5173   9.7670013494e+01   4.9552620974e+01    0.4186246    0.3090854  61.34  0.002012329    1.681    0.405
       109 -12.0625     14.1205    109.2971   1.0505471925e+02   5.1678518957e+01    0.4704194    0.3204838   1.33  0.002731117    1.821    0.451
       110 -10.4897      2.0305    107.8601   1.0874480366e+02   5.2716811536e+01    0.4793921    0.1445446 -68.72  0.002002013    2.492    0.599
       111 -10.1152     70.5035    108.4020   8.6080386795e+01   4.6098304311e+01    0.2891114    0.1341245 -54.37  0.000889674    1.989    0.497
       112 -11.3532     23.8429    106.3467   1.0135484461e+02   5.1700200205e+01    0.3168468    0.2780953 -68.68  0.000936889    1.100    0.091
       113  -9.9777     25.9663    102.3212   9.9907778150e+01   5.2498187259e+01    0.1707083    0.1556205 -44.63 0.0003307706    1.099    0.090
       114 -10.5604     19.2750    101.0565   1.0197970259e+02   5.3298881224e+01    0.2749292     0.161204 -32.69  0.000294063    1.791    0.442
       115  -9.5952     23.9902     99.0256   9.9977002608e+01   5.3434617877e+01    0.2493981    0.2138189 -14.93 0.0008510014    1.272    0.214
       116 -10.1573     94.9822    112.2475   7.9224744008e+01   4.1286188521e+01    0.2741511     0.216712 -49.87  0.001030155    1.218    0.179
       117 -11.1099    120.1745    101.2657   6.8857519248e+01   3.8951926905e+01    0.6485332     0.271127 -31.83  0.001890367    3.840    0.740
       118 -11.8065     55.1670    109.4154   9.1408641280e+01   4.7876418961e+01    0.4596287     0.244617 -48.97  0.001322258    1.664    0.399
       119 -10.2984     37.3616    103.3005   9.6170158380e+01   5.1270366770e+01    0.3011636    0.2273645  82.04  0.001542255    1.678    0.404
       120 -10.2147     31.8962    103.4892   9.8089905207e+01   5.1724690942e+01    0.1728288    0.1331265  14.37 0.0003498724    1.495    0.331
       121 -10.0323     14.7642    103.3726   1.0390590318e+02   5.3052604139e+01    0.1544243    0.1158332 -14.10 0.0003957823    1.539    0.350
       122  -8.8738     82.6618    108.2873   8.2097799518e+01   4.4282555327e+01    0.1465307    0.1171146  73.70 0.0007018817    1.635    0.388
       123 -11.4732    143.5783     98.4619   6.1885057190e+01   3.4504227700e+01    0.7016519    0.4222158  47.26  0.002987625    1.673    0.402
       124 -10.5094     66.5434     98.4458   8.4959480434e+01   4.8999078791e+01    0.2575837    0.1933135 -41.03 4.967726e-05    1.229    0.186
       125 -10.0232    173.4828     83.5129   5.1146886243e+01   3.0512292849e+01    0.2868905    0.1441216 -38.27 0.0007267956    1.980    0.495
       126 -12.5056    158.1486     89.8742   5.6093182089e+01   3.2890628334e+01     1.296917    0.5936498 -55.82  0.004249065    3.206    0.688
       127 -10.6096    163.8259     88.8494   5.4570784455e+01   3.1774493743e+01    0.3770013    0.2708112 -37.87  0.001126354    1.398    0.284
       128 -12.2872    166.3160     83.9576   5.2721584776e+01   3.2098479073e+01    0.8613415    0.6715192  54.44  0.004340373    1.285    0.222
       129  -9.6836     50.9766     99.2941   9.0561095634e+01   5.0787046660e+01     0.181889    0.1715382 -12.66 0.0004321408    1.114    0.102
       130  -8.8681     10.3330     99.2799   1.0474262898e+02   5.4293361602e+01    0.1314221    0.0757798 -40.76 0.0007002882    1.609    0.379
       131 -11.2165     14.2599     97.4361   1.0308188046e+02   5.4488053489e+01    0.4247558    0.1855991 -59.26  0.002056817    1.750    0.429
       132 -11.4087     10.8060     90.6622   1.0311439135e+02   5.6275087936e+01     0.401327    0.3099236  44.15 0.0009258619    1.616    0.381
       133 -10.0541      4.9567     98.0784   1.0638415584e+02   5.4871080592e+01    0.2078013    0.1637874 -17.88  0.001127868    1.431    0.301
       134  -9.4218      1.2090     96.0057   1.0734547986e+02   5.5538517203e+01    0.1667441   0.08007365 -68.20 0.0004615017    1.656    0.396
       135  -9.1398    250.2987     95.6855   4.1732594810e+01   1.2049323804e+01    0.1332563   0.08887149 -63.07 0.0004747446    1.608    0.378
       136 -11.1334     37.3451     94.6747   9.4348449363e+01   5.3311150445e+01    0.2613314     0.238468 -73.26 0.0002509412    1.198    0.165
       137 -10.2993     21.0120     92.9146   9.9864418769e+01   5.5089638935e+01    0.4724108   0.07273911 -58.94  0.001547047    3.710    0.730
       138 -10.6754     25.4310     91.2620   9.7933263193e+01   5.5141320286e+01    0.2430015    0.1960518 -51.89  0.001103553    1.037    0.036
       139 -11.2785     22.1135     87.1106   9.8293026710e+01   5.6349338124e+01    0.3157494     0.273371  40.52 0.0008677763    1.414    0.293
       140 -11.1254     62.2570     98.9440   8.6557534599e+01   4.9466992957e+01    0.3650245    0.2910003  12.64  0.001539138    1.372    0.271
       141  -9.1379    113.4428     93.4788   6.8593981207e+01   4.1988723042e+01    0.1520852    0.1444627 -10.31  0.000108406    1.034    0.033
       142  -9.5177    127.6787     92.6788   6.4379890046e+01   3.9173869168e+01    0.1575013    0.1212776   2.71 0.0003783868    1.673    0.402
       143  -9.5041     46.5276     92.5571   9.0550625567e+01   5.2858740460e+01     0.135829    0.1211724 -43.51 7.387553e-05    1.040    0.038
       144 -10.5332    152.2124     90.8633   5.7717540443e+01   3.4062948022e+01      0.44556    0.2572269  60.01  0.001807809    1.990    0.497
       145 -10.9613     57.5810     90.0417   8.5938312005e+01   5.2119684321e+01    0.4216253    0.2679419  12.62  0.001854994    1.882    0.469
       146 -10.5502     96.5521     89.6764   7.2612421623e+01   4.6071681251e+01    0.3098688    0.2269251   6.72  0.001440876    1.708    0.415
       147 -10.0927     83.1164     88.8168   7.6726844986e+01   4.8621356011e+01    0.2046246     0.197064 -42.15 0.0005376008    1.109    0.098
       148 -10.9505     78.8105     87.9958   7.7942312366e+01   4.9505386074e+01    0.3227623     0.205406 -50.50  0.001370043    1.546    0.353
       149 -10.5731      6.8323     82.8264   1.0314672770e+02   5.8283667305e+01    0.3747731    0.1902518 -37.30  0.001816883    1.807    0.447
       150 -10.4135     65.0771     87.5108   8.2582561361e+01   5.1681323594e+01    0.2823511    0.2255821 -18.25  0.001006717    1.273    0.215
       151 -10.8384     66.9423     83.3904   8.0762978930e+01   5.2316939003e+01    0.3763956    0.2396243  37.76  0.001845382    1.692    0.409
       152  -9.9735     62.2439     82.7967   8.2286600012e+01   5.3107450751e+01    0.2156932     0.175782  -9.73  0.000270275    1.249    0.199
       153  -9.2936    139.2781     87.6813   5.9941575270e+01   3.7613662518e+01    0.1505345    0.1205673 -77.43 0.0006984747    1.576    0.366
       154  -9.8570    120.9798     86.7115   6.4487006708e+01   4.1812512105e+01    0.2106085    0.1943156  33.45 0.0004938678    1.075    0.070
       155 -10.2448     74.1010     82.5308   7.7983741190e+01   5.1425906935e+01    0.2484193    0.1859975 -25.69 0.0006969582    1.346    0.257
       156 -11.1883     30.7086     81.8596   9.3876887225e+01   5.6849197769e+01    0.3287234    0.2458726 -16.26 0.0006607393    1.380    0.276
       157 -11.2947      4.4866     85.5122   1.0449569291e+02   5.7794106565e+01    0.5755017    0.1185538 -57.16  0.002272959    2.815    0.645
       158  -9.7276     42.7121     82.7293   8.9521718134e+01   5.5497342707e+01    0.2015309    0.0994156  38.80  0.000902258    2.393    0.582
       159 -12.1571     37.0351    243.9032   1.1297039631e+02   1.8235106885e+01    0.6601321    0.3000848 -88.39  0.003121109    2.339    0.572
       160 -10.7392     15.0593     59.9358   9.4761401419e+01   6.2768846003e+01    0.2069366    0.1536829 -19.40 0.0003336167    1.260    0.206
       161 -12.0988     12.1347     48.9639   9.3034639868e+01   6.5167891017e+01    0.9477639     0.466901 -47.25   0.00526121    1.576    0.365
       162 -13.0162     10.2753     74.9909   1.0028025786e+02   5.9844988504e+01     1.369796    0.5331155  31.71  0.006390622    3.043    0.671
       163 -14.0914     16.6721     67.4622   9.5987737443e+01   6.1081258385e+01    0.5535753    0.3884442 -42.77  0.001259452    1.139    0.122
       164 -11.6312     10.0491     63.3967   9.7768553686e+01   6.2358693599e+01    0.4385971    0.3453318  85.72  0.002036563    1.765    0.433
       165 -12.1027      6.1844     67.9214   1.0040794703e+02   6.1606402721e+01     0.223321    0.1596452 -46.12 0.0002967797    1.088    0.081
       166 -12.8025      3.1716     62.9464   1.0056012072e+02   6.2816652023e+01    0.5461319     0.291609 -62.07  0.002582407    1.587    0.370
       167  -9.0314    124.2892     79.2604   6.1366548161e+01   4.2550537560e+01    0.1452626    0.1151993  12.03 0.0006887233    1.491    0.329
       168 -11.0584     60.9480     78.1696   8.1433179651e+01   5.4277746720e+01    0.5510192    0.3356785  65.06   0.00205254    3.880    0.742
       169 -10.2648     61.5958     73.1434   7.9695628384e+01   5.5238117380e+01     0.422348    0.1493929 -41.59  0.001570577    2.700    0.630
       170 -11.3491     51.6265     62.7450   8.0289357018e+01   5.8659427983e+01    0.4295284    0.3551798  62.51  0.002461668    1.808    0.447
       171 -10.5014     54.0156     74.3036   8.2903155367e+01   5.6007371581e+01    0.2527725    0.2281111 -78.43 0.0004172084    1.431    0.301
       172 -12.2456     50.3286     68.6592   8.2645922216e+01   5.7637018481e+01    0.4520791    0.3273361 -37.88 0.0007688077    1.220    0.181
       173 -12.7906     44.6672     75.1893   8.6756904569e+01   5.6931685196e+01     0.266237    0.2534451 -12.16 0.0004703393    1.158    0.137
       174 -11.0401     36.3250     68.7255   8.8256047967e+01   5.9178090590e+01     0.507357    0.2874904  55.49  0.002127763    3.556    0.719
       175 -10.5955     93.9830     73.7918   6.8615219982e+01   4.9778421180e+01    0.3760742    0.2927655 -71.18  0.001297933    1.827    0.453
       176 -10.3034     90.6959     74.6520   6.9951776154e+01   5.0220386832e+01    0.3347039    0.1927676 -38.66  0.001053267    1.712    0.416
       177 -10.9702     74.9166     75.2600   7.5507995791e+01   5.2808403553e+01    0.3241397    0.2342411  10.68  0.001640678    1.552    0.355
       178  -9.9844    145.5598     74.6785   5.4677079278e+01   3.8593500748e+01    0.2822672    0.1482515 -31.97  0.001125497    2.117    0.528
       179 -10.6736    207.4978     73.4174   4.2692924708e+01   2.4455443300e+01    0.2247439    0.2111571 -71.63 0.0002621365    1.053    0.050
       180  -9.7742    137.4058     73.8323   5.6369347704e+01   4.0618701118e+01    0.2010086    0.1427565 -22.82 0.0003753358    1.635    0.388
       181 -10.6913    105.9750     73.9920   6.4955976243e+01   4.7400463352e+01    0.2205849    0.2084608   8.77 -0.005334738    1.007    0.007
       182  -9.5588    109.9937     73.2697   6.3540350638e+01   4.6714292627e+01     0.202068    0.1844031  32.46 0.0002856204    1.071    0.067
       183 -11.4644    156.8744     82.7039   5.4400390742e+01   3.4522574304e+01    0.8963846    0.4608146  33.82   0.00321173    2.813    0.644
       184  -9.8079    128.7766     71.4508   5.7816749117e+01   4.2992455599e+01    0.2081008    0.1347179  37.88 0.0005681191    1.602    0.376
       185 -11.4452     77.8809     70.0692   7.2830662280e+01   5.3357022177e+01    0.3989802     0.256958  35.28  0.001971202    1.571    0.363
       186 -10.6102    167.8248     69.9017   4.8586412490e+01   3.4188055535e+01    0.2255398    0.1987699  58.64 0.0003163134    1.117    0.105
       187  -9.7229    123.0033     69.0053   5.8574214425e+01   4.4706003089e+01    0.2623872    0.1857831 -36.72 0.0008968585    1.446    0.309
       188 -11.7892    122.8817     64.1459   5.7083205333e+01   4.5571453456e+01    0.2523468    0.2366876 -34.28 0.0002518676    1.108    0.098
       189 -10.2490    119.7500     60.9799   5.6904336067e+01   4.6792434639e+01    0.2961567    0.1964946  48.32 0.0006472083    1.447    0.309
       190 -10.3672     42.5652     68.5094   8.5679635191e+01   5.8570885324e+01    0.2312615    0.1961295 -20.88 0.0007204062    1.053    0.050
       191 -10.8412     29.0153     66.0301   9.0499450552e+01   6.0425815553e+01    0.2958018    0.2231266 -71.26  0.001733149    1.651    0.394
       192 -11.5218     31.1921     62.4479   8.8577216950e+01   6.0968958419e+01    0.6707936    0.4622406  51.88  0.003646543    2.222    0.550
       193 -13.1437     37.1639     50.0111   8.2101680936e+01   6.2796918504e+01     0.773872      0.61338 -15.39  0.003399506    1.083    0.077
       194 -11.7321     35.4577     42.2673   8.0136583216e+01   6.4381861632e+01    0.5921351    0.3197718   1.81  0.002860256    2.376    0.579
       195 -11.0202     26.8730     56.0227   8.8523411653e+01   6.2650971921e+01    0.2987998     0.190448 -44.79 0.0004421668    1.320    0.242
       196 -11.8980     26.9551     49.8668   8.6567335090e+01   6.3840283918e+01     0.480113    0.3495342 -57.99  0.002163795    1.579    0.367
       197  -9.5005    103.7945     67.5850   6.3569995910e+01   4.9024775118e+01    0.1938731    0.1369194  53.87 0.0004270737    1.566    0.361
       198 -11.3157     94.5473     66.1328   6.5964902376e+01   5.1108918325e+01    0.4877379    0.3096969  20.77 0.0009065772    1.930    0.482
       199  -9.1895    127.5135     66.5177   5.6623477930e+01   4.4135512468e+01    0.1451378    0.1400685  35.00 0.0008102412    1.013    0.013
       200 -10.7076    153.0549     63.9097   4.9890582115e+01   3.8662334086e+01    0.3331975    0.1920054  47.94 0.0007234934    1.704    0.413
       201  -9.3723    143.9471     64.5021   5.2052600520e+01   4.0705398654e+01    0.2118677    0.1397717  54.22 0.0003443577    1.465    0.318
       202 -10.5376     76.5750     63.6359   7.1184232425e+01   5.4800099814e+01    0.3024606    0.2660526  11.18  0.001773598    1.076    0.071
       203 -10.8456    201.8382     61.4347   4.0635189667e+01   2.7609282496e+01    0.2375152    0.2171595 -65.12 0.0004385203    1.042    0.041
       204 -11.1247     84.7360     60.8392   6.7417650880e+01   5.3888498223e+01    0.5251582    0.3615264  -3.80  0.002539628    1.803    0.445
       205  -9.5297    113.3914     61.2887   5.8737667781e+01   4.8121782871e+01    0.1918515    0.1343281 -46.39 0.0009297568    1.567    0.362
       206  -9.2342     98.2738     60.3103   6.2858527158e+01   5.1412149886e+01    0.1419771    0.1062372   3.95 0.0001678992    1.552    0.356
       207 -10.2472     69.3127     59.7331   7.2493859786e+01   5.6703508223e+01    0.2815395    0.1566323 -29.56  0.001293168    1.898    0.473
       208  -9.6408     65.2823     60.3004   7.4189219273e+01   5.7222106567e+01    0.1372113   0.09639424 -10.87            0    1.548    0.354
       209 -11.7154     58.7122     58.6649   7.6154463302e+01   5.8489110583e+01    0.4708026    0.3130603 -19.78  0.002276809    1.567    0.362
       210 -10.4341     61.5274     53.0006   7.3101816934e+01   5.9112752690e+01    0.2519752    0.1609389 -40.40 0.0008236428    1.518    0.341
       211 -10.6620    147.4163     57.3134   4.9152664061e+01   4.1035854884e+01    0.3566779     0.233396 -60.74  0.001590106    1.937    0.484
       212  -9.6579    124.4854     58.0380   5.4729224761e+01   4.6218752071e+01    0.2019871    0.1423931 -33.99  0.000355299    1.481    0.325
       213 -11.0544     75.2479     56.1582   6.9103059469e+01   5.6374398584e+01    0.2174649    0.2014066  -2.02 0.0002764609    1.093    0.085
       214  -9.8223    230.9640     55.5086   3.5492853244e+01   2.2116267409e+01      0.24281    0.1415651 -57.36  0.001254917    1.626    0.385
       215 -12.8159    105.4208     52.5889   5.8104235824e+01   5.1224144533e+01    0.4098867    0.2991496  40.30  0.000508816    1.291    0.226
       216 -10.3140    132.7260     53.9081   5.1403968582e+01   4.4987444469e+01    0.3486456     0.237798  39.79  0.001709378    1.476    0.323
       217  -9.2150     82.4415     54.4923   6.6005038287e+01   5.5405149949e+01    0.1387064    0.1232202   2.42 5.765887e-05    1.016    0.016
       218 -10.5267     55.6152     53.8105   7.5710902520e+01   5.9817315236e+01    0.2875831    0.1931847   5.68  0.001525644    1.627    0.385
       219  -9.7858    119.9981     52.7231   5.4163202182e+01   4.8053089684e+01    0.2019217    0.1708163  38.10 0.0003601707    1.118    0.105
       220 -10.4082     87.8925     51.5870   6.3155704302e+01   5.4880378267e+01    0.3013476    0.1880058 -30.29  0.001041476    1.638    0.389
       221  -9.9855    168.8622     51.9146   4.3446497450e+01   3.6741644076e+01     0.225048    0.1598639 -74.73 0.0009052067    1.668    0.401
       222  -9.7660    237.3900     51.2166   3.3859766910e+01   2.1395270262e+01    0.1867128    0.0971209 -48.01 0.0009496509    1.661    0.398
       223 -11.8072    128.8486     49.2292   5.0838402270e+01   4.6576036460e+01    0.4611843     0.372611   9.98   0.00183089    1.433    0.302
       224 -10.1465     45.6540     49.9302   7.8437485668e+01   6.1826470589e+01    0.3546777    0.2124787 -25.74  0.001864458    1.640    0.390
       225 -11.1113    199.9736     49.6137   3.8016608978e+01   2.9770403302e+01    0.2401663    0.2068165 -78.72 0.0003091385    1.063    0.059
       226 -10.3251     53.2337     49.9657   7.5313789732e+01   6.0834114599e+01    0.2446966    0.1773715  14.49 0.0007058535    1.347    0.258
       227  -9.3751    205.8243     48.6538   3.7003747315e+01   2.8574954266e+01    0.1746901    0.1162104  81.45            0    1.546    0.353
       228 -10.5380    142.9611     45.2259   4.6451463776e+01   4.3857198626e+01    0.2389875    0.2162194 -66.18 0.0004093197    1.189    0.159
       229 -10.5321    139.1190     43.1546   4.6619352064e+01   4.5046222244e+01    0.2572995    0.2489351   8.90 0.0007166819    1.104    0.094
       230 -10.7744     84.3040     45.5484   6.2168041691e+01   5.6509132536e+01    0.3390307    0.2206273  60.37  0.001613983    2.179    0.541
       231 -10.8628     95.5439     43.5261   5.7857328735e+01   5.4627570670e+01    0.3801855    0.2102159 -15.19  0.001187457    2.521    0.603
       232 -10.6896     91.3037     41.9708   5.8599702308e+01   5.5699392650e+01    0.4717866    0.2607534 -49.07  0.002101779    2.459    0.593
       233 -11.6351     72.5675     42.9314   6.5268343318e+01   5.9017352773e+01     0.307503    0.2805612 -70.21 0.0008476865    1.585    0.369
       234 -10.5214    249.9822    246.6989   7.1046883848e+01  -1.1893281853e+01    0.1653926    0.1211781   5.71 0.0006810608    1.079    0.073
       235 -11.1855     81.0118     35.2038   5.9385608655e+01   5.8635017471e+01    0.4346768     0.223105 -34.46    0.0012167    2.021    0.505
       236 -11.3407     67.4940     41.5025   6.6592441860e+01   6.0091797978e+01    0.5458217    0.2160139  40.39  0.002320795    2.463    0.594
       237 -10.5684     78.7513     47.1066   6.4627392294e+01   5.7279491614e+01    0.2306266    0.1771904 -24.90 0.0003856685    1.274    0.215
       238  -9.8089    107.0097     42.7225   5.4253401303e+01   5.2359205871e+01    0.1981426    0.1620395  43.09 0.0003485561    1.132    0.117
       239  -9.7605     18.4415     42.5253   8.8092375387e+01   6.5941387464e+01    0.2514333    0.1454866 -40.20 0.0005756458    1.392    0.282
       240 -10.7324     23.7690     41.5649   8.5258472228e+01   6.5669685674e+01    0.6288266    0.4318951  62.39   0.00311675    3.450    0.710
       241 -12.8051     27.6337     38.1067   8.2213645305e+01   6.5922613243e+01    0.5350333    0.3161868 -19.79  0.001290382    1.635    0.388
       242 -11.5904     24.4076     35.1597   8.2660140232e+01   6.6742459046e+01    0.2915553    0.1946957  -2.61 0.0008634753    1.414    0.293
       243 -10.0380    130.9935     41.8279   4.7972664135e+01   4.7121455529e+01    0.2310937    0.1986655 -28.94 0.0007657933    1.253    0.202
       244 -11.5070     52.9401     40.7410   7.2021542089e+01   6.2441725170e+01    0.3820851    0.2459718  36.01  0.001020671    1.618    0.382
       245 -12.9828     57.5795     34.5894   6.7728262809e+01   6.2719356673e+01    0.3348439    0.2668124 -14.35  0.000431515    1.132    0.117
       246 -10.5380    152.5754     39.0994   4.2734093524e+01   4.2394977892e+01    0.2459475    0.2101231  68.20 0.0005336563    1.089    0.081
       247 -10.4016    112.8032     46.1214   5.3851727948e+01   5.0621892375e+01    0.2737066    0.1833523  44.70 0.0009252575    1.382    0.276
       248 -10.9793     70.0499     36.3558   6.3659779088e+01   6.0437060840e+01    0.6757802      0.34736 -12.68  0.002711141    3.145    0.682
       249 -11.1355    225.2487     38.2406   3.2353592430e+01   2.5708097703e+01    0.2333157    0.1881431 -83.76  0.000354077    1.109    0.098
       250  -9.5969     85.8632     38.8534   5.9176852322e+01   5.7205007021e+01    0.1596856    0.1514999  41.06            0    1.225    0.184
       251 -11.6729     44.3091     38.3628   7.4758344812e+01   6.3992781594e+01    0.3614331    0.2436774  34.67 0.0009184339    1.616    0.381
       252  -8.7638    160.2944     38.2783   4.1121158794e+01   4.0657385517e+01    0.1335092    0.1001567  35.79 0.0001904329    1.530    0.346
       253  -9.9784      1.4431     37.9064   9.4866388147e+01   6.7909689299e+01    0.1685318   0.08852174 -50.89  0.000353794    1.512    0.339
       254  -9.7004    171.9978     36.1736   3.8630539749e+01   3.8132390244e+01    0.2278944    0.1302246  43.78  0.001036744    2.001    0.500
       255  -9.6186    134.4048     35.7453   4.5291261418e+01   4.7120724692e+01    0.1813762    0.1341031 -12.06 0.0009539521    1.623    0.384
       256 -10.6433    100.5391     36.0143   5.3679998799e+01   5.4644948596e+01    0.2803577    0.1734034  69.51  0.001259884    2.391    0.582
       257 -11.0142      7.8673     33.3108   9.0181835913e+01   6.8380717738e+01    0.4058714    0.2936772 -60.93  0.002670713    1.692    0.409
       258 -11.4262     16.5947     31.6358   8.5188319044e+01   6.8035160357e+01     0.514633    0.2502182   3.46  0.002644035    2.401    0.583
       259 -10.2693      1.6162     25.9186   9.0875290478e+01   7.0066888211e+01     0.197541    0.1116792 -37.25  0.000453551    1.331    0.249
       260 -11.5012     22.7562     25.7131   7.9795266284e+01   6.8463387702e+01    0.3164617    0.2321731 -12.21  0.001149482    1.095    0.086
       261 -10.4393     24.2828     20.8876   7.7006281437e+01   6.9055242445e+01     0.211714     0.160536 -48.31  0.001389694    1.775    0.436
       262 -10.1842     72.4895    245.5079   1.0617657548e+02   1.3552090177e+01    0.2464542    0.1545995  55.47  0.001107196    1.382    0.276
       263 -10.9707      8.0514     24.9548   8.7096223635e+01   6.9820273748e+01    0.4277103     0.149525  18.14    0.0020856    2.971    0.663
       264 -10.4886     14.5157     22.9485   8.2899325975e+01   6.9652341326e+01    0.3611047    0.1628584 -24.19  0.001213127    2.277    0.561
       265 -10.2218    108.3857     34.3386   5.0942352806e+01   5.3187621510e+01    0.2121893    0.2073765  64.02 0.0002022693    1.162    0.139
       266  -9.9008     93.8663     34.5610   5.5086263890e+01   5.6212614058e+01     0.207533    0.1203638  47.50  0.001025142    1.590    0.371
       267  -9.3522     84.8952     34.7734   5.7947988143e+01   5.7957367059e+01    0.1668673   0.09900276  41.88 0.0003997878    1.542    0.352
       268 -11.1151    221.7634     32.1253   3.1378138815e+01   2.7244578056e+01    0.2140971    0.1745645 -67.99 0.0002918491    1.049    0.046
       269 -10.2846    205.8854     32.4619   3.3175581030e+01   3.0710909840e+01    0.1863075    0.1590467 -57.37 0.0004681887    1.132    0.116
       270  -9.7423    178.0000     32.9453   3.6878083973e+01   3.7111378930e+01    0.2024575   0.07543007 -31.40 0.0004958747    2.879    0.653
       271  -9.9298    166.5864     32.2247   3.8392615528e+01   3.9912309642e+01    0.1721532    0.1331513 -11.80 0.0005857908    1.646    0.393
       272  -9.9953     48.7481     31.2849   7.0034588916e+01   6.4507819330e+01      0.24362    0.1698741   6.89  0.001449204    1.359    0.264
       273 -10.1154     50.2799     27.7370   6.7917161570e+01   6.4807146961e+01     0.283531    0.1655827   7.32  0.001189264    2.044    0.511
       274 -10.0240     44.2286     31.4036   7.2035011634e+01   6.5106021290e+01    0.2141885    0.1480975 -29.55 0.0006601031    1.331    0.248
       275 -12.6904    101.2789     28.7373   5.0826405106e+01   5.5406377066e+01    0.5368676    0.3444165  50.63 0.0009746438    1.417    0.294
       276  -9.7785     90.3150     20.3813   5.0740317176e+01   5.8644958320e+01    0.2095364    0.1503052  16.91  0.001136277    1.430    0.301
       277 -13.1952     74.8144    237.5291   1.0495248629e+02   1.4823264033e+01    0.7994386    0.6098661  69.27   0.00505138    1.202    0.168
       278 -10.3206     94.0181     22.3271   5.0436851768e+01   5.7669919847e+01    0.2696808    0.1949465  50.80 0.0008450025    1.286    0.222
       279 -10.1823    237.0591     29.9319   2.9445666043e+01   2.4290715249e+01    0.1726107    0.1439008  42.27 0.0007146967    1.696    0.410
       280 -10.9781    111.4107     27.8584   4.7890955771e+01   5.3314973506e+01    0.3581314    0.2225621  -7.12   0.00107284    2.085    0.520
       281 -10.9256     60.0590     27.1483   6.3710129098e+01   6.3389174077e+01    0.2147642    0.1736103 -31.71            0    1.384    0.277
       282 -11.3364    193.3893     25.7987   3.3051944596e+01   3.4372562760e+01    0.3047214    0.1771668 -59.00  0.001262903    1.773    0.436
       283 -10.7092    132.7054     25.5792   4.2400661173e+01   4.8723956042e+01    0.2945222    0.2179629  36.98 0.0009723266    1.377    0.274
       284 -10.4581    128.2891     26.6697   4.3654952466e+01   4.9627601673e+01    0.2278502     0.171374  67.98 0.0004926834    1.305    0.234
       285 -10.5618    128.8103     23.4147   4.2486390967e+01   4.9867663252e+01    0.3040804    0.2284235  48.43  0.001389536    1.196    0.164
       286 -10.2499    109.5213    242.8913   9.8296392791e+01   8.8386661549e+00    0.2466674    0.1442793  50.74 0.0006651396    1.593    0.372
       287 -10.8973     69.6180     26.3894   5.9824053653e+01   6.1876585139e+01    0.4233035    0.2017099  28.75  0.001797852    2.327    0.570
       288 -10.2981    214.5112     25.6989   3.0697739685e+01   2.9617794038e+01    0.2092669    0.1757602  84.15 0.0005012021    1.120    0.107
       289 -10.0240    204.3855     26.2108   3.1887313313e+01   3.1813815868e+01    0.1831287    0.1011469 -47.43  0.000653755    1.710    0.415
       290  -9.3826    143.8344     26.0234   4.0424500862e+01   4.6057279706e+01    0.2143074    0.1359641 -58.88  0.000612306    1.953    0.488
       291 -12.1749    165.2898     23.0694   3.6068500377e+01   4.1285192128e+01    0.3355364    0.2341889  75.15  0.001865801    1.321    0.243
       292 -11.1877    159.2402     23.1065   3.6989989179e+01   4.2720040992e+01    0.3443992    0.2394323 -80.33   0.00184374    1.616    0.381
       293 -10.4958    185.7891     22.9398   3.3270239567e+01   3.6466034148e+01    0.2178353    0.1658667  78.55 0.0005753292    1.173    0.147
       294  -9.8181    106.6300     23.1308   4.7394116368e+01   5.4899627991e+01    0.1934701    0.1610807 -51.38 0.0005271866    1.478    0.323
       295 -11.3489    107.8531     17.8963   4.5210678934e+01   5.5185842754e+01    0.3923919    0.2107027  38.61  0.001929424    1.800    0.444
       296 -11.3158     59.7853     22.1007   6.1685012627e+01   6.4093781276e+01     0.316611    0.2573292  54.63  0.000910288    1.696    0.410
       297  -9.5023    226.3192     22.0190   2.8765877577e+01   2.7501245222e+01    0.1664393    0.1371233 -74.55 0.0005160435    1.019    0.019
       298 -10.3665     67.4948     21.4988   5.8555344025e+01   6.2859110280e+01    0.3147813    0.1777969  48.18  0.001100006    1.815    0.449
       299  -9.7300    120.5014     20.9562   4.3410364494e+01   5.2038891192e+01     0.172212    0.1314258 -20.79 0.0004098688    1.473    0.321
       300  -9.9177    195.4271    238.7201   7.9905652761e+01  -3.5118441553e+00    0.2239464     0.139514  12.38  0.001188656    1.705    0.413
       301 -11.0002      6.3005     20.6779   8.6390254105e+01   7.0652088660e+01    0.2245171    0.1472597  12.58 0.0008357349    1.516    0.341
       302 -10.9930    244.2967    237.1553   7.0454454570e+01  -9.9445405159e+00    0.2090627    0.1657381  -9.45 0.0009341144    1.114    0.103
       303  -9.4078    134.6871    238.6457   9.2448463433e+01   5.8085828650e+00    0.1300219   0.09829566  -4.71  0.000587295    1.733    0.423
       304  -9.9232    173.1389     20.3815   3.4242463707e+01   3.9720529662e+01    0.1918232    0.1110311  82.87 0.0009407492    1.781    0.438
       305  -9.9724    139.6365     19.7166   3.9247714719e+01   4.7729956403e+01    0.2455244    0.1340388  52.92  0.001090078    1.605    0.377
       306 -10.8951     29.6047    232.8219   1.1364665496e+02   2.1294365469e+01    0.3023813     0.149633  75.79  0.001605309    2.002    0.501
       307 -10.3393    159.9762    236.0043   8.6727250403e+01   2.3356631018e+00    0.2037831    0.1480445   0.28 0.0004700747    1.637    0.389
       308  -9.6032    177.3258    235.3273   8.3019033666e+01  -2.4152561277e-01    0.1347144   0.09264749   0.39 0.0007049913    1.698    0.411
       309  -9.5883    151.4766     18.4090   3.6858974150e+01   4.5066268063e+01    0.2394675   0.09953462 -41.67  0.001032675    2.591    0.614
       310 -10.1640    221.2155    234.6224   7.4240415122e+01  -6.5607222646e+00    0.1744109   0.09986509  21.42 0.0005647393    1.649    0.394
       311  -9.7721     82.4296     17.7275   5.2030143454e+01   6.0509048042e+01    0.1597934    0.1141107  -2.80  0.000435058    1.477    0.323
       312  -9.8705    194.9983     16.9973   3.0746904072e+01   3.5000833115e+01    0.1841694    0.1570344 -87.02            0    1.013    0.012
       313 -10.1043     38.2294    232.8371   1.1196066155e+02   2.0336689040e+01    0.1754159     0.128658  71.66 0.0004704635    1.126    0.112
       314  -9.7538    184.6832     15.4214   3.1525738648e+01   3.7547888654e+01    0.2147539    0.1161867 -30.03  0.001096433    2.064    0.515
       315 -10.0791     75.0812     16.1759   5.3718403956e+01   6.2087589463e+01    0.4069896    0.1380324  43.91  0.001726778    2.502    0.600
       316 -10.1990     23.9603    232.5198   1.1471388258e+02   2.1955759244e+01    0.1930494    0.1401312 -69.49 0.0006226375    1.463    0.317
       317 -10.7510    152.9044    231.0539   8.7478541941e+01   4.3356376288e+00    0.4235322    0.2484093 -79.37  0.001486056    4.907    0.796
       318  -9.6025    169.8465    228.8761   8.3548890232e+01   2.0331406602e+00    0.1738844    0.1536424  52.51 0.0005616787    1.330    0.248
       319  -9.3025     58.2895    229.6847   1.0764022297e+02   1.8592951369e+01    0.1301739   0.07850021  65.65 0.0003812098    1.591    0.372
       320  -9.9944     15.0714     13.8565   7.8728962784e+01   7.0999871499e+01    0.1568088    0.1268698 -10.57  0.000429671    1.170    0.146
       321 -10.6948     88.7868    241.3171   1.0244268875e+02   1.2143188623e+01    0.2192296    0.1527363 -36.65   0.00121333    2.076    0.518
       322  -9.6952     31.0677     12.6624   6.9925385147e+01   6.9439032305e+01    0.1570167    0.1174921   8.69 0.0005570548    1.102    0.093
       323 -11.2686    120.8494    226.3310   9.3760274592e+01   1.0332195137e+01     0.218021    0.1850041 -84.34 0.0008734058    1.343    0.255
       324  -9.2907    190.4841    226.4823   7.8885916486e+01  -7.8757218011e-01    0.1335717    0.1117526   7.79 0.0003642635    1.051    0.048
       325  -9.9064     65.9810    226.3128   1.0570895411e+02   1.8315966712e+01     0.177194    0.1463573  52.16  0.000608063    1.108    0.097
       326 -11.0943      4.5838    226.5027   1.1802607176e+02   2.5089624396e+01    0.2914754    0.1482078  55.97  0.001766438    1.619    0.382
       327 -10.5836     21.1955    222.0173   1.1457388043e+02   2.4433533390e+01    0.2078431    0.1003115  70.86 0.0008874912    1.985    0.496
       328  -9.9633     38.0224    217.6851   1.1083417154e+02   2.3575712851e+01     0.171755    0.1392302  57.15 0.0007899049    1.137    0.121
       329  -9.3861    107.4589     10.4847   4.2632122821e+01   5.5984604780e+01    0.1289456    0.1079444  43.72 0.0001342957    1.025    0.024
       330 -10.9634      9.9596    217.4708   1.1649857849e+02   2.6488774214e+01    0.2792949    0.1812252  52.26  0.001583588    1.360    0.265
       331 -11.1989     29.5902    215.9218   1.1244783113e+02   2.4877911061e+01    0.2976743    0.2584749   8.87   0.00132423    1.641    0.391
       332  -9.6403    136.4892    215.9904   8.8771794537e+01   9.8929699965e+00    0.1862764     0.113385 -27.49 0.0008078782    2.388    0.581
       333  -9.5739     74.0005    216.0025   1.0288790585e+02   1.9466925349e+01    0.1591554    0.1391179  70.68 0.0005954318    1.016    0.016
       334 -10.4209     23.9249    216.3262   1.1363854612e+02   2.5378013099e+01    0.1660479    0.1366293  63.49 0.0008286216    1.122    0.109
       335 -11.7370    235.9462    214.3040   6.7959440189e+01  -5.5406811184e+00    0.2728834    0.1796374 -17.01  0.000510481    1.410    0.291
       336 -10.1457     21.5695    212.7372   1.1386664699e+02   2.6396832202e+01    0.2254397    0.1067037  53.39  0.001192026    1.878    0.467
       337  -9.5990    208.7023    211.8558   7.2672609011e+01  -1.1454656682e+00     0.210566    0.1456675 -17.18 0.0009478676    1.457    0.313
       338 -12.0527      5.0020    207.9726   1.1691492627e+02   2.8980696766e+01     0.507023    0.2765378  84.29  0.002979898    1.555    0.357
       339 -10.2693     10.9977    208.4101   1.1573351112e+02   2.8352019996e+01    0.2072827    0.1371337 -67.46 0.0005719004    1.487    0.327
       340  -9.1114    188.2709    205.3253   7.5632571961e+01   3.2799493172e+00    0.1391688   0.09977501  -7.25 0.0003204764    1.576    0.365
       341 -10.9000     20.1985    199.9577   1.1321986227e+02   2.9376897585e+01    0.4161218    0.1968305 -75.23  0.002159993    1.830    0.454
       342 -10.8400    244.8483    202.6087   6.4227559568e+01  -4.9725665169e+00    0.3258063     0.152103  43.40  0.001536777    2.669    0.625
       343  -9.6883    116.9837    201.7673   9.1058228520e+01   1.6120537369e+01    0.1937299    0.1124304  36.57 0.0008799214    1.636    0.389
       344 -10.4361    175.4001    202.6670   7.7886245327e+01   5.9492274266e+00    0.2388469    0.2018811  33.55 0.0005051706    1.152    0.132
       345 -10.6644     41.5126     19.4693   6.8154101443e+01   6.7183764917e+01    0.2454548    0.1695754  26.99  0.001093848    1.344    0.256
       346 -10.8179     17.0053    193.1900   1.1339637333e+02   3.1219327240e+01    0.2764573    0.2354981  20.88  0.001695138    1.531    0.347
       347  -9.2519    101.7556    191.9996   9.3208450286e+01   2.0801261845e+01    0.1812048    0.1195201 -60.61 0.0005211278    1.546    0.353
       348 -10.1748    244.9207    188.3071   6.1512697118e+01  -2.7098138959e+00    0.1781567    0.1474849  -2.43 0.0004659524    1.104    0.094
       349  -9.5136    212.3088    188.3087   6.7518575022e+01   2.3779429395e+00    0.1413898   0.09886532  -4.87 0.0003287768    1.617    0.382
       350 -10.7520     16.7056    184.0068   1.1273368747e+02   3.3375830393e+01    0.3234159    0.1834408 -79.06  0.001469044    1.490    0.329
       351  -9.8955     14.9906    180.7279   1.1285659085e+02   3.4295328772e+01    0.1812819    0.1785611   4.57 0.0006715394    1.343    0.256
       352 -10.3483    168.1695    183.9769   7.5955484610e+01   1.0958661871e+01    0.2160671    0.1637959  57.20  0.001055089    1.590    0.371
       353  -9.8087     58.7914    182.1774   1.0247186361e+02   2.9316636175e+01    0.1841655    0.1557161 -45.61 0.0008374245    1.353    0.261
       354  -9.8420    244.4629    178.4829   5.9684060807e+01  -1.0272263192e+00    0.2384159    0.1060148 -29.72  0.001023291    2.266    0.559
       355 -10.6916     46.5527    177.8121   1.0498812351e+02   3.1844616742e+01     0.281446    0.2276441 -87.39   0.00113234    1.101    0.092
       356  -8.9681     69.3000    178.3322   9.9315569310e+01   2.8881288854e+01    0.1391068     0.104406 -35.78  0.000439216    1.649    0.394
       357 -10.7844     34.0420    174.1369   1.0768197016e+02   3.4086572532e+01    0.2065583    0.1615851 -78.19 0.0003420606    1.109    0.098
       358 -10.6597     18.2993    173.4235   1.1144705729e+02   3.5741225249e+01    0.3381711    0.1791249  59.94  0.001473998    1.942    0.485
       359 -12.2363     37.0758    164.5914   1.0583555771e+02   3.6115726395e+01    0.7158691    0.5085399 -71.11  0.003035919    1.229    0.186
       360 -13.1200     49.5109    161.6992   1.0218924808e+02   3.5482974230e+01    0.4878788    0.3931725  49.15  0.002814827    1.286    0.223
