#   1 NUMBER                 Running object number                                     
#   2 MAG_AUTO               Kron-like elliptical aperture magnitude                    [mag]
#   3 X_IMAGE                Object position along x                                    [pixel]
#   4 Y_IMAGE                Object position along y                                    [pixel]
#   5 X_WORLD                Barycenter position along world x axis                     [deg]
#   6 Y_WORLD                Barycenter position along world y axis                     [deg]
#   7 A_WORLD                Profile RMS along major axis (world units)                 [deg]
#   8 B_WORLD                Profile RMS along minor axis (world units)                 [deg]
#   9 THETA_WORLD            Position angle (CCW/world-x)                               [deg]
#  10 FWHM_WORLD             FWHM assuming a gaussian core                              [deg]
#  11 ELONGATION             A_IMAGE/B_IMAGE                                           
#  12 ELLIPTICITY            1 - B_IMAGE/A_IMAGE                                       
         1 -10.0432    170.8239     40.3675   4.2099180991e+01   3.7396141793e+01    0.2230981     0.173544 -87.89  0.000594618    1.243    0.196
         2 -11.5899      2.2078     20.7193   8.9796168192e+01   7.1600489609e+01    0.2879282    0.2042148 -36.92  0.001107606    1.258    0.205
         3 -11.4661     73.3920     20.2233   5.6794271817e+01   6.1726397902e+01    0.4715091    0.3518918 -66.24  0.002588412    2.285    0.562
         4 -11.6193     13.5435     15.2572   8.0838868991e+01   7.1455237881e+01    0.3299151    0.2485299 -38.40  0.001057077    1.514    0.339
         5  -9.9997     30.6241     19.7513   7.3888111918e+01   6.8845660171e+01    0.4231507    0.1785097 -30.66  0.001976524    2.383    0.580
         6 -10.2215     39.1613     19.6007   6.9769456931e+01   6.7686088634e+01     0.364126    0.2623816  62.13   0.00195629    2.823    0.646
         7 -10.3678     39.9779     15.4615   6.7485139952e+01   6.8084327144e+01    0.2344577    0.1862524  10.22  0.001530573    1.004    0.004
         8 -11.9884     35.2069     12.5103   6.8273885153e+01   6.9143536419e+01    0.2698029    0.2345438  17.98 0.0005870374    1.271    0.213
         9 -11.9343     30.2467      7.3019   6.8082711482e+01   7.0458925680e+01    0.4198398    0.2608335  21.45  0.002146062    1.382    0.276
        10 -11.6908    235.0113     15.0969   2.9696201079e+01   2.6479776654e+01    0.2806371    0.1722072 -68.51 0.0003827037    1.355    0.262
        11 -11.5002     83.8314     14.7542   5.1456356302e+01   6.0190725856e+01    0.4649032    0.2571646  15.44 0.0008518729    2.521    0.603
        12  -9.3766    247.7822     13.2316   2.8481153479e+01   2.4230926828e+01    0.2172415    0.1458088  -0.81  0.001075968    4.277    0.766
        13 -11.1412    192.8732     11.2170   3.2347983463e+01   3.5743124894e+01    0.2327012    0.1715861 -32.03  0.001291432    1.585    0.369
        14 -10.8285    175.8023     12.2056   3.4317691910e+01   3.9483627549e+01    0.2392114    0.1311155  50.40  0.001243584    2.020    0.505
        15 -10.4313    172.2135     12.0019   3.4666637724e+01   4.0325930816e+01    0.1895028    0.1419427 -75.37 0.0003564764    1.239    0.193
        16  -9.8854     69.8276     11.2162   5.4172882434e+01   6.3349419268e+01    0.2730002    0.1401967  25.62  0.001318728    2.252    0.556
        17  -9.8523    129.5045     11.2653   4.0325963228e+01   5.0337393347e+01    0.1565465    0.1228974   7.82 0.0006393039    1.611    0.379
        18 -11.9969    117.5788      8.8523   4.1642663113e+01   5.3303654240e+01    0.3604448    0.2722789 -81.75 0.0006458676    1.524    0.344
        19 -11.0747     45.2596      9.8834   6.2555072110e+01   6.7893327424e+01    0.2055183    0.1593669  19.18 0.0002532158    1.029    0.029
        20 -10.3123     22.4113      9.4067   7.3135197160e+01   7.1244215452e+01    0.2837287    0.1504866  13.20  0.001095851    1.992    0.498
        21 -10.7345      3.0940      7.5540   8.3363175360e+01   7.3532023276e+01    0.2997131    0.2167765 -35.19  0.002169231    1.426    0.299
        22 -10.3002    225.2860      9.9665   2.9399696456e+01   2.8991286001e+01    0.1364575   0.08854318 -46.08 0.0005678452    1.424    0.298
        23 -10.3636     40.8849      7.5586   6.3298892103e+01   6.8842585871e+01    0.2961253    0.1246254  34.09   0.00122427    2.129    0.530
        24 -10.0482     37.5050      6.0020   6.4025115921e+01   6.9533707261e+01    0.2329105    0.1596965 -45.13  0.001403571    2.278    0.561
        25 -10.2181     98.0818      7.0575   4.4965269268e+01   5.7835364167e+01    0.1861224    0.1516235  48.03 0.0003413881    1.036    0.034
        26  -9.4918     92.9627      6.6588   4.5988947973e+01   5.8983961616e+01    0.1695136     0.129685  55.10 0.0003534103    1.117    0.105
        27 -10.0433    188.3313      6.3257   3.1658137820e+01   3.7243059498e+01    0.1166369   0.08393829  48.19 0.0007050901    1.707    0.414
        28 -11.0381    151.0446      5.9805   3.5636596317e+01   4.5791649976e+01    0.2291727    0.1552346  81.72 0.0003499685    1.311    0.237
        29  -9.2984     70.4794      5.5316   5.1543064099e+01   6.3739892852e+01    0.1217702    0.1004977  36.57  0.000182924    1.032    0.031
        30 -10.2550     55.0195      4.9913   5.6436152908e+01   6.6705592835e+01    0.1924223    0.1524184  29.96 0.0008385949    1.037    0.036
        31  -9.8959    136.4961      4.4692   3.7187738545e+01   4.9304556474e+01    0.1253077    0.1047414  73.59 -0.0001089099    1.015    0.015
        32 -10.6337    199.9478      2.9836   2.9905716701e+01   3.5024402748e+01    0.1778158     0.142865 -79.83 0.0003556751    1.028    0.027
        33  -9.5875     75.1833      3.5997   4.9351631276e+01   6.2961915293e+01    0.1749713   0.08808511  45.85 0.0004556983    1.597    0.374
        34  -9.8641     59.6422      3.3543   5.4057267134e+01   6.6006332604e+01    0.1582127    0.1427991 -82.46 0.0007745702    1.665    0.399
        35 -11.8458     20.5251      2.1148   7.0380654405e+01   7.2351240938e+01    0.2282408     0.149449  16.84 0.0004427869    1.251    0.201
        36 -10.0927    238.1402      2.1292   2.7050537776e+01   2.7277603209e+01    0.1560179   0.09604076 -67.51 0.0003293474    1.277    0.217
        37  -9.4552    226.6894      2.3554   2.7817960967e+01   2.9510476023e+01    0.1246288   0.06232134 -64.10 0.0007043654    1.730    0.422
        38 -10.6283    104.4731      4.0798   4.2540665711e+01   5.6662236197e+01    0.2105066    0.2032477 -69.47 0.0008775465    1.220    0.181
        39 -10.7656     80.0892      1.6824   4.7230945694e+01   6.2109531473e+01    0.2720892    0.1151726  49.87  0.001353001    1.837    0.456
        40 -10.5433     15.1096      8.7273   7.6798461087e+01   7.2187828978e+01    0.3276697     0.158874  14.03  0.001363499    2.219    0.549
        41  -9.8185    112.1827      1.2447   4.0096696548e+01   5.5148597582e+01     0.269535   0.09374343  67.92 0.0008234594    2.587    0.614
        42  -9.0498     27.6719      1.2418   6.6223654343e+01   7.1485038015e+01   0.09605283   0.08319783  35.57 0.0003394047    1.534    0.348
        43  -9.2094    226.2353    163.9965   6.1601787841e+01   4.6751982468e+00    0.1805418   0.09947892 -39.78  0.000800897    1.582    0.368
        44 -10.8315     27.2886    250.3839   1.1787999327e+02   1.7425015253e+01    0.3703039   0.07399096  38.97  0.001520111    3.229    0.690
        45 -12.3073     18.0128    249.0269   1.1958422841e+02   1.8681701815e+01    0.6038364    0.2910135  25.52  0.003191625    2.521    0.603
        46 -12.2667      4.1690    232.8915   1.2139181551e+02   2.3354384237e+01    0.3935317    0.2632199 -81.51   0.00260869    1.364    0.267
        47 -12.1810      3.6933    248.1463   1.2222671122e+02   2.0282422155e+01    0.8445568    0.4603965  75.02  0.005265074    1.542    0.352
        48 -12.5547     11.4550    242.9947   1.2051069836e+02   2.0564022126e+01    0.4825198    0.2787586  64.09  0.003004285    1.416    0.294
        49 -11.6653      6.5310    240.9383   1.2134593589e+02   2.1463958591e+01     0.334813     0.243805  82.84  0.001725679    1.153    0.133
        50 -11.9208      9.7798    237.4569   1.2053828410e+02   2.1867392505e+01    0.4790128    0.2456237  14.65  0.002326766    3.389    0.705
        51  -9.8973     14.3134    164.3179   1.1417409365e+02   3.8390253791e+01    0.1324769   0.08710361 -47.14 0.0003602354    1.647    0.393
        52 -10.8882      3.4752    153.6517   1.1606713152e+02   4.1868744443e+01    0.3777302    0.1280726  28.29  0.001630911    3.042    0.671
        53  -9.2410     27.2694    147.0187   1.0856895028e+02   4.1645104004e+01    0.1738532    0.1057693 -69.38 0.0004554187    1.430    0.301
        54  -9.2914      6.2085    145.3641   1.1449257464e+02   4.3749605901e+01    0.1628233    0.1118243  40.55 0.0004174536    1.604    0.377
        55  -8.9597     52.7741    142.0114   1.0009270839e+02   4.0202040273e+01    0.1845551    0.1112106 -63.92            0    1.527    0.345
        56  -9.8710    236.2637    138.6101   5.4801263160e+01   7.5455183795e+00    0.2015684    0.1688623  25.20 0.0007666451    1.417    0.294
        57 -10.0577    212.4290    133.8558   5.7707095080e+01   1.2642079880e+01    0.2170076    0.1930208  72.61  0.000618654    1.328    0.247
        58  -9.8968     96.0293    133.7269   8.5184282066e+01   3.5818883620e+01    0.2140502    0.2065187  17.80 0.0005271801    1.072    0.068
        59  -9.3365     61.5107    130.5289   9.5213100754e+01   4.2022289967e+01    0.1464968    0.1374087 -67.41 0.0001222738    1.039    0.038
        60  -8.9204     80.2662    129.2651   8.8997008925e+01   3.9577084199e+01    0.1456142    0.1139874 -24.32            0    1.461    0.315
        61 -10.3948     12.4830    129.0588   1.1071177313e+02   4.7408890009e+01    0.2085225    0.1118583 -70.10 0.0009767965    1.566    0.362
        62 -10.9862     28.4819    128.0621   1.0546280829e+02   4.6374018215e+01    0.2192396    0.2030433  10.88 0.0003140334    1.236    0.191
        63  -9.7457     47.3010    126.9999   9.9139335654e+01   4.4704040758e+01    0.1970096    0.1711144 -61.27 0.0003351824    1.049    0.047
        64 -10.1693     38.0817    127.1009   1.0217842150e+02   4.5688548534e+01    0.2102088    0.1700494 -41.83 0.0003501708    1.215    0.177
        65 -10.8667     24.0727    122.0094   1.0594730389e+02   4.8288502636e+01    0.2223219    0.1943256  31.31            0    1.304    0.233
        66 -11.7233      9.9195    120.9203   1.1044252625e+02   4.9618338110e+01    0.3753472    0.2453372 -70.22  0.002074934    1.293    0.226
        67  -9.1554     75.7729    120.9873   8.8558299192e+01   4.2343708493e+01     0.188721    0.1193295 -54.39 0.0008335507    1.502    0.334
        68  -9.3853     46.5007    117.9986   9.7660693925e+01   4.7068855946e+01    0.2049835     0.129767 -60.51 0.0009804956    1.438    0.305
        69 -10.5281     69.0987    117.0014   8.9825057496e+01   4.4340726813e+01    0.2252141    0.2048061 -39.31 0.0002701649    1.049    0.046
        70 -10.6592      1.9632    114.0641   1.1213817025e+02   5.1788039812e+01    0.1895823    0.1558574 -67.06   0.00120737    1.020    0.020
        71 -11.0163     13.1144    108.9120   1.0758244203e+02   5.2372518310e+01    0.2789791    0.1770517 -73.13  0.001028142    1.444    0.307
        72  -8.9258     80.7057    111.2537   8.4612148394e+01   4.3914641864e+01    0.1419225    0.1174824  71.33 0.0002068033    1.490    0.329
        73 -10.7228     45.4524    110.7897   9.6532780359e+01   4.8979596839e+01    0.2399148    0.2244955 -43.06 0.0002638194    1.042    0.040
        74 -10.6759     23.2610    110.2196   1.0424354532e+02   5.1293757822e+01    0.3375552    0.1603589  54.76  0.001319942    3.281    0.695
        75 -11.0666      3.5345    108.9195   1.1090346838e+02   5.2957916033e+01    0.3798915    0.1554415  21.27   0.00175154    2.771    0.639
        76 -11.6948     16.4902    104.2569   1.0560406653e+02   5.3273254554e+01    0.4814652    0.1896367  15.15  0.001487227    3.058    0.673
        77 -10.0312      1.4686    104.0425   1.1091990759e+02   5.4249004828e+01    0.2012879    0.1035721 -67.23  0.001023074    1.572    0.364
        78  -9.5916     94.4820    102.4687   7.7881257558e+01   4.3529069032e+01     0.150674    0.1457953 -19.58 -6.605637e-05    1.004    0.004
        79 -10.0061    159.7991    101.0488   6.0152003181e+01   2.9988437790e+01    0.2182851    0.1929662 -68.33 0.0002673238    1.169    0.145
        80 -10.2981     62.6233     98.1832   8.7448100779e+01   4.9793333126e+01    0.2139431    0.1208309 -43.44 0.0003242774    1.675    0.403
        81 -10.9534     66.6604     91.9759   8.4342039711e+01   5.0614909414e+01    0.5210248    0.1921725 -55.52  0.001798111    2.945    0.660
        82 -10.6734     64.7130     88.6750   8.4124084728e+01   5.1644476988e+01    0.2370513    0.1936712 -40.32 0.0007115589    1.149    0.129
        83 -12.2701     20.4009     93.0976   1.0203714472e+02   5.5656326372e+01    0.4318368     0.261079 -31.75 0.0006715549    1.666    0.400
        84 -11.8100      8.3112     91.7207   1.0640555608e+02   5.6806801502e+01    0.4503156    0.2567618  48.30  0.000855936    2.341    0.573
        85 -11.7279     57.4029     91.4468   8.7565097804e+01   5.2073775550e+01    0.3757669    0.2826267   6.93  0.001125844    1.470    0.320
        86  -9.6805     29.0244     91.9919   9.8479137462e+01   5.5189976768e+01     0.222963    0.1658687  15.06 0.0008769676    1.475    0.322
        87  -9.5706      1.0000     90.9027   1.0904704296e+02   5.7394747387e+01    0.2142874   0.06022884 -68.53 0.0008047827    2.959    0.662
        88 -11.5211      4.9164     75.1245   1.0452733093e+02   6.0803182877e+01    0.4124673    0.2539749  52.47  0.002182903    2.371    0.578
        89 -11.8737     11.1324     85.2677   1.0407081523e+02   5.8135991327e+01    0.6191811    0.2884544 -86.21  0.002246815    4.107    0.757
        90 -11.4796      6.5234     84.8844   1.0582777984e+02   5.8501360578e+01    0.4075584     0.306938  41.77  0.001632182    1.651    0.394
        91  -9.7308    246.6739    101.6981   4.5810457296e+01   1.2040102843e+01    0.1182728   0.09748445  -8.18 0.0003909111    1.640    0.390
        92  -9.4854     69.7413     83.3739   8.0772953653e+01   5.2016538419e+01    0.1844119    0.1330954  20.49 0.0002172299    1.470    0.320
        93  -9.6863     16.1431     83.1647   1.0161957507e+02   5.8280202422e+01     0.159639     0.149534  71.68 0.0004501936    1.317    0.240
        94  -9.6440    250.2628     80.9845   4.1239906247e+01   1.4684519187e+01    0.1629103   0.09002589 -42.76 0.0006558943    1.497    0.332
        95  -9.6636     89.5308     80.9857   7.3252432953e+01   4.9051403606e+01    0.2428235    0.1933617  68.20 0.0006964448    1.651    0.394
        96 -10.2987     86.0039     78.9484   7.3785546463e+01   5.0119998972e+01    0.2415563    0.1981547  34.62 0.0003903448    1.208    0.172
        97  -9.7433     80.2239     79.4722   7.5901565431e+01   5.1061379158e+01    0.2227785    0.1666172 -47.80 0.0005782488    1.375    0.273
        98  -9.2236    124.3886     79.2205   6.2515972408e+01   4.2155801866e+01    0.1883513    0.1395028 -51.47 0.0002724336    1.446    0.308
        99 -11.1171     48.9585     78.6774   8.7237759082e+01   5.6019846175e+01    0.4268678    0.2319853  12.19   0.00100216    2.395    0.582
       100 -11.6019     55.0623     75.1284   8.3795430262e+01   5.5955147675e+01    0.3284986    0.2782646 -25.85  0.001905586    1.075    0.070
       101  -9.4300     31.1294     78.9989   9.4509582785e+01   5.7956996814e+01     0.153901    0.1350653 -11.30 0.0007917564    1.123    0.110
       102 -11.7668    125.2316     93.3184   6.6371550263e+01   3.9231782709e+01    0.2682898    0.2618238  63.54 0.0002089496    1.042    0.040
       103  -9.3607    134.9239     79.0000   5.9815835965e+01   3.9823353162e+01    0.2353296   0.08285162  51.10 0.0004091589    2.781    0.640
       104  -9.9837    176.8546     76.8354   5.0544737659e+01   3.0535874443e+01    0.2112532    0.1995811  32.56 0.0007953985    1.224    0.183
       105  -9.7657    159.7975     77.1973   5.3843506120e+01   3.4404128347e+01    0.1893299    0.1706576  21.31  0.000269194    1.299    0.230
       106  -9.7794     22.3542     76.2209   9.7442485430e+01   5.9362674628e+01    0.1802997    0.1148961 -67.94 0.0009394374    1.716    0.417
       107 -10.5728     14.9465     75.9510   1.0048995420e+02   5.9991393106e+01    0.1898336    0.1524996  68.19  0.001135699    1.707    0.414
       108  -9.9110     69.6549     74.4244   7.8068462076e+01   5.3883345701e+01    0.2457563    0.2077407  56.08 0.0009649073    1.461    0.316
       109 -10.4747     42.3088     74.6297   8.8733599517e+01   5.7704716504e+01    0.2573221    0.2109713  67.26  0.001434357    1.755    0.430
       110 -10.0194     19.1360     73.7515   9.8188050641e+01   6.0165669268e+01    0.2846237    0.1173385 -39.77  0.001260564    2.186    0.543
       111  -9.5500     32.9175     73.5035   9.2295661822e+01   5.8979243860e+01    0.1793438    0.1266464  17.32 0.0006672834    1.487    0.327
       112 -12.1329    105.9643     71.2395   6.5134893797e+01   4.7621441635e+01    0.3471317    0.2816778  69.38 0.0008952179    1.479    0.324
       113  -9.2752    216.7721     71.6964   4.3277617600e+01   2.2621320693e+01    0.1149204    0.1012418 -15.61 0.0001756869    1.472    0.321
       114  -9.3239    129.4277     70.5093   5.8653707706e+01   4.2580666759e+01     0.145354    0.1378531  26.78 7.509067e-05    1.085    0.078
       115  -9.5137    100.3263     70.2750   6.6496522495e+01   4.8971464886e+01    0.1882842    0.1318943 -47.39 0.0002204382    1.539    0.350
       116 -10.0242     45.3087     69.4090   8.5948246989e+01   5.8431350222e+01    0.2481973    0.2144864 -29.70  0.001388015    1.056    0.053
       117 -10.1845      9.6149     68.8352   1.0110134482e+02   6.1909956796e+01    0.3245097    0.1025183 -44.51  0.001374021    2.465    0.594
       118  -9.3203     89.1674     67.7355   6.9164734757e+01   5.1666266503e+01    0.2180884    0.1562131 -83.38 0.0007091548    2.642    0.622
       119  -9.9628     80.8504     67.3183   7.1801540240e+01   5.3312850538e+01    0.2249077    0.1905328 -45.52 0.0004166554    1.275    0.216
       120  -9.9939     51.1086     66.5590   8.2687581469e+01   5.8245965197e+01    0.2863901    0.1570083 -29.13  0.001010469    2.013    0.503
       121  -9.3820      1.4683     66.4700   1.0414014674e+02   6.2883164198e+01    0.1227528   0.09916922 -44.33 3.063675e-05    1.029    0.028
       122 -11.2733     96.8736     63.9322   6.5484595509e+01   5.0806744323e+01    0.2731152     0.207323  37.49  0.000279465    1.263    0.208
       123  -9.6076     72.7645     63.7789   7.3460652050e+01   5.5408879401e+01    0.1744744    0.1617796 -59.88 0.0004603642    1.321    0.243
       124 -13.3210     20.8143     58.1843   9.3197676384e+01   6.3309888205e+01    0.4067666    0.2790228 -39.25 0.0006879079    1.221    0.181
       125 -10.6272     14.8957     63.0277   9.7275519426e+01   6.2786946779e+01    0.2724056    0.2183874  -9.60  0.001162064    1.210    0.174
       126 -11.3446     12.0481     59.5356   9.7630261155e+01   6.3717642390e+01    0.4059782     0.124034  22.35   0.00165048    3.339    0.701
       127 -11.2066      8.0045     63.5145   1.0051864976e+02   6.3150606725e+01    0.2532721    0.1263073 -44.69  0.001002948    1.588    0.370
       128  -9.5286     65.7012     63.7391   7.6050611809e+01   5.6602921027e+01    0.1801409    0.1223469  40.45 0.0002109908    1.533    0.348
       129 -10.1347     62.5675     62.5909   7.6853663089e+01   5.7320193572e+01    0.2709097    0.2061796 -46.88  0.001487607    1.409    0.290
       130  -9.3037    157.3403     60.9365   4.9886046337e+01   3.7643221473e+01    0.1754972    0.1332545 -20.23 0.0003691177    1.617    0.382
       131  -9.4955     38.7752     61.6216   8.6250509118e+01   6.0793448373e+01    0.1680791    0.1175965  31.67 0.0003605821    1.538    0.350
       132  -9.9772     48.8424     59.1612   8.1172411827e+01   5.9989832926e+01    0.1913046    0.1851609 -30.61  0.001062072    1.258    0.205
       133 -13.9653    114.4600     53.2528   5.7023547106e+01   4.8764188354e+01     0.460096    0.4086508  38.87 0.0009194623    1.068    0.063
       134 -11.5126    119.0747     47.9851   5.4167358389e+01   4.8498024400e+01     0.365727    0.3227981 -64.90 0.0004637779    1.283    0.220
       135 -12.4508     86.3560     54.3995   6.5557059380e+01   5.4517856776e+01    0.4316049     0.326947  30.02 0.0002855118    1.269    0.212
       136 -10.1836     71.7703     56.6266   7.1350648024e+01   5.6858660660e+01    0.2225428    0.1709593 -33.34 0.0004815404    1.300    0.231
       137 -11.0412     32.8911     55.8254   8.6953008225e+01   6.2593060632e+01    0.2706482    0.1685329 -27.71 0.0003928974    1.520    0.342
       138  -9.7494     38.2555     48.9476   8.2169621705e+01   6.3249464806e+01    0.4228133    0.2370396  -3.95  0.001874357    2.453    0.592
       139 -10.6802      5.9435     56.9211   9.9773900411e+01   6.4652669994e+01    0.3216952    0.1651771 -14.78   0.00137805    2.120    0.528
       140  -9.6401    103.9981     56.0277   6.0761869111e+01   5.0626643763e+01    0.1692912    0.1569127  32.37 0.0005404457    1.005    0.005
       141 -11.8610     66.7641     52.7581   7.1814156515e+01   5.8385000184e+01    0.3986578     0.206307  34.72  0.001845467    1.885    0.469
       142 -10.2706    148.9575     52.2126   4.9027523360e+01   4.0925708711e+01     0.214104    0.1794283 -88.55 0.0005275003    1.234    0.190
       143 -12.0766    106.0405     50.5485   5.8358883099e+01   5.1030112938e+01    0.2688095    0.2381255  -8.68 0.0003890554    1.197    0.165
       144  -9.9224      4.1529     51.3708   9.9125142342e+01   6.5885884673e+01    0.2185024    0.1252927 -44.82 0.0006488051    1.370    0.270
       145 -10.7787      9.0516     48.0398   9.5747345725e+01   6.6231591234e+01    0.3925183    0.1982913   7.70  0.001650538    2.122    0.529
       146 -10.2469     16.1687     49.9835   9.2867086249e+01   6.5319365350e+01    0.1946248    0.1545684 -25.90 0.0005837518    1.015    0.015
       147  -9.3313     76.4364     49.4944   6.7135722551e+01   5.7200858083e+01    0.1336997    0.1234512  13.82 0.0006012238    1.067    0.063
       148 -10.8366    137.5701     46.8792   4.9715578196e+01   4.4365995387e+01    0.3512575    0.2202655  54.79  0.001418043    1.464    0.317
       149 -10.0165     52.1541     48.1105   7.5864756102e+01   6.1502424475e+01    0.3152101    0.1621771  30.81  0.001515024    1.910    0.476
       150  -9.2103    154.5877     47.4782   4.6649925671e+01   4.0264998826e+01    0.1367647    0.1244008 -89.75 0.0001817709    1.046    0.044
       151 -10.6561     68.8043     46.7712   6.8857059110e+01   5.9013011716e+01    0.2110067    0.1681398  14.64 0.0002534245    1.186    0.157
       152 -10.3041     79.1438     45.7710   6.4845124164e+01   5.7269670632e+01     0.187576    0.1749615  34.62 0.0003680335    1.149    0.130
       153 -11.2159     24.2981     42.6553   8.6423538220e+01   6.5944978494e+01     0.644492      0.27354  42.16  0.002698551    3.692    0.729
       154 -10.1144     21.9105     38.1599   8.5947589237e+01   6.6976995125e+01    0.1717136    0.1502241  -8.48  0.001190618    1.172    0.147
       155 -10.1921     19.0100     45.0198   8.9846483042e+01   6.6017744158e+01    0.2562565    0.1731896  -4.78  0.001021068    1.418    0.295
       156 -11.2330     15.5517     42.6814   9.0765170078e+01   6.6750223169e+01    0.2884773    0.2018152 -39.86 0.0009413266    1.235    0.191
       157 -10.5723     94.2248     43.5260   5.9274990527e+01   5.4577545537e+01    0.2879736    0.1947822  30.32 0.0007399058    1.518    0.341
       158 -10.4046      3.2935     42.9390   9.7089995602e+01   6.7588288013e+01    0.3750798    0.1685877 -26.57  0.001897024    2.160    0.537
       159 -10.4415    184.8360     41.6812   4.0470131922e+01   3.3982849100e+01    0.3306389    0.1803072  67.26  0.001228748    1.730    0.422
       160 -10.1555     59.0743     41.5993   7.0587590790e+01   6.1477679579e+01    0.3196514    0.1439582  42.06  0.001441328    2.195    0.544
       161 -10.6358     36.3572     41.5107   8.0273071498e+01   6.4782488892e+01    0.2284569    0.1783785 -13.75 0.0005502535    1.103    0.093
       162  -9.5157    229.8306    247.7951   7.6175413688e+01  -9.3760517963e+00    0.1424912    0.1245264   0.45 0.0004781376    1.320    0.242
       163  -9.5017    204.9550     39.7110   3.7549521949e+01   2.9742770638e+01    0.1728843    0.1425549 -85.88 0.0002370811    1.072    0.067
       164 -10.1536    134.0493     39.7490   4.8268562191e+01   4.6147621815e+01    0.3209047    0.1556191  49.31   0.00110807    1.928    0.481
       165  -9.7540     44.0892     40.5084   7.6404934664e+01   6.3927423360e+01    0.1883702    0.1146111  27.34  0.001019687    1.568    0.362
       166 -10.4591    128.1015     38.6394   4.9149656353e+01   4.7680867384e+01    0.2031156    0.1796364 -56.89   0.00072527    1.235    0.190
       167 -11.8523    121.1219     37.1469   5.0185051837e+01   4.9486913106e+01    0.3992926    0.3563532 -70.36  0.001318858    1.255    0.203
       168  -9.6994    212.7532     37.8040   3.6284635551e+01   2.8308832893e+01    0.1712153    0.1195453 -68.14  0.000342812    1.285    0.222
       169  -9.5187    184.1539     36.3667   3.9255385931e+01   3.4825331007e+01    0.1756186    0.1111127  82.84 0.0004873973    1.563    0.360
       170 -10.3331     38.3948     35.4343   7.6943798638e+01   6.5514516729e+01    0.3120536    0.1777022  23.04 0.0009661063    1.708    0.414
       171 -10.7014     39.3355     31.8715   7.5049384840e+01   6.5938290337e+01    0.2902873    0.2276916   9.91  0.000819537    1.100    0.091
       172 -11.4902     27.3786     34.6455   8.1871254293e+01   6.6992509755e+01    0.2767733    0.1676376 -18.64 0.0002479351    1.625    0.385
       173 -11.6863      7.0220     34.6970   9.2409364835e+01   6.8866486005e+01    0.3760354    0.2705745  36.95  0.002420394    1.886    0.470
       174 -10.9879    144.1985     31.3559   4.3862683374e+01   4.4791221430e+01    0.2448295    0.1944835 -63.88 0.0006516127    1.349    0.259
       175 -10.6356    135.6965     29.3471   4.4780634157e+01   4.7029493801e+01    0.2260216    0.1954469  52.26 0.0004119221    1.111    0.100
       176  -9.8143    140.3026     27.3098   4.3346707072e+01   4.6176808251e+01    0.3171653    0.1935653 -83.42  0.001490154    2.174    0.540
       177  -9.8370    133.1301     34.9936   4.6993466140e+01   4.6961767810e+01    0.1978299    0.1436406  32.35  0.000404744    1.586    0.369
       178 -10.7665     89.9205     32.0518   5.6355203721e+01   5.7004618885e+01    0.5350475    0.3632827 -57.63  0.002359811    2.186    0.543
       179  -9.2510     55.4223     33.5416   6.8829504511e+01   6.3275854809e+01    0.1309295    0.1051002   7.01 0.0001633384    1.103    0.093
       180  -9.7150     49.5626     33.4751   7.1217436921e+01   6.4213383297e+01    0.1921944    0.1427367  20.98 7.929267e-05    1.203    0.169
       181  -9.7887     46.1934     33.4097   7.2632499719e+01   6.4730877031e+01    0.2405346    0.1461404  36.04  0.001331104    1.598    0.374
       182  -9.9742     72.5999     31.8324   6.1744278541e+01   6.0479891736e+01     0.249586     0.169167  39.67  0.000668405    1.320    0.243
       183 -11.4980     68.5853     26.3717   6.0932438306e+01   6.1925627789e+01     0.308864    0.2595772 -44.27 0.0009794103    1.522    0.343
       184 -10.3337     18.5356     32.0746   8.5331142327e+01   6.8345267611e+01    0.3250254     0.149742   6.11  0.001463565    2.910    0.656
       185 -12.3021     10.5589     30.0389   8.8778502335e+01   6.9404606195e+01      0.32688    0.2287644  34.12    0.0008996    1.827    0.453
       186 -10.4665      3.1546     26.3526   9.1474968687e+01   7.0596427628e+01    0.2444191    0.1458007 -23.30 0.0006681047    1.403    0.287
       187 -10.0101    225.1138    247.3471   7.6957925512e+01  -8.7502952579e+00    0.2083114     0.135077 -20.27  0.001307982    1.374    0.272
       188  -9.5618      6.9381     19.9431   8.6714481893e+01   7.1356437076e+01    0.2980334    0.1437521 -24.23  0.001622638    1.988    0.497
       189  -9.9038    127.8463     30.9411   4.6780597271e+01   4.8683239819e+01    0.3410652    0.1796882  76.71  0.001235503    2.445    0.591
       190 -10.0367     90.7108     40.2699   5.9146152221e+01   5.5763258453e+01    0.2565503    0.1664005  19.17 0.0006188371    1.890    0.471
       191 -10.1769     94.0719     27.0855   5.3347137706e+01   5.6722972884e+01    0.2136442    0.1672787 -25.93  0.001267445    1.407    0.289
       192 -10.2575     46.4698     26.4365   6.9566692785e+01   6.5684678245e+01    0.1933625    0.1522989  50.79 0.0006018709    1.721    0.419
       193 -10.9668     45.9852     21.6279   6.7663772078e+01   6.6395814563e+01    0.2970636    0.2275928 -40.76  0.001223229    1.664    0.399
       194  -9.2166    103.4538     25.5258   5.0366929347e+01   5.4857957156e+01    0.1334441    0.1128689  40.34 0.0004869999    1.070    0.065
       195  -9.9280     60.0508     25.1219   6.3513087707e+01   6.3623452806e+01    0.3800089    0.2132083  53.82  0.001895753    2.185    0.542
       196 -10.0519     35.1911     22.6739   7.3006057030e+01   6.7834973343e+01    0.2915511    0.1592892 -21.76  0.001001355    1.897    0.473
       197 -10.4510    228.7095     21.6981   3.1463863848e+01   2.6976725880e+01    0.3283854    0.1966415  78.73  0.001653963    1.557    0.358
       198  -8.9993    120.2591     22.6767   4.5657042971e+01   5.1362439885e+01    0.1243537   0.09618847 -69.97 0.0002545413    1.552    0.355
       199  -9.3138     97.3578     21.8243   5.0550589305e+01   5.6596404132e+01     0.155905    0.1188553  -1.61 0.0009048217    1.502    0.334
       200  -9.7010    170.9978    246.9662   8.7432571503e+01  -1.5106700156e+00    0.2050419     0.138619  -0.92  0.001125463    1.669    0.401
       201  -9.4558    116.1337    246.7696   9.9041044450e+01   6.5552317805e+00    0.1652702    0.1452805  -0.42  0.001040607    1.291    0.225
       202  -9.8127    132.0671     20.6615   4.2782224995e+01   4.8828354790e+01    0.1892894    0.1452747  61.85 0.0005204832    1.131    0.116
       203  -9.2433    100.9896     21.0104   4.9354952138e+01   5.5887458729e+01     0.285908    0.1229121  29.05 0.0009722093    4.243    0.764
       204 -10.2373     84.4989     20.9197   5.3684322251e+01   5.9420369139e+01    0.1733941    0.1248503 -19.23 0.0006330168    1.526    0.345
       205  -9.0923     86.6511    245.2745   1.0523603489e+02   1.1058594657e+01    0.1349447   0.08231518  56.99 0.0005190253    1.632    0.387
       206  -9.2991     52.6663    244.6819   1.1237820198e+02   1.5636502545e+01    0.1117138   0.09543873 -24.93 0.0002544163    1.695    0.410
       207  -9.3942     39.6195    243.3036   1.1495469590e+02   1.7475335920e+01    0.1356514   0.06925343  59.13 0.0007024274    1.778    0.438
       208 -10.8573     29.0646    241.1431   1.1694105054e+02   1.9108988237e+01    0.2809568   0.07435141  30.74  0.001098673    3.655    0.726
       209 -10.2664    117.7938    239.9196   9.7813091476e+01   7.6173124641e+00    0.2355545    0.1680679  36.02 0.0006310401    1.225    0.184
       210 -10.1197     60.8363     18.5068   6.0385737993e+01   6.4273114581e+01    0.2621567    0.1064709  45.97  0.001211401    2.175    0.540
       211  -9.7900     20.1190     17.2874   7.8157159989e+01   7.0464056398e+01    0.2592468    0.1399524 -16.11  0.001420008    1.962    0.490
       212  -9.0793     60.9286    241.0000   1.1032734906e+02   1.5358388659e+01    0.1959615   0.06358642  33.02 0.0004898438    2.804    0.643
       213 -11.1659    202.8960     16.3907   3.2568256315e+01   3.2994016433e+01    0.2603673    0.1572123 -73.68  0.001037342    1.557    0.358
       214  -9.7891    174.3004     17.3128   3.5751806585e+01   3.9300921344e+01    0.1204841   0.08987579  44.39 0.0003059612    1.608    0.378
       215 -10.1914    125.0769     17.1045   4.2931552355e+01   5.0814788132e+01    0.1893399    0.1641475  64.65 0.0003553107    1.015    0.015
       216  -9.6893    149.0000    238.0344   9.0738379671e+01   3.2706986219e+00    0.2003265   0.07565557 -50.38 0.0008070546    2.975    0.664
       217  -9.9379     89.5420     13.4654   4.9421985725e+01   5.9114275864e+01    0.1771153    0.1532629 -85.00 0.0006758452    1.472    0.321
       218 -11.1655     14.2943     21.1296   8.3066018539e+01   7.0508661633e+01     0.325888    0.2132335  36.73  0.001832153    1.976    0.494
       219  -9.7010     26.9418     16.5499   7.4245025099e+01   6.9751428639e+01    0.1728833   0.09916884  26.48 0.0006385218    1.575    0.365
       220  -9.6566    168.7650     14.9399   3.5808993470e+01   4.0823839768e+01    0.1670578    0.1443351 -79.29            0    1.080    0.074
       221  -9.6505    155.0231     15.5261   3.7719857947e+01   4.3963172066e+01    0.1888034   0.09667049 -84.39 0.0008100853    2.593    0.614
       222  -9.4065     99.2020     15.0524   4.7626998311e+01   5.6874990190e+01    0.1557802    0.1020355 -20.76 0.0008646442    1.756    0.431
       223  -9.7715     49.7517    235.7680   1.1225149830e+02   1.7846925903e+01    0.1787703    0.1208823  61.63 0.0007650863    1.313    0.238
       224  -9.7194      7.8849     13.8621   8.3459859391e+01   7.2200003177e+01    0.1735207   0.09576942  -6.54   0.00032079    1.815    0.449
       225 -10.9468    208.0093     13.0612   3.1395473661e+01   3.2255206934e+01    0.1799518    0.1445418 -78.15 0.0003337151    1.013    0.012
       226 -11.1281     24.6184    236.0516   1.1750433479e+02   2.0651667237e+01     0.238085    0.1245421  50.09 0.0006063855    1.593    0.372
       227  -9.6255    249.4793    233.5338   7.0392222774e+01  -9.6796274553e+00    0.1172389   0.08875969  -9.48 0.0001636253    1.018    0.018
       228 -10.5698      2.3950    220.1751   1.2107100497e+02   2.6238624547e+01    0.2567395    0.1009179 -82.28  0.001249918    2.262    0.558
       229 -11.5020      2.8876    225.7352   1.2127104577e+02   2.4991001172e+01    0.4470811    0.1627536  53.96  0.002188185    2.320    0.569
       230 -12.0238     10.0437    227.1169   1.1990849945e+02   2.4027633293e+01    0.3261569    0.2641002  43.97   0.00168773    1.295    0.228
       231 -10.0511     56.9810    229.5155   1.1012988148e+02   1.8291334617e+01    0.1898357    0.1544121 -89.69 7.614814e-05    1.189    0.159
       232  -9.4335     47.8145    229.8376   1.1216298358e+02   1.9352524065e+01    0.1739536    0.1200348  61.79  0.001016333    1.287    0.223
       233  -9.2585     38.2081    229.9992   1.1424305179e+02   2.0445978961e+01    0.1487734   0.09073918 -78.20 0.0004457068    1.587    0.370
       234  -9.2220    242.9801    230.2233   7.0946634372e+01  -8.4595674642e+00    0.1442963   0.08681475  26.02 0.0007316816    1.637    0.389
       235  -9.7002    209.5053    229.5241   7.6939059377e+01  -4.0867922818e+00    0.1269776    0.1045786  -1.37   1.9743e-05    1.014    0.014
       236 -10.9555    140.1409    228.0067   9.1185864114e+01   6.5157125450e+00    0.3137559    0.2053525 -67.21  0.001544066    2.098    0.523
       237  -9.8191    223.1804    226.8411   7.3906880554e+01  -5.4927271436e+00    0.1736034    0.1213365  -6.61 0.0003745404    1.309    0.236
       238  -9.1650    167.2999    221.6597   8.4215525380e+01   3.4683241085e+00     0.127785    0.1077933  69.32 0.0007035949    1.668    0.400
       239  -9.0136    114.4499    221.4959   9.6073718571e+01   1.1849793549e+01    0.1361436    0.1262796  30.45 0.0002937861    1.052    0.049
       240  -9.4029    233.1717    218.8153   7.0702099761e+01  -5.5539974647e+00    0.1718606     0.119894  -9.57 0.0005465734    1.292    0.226
       241 -10.7095      8.2926    218.0864   1.1973532081e+02   2.6162217428e+01    0.2160016    0.1951109 -89.34  0.001563397    1.231    0.187
       242  -8.7335     85.7000    215.2946   1.0198766700e+02   1.7541222393e+01    0.1409373   0.09602506  63.60 0.0001978217    1.571    0.363
       243 -10.0022     15.8261    213.1672   1.1781691305e+02   2.6549244128e+01    0.1934412    0.1373266  65.90 0.0007492948    1.199    0.166
       244  -9.6374    205.4931    212.4917   7.4749918088e+01  -7.1071402614e-01    0.1326767    0.1121801  -5.73  0.000810597    1.004    0.004
       245  -8.8517    124.2452    205.7491   9.1384595887e+01   1.3667064572e+01    0.1310509    0.1063954  65.64   0.00067219    1.409    0.290
       246  -9.8510    193.7626    202.5666   7.5284352020e+01   2.8336378655e+00     0.204234    0.1608401 -40.71 0.0007191449    1.304    0.233
       247 -11.0048      3.8591    201.6303   1.1966615009e+02   3.0271878140e+01    0.2089712     0.142335 -72.60 0.0007924263    1.350    0.259
       248  -9.3248     22.3206    200.6669   1.1542888597e+02   2.8798705089e+01    0.1389139   0.07864454  64.91  0.000704943    1.699    0.412
       249  -9.3424     24.4913    195.5302   1.1449022018e+02   2.9801447668e+01    0.1307374    0.1080718  78.72 0.0001329787    1.031    0.030
       250  -9.4328     13.9139    192.6213   1.1674604421e+02   3.1501249303e+01    0.1715853   0.09659453  46.37 0.0009178438    1.683    0.406
       251 -10.1998      6.0222    191.9353   1.1852902728e+02   3.2350736962e+01    0.1966304    0.1557516  82.94 0.0007698238    1.029    0.028
       252  -9.0358     14.7121    188.6637   1.1624281472e+02   3.2376187454e+01    0.1252545   0.08650191 -51.04 0.0004306452    1.632    0.387
       253  -9.7484      7.2338    188.2162   1.1797891765e+02   3.3131990998e+01    0.1669567     0.118415  70.13 0.0003520896    1.252    0.201
       254  -9.2180     22.3660    180.2669   1.1362837367e+02   3.3714926028e+01    0.1260239   0.09382266 -39.48 0.0006991302    1.654    0.395
