#   1 NUMBER                 Running object number                                     
#   2 MAG_AUTO               Kron-like elliptical aperture magnitude                    [mag]
#   3 X_IMAGE                Object position along x                                    [pixel]
#   4 Y_IMAGE                Object position along y                                    [pixel]
#   5 X_WORLD                Barycenter position along world x axis                     [deg]
#   6 Y_WORLD                Barycenter position along world y axis                     [deg]
#   7 A_WORLD                Profile RMS along major axis (world units)                 [deg]
#   8 B_WORLD                Profile RMS along minor axis (world units)                 [deg]
#   9 THETA_WORLD            Position angle (CCW/world-x)                               [deg]
#  10 FWHM_WORLD             FWHM assuming a gaussian core                              [deg]
#  11 ELONGATION             A_IMAGE/B_IMAGE                                           
#  12 ELLIPTICITY            1 - B_IMAGE/A_IMAGE                                       
         1 -13.8869    203.0390      4.7858   5.8474538481e+01   3.4110124104e+01      1.25374    0.7628093  61.58  0.007212446    1.547    0.353
         2 -15.2326    184.6857     29.4357   6.6504905751e+01   3.5723316864e+01      2.84121     1.847393  15.67   0.01295018    2.846    0.649
         3 -12.1261     57.3184      6.3220   8.6784565034e+01   6.5367897531e+01    0.3168718    0.1807725  49.94  0.001781743    1.912    0.477
         4 -11.3498    171.6243    241.1939   1.1710592012e+02  -1.0816250397e+00     0.479045    0.3157507 -82.68  0.001629999    3.125    0.680
         5 -19.4441     32.6783    145.3622   1.3426330951e+02   4.2099418131e+01     20.27093     5.752744 -70.28   0.06994445    3.499    0.714
         6 -10.6931    133.2124    213.5873   1.2075746796e+02   1.0970999451e+01    0.1975243    0.1289312  32.83 0.0005883161    1.639    0.390
         7 -12.7120    108.1258    209.5961   1.2561806845e+02   1.6260295787e+01    0.6357782    0.4365594  50.48  0.001991488    1.337    0.252
         8 -12.5405    107.5143    203.1977   1.2480349928e+02   1.7780218007e+01     0.653766    0.4545757  30.63  0.003267081    1.686    0.407
         9 -11.8810    126.1896    209.9365   1.2171144690e+02   1.3009398586e+01    0.2658695    0.1933344  45.35 0.0007600576    1.276    0.216
        10 -12.9711     11.9482    206.6364   1.4528319122e+02   3.0011420080e+01    0.4478855    0.3612801  44.91  0.003232556    1.486    0.327
        11 -10.9088     92.7747    206.4125   1.2853221765e+02   1.9524816220e+01    0.3096777    0.2903341 -58.59  0.001058634    1.276    0.216
        12 -10.5082     94.8922    200.1299   1.2717500228e+02   2.0598877037e+01    0.4510996    0.2516912  78.43  0.001804881    2.671    0.626
        13 -10.2231    164.8387    205.2478   1.1250265583e+02   6.7774919034e+00    0.4084625     0.189404 -62.89  0.001341688    3.924    0.745
        14 -13.5688    117.7080    201.0042   1.2217773464e+02   1.6478289237e+01    0.7498448    0.4692012  52.27   0.00358157    1.534    0.348
        15  -9.6450     83.8299    205.5117   1.3036914559e+02   2.1146785679e+01     0.279234    0.1739544 -56.43  0.001421076    1.676    0.403
        16 -10.2405     87.8076    203.1659   1.2918024628e+02   2.1052767812e+01    0.2591186    0.2093098  55.66  0.001171396    1.161    0.139
        17  -9.1821    211.4667    203.4914   1.0256888475e+02  -1.5516228238e+00    0.1352112    0.1260706   5.30 6.781604e-05    1.045    0.043
        18 -12.5168    112.8260    196.0620   1.2248968904e+02   1.8457528045e+01    0.5999676    0.4161313  -0.00  0.002453501    2.969    0.663
        19 -10.2676    176.9728    235.5031   1.1514013399e+02  -1.0392341870e+00    0.1854623    0.1763141 -23.75 0.0004023162    1.171    0.146
        20 -12.7568    193.6672    193.3843   1.0417695543e+02   3.5943969381e+00     0.914555    0.6737772 -69.41   0.00405103    1.910    0.476
        21 -11.3578    140.8958    199.4413   1.1671440491e+02   1.2539664660e+01    0.2777742    0.2172062 -45.65 0.0007630896    1.388    0.279
        22 -11.9716    103.5097    195.1140   1.2446817226e+02   2.0299190460e+01    0.4442295    0.3456205  53.23  0.001461907    1.214    0.176
        23 -11.7628      9.9028    233.3018   1.4745355959e+02   2.4642667085e+01    0.2803003    0.2084292 -28.18  0.001725241    3.037    0.671
        24 -10.1209    180.1583    193.2052   1.0696742943e+02   6.2358786143e+00    0.2689685    0.1951296 -77.58  0.001223616    2.060    0.515
        25  -9.6407     91.0342    193.7190   1.2711074992e+02   2.2703305554e+01       0.1931    0.1665269  60.40 0.0001681043    1.108    0.097
        26 -10.6973     98.8593    186.8801   1.2424338803e+02   2.3002753902e+01    0.2097047    0.2022584 -51.84 0.0008038355    1.219    0.180
        27 -10.2402     78.7054    232.3455   1.3463824375e+02   1.6123409672e+01    0.2046968    0.1798656  72.05 0.0005847618    1.139    0.122
        28 -11.6976    207.7097    183.9755   9.9445050556e+01   2.7107842113e+00    0.3883259    0.3376612 -48.56  0.000926185    1.222    0.182
        29 -11.6875    210.9854    180.3008   9.8043443310e+01   2.7824909380e+00    0.5043399    0.3006364 -33.90  0.002313099    1.706    0.414
        30 -11.1452     90.6833    184.0136   1.2571311948e+02   2.5037865970e+01    0.3326565    0.2186017  73.12  0.001059774    1.745    0.427
        31 -12.3068    110.2043    183.1804   1.2095091733e+02   2.1894901557e+01     0.411095    0.2964303 -35.59  0.001957776    1.788    0.441
        32 -10.4861    144.9915    178.8283   1.1196082304e+02   1.6279182411e+01    0.2480266    0.1817305  11.53  0.001084911    1.989    0.497
        33 -10.7768    136.8197    179.2025   1.1393721602e+02   1.7811159081e+01    0.2000682     0.181813  -9.97 0.0002994079    1.320    0.242
        34 -12.1219    197.7281    174.7799   9.9553039732e+01   6.4442251985e+00    0.6256928    0.3493099 -49.19  0.002101257    1.877    0.467
        35 -10.1002     83.0162    229.2935   1.3344220389e+02   1.6105790264e+01    0.1785009    0.1391947  55.43 0.0003494049    1.146    0.127
        36 -11.5828    145.6321    168.5049   1.0973249127e+02   1.8484358988e+01    0.3320661    0.2868191 -46.15 0.0009980898    1.188    0.158
        37 -10.4191    184.5139    228.4790   1.1246851736e+02  -1.1485828959e+00    0.2520385    0.1162439  31.10  0.001037435    2.372    0.578
        38 -10.4939    177.4182    170.1955   1.0287448437e+02   1.1530268860e+01    0.2198331    0.1434157 -56.78 0.0009537815    1.713    0.416
        39 -10.8739    203.4430    167.1604   9.6774331835e+01   6.8116892847e+00    0.3903805     0.321296  50.58  0.001610285    1.288    0.224
        40 -11.0421    229.8167    165.8455   9.1450050179e+01   1.9221763466e+00    0.1924367    0.1675829 -63.16 0.0005597288    1.337    0.252
        41 -10.3766    225.3954    166.2130   9.2338546928e+01   2.6879983956e+00    0.2036463    0.1260508 -49.28 0.0005609731    1.675    0.403
        42 -14.1596     69.4969    211.4939   1.3418246391e+02   2.1953339148e+01     3.005409     1.033871  54.49   0.01115879    3.256    0.693
        43 -11.0130    157.8311    219.1267   1.1639441817e+02   5.3573993478e+00    0.2217843    0.1847448  67.04  0.001240536    1.306    0.234
        44 -12.8971     99.9146    156.0695   1.1851585112e+02   3.0215095807e+01    0.7360997    0.4741465 -40.08  0.003285381    1.798    0.444
        45 -12.0811    133.8720    144.8958   1.0747051423e+02   2.6372209965e+01     1.237551    0.3183904 -54.21   0.00297246    5.133    0.805
        46 -11.4494    174.3970    148.4058   9.8722196958e+01   1.6854596395e+01    0.3917437    0.2966346 -61.40  0.001223351    1.441    0.306
        47 -12.1596    144.5540    145.8019   1.0504575989e+02   2.3917580411e+01    0.4824613    0.4092799 -84.39  0.001801414    1.309    0.236
        48 -12.3919    109.6817    140.8622   1.1279282878e+02   3.2118531800e+01    0.6377594    0.4127946 -31.24  0.002669374    2.035    0.509
        49 -12.4671     98.6581    141.1174   1.1578866475e+02   3.4062391982e+01    0.2856792     0.283423  74.23 0.0003963218    1.091    0.083
        50 -12.0124    117.3067    130.4813   1.0838526091e+02   3.3107483446e+01    0.5268731    0.3952779  21.80  0.001568663    1.669    0.401
        51 -12.0434    105.1801    128.9142   1.1128488427e+02   3.5800084171e+01     0.645587    0.3557223 -62.68  0.002548975    2.091    0.522
        52 -10.9241    160.3963    127.8556   9.6996329855e+01   2.4460112271e+01    0.4483343    0.2917774 -46.86  0.001930571    1.515    0.340
        53 -11.0593    136.0000    128.9950   1.0318023878e+02   2.9595922813e+01    0.3532365    0.1997286 -50.57  0.001412193    1.760    0.432
        54 -11.4281    135.4604    124.2520   1.0214255218e+02   3.0785573090e+01    0.4526069    0.1897062 -44.87  0.001482098    2.363    0.577
        55 -11.4205    125.5558    127.3885   1.0546665778e+02   3.2158559395e+01    0.3681446    0.2641365  79.12  0.001100765    1.928    0.481
        56  -9.3523    139.6620    125.3195   1.0135225323e+02   2.9636602538e+01     0.164003    0.1249386  89.17 0.0007049696    1.709    0.415
        57 -10.6466    111.4992    119.6968   1.0732297165e+02   3.6744170146e+01    0.2671169     0.250713 -86.43 0.0002386409    1.105    0.095
        58 -10.6510    168.4119    113.2118   9.1502980051e+01   2.5733306162e+01    0.3987859    0.2791888 -72.29   0.00108647    1.860    0.462
        59 -10.5440    205.2465    110.4157   8.3418004179e+01   1.7726465595e+01     0.352837     0.256478  32.60  0.001099394    1.748    0.428
        60 -12.5174    116.3489    211.9941   1.2417621288e+02   1.4316505071e+01    0.5388051    0.3273582  79.01  0.001367879    2.366    0.577
        61 -10.5748    134.5809    103.8984   9.7060040250e+01   3.5419309976e+01    0.4719543    0.1454617 -46.65  0.001409827    3.302    0.697
        62 -10.5546    150.3447    101.2034   9.2465726979e+01   3.2409303299e+01    0.2813966    0.2340788  77.14 0.0006005255    1.339    0.253
        63 -10.4408    176.7101     74.8305   7.9709069603e+01   3.1045521791e+01    0.2874859    0.2163932 -84.43 0.0003701883    1.530    0.347
        64  -9.2459    168.2163    248.0380   1.1881661277e+02  -1.6410690860e+00    0.1460643    0.1063111 -45.08 0.0003246042    1.605    0.377
        65 -13.7086    170.5238     45.1607   7.2815532023e+01   3.7136637935e+01    0.7559021    0.6731955  36.54 0.0008436392    1.271    0.213
        66 -11.7916    118.9529    208.9869   1.2315154515e+02   1.4506307352e+01    0.2696756    0.1805668  51.70 0.0009722576    1.388    0.280
