#   1 NUMBER                 Running object number                                     
#   2 MAG_AUTO               Kron-like elliptical aperture magnitude                    [mag]
#   3 X_IMAGE                Object position along x                                    [pixel]
#   4 Y_IMAGE                Object position along y                                    [pixel]
#   5 X_WORLD                Barycenter position along world x axis                     [deg]
#   6 Y_WORLD                Barycenter position along world y axis                     [deg]
#   7 A_WORLD                Profile RMS along major axis (world units)                 [deg]
#   8 B_WORLD                Profile RMS along minor axis (world units)                 [deg]
#   9 THETA_WORLD            Position angle (CCW/world-x)                               [deg]
#  10 FWHM_WORLD             FWHM assuming a gaussian core                              [deg]
#  11 ELONGATION             A_IMAGE/B_IMAGE                                           
#  12 ELLIPTICITY            1 - B_IMAGE/A_IMAGE                                       
         1 -14.9145    234.7914     77.5523   7.1391547885e+01   1.6983256516e+01     4.532053     2.739037 -69.82   0.02111732    1.948    0.487
         2 -15.6853    178.2569     83.1452   8.1989814399e+01   2.9169811408e+01      6.50934      3.98665   0.30   0.01969144    4.765    0.790
         3 -15.6292    186.1790    110.8022   8.7524297420e+01   2.2011474435e+01     9.784929     2.118423 -47.31   0.02308836    5.381    0.814
         4 -14.9200    186.3985     89.2047   8.2002447599e+01   2.6115990933e+01     2.966298     1.897441  20.00    0.0110346    3.022    0.669
         5 -14.3556    168.8199     80.4245   8.3143087933e+01   3.1927241453e+01     2.194265     1.273505 -27.91   0.00778579    2.110    0.526
         6 -16.8854    205.5869    109.3872   8.3453703051e+01   1.7822457100e+01      7.05248     4.985036  14.96    0.0299128    2.343    0.573
         7 -10.0301    241.9557      7.6257   5.5929617331e+01   2.5202844025e+01     0.278688    0.1324316  65.84  0.001501177    1.985    0.496
         8  -9.1281    166.9467      1.8024   6.2114005206e+01   4.2828438055e+01    0.1999981    0.1448051  52.38  0.001215739    1.339    0.253
         9  -9.1121    222.0735      1.4114   5.6306375783e+01   3.0192119722e+01    0.1765239   0.09785185  75.87 0.0005264267    1.532    0.347
        10  -9.0937    234.7574    214.4392   1.0056855865e+02  -7.3500351304e+00     0.184138    0.1118557  24.86 0.0009527769    1.687    0.407
        11 -11.5972    189.4686    200.6002   1.0680628888e+02   2.9248802889e+00    0.4955983    0.2723171  47.25  0.002204058    1.860    0.462
        12 -11.7045    183.9909    199.3317   1.0770482599e+02   4.1993193887e+00    0.4762902    0.3268195 -44.16  0.001688154    1.514    0.339
        13  -9.5272    195.9911    203.0295   1.0593058048e+02   1.2597173875e+00    0.2101673    0.1979124  15.65  0.000412179    1.030    0.029
        14 -10.7805    208.2416    192.2346   1.0136135313e+02   1.0016059831e+00    0.3123584    0.2804443  47.19  0.001803957    1.219    0.180
        15 -10.4098    212.1731    196.9850   1.0152327625e+02  -5.8195320125e-01     0.314118    0.2751375 -75.47  0.001219496    1.534    0.348
        16  -8.7696    230.7943    198.3914   9.8236521797e+01  -4.0768998663e+00    0.1844442    0.1199506  28.06 0.0009478192    1.587    0.370
        17 -10.4423    197.2252    197.5795   1.0463137546e+02   2.0475785771e+00    0.2791865    0.2567151  12.23 0.0007870583    1.032    0.031
        18 -11.0630    200.0272    193.1318   1.0318939335e+02   2.3620017590e+00    0.4634476    0.2833253 -28.74  0.001910212    1.853    0.460
        19 -11.3086    155.6346    195.0671   1.1301386813e+02   1.0506350856e+01    0.4179282    0.3104376  30.70  0.002075299    1.423    0.297
        20 -11.2073    150.8448    195.3900   1.1413532477e+02   1.1359798725e+01    0.3424424    0.2982818  42.09  0.001865714    1.107    0.097
        21 -10.6354    226.9270    191.3142   9.7562986114e+01  -2.1920228829e+00    0.3975755    0.2808524 -10.43  0.001014767    1.614    0.380
        22  -9.5455    232.0414    188.4978   9.6046052231e+01  -2.5887367039e+00    0.2546365    0.2040232  51.09  0.000922875    1.494    0.331
        23 -11.6579    142.0298    192.0947   1.1551157300e+02   1.3761102802e+01    0.6068355    0.3064096  56.52  0.002312344    2.432    0.589
        24 -10.1461    129.8699    192.1222   1.1828082721e+02   1.6051867427e+01    0.2234087    0.1887272  79.68 0.0003232754    1.232    0.188
        25 -10.5933    128.9787    188.5069   1.1784680586e+02   1.7030664199e+01    0.3149359     0.240192  45.08  0.001594082    1.272    0.214
        26 -10.6424    117.6268    191.6841   1.2101264760e+02   1.8394168986e+01    0.3063646    0.2483306 -11.37  0.001534391    1.792    0.442
        27  -8.3999    132.2890    246.6931   1.2605685712e+02   4.5331386348e+00    0.1285619   0.08976396  67.77 0.0003751312    1.573    0.364
        28 -13.8964    225.4340    137.5894   8.6425126934e+01   8.0868014656e+00     2.548929     1.837319  -8.60  0.006010249    1.931    0.482
        29 -13.2911    217.9010    134.7625   8.7143935566e+01   1.0191104921e+01      1.58029     1.027689 -10.77  0.003478357    2.579    0.612
        30  -9.2258    215.7784    243.7761   1.0931560112e+02  -8.8309882576e+00    0.1914804    0.1491431  10.70  0.001209517    1.167    0.143
        31  -9.2129    237.6579    234.6765   1.0370412108e+02  -1.0831204123e+01    0.1306733   0.08339189   3.05 0.0005740866    1.729    0.422
        32 -11.5730    170.4989    181.6454   1.0713381994e+02   1.0416138195e+01    0.4733883     0.284362  60.82  0.001923331    2.196    0.545
        33 -10.9193    162.3287    170.6371   1.0669600375e+02   1.4446929213e+01    0.3980426    0.2573026  62.56  0.001510555    1.943    0.485
        34 -12.5872    179.9146    183.4353   1.0544978474e+02   8.1645678447e+00     1.013278    0.6155112 -68.91  0.003890994    2.776    0.640
        35 -11.5756    153.8177    184.8796   1.1149222212e+02   1.3045287215e+01    0.4135234    0.2814508  25.10  0.001849972    1.801    0.445
        36  -8.9754    221.6868    170.3226   9.4244266731e+01   2.5818081960e+00    0.2183466    0.1853919  66.01  0.001160942    1.463    0.316
        37  -9.5532    218.8037    167.6184   9.4219067528e+01   3.6432002072e+00     0.337907    0.2027689 -52.70  0.001502941    1.883    0.469
        38  -8.8270    220.1516    175.1601   9.5551165974e+01   1.9643783472e+00    0.2305847    0.1657049 -43.07 0.0004561852    1.357    0.263
        39  -9.5984    222.7589    182.6250   9.6596419262e+01   1.0528162829e-01    0.2323196    0.1844352  48.59 0.0007166537    1.411    0.291
        40 -12.8227    130.3980    164.5020   1.1293260719e+02   2.2300998448e+01    0.9917016    0.4181595  48.86 0.0009347315    2.510    0.602
        41 -13.0248    128.5862    156.0015   1.1161077204e+02   2.4659343271e+01    0.8941433    0.6489372 -84.02  0.003916089    1.761    0.432
        42 -11.7165    133.4297    153.6921   1.0991779140e+02   2.4235213657e+01    0.6053506    0.3568986 -72.93  0.001710792    2.604    0.616
        43  -9.1605     28.2551    166.0518   1.3825785480e+02   3.7296581463e+01    0.1750431    0.1335979 -81.21 0.0002210339    1.057    0.054
        44  -8.7413    241.6392    163.8468   8.9257553075e+01   9.1346930638e-02    0.2838959    0.1177791 -33.32  0.001089238    2.493    0.599
        45  -9.0547    236.6026    164.1605   9.0208253979e+01   9.4620502023e-01    0.2082231    0.1217491 -30.26 0.0009546971    1.719    0.418
        46 -11.3866    119.7548    158.7676   1.1438550162e+02   2.5717501221e+01    0.4975412    0.2801053  55.87  0.001992143    2.053    0.513
        47 -12.8990    141.8347    153.3510   1.0778781512e+02   2.2597240305e+01    0.9550766    0.4421131 -48.75  0.003536323    2.135    0.532
        48 -10.7223    149.1900    154.1882   1.0620634838e+02   2.0872647977e+01    0.3039228    0.2282015  52.54 0.0007211125    1.363    0.266
        49 -12.5601    147.9043    148.0308   1.0513290941e+02   2.2552313763e+01    0.9894166    0.3420428 -44.58  0.003112274    2.931    0.659
        50  -9.2539    240.6932    150.3618   8.6565392429e+01   2.7108076703e+00    0.2883504    0.1794674 -29.77 0.0006404367    1.616    0.381
        51 -11.1210    115.3474    150.0474   1.1368501074e+02   2.8641180099e+01    0.4879501    0.3136854 -87.39  0.001888193    2.446    0.591
        52  -9.3144     90.4170    150.7471   1.2030155749e+02   3.2882297663e+01    0.2961849    0.1383356 -61.55  0.001146012    2.141    0.533
        53  -8.7835    229.5221    149.4704   8.8320503262e+01   5.0107232153e+00    0.1446517    0.1305397 -23.41 0.0002970615    1.079    0.073
        54  -9.1996    246.8408    147.6097   8.4948874471e+01   2.0723245398e+00    0.2299072    0.1695045 -69.13  0.001165975    1.816    0.449
        55 -11.4547    135.5260    143.4889   1.0712588478e+02   2.6194159965e+01    0.4303924    0.2472263 -51.24  0.001098502    1.719    0.418
        56 -10.4431    134.6762    138.5031   1.0618582963e+02   2.7529896677e+01    0.3055296    0.2155161 -50.96  0.001284579    1.390    0.280
        57 -10.3632    216.1522    186.0095   9.8555218537e+01   6.9365910817e-01    0.3113916    0.2257203  39.13 0.0002712381    1.403    0.287
        58  -9.0416    246.9990    138.2112   8.2917175432e+01   3.7422126112e+00    0.1891198    0.1679168 -39.12  0.000560188    1.009    0.009
        59 -11.4925    139.7065    133.0119   1.0362436419e+02   2.7736466775e+01    0.4433703    0.2805768 -47.69  0.001891609    1.549    0.354
        60 -10.1813    242.7117    130.6892   8.1981472881e+01   5.9319723746e+00    0.3625206    0.2600821  28.88  0.001834225    1.810    0.448
        61 -11.7829    125.7025    130.6543   1.0661779243e+02   3.1198573696e+01    0.4321061    0.3443599  24.94  0.001151959    1.465    0.317
        62  -9.9675     96.5684    118.2705   1.1153613654e+02   3.9622836230e+01    0.2922156     0.140991 -55.18  0.001134349    2.065    0.516
        63 -10.7860    126.5567    101.1599   9.8806735707e+01   3.7584267080e+01    0.3712051     0.257756  68.05 0.0005152107    1.890    0.471
        64 -11.4841    129.9131    106.5526   9.9390266194e+01   3.5723177282e+01    0.5573465     0.219474 -42.73  0.001194435    2.531    0.605
        65  -9.9363    125.9800    109.0406   1.0108348048e+02   3.6018347431e+01    0.2420991    0.1920448  -2.96 0.0005655997    1.643    0.391
        66 -10.3639    101.0902    106.1158   1.0716766092e+02   4.1568124264e+01    0.3502102    0.2056004 -51.42  0.001469944    1.667    0.400
        67  -9.5760    210.9028    179.6184   9.8273168766e+01   2.8704565767e+00    0.2580656    0.2002907 -43.56 0.0004905603    1.286    0.223
        68  -9.0294     29.7501    228.9562   1.4386969846e+02   2.3061641747e+01    0.1624115    0.1188669  84.93 0.0003874223    1.069    0.065
        69 -10.7297    127.7300     95.4577   9.6919715565e+01   3.8515628132e+01    0.2931069    0.2138627 -43.17  0.001067354    1.357    0.263
        70 -10.6721    124.9094     90.5040   9.6260460642e+01   4.0119284802e+01    0.3464176    0.2204766 -52.44  0.001086139    1.703    0.413
        71 -11.0609    132.8598     88.9110   9.3747980645e+01   3.8706444518e+01    0.4277781    0.1823293 -51.34  0.001452849    2.837    0.648
        72 -11.0678    155.7570     85.9934   8.7462457522e+01   3.4020110540e+01    0.3051721    0.2663127 -59.94 0.0009156012    1.181    0.153
        73 -10.3893    136.1253     86.2300   9.2162160289e+01   3.8499027732e+01    0.2333809    0.2052259  10.06 0.0006759738    1.278    0.217
        74 -11.4355    143.5738     83.5408   8.9582693966e+01   3.7316934928e+01    0.3678134    0.2816888   4.88  0.001700048    1.772    0.436
        75 -12.2621    162.6537    176.6961   1.0787389547e+02   1.3057397266e+01    0.7937092    0.2805506  48.85  0.002490066    3.070    0.674
        76 -11.6875    151.2767     80.4691   8.6924885364e+01   3.6093452611e+01     0.424015    0.2949887  29.98  0.001904099    1.769    0.435
        77  -9.6520     66.9991     77.2874   1.0968377726e+02   5.3200890924e+01    0.2205183    0.1744382 -40.08 0.0003550641    1.155    0.134
        78 -11.1883    154.9747     72.5190   8.3857122807e+01   3.6625816205e+01    0.4066432    0.2674909 -58.88  0.001813835    1.814    0.449
        79 -10.8163    150.1563     73.5339   8.5203750545e+01   3.7589930781e+01    0.3445936    0.2493753  -1.77  0.001537655    2.015    0.504
        80 -11.2613    142.1029    176.6185   1.1256941361e+02   1.7197053516e+01    0.3694625    0.2641294  52.97  0.001740883    1.414    0.293
        81 -10.4797    132.0750     72.4739   8.9145122392e+01   4.1933393322e+01    0.3396688     0.236526  25.78  0.001456043    1.754    0.430
        82 -10.1099    141.8548     69.8953   8.6036096608e+01   4.0152981463e+01    0.2048887    0.1774631 -83.61 0.0008981102    1.318    0.241
        83  -9.7910    119.0066     69.0133   9.1441873140e+01   4.5389901853e+01    0.2271878    0.1820363 -81.25  0.001133201    1.712    0.416
        84 -11.3713    242.4324     66.0749   6.7896441108e+01   1.7179219492e+01    0.6390421    0.3199213  71.72  0.002428576    2.233    0.552
        85  -9.2888    144.4980     67.5007   8.4727090754e+01   3.9942997233e+01    0.1452798    0.1401185  57.33 -0.0003565981    1.005    0.005
        86 -10.6538    136.2293     66.4560   8.6336107201e+01   4.2023983112e+01    0.3700149    0.2476776 -12.98  0.001256887    2.052    0.513
        87 -11.5491    159.6190     64.8069   8.0700562845e+01   3.6802882596e+01    0.4306316    0.3051471  42.01  0.002094915    1.485    0.326
        88 -10.9416    235.5475     60.5148   6.7527780074e+01   1.9538662719e+01    0.2963678    0.2443045 -80.42 0.0009512068    1.093    0.085
        89 -10.8847    179.8761    223.3302   1.1289220824e+02   4.7643812336e-01    0.4943605    0.2257138  43.73  0.001708139    2.035    0.509
        90  -9.9160    111.4976     59.2143   9.0372045852e+01   4.8601699151e+01     0.299275    0.2105846   0.42  0.001393021    1.848    0.459
        91 -10.8288    159.0062     56.0383   7.8340802387e+01   3.8321840214e+01    0.3038284    0.2006961 -42.37   0.00147405    1.575    0.365
        92  -8.7186      7.3098     57.6833   1.2577536447e+02   6.3011303158e+01    0.0987303   0.08623584  88.47 0.0003507697    1.636    0.389
        93  -9.3349    216.3467    175.4382   9.6340419047e+01   2.6292118258e+00    0.2860632    0.2253091 -46.48  0.001517555    1.293    0.227
        94  -8.5682    139.3142     56.3091   8.2567728015e+01   4.2934354527e+01    0.1457689    0.1077639  23.24  0.000702898    1.629    0.386
        95 -10.0034    164.7366     58.5860   7.7944507275e+01   3.6552185365e+01    0.2012303    0.1343721  70.53 0.0007685428    1.570    0.363
        96 -10.0897    154.3124     52.8918   7.8371428034e+01   3.9915459153e+01    0.2762622    0.2004273  66.26  0.000488745    1.360    0.264
        97  -8.9463    249.0217     52.4433   6.4269032946e+01   1.7848141530e+01    0.1827516    0.1177139  76.20 0.0004972225    1.553    0.356
        98 -10.3826    189.0508     51.5282   7.1835787609e+01   3.1714237428e+01    0.2151303    0.1858392 -51.89 0.0005980748    1.172    0.146
        99 -12.1434    147.9272    172.5996   1.1040917324e+02   1.6943643502e+01    0.7975221    0.3134446 -42.31  0.002678144    2.865    0.651
       100 -14.0338    174.5049     99.8147   8.7120754929e+01   2.6929439036e+01     3.370421    0.7487407  55.07  0.007933266    5.617    0.822
       101 -14.3531    206.8399    128.9763   8.7869930261e+01   1.3700843326e+01     3.313516     1.003743 -40.53   0.00380569    3.171    0.685
       102 -10.8552    195.0394     43.9841   6.9036004181e+01   3.1345211451e+01    0.2580076    0.1867598 -38.17  0.000593094    1.462    0.316
       103 -10.6569    190.7441     46.4877   7.0294008967e+01   3.2028281598e+01    0.2592921     0.184799 -40.37  0.001370806    1.453    0.312
       104 -14.2351    213.6304    120.2526   8.4573686920e+01   1.3929369287e+01     1.987894    0.6373909  53.83  0.006359051    3.497    0.714
       105 -10.1967    180.9907     45.5021   7.1550072758e+01   3.4523957546e+01    0.2109909    0.1285684  65.76 0.0004842312    1.534    0.348
       106 -10.1918    246.4279     46.3533   6.3284511234e+01   1.9280626523e+01    0.2378456    0.1477345  76.41 0.0008897396    1.585    0.369
       107 -10.4455    175.7179    220.0359   1.1317975575e+02   1.8167906595e+00    0.2455805    0.2196724  60.69  0.000628967    1.226    0.184
       108  -9.7677    187.6600     41.4407   6.9473246573e+01   3.3467719653e+01     0.261407    0.1274936  69.39  0.001124677    2.017    0.504
       109 -10.2974    241.6770     39.2969   6.2313435711e+01   2.1289548227e+01    0.2407094    0.2195121 -31.09  0.001583495    1.444    0.308
       110  -9.3290    232.4983     39.4910   6.3318945864e+01   2.3274261774e+01    0.1855441    0.1127767  85.12 -0.0001503073    1.633    0.388
       111  -8.2738    236.6639    177.2877   9.2926783867e+01  -1.4239301216e+00    0.1282016    0.1100755 -79.40 0.0002777222    1.631    0.387
       112 -10.2993    168.6899     38.3403   7.1639806575e+01   3.8463568871e+01    0.2516539    0.1557373 -47.28 0.0007825498    1.718    0.418
       113 -11.2893    167.6841     34.6592   7.0800060986e+01   3.9174447240e+01     0.463145    0.1661583  51.84  0.001787769    2.569    0.611
       114 -10.6373    218.3172     34.6126   6.3828845476e+01   2.7135949664e+01    0.2655355    0.1403734  62.43 0.0008126156    1.795    0.443
       115 -11.1539    205.7325     34.9471   6.5414063260e+01   3.0018676435e+01    0.3517589    0.2102232  65.96  0.001815131    1.538    0.350
       116  -8.4711     33.3048    176.6987   1.3832194044e+02   3.4267997366e+01    0.1308994   0.08197115  74.00 0.0002875351    1.593    0.372
       117 -11.4013    191.6023     26.2275   6.5117332597e+01   3.4456886346e+01    0.6224881     0.363607  -4.38  0.002574272    3.600    0.722
       118 -10.6611    176.2120     31.0299   6.8487706308e+01   3.7566977805e+01    0.2811841    0.2047199  83.53  0.001034518    1.337    0.252
       119  -9.6054    236.5603     30.4741   6.0994070312e+01   2.3584697894e+01    0.2197373    0.2030164  54.35 0.0009439928    1.443    0.307
       120 -10.0957    182.9933     26.5089   6.6340106393e+01   3.6480066413e+01    0.2306396    0.1934853   2.10   0.00135177    1.616    0.381
       121 -10.8839    188.3537     28.3108   6.6062487182e+01   3.4981547995e+01    0.4933913    0.2354791 -16.28  0.001851079    3.976    0.749
       122  -9.8276    240.9725     24.2328   5.9297015785e+01   2.3426267927e+01     0.359109     0.130605 -55.70  0.001525818    2.737    0.635
       123 -10.3476    225.6766     23.3748   6.0579172509e+01   2.6896796215e+01    0.2705865    0.2060076  62.78  0.001304382    1.400    0.286
       124  -8.4703      1.2787     21.3083   1.1717093593e+02   6.9616946571e+01    0.1099654   0.05768719 -25.51 0.0002506332    1.557    0.358
       125 -10.5953    189.7145     19.8645   6.3798116086e+01   3.5643365799e+01    0.2303016    0.1935065  54.56 0.0004156271    1.283    0.221
       126 -10.8924    204.0075    219.9730   1.0745901764e+02  -3.1650118206e+00    0.2847585    0.2807698  83.85  0.001837257    1.266    0.210
       127  -8.8110     23.3047     10.6852   1.0273769939e+02   6.9219114068e+01   0.08995616   0.08294079 -13.71 0.0005384563    1.621    0.383
       128  -9.8060    195.2141    215.6446   1.0842918572e+02  -8.8226617764e-01    0.2777192    0.1844087 -29.65  0.001416266    1.654    0.395
