#   1 NUMBER                 Running object number                                     
#   2 MAG_AUTO               Kron-like elliptical aperture magnitude                    [mag]
#   3 X_IMAGE                Object position along x                                    [pixel]
#   4 Y_IMAGE                Object position along y                                    [pixel]
#   5 X_WORLD                Barycenter position along world x axis                     [deg]
#   6 Y_WORLD                Barycenter position along world y axis                     [deg]
#   7 A_WORLD                Profile RMS along major axis (world units)                 [deg]
#   8 B_WORLD                Profile RMS along minor axis (world units)                 [deg]
#   9 THETA_WORLD            Position angle (CCW/world-x)                               [deg]
#  10 FWHM_WORLD             FWHM assuming a gaussian core                              [deg]
#  11 ELONGATION             A_IMAGE/B_IMAGE                                           
#  12 ELLIPTICITY            1 - B_IMAGE/A_IMAGE                                       
         1 -14.5618    245.5253    110.1990   2.6609169928e+02  -6.0002975821e+01    0.4535803    0.1599348  18.67   0.01167309    3.382    0.704
         2 -12.6088     65.1420     64.8642   2.5891892396e+02  -5.4549480854e+01     0.161571   0.07296921 -62.76  0.005165496    2.066    0.516
         3 -13.8070    226.4233     37.4526   2.6070525692e+02  -6.0333561086e+01     0.283827    0.1478776  -2.02  0.008758707    2.488    0.598
         4 -13.6958      4.7762     34.0922   2.5606894177e+02  -5.2810155241e+01    0.2079336    0.1146899  18.57  0.005441177    1.778    0.438
         5 -13.8453      9.3134     15.9761   2.5510676885e+02  -5.3137383486e+01    0.1596042    0.1230961  70.79  0.004132199    1.382    0.276
         6 -13.7363      4.8022      5.6124   2.5444359894e+02  -5.3076434972e+01    0.2468472    0.1167534 -88.35  0.007588099    2.437    0.590
         7 -13.0433     29.3799     18.3906   2.5556364866e+02  -5.3804103161e+01    0.1221726   0.06828375   3.00  0.004157337    1.960    0.490
         8 -11.5433    113.0725    242.1090   2.7006287376e+02  -5.3692548503e+01   0.06463784   0.05209134  24.20  0.001870037    1.254    0.203
         9 -12.4222    246.8306    246.4182   2.7447821599e+02  -5.7782140241e+01    0.1038187   0.08319686  44.54  0.003572415    1.266    0.210
        10 -12.5790    233.0760    248.5487   2.7412610014e+02  -5.7323312291e+01    0.1233445   0.07615341 -61.63  0.003839367    1.648    0.393
        11 -11.4179    195.6068    242.4881   2.7255139015e+02  -5.6276583092e+01   0.08106525   0.02965883  47.67  0.002055764    3.556    0.719
        12 -11.1874    179.0082    248.5114   2.7236115177e+02  -5.5655691507e+01   0.05351321   0.03703841  51.83   0.00203698    1.588    0.370
        13 -10.8316    181.9754    244.5039   2.7223290773e+02  -5.5817545651e+01   0.05220168   0.03275855 -51.03  0.001712639    1.563    0.360
        14 -11.0574    166.9243    248.7085   2.7199809984e+02  -5.5275793068e+01    0.0687124   0.04103143 -39.11  0.002069253    1.862    0.463
        15 -14.9352    111.3537    199.0601   2.6767252459e+02  -5.4314507825e+01    0.5172656    0.3533905   5.76   0.01932821    1.692    0.409
        16 -13.6480     82.4046    221.1180   2.6811026882e+02  -5.3045632708e+01    0.5784302    0.2488585 -32.29   0.01417647    4.042    0.753
        17 -13.1022     52.9224    151.2882   2.6358991227e+02  -5.3083867179e+01    0.1511952    0.1008519 -68.62  0.005747733    1.511    0.338
        18 -14.1747     82.7529    196.9478   2.6681364514e+02  -5.3420648363e+01    0.5120616    0.2597244 -20.64   0.01385621    3.435    0.709
        19 -13.5878     78.7131    169.4834   2.6520187363e+02  -5.3684776871e+01    0.2958697    0.1429044 -56.04  0.009738452    1.956    0.489
        20 -13.6523     42.4338    191.6880   2.6554289223e+02  -5.2185308452e+01    0.2473627    0.1390717 -22.51  0.006822925    2.460    0.593
        21 -13.6343     32.3768    146.2388   2.6285764153e+02  -5.2469557470e+01    0.3192068   0.06110179 -61.66   0.00457331    3.953    0.747
        22 -15.8043     13.8884    174.8986   2.6399727667e+02  -5.1482110324e+01    0.4583006    0.2867512 -14.38    0.0140138    2.013    0.503
        23 -14.4075     31.8031    163.9857   2.6381006000e+02  -5.2217446481e+01    0.2683105    0.1878505  -2.56   0.01021067    1.627    0.385
        24 -12.7974     58.8579    248.3782   2.6892964416e+02  -5.1871548473e+01    0.1225395   0.06954233 -56.76  0.003320995    1.697    0.411
        25 -12.2520     59.9738    237.7008   2.6840455259e+02  -5.2072483773e+01    0.1050103   0.08064216  38.67  0.003087368    1.308    0.235
        26 -12.1022     43.2867    227.1577   2.6743408392e+02  -5.1697374913e+01    0.3138933   0.08999009 -46.28  0.007533072    3.840    0.740
        27 -13.3927     24.3738    241.8458   2.6772437559e+02  -5.0871068497e+01    0.2079832    0.1098882 -13.53  0.005805932    3.299    0.697
        28 -12.9373     24.4432    228.4073   2.6703811969e+02  -5.1072861133e+01    0.1669422   0.09694166   1.67  0.005492813    2.269    0.559
        29 -12.4747     15.3428    213.0447   2.6602945882e+02  -5.1001733459e+01   0.09060097   0.05660043 -36.18  0.002396077    1.770    0.435
        30 -12.5911     13.1158    204.1022   2.6551398938e+02  -5.1056092512e+01   0.09586663   0.07055655   5.12  0.002942642    1.479    0.324
        31 -13.9631     16.9453    244.9139   2.6769876770e+02  -5.0587572068e+01    0.1409944   0.07802274 -29.75  0.004527171    2.357    0.576
        32 -15.1073      8.0585    228.4965   2.6665224033e+02  -5.0544282975e+01    0.3510691    0.1503145  16.61   0.01016314    2.749    0.636
        33 -12.1362      2.8562    248.7823   2.6755352012e+02  -5.0079775382e+01   0.07525547   0.05283317 -25.64  0.002877249    1.634    0.388
        34 -12.2220    113.3142    233.1532   2.6958895345e+02  -5.3844654201e+01   0.09970382   0.08192483  61.32   0.00293973    1.335    0.251
        35  -9.7220     68.7062    242.5333   2.6888321599e+02  -5.2276269999e+01   0.05236751   0.03945742 -89.73  0.002063103    1.557    0.358
        36 -11.2254    208.7647    242.9976   2.7300404499e+02  -5.6675388330e+01   0.03601418   0.02229344 -44.55   0.00130052    1.665    0.400
        37 -11.8110    249.7577    232.7833   2.7379666944e+02  -5.8120762214e+01   0.09512711   0.03482407  27.01  0.002571631    3.067    0.674
        38 -12.0582    188.5632    248.2771   2.7264885988e+02  -5.5956639815e+01   0.07000805    0.0559703 -59.82  0.002922225    1.244    0.196
        39 -11.4689    133.3367    228.9156   2.6992232696e+02  -5.4549067098e+01   0.07057891   0.05706083 -48.65  0.002103054    1.226    0.185
        40 -13.0236    133.9191    220.1216   2.6945595959e+02  -5.4709411550e+01    0.1543616    0.1027443  34.35  0.004183609    1.482    0.325
        41 -11.0553    187.3517    229.6337   2.7157110270e+02  -5.6241100618e+01   0.04664038   0.01851106 -67.21  0.001264305    3.015    0.668
        42 -12.4313    148.9043    223.8867   2.7009375395e+02  -5.5124854876e+01    0.1036443   0.08757681   7.69  0.004416972    1.258    0.205
        43 -11.9961    186.9358    213.5228   2.7064448753e+02  -5.6499639727e+01   0.06903551    0.0411186  39.80  0.002481808    1.676    0.403
        44 -11.9754    196.9363    212.3879   2.7088758672e+02  -5.6834131165e+01   0.05339563   0.03961035  51.29  0.002114848    1.444    0.307
        45 -11.7993    157.7507    204.2046   2.6924672161e+02  -5.5724627195e+01   0.09675641    0.0773091   5.17  0.003979841    1.369    0.270
        46 -12.0023     82.0861    233.4351   2.6875741094e+02  -5.2845010165e+01    0.2801473    0.1427537 -19.69   0.00732637    3.747    0.733
        47 -10.0174     11.3724    190.7476   2.6477707845e+02  -5.1184751627e+01   0.03849604   0.03110878  20.16  0.001310804    1.240    0.193
        48 -11.9312    142.2060    183.5902   2.6763510669e+02  -5.5547039176e+01    0.1193778   0.07321136   1.05  0.004044402    2.121    0.528
        49 -12.1812    108.6270    175.8895   2.6630659550e+02  -5.4571408241e+01    0.0819562   0.06053743 -16.97  0.003189172    1.563    0.360
        50 -11.3469     48.3895    166.6203   2.6432858488e+02  -5.2728133241e+01   0.06331879   0.04604437  57.09  0.001584561    1.522    0.343
        51 -12.4746     97.1046    154.2967   2.6479602188e+02  -5.4501471894e+01    0.1368664    0.1045771  85.28  0.004880079    1.485    0.327
        52 -11.1541    101.1024    146.6993   2.6445976954e+02  -5.4738298838e+01   0.06326475   0.04362864  36.26  0.002226204    1.434    0.302
        53 -10.5380    158.3895    248.5415   2.7172916697e+02  -5.5012030737e+01   0.05017785   0.03424211 -85.52  0.001667061    1.853    0.460
        54 -10.7866     69.4263    144.6119   2.6359372580e+02  -5.3718951240e+01   0.08254463   0.04021325 -33.20  0.002439178    2.672    0.626
        55  99.0000      5.0419    133.1344   2.6157165488e+02  -5.1726301478e+01    0.1470752   0.08526052  13.07  0.005155337    1.823    0.451
        56 -13.4584      7.9402    117.1704   2.6076111369e+02  -5.2016577930e+01    0.2306068    0.1041666  10.38  0.006875992    2.559    0.609
        57 -11.2914     72.2531    132.8356   2.6299359169e+02  -5.3967910667e+01   0.03221028   0.02831473  50.84 0.0003901723    1.169    0.145
        58  -9.7382    105.7278    130.7456   2.6365016524e+02  -5.5107778379e+01   0.03374778   0.02267153  25.02  0.001274849    1.470    0.320
        59  -8.9026     23.8743     83.2997   2.5918855697e+02  -5.2944907057e+01     0.220359   0.08650257  24.27  0.006612236    2.367    0.578
        60  99.0000     41.0937    123.2555   2.6177421566e+02  -5.3051196845e+01    0.1889934    0.1249482 -32.09  0.007003549    1.673    0.402
        61 -12.5066      4.8728     84.5473   2.5890446843e+02  -5.2288787905e+01    0.1617699   0.07350217 -58.29  0.005211015    2.054    0.513
        62 -13.4134     27.8146    111.3958   2.6083920991e+02  -5.2751569141e+01    0.2134604   0.09383443 -41.89  0.006353965    2.530    0.605
        63 -13.5368     13.5555     72.6747   2.5839967003e+02  -5.2712674820e+01    0.1853721    0.1275487 -60.53  0.006035512    1.417    0.294
        64 -13.3287      7.7122     60.0444   2.5758546916e+02  -5.2648671589e+01    0.1507083   0.08968879 -53.29  0.004748511    1.638    0.390
        65  -9.7417     87.6514    122.0349   2.6272471854e+02  -5.4620910011e+01   0.02978612   0.02500558  85.92 0.0006902699    1.277    0.217
        66 -10.4633     50.6196    117.6475   2.6166111103e+02  -5.3439308117e+01   0.05506754   0.03620471 -77.40  0.002048136    1.609    0.379
        67  -9.1990    101.0652    116.4828   2.6270905491e+02  -5.5140168323e+01   0.02601239    0.0179568 -68.89 0.0003080561    1.453    0.312
        68 -11.9341     47.2264    105.1988   2.6088669932e+02  -5.3477569915e+01    0.1098782   0.06737901  10.16  0.003939812    1.744    0.427
        69 -12.8559     28.2664    103.3980   2.6040200579e+02  -5.2861836153e+01    0.1503148   0.08327547 -28.29  0.004907553    2.208    0.547
        70 -11.9200     92.6609     95.5587   2.6129189424e+02  -5.5121940507e+01   0.05349725   0.03318639  32.81    0.0019628    1.567    0.362
        71 -10.9813     39.2797     94.6311   2.6012731258e+02  -5.3335364755e+01    0.1226894   0.03377829 -68.70  0.003071156    3.431    0.709
        72 -12.5605     82.8359     89.6673   2.6073431345e+02  -5.4862451042e+01   0.09602763   0.09511564   3.45  0.004442244    1.008    0.008
        73 -10.7117     65.8578    146.8467   2.6363715902e+02  -5.3571018168e+01   0.04184389    0.0327898 -72.51 0.0006977395    1.303    0.232
        74 -12.5191     79.8669     77.5783   2.5996112572e+02  -5.4904632019e+01   0.07372449   0.06431686  17.58  0.003198418    1.147    0.128
        75 -12.0956    249.4264     71.4609   2.6362201970e+02  -6.0673044932e+01   0.07815665    0.0410007  11.35  0.002520885    2.182    0.542
        76 -11.9046     40.3788    243.7077   2.6821687466e+02  -5.1354513093e+01    0.1049558   0.07352873  18.69  0.003209381    1.481    0.325
        77 -11.7153    139.7977    240.5852   2.7074457805e+02  -5.4562005947e+01    0.1371739   0.05554256  46.92  0.003814757    2.957    0.662
        78 -11.9780    124.3000    243.2914   2.7044371041e+02  -5.4028318571e+01   0.08416022   0.06662495 -41.14  0.002463066    1.289    0.224
        79 -11.2359    127.5374    237.8162   2.7024096250e+02  -5.4220341127e+01   0.06550565   0.05481406 -19.55  0.002082121    1.303    0.233
        80 -10.5300    119.8149    235.8223   2.6991452716e+02  -5.4008103174e+01   0.03910165    0.0330068  -2.73   0.00109618    1.287    0.223
        81 -13.0535    243.1480     52.5934   2.6216602138e+02  -6.0709315774e+01    0.1724332    0.1240767   0.59  0.006694993    1.525    0.344
        82 -10.8608     54.1206     41.8805   2.5736156933e+02  -5.4419894499e+01   0.04697578   0.02903497  10.91  0.001697477    1.673    0.402
        83 -10.5563     50.2975     42.1586   2.5730932249e+02  -5.4286326579e+01   0.04925123   0.03266203  38.53  0.001572786    1.496    0.331
        84 -10.8635     26.8463     42.9085   2.5694141733e+02  -5.3477177283e+01   0.04147489   0.02529502 -66.94  0.001040386    1.597    0.374
