#   1 NUMBER                 Running object number                                     
#   2 MAG_AUTO               Kron-like elliptical aperture magnitude                    [mag]
#   3 X_IMAGE                Object position along x                                    [pixel]
#   4 Y_IMAGE                Object position along y                                    [pixel]
#   5 X_WORLD                Barycenter position along world x axis                     [deg]
#   6 Y_WORLD                Barycenter position along world y axis                     [deg]
#   7 A_WORLD                Profile RMS along major axis (world units)                 [deg]
#   8 B_WORLD                Profile RMS along minor axis (world units)                 [deg]
#   9 THETA_WORLD            Position angle (CCW/world-x)                               [deg]
#  10 FWHM_WORLD             FWHM assuming a gaussian core                              [deg]
#  11 ELONGATION             A_IMAGE/B_IMAGE                                           
#  12 ELLIPTICITY            1 - B_IMAGE/A_IMAGE                                       
         1 -11.6389     58.2789     53.1066   9.8184806689e+01   5.8740060684e+01    0.7859318    0.1818044 -45.16  0.002493533    5.039    0.802
         2 -12.6470    181.4326     38.4836   6.4329037506e+01   3.5191352015e+01     1.053499    0.8948966  27.18  0.004163961    1.605    0.377
         3 -12.2743    202.7192      6.0686   5.4707171455e+01   3.4145680619e+01    0.7865013    0.5885248  83.92  0.004602124    1.087    0.080
         4 -10.5292     72.1330    230.4275   1.3070716170e+02   1.6338920802e+01     0.260353     0.206501  60.40 0.0007368409    1.113    0.101
         5 -11.2132    248.5929    247.1457   9.6894505861e+01  -1.4127827590e+01    0.4381334    0.3131134 -12.08   0.00290709    1.181    0.153
         6 -19.4610     35.6932    146.1475   1.2834541240e+02   4.1462042807e+01     21.55615     3.895437 -66.09   0.05588414    5.561    0.820
         7 -11.0802     73.9214    213.2343   1.2823656074e+02   1.9999874908e+01    0.2765006    0.2357429 -69.29  0.000431782    1.184    0.155
         8 -10.0968     76.4711    208.1353   1.2698395656e+02   2.0823220369e+01    0.3642907    0.3005927  26.48  0.001929347    1.450    0.310
         9  -9.5372    152.0417    211.0334   1.0995118790e+02   7.3160177951e+00     0.224771    0.1758603  78.57 0.0004500912    1.665    0.399
        10  -8.4848     67.6543    225.6583   1.3112527254e+02   1.8050656614e+01    0.3170708    0.1149849  36.88 0.0008021641    2.662    0.624
        11  -8.7631     59.3875    205.9285   1.3063396128e+02   2.3794118899e+01    0.2689604    0.1505912 -45.00 0.0006261063    2.308    0.567
        12  -9.7988     11.0634    206.0792   1.4120703133e+02   2.9386774326e+01    0.4457023    0.1778789  40.67  0.002207884    2.407    0.584
        13  -9.3974     86.0285    201.3725   1.2378663159e+02   2.0971902699e+01    0.5164939    0.2249126  55.46  0.001870816    2.865    0.651
        14  -8.3499    153.4064    201.2550   1.0787088060e+02   9.1783558776e+00    0.2096578    0.1423232 -62.23 0.0009552736    1.702    0.412
        15 -10.9267     69.3718    197.7566   1.2724270723e+02   2.4364299160e+01    0.3983629    0.2701494 -52.71  0.001188889    1.543    0.352
        16  -9.5211    192.8902    194.6951   9.7975505686e+01   3.3027397249e+00    0.8198846    0.3935253 -65.31   0.00169088   10.330    0.903
        17 -10.3820    140.8856    199.4449   1.1042268368e+02   1.1897855214e+01    0.2936325    0.2045483  27.16  0.001361873    1.595    0.373
        18  -9.0893    159.8750    197.1726   1.0563586925e+02   8.8661966079e+00    0.2105866    0.1976231  75.11 0.0002780172    1.158    0.136
        19  -9.2861     82.6549    194.7603   1.2361262829e+02   2.3102876196e+01     0.313949    0.2505277  46.84 0.0009950448    1.249    0.199
        20  -9.5986     64.9825    192.9125   1.2762856066e+02   2.6174588138e+01    0.2996405    0.2775173 -87.29  0.001444945    1.089    0.082
        21 -10.6698    126.5494    190.5790   1.1220275516e+02   1.6594272766e+01    0.4094616    0.2441932 -23.96  0.001448316    3.134    0.681
        22 -10.5903    149.6285    189.1561   1.0644665086e+02   1.2584228229e+01    0.4058764     0.285247  80.36  0.001717315    2.150    0.535
        23  -9.1831    136.2305    186.1709   1.0904162717e+02   1.5820935254e+01      0.25992    0.1709486 -10.50 0.0009561487    2.853    0.650
        24 -10.2616     98.9432    190.9701   1.1902158396e+02   2.1387977973e+01    0.2583286    0.2086405 -67.70 0.0004127585    1.210    0.173
        25 -10.5938     99.4468    180.7084   1.1713237972e+02   2.3823189628e+01    0.3569494    0.2793042  28.43 0.0006334258    1.439    0.305
        26  -8.8119    164.0000    223.4837   1.0948521026e+02   2.6382212241e+00    0.3005533   0.07985307 -48.97 0.0009402075    3.979    0.749
        27 -11.7815    103.3907    171.7483   1.1448110870e+02   2.5361737001e+01    0.6484887    0.5185055  64.76  0.003219994    1.333    0.250
        28  -8.7079    164.8432    171.3376   9.9314103599e+01   1.3641719864e+01    0.2495311    0.1995064 -59.38 0.0003924735    1.309    0.236
        29 -10.2970    125.3869    171.9054   1.0890160454e+02   2.1283039091e+01     0.449919    0.2300045  53.88  0.001653692    2.351    0.575
        30  -9.5649    192.9376    165.0793   9.1883175611e+01   9.4273185572e+00    0.3733542    0.2168729 -48.78  0.001590196    1.673    0.402
        31  -8.1891      6.9948    161.4888   1.3792840020e+02   4.0308535758e+01    0.1465949    0.1284798  21.91  0.000748059    1.467    0.318
        32 -10.2337     96.2346    159.1602   1.1392839187e+02   2.9749646805e+01    0.3109711     0.283136 -28.54 0.0003872973    1.222    0.181
        33 -11.2064    100.8132    152.3585   1.1130425635e+02   3.0644178255e+01     0.666634    0.4473374 -34.92  0.001929323    1.755    0.430
        34  -9.3615    189.7972    155.2832   9.0411737731e+01   1.2129707637e+01    0.2963065    0.2350483 -74.51   0.00143851    1.526    0.345
        35  -9.8076    133.8667    144.7926   1.0090872771e+02   2.6122520118e+01     1.193243    0.2485239 -53.96   0.00222349    8.310    0.880
        36  -8.6050    174.9979    148.9908   9.2154527841e+01   1.6542409637e+01    0.1847517    0.1827927 -89.60 0.0004191922    1.042    0.040
        37 -12.1575     69.3681    218.5889   1.2992255918e+02   1.9418661027e+01    0.3239861     0.235565  75.07  0.000724096    1.325    0.245
        38 -10.7047     99.8898    138.0235   1.0844079000e+02   3.4335843804e+01     0.309501    0.2900363 -23.59 0.0004509911    1.134    0.118
        39 -10.4021    110.7058    138.1376   1.0547541202e+02   3.2304856028e+01    0.5279455    0.2958952 -32.20  0.001948011    2.437    0.590
        40  -9.8971    106.0646    131.0093   1.0508921467e+02   3.4887727457e+01    0.3703533    0.3371904 -71.70  0.001182159    1.128    0.113
        41  -9.3948    116.9723    129.4306   1.0171145640e+02   3.3153655552e+01    0.2991704     0.212913 -33.20  0.001185216    1.567    0.362
        42  -9.3133    105.1042    125.1969   1.0396101724e+02   3.6438784332e+01     0.296241    0.2252742 -28.45 0.0008302814    1.489    0.328
        43  -8.3676    111.9359    118.5115   1.0038764686e+02   3.6663628166e+01    0.2245604    0.1523505  39.48 0.0005183796    1.520    0.342
        44  -9.0146    168.1786    113.4528   8.5246882938e+01   2.5647237278e+01    0.2995937    0.2322647 -76.17  0.001416544    1.500    0.333
        45  -8.6937    205.7966    110.1802   7.7230760864e+01   1.7980881540e+01    0.1898741    0.1757558  -7.53 0.0006816708    1.332    0.249
        46 -11.1987     60.5248    215.4043   1.3150527676e+02   2.1402657231e+01      0.39237    0.2231533  48.97   0.00162293    1.651    0.394
        47 -10.8097     65.2470    210.3280   1.2983965151e+02   2.1935970380e+01    0.4179829    0.2945507  65.98  0.001534528    1.371    0.271
        48  -8.6376     78.3308     75.0759   9.8404163999e+01   5.1820503387e+01    0.1846665    0.1661543 -21.33 0.0003166936    1.063    0.059
        49 -10.8539    171.7079     71.0005   7.3897794716e+01   3.2713393537e+01     0.453793    0.2932469 -83.12   0.00165459    2.083    0.520
        50 -12.0340    167.3080     54.4189   7.0461192548e+01   3.6293396241e+01    0.8080999    0.5829408 -23.34  0.003795055    1.764    0.433
        51  -8.5253    174.3172    216.3237   1.0600005456e+02   2.2634674510e+00    0.1449833    0.1074731  -4.99 0.0007043752    1.669    0.401
        52  -9.9504    249.5051    232.9887   9.4278648798e+01  -1.2168239526e+01    0.1870124    0.1034097 -35.21  0.001041646    1.616    0.381
        53 -11.4158    186.0728     31.6278   6.2098293697e+01   3.4988654150e+01    0.4953176    0.4273264  41.55  0.001786111    1.467    0.318
        54  -9.3518    168.2205    233.0028   1.1019022862e+02   7.6640374256e-02    0.2621888    0.1858137  47.20 0.0009085193    1.445    0.308
        55  -9.2137     97.8352    214.0516   1.2287474915e+02   1.6088781910e+01    0.2498767      0.21758  25.85  0.001401212    1.322    0.244
