#   1 NUMBER                 Running object number                                     
#   2 MAG_AUTO               Kron-like elliptical aperture magnitude                    [mag]
#   3 X_IMAGE                Object position along x                                    [pixel]
#   4 Y_IMAGE                Object position along y                                    [pixel]
#   5 X_WORLD                Barycenter position along world x axis                     [deg]
#   6 Y_WORLD                Barycenter position along world y axis                     [deg]
#   7 A_WORLD                Profile RMS along major axis (world units)                 [deg]
#   8 B_WORLD                Profile RMS along minor axis (world units)                 [deg]
#   9 THETA_WORLD            Position angle (CCW/world-x)                               [deg]
#  10 FWHM_WORLD             FWHM assuming a gaussian core                              [deg]
#  11 ELONGATION             A_IMAGE/B_IMAGE                                           
#  12 ELLIPTICITY            1 - B_IMAGE/A_IMAGE                                       
         1 -10.0025      6.2669     33.9146   1.2530639629e+02   6.8551051640e+01    0.6378474    0.3698592 -70.25  0.003678041    2.158    0.537
         2 -11.6814     80.1239     23.4189   8.9536741529e+01   6.0790093413e+01    0.7688773     0.289841  39.45  0.003100817    2.631    0.620
         3  -9.6968     61.9357     26.9492   9.7593262999e+01   6.3545495232e+01    0.6954985    0.3569894 -12.39  0.002466823    3.137    0.681
         4  -9.1683     46.4242     20.4314   1.0107051462e+02   6.6835960219e+01    0.3836038    0.1956894 -28.71  0.001267554    1.873    0.466
         5  -9.4873     64.0071     14.5403   9.1238511517e+01   6.4854496195e+01    0.5363995    0.2821185  12.67  0.002329022    2.857    0.650
         6  -9.2440    128.2202     16.0626   7.3952960426e+01   5.0883990636e+01    0.4401104    0.2662646   8.79  0.001956299    2.248    0.555
         7  -9.6390    130.5785      7.0351   7.0254357803e+01   5.1158776939e+01    0.4033539    0.3327309 -23.81 0.0007804429    1.364    0.267
         8  -8.0526    134.1962      2.8850   6.8148988737e+01   5.0611650479e+01    0.2150696    0.1564968  40.36 0.0003293886    1.331    0.249
         9  -8.7194    120.8720     15.8895   7.5433296992e+01   5.2695783507e+01    0.4456117     0.197282  23.71  0.001399641    4.540    0.780
        10  -8.8704    232.1945     14.1663   5.9570047997e+01   2.4815986046e+01    0.2964949    0.2310779 -18.15  0.001143668    1.610    0.379
        11  -9.4223     79.2615     12.9593   8.5243175881e+01   6.2205128752e+01    0.5386888    0.2412947  43.32  0.001548133    1.984    0.496
        12  -9.0752     74.4927     13.5332   8.7064291757e+01   6.3064174865e+01    0.3485229    0.2177885  17.29  0.001536242    1.725    0.420
        13  -9.5716    134.3674     13.4060   7.1806779025e+01   4.9620115172e+01    0.3915862    0.2270006  35.60  0.001826132    1.868    0.465
        14  -8.6091    107.9308     11.7011   7.6765554891e+01   5.6172353927e+01    0.3984226    0.1870145  30.89  0.001625576    2.604    0.616
        15  -9.3653     31.8453     11.0192   1.0334198760e+02   7.0075070279e+01     0.402285    0.2152241   4.60 0.0005346873    2.525    0.604
        16  -8.8961     32.1841      6.0996   1.0070813257e+02   7.0696965733e+01    0.1892112    0.1588496   6.58 0.0003594248    1.189    0.159
        17  -8.6211    125.1349     10.4092   7.2516846099e+01   5.2195346152e+01    0.2518501    0.1785792  35.20 0.0004845596    1.396    0.283
        18  -8.5570    113.0318     11.0171   7.5313840137e+01   5.5048689117e+01    0.2316429    0.1391834  31.49 0.0008367697    1.741    0.426
        19  -8.1610     95.9814     13.5595   8.0568661594e+01   5.8668032685e+01    0.3382564    0.1897099  11.28  0.001500614    2.405    0.584
        20  -9.2081     71.3508      9.0601   8.6065764331e+01   6.4150672288e+01    0.3603773    0.1595231  44.62  0.001425414    2.002    0.501
        21  -9.0801     76.5042      5.7585   8.2841716563e+01   6.3496322179e+01    0.3872093    0.2497387 -17.08  0.001684241    1.581    0.368
        22  -9.1357    119.1455      7.0067   7.2461626581e+01   5.3960817421e+01    0.2390519    0.1955501  35.84 0.0002723666    1.151    0.131
        23  -9.6644     46.5832      6.4916   9.4295836199e+01   6.8651166859e+01    0.3497529    0.2089464  26.36  0.001095976    1.567    0.362
        24  -8.9647     41.2809      5.8218   9.6288806766e+01   6.9510204737e+01    0.3301478    0.2018246 -10.31  0.001433607    1.610    0.379
        25  -8.5379    156.2751      7.0781   6.6082234592e+01   4.4628029442e+01    0.1810142    0.1715769  76.82 0.0003623208    1.086    0.079
        26  -8.2322    100.7028      6.3304   7.6337752045e+01   5.8324330695e+01    0.3821166    0.1851944  27.60  0.001487168    2.505    0.601
        27  -9.1668    110.6536      3.2167   7.2785259722e+01   5.6306413173e+01     0.361316    0.2318141 -21.95  0.001276009    1.719    0.418
        28  -8.2536    105.6742      1.5835   7.3227156786e+01   5.7599025234e+01    0.4537878     0.128039  54.14  0.001747706    2.629    0.620
        29  -9.9479      7.9358      5.3736   1.1331669087e+02   7.3304942600e+01    0.4413703    0.2065209   3.34  0.002329239    2.769    0.639
        30  -8.2514     92.2613      4.6649   7.7788249030e+01   6.0337465887e+01    0.3493005    0.1416259  41.34  0.001319685    2.227    0.551
        31  -8.5623     15.9538      4.0070   1.0810162541e+02   7.2793835764e+01    0.2302496    0.1880393 -34.31  0.001729798    1.412    0.292
        32  -7.8042    150.3038      4.3209   6.6075834610e+01   4.6407491347e+01     0.142717    0.0907971  40.57 0.0004032518    1.633    0.387
        33  -8.1066    175.9306      2.0755   6.2040354312e+01   4.0005928332e+01    0.2151043    0.1852508  -4.53 0.0007938455    1.432    0.302
        34  -7.4667    153.3151      3.3434   6.5324515998e+01   4.5719365500e+01    0.1452117   0.08985755  40.28 0.0005336879    1.711    0.416
        35  -7.7426     84.5993      3.2573   7.9272046800e+01   6.2090620420e+01     0.172528    0.1123267   1.13 0.0008299958    1.646    0.392
        36  -8.2582     56.5442      3.0644   8.8499084002e+01   6.7433979455e+01    0.2429217    0.1382069  30.09   0.00135722    1.613    0.380
        37  -8.1978    143.1127      2.0969   6.6433752341e+01   4.8429318978e+01    0.1969973    0.1731541  80.37 0.0003851449    1.102    0.093
        38  -7.7310    159.2491      1.5977   6.3961354029e+01   4.4342857015e+01    0.1990176    0.1056109  60.26 0.0005430075    1.594    0.373
        39  -7.8905      2.7998      1.3861   1.1440736632e+02   7.4298319295e+01     0.139801   0.08278529  -1.39 0.0004888141    1.641    0.391
        40  -7.3791    129.7947     97.3884   1.0029294527e+02   3.7554678430e+01    0.2246439    0.1419072  36.39 0.0007248353    1.715    0.417
        41  -9.8926    219.4278    249.9291   1.1196170411e+02  -6.8007663286e+00    0.3790363    0.1126881  35.89  0.001649969    2.761    0.638
        42  -9.4955    204.0937    249.6989   1.1462227462e+02  -4.4505528701e+00    0.2260015    0.1668908  40.20  0.001529047    1.262    0.208
        43  -9.6920    208.2359    249.1129   1.1380305083e+02  -5.0169973325e+00    0.2935972    0.1394152  49.37  0.001459092    2.470    0.595
        44  -7.1670    201.4205     96.5433   8.4292051416e+01   2.0546000556e+01    0.1483389    0.1426053   6.27 -2.519695e-05    1.097    0.089
        45  -7.3314    150.7269     95.6476   9.4569143973e+01   3.3044195205e+01     0.157249    0.1245668   4.40 0.0004687225    1.637    0.389
        46 -10.4175     15.9218     95.1089   1.3514292998e+02   5.5131505513e+01    0.6284761    0.2943905 -30.66  0.001263726    3.032    0.670
        47  -9.1800     12.4699     93.8909   1.3607072786e+02   5.5641006639e+01    0.2706649    0.1707622 -58.11 0.0009534392    1.290    0.225
        48  -8.7941     43.7031     92.0821   1.2534801115e+02   5.3349730247e+01    0.2852275     0.200146 -21.17  0.001555396    1.768    0.434
        49  -8.0180    109.7824     91.0097   1.0400408745e+02   4.3172124618e+01    0.3985837    0.1966314  23.64   0.00108776    4.993    0.800
        50  -8.1766     96.5071     90.3988   1.0776299850e+02   4.5905615546e+01    0.4687447    0.2571247  14.43  0.001348129    5.056    0.802
        51  -8.2448      2.4987     89.5040   1.3866237049e+02   5.7213504269e+01    0.1170181   0.09249856 -67.65 -4.892964e-05    1.006    0.006
        52  -7.4208    139.7708     87.2478   9.4838594603e+01   3.7279850661e+01    0.2574023    0.1172207  39.89 0.0008847808    2.474    0.596
        53 -10.2777     37.3461     81.0810   1.2508419985e+02   5.6460479673e+01    0.6428683    0.3468516 -16.20  0.002770165    3.157    0.683
        54  -7.9587    126.2925     83.6732   9.7260932739e+01   4.1092625617e+01    0.3080758    0.1769315  29.60  0.001163163    2.349    0.574
        55  -7.8170     66.0268     84.4945   1.1593807422e+02   5.2235249835e+01    0.1957094    0.1363377  31.04 0.0009285899    1.557    0.358
        56  -8.3685    242.5137     83.4895   7.4681651971e+01   1.3210885940e+01    0.1377193    0.1246594 -49.90 0.0002957578    1.018    0.018
        57  -8.8994     87.6237     79.3480   1.0733127070e+02   4.9849103294e+01     0.469681    0.2836832  13.24  0.001831493    2.838    0.648
        58  -9.7395      8.0644     77.5355   1.3484840736e+02   5.9529334225e+01     0.501407    0.2023369 -37.63  0.002383738    2.691    0.628
        59  -8.1923    184.3662     77.5423   8.2362421367e+01   2.7982052480e+01    0.3718888    0.1330023 -38.79  0.001248726    2.717    0.632
        60  -8.9212     48.6346     77.5032   1.2015696959e+02   5.6018635362e+01    0.3748276     0.217764 -11.01  0.001623729    2.891    0.654
        61  -7.5020    148.6889     77.3063   8.9747112270e+01   3.6981985557e+01    0.2215888    0.1345481  48.05 0.0004766133    1.597    0.374
        62  -7.8800    120.5919     75.9046   9.6432912565e+01   4.3868191279e+01    0.2192101    0.1909278  22.69  0.001063324    1.208    0.172
        63  -7.1795    109.4882     75.4766   9.9437075958e+01   4.6360578371e+01    0.1464471    0.1438171   8.42 0.0008100405    1.018    0.018
        64  -9.1220     32.8019     62.7020   1.2216242748e+02   6.0828185896e+01    0.6537554     0.129759 -50.45  0.002316933    3.532    0.717
        65  -8.7743     36.4119     59.8975   1.1994137438e+02   6.1048456023e+01    0.6033216    0.2095499 -53.83  0.002575639    2.465    0.594
        66  -8.7503     29.0186     68.5007   1.2514598661e+02   5.9958840494e+01    0.2421122     0.168459 -11.95  0.001035098    1.681    0.405
        67  -9.3265     24.4013     73.2461   1.2801416497e+02   5.9331784389e+01      0.52496    0.1934954 -38.31  0.002159199    3.105    0.678
        68  -8.1535     23.4632     69.4875   1.2750636617e+02   6.0213685813e+01     0.198338    0.1893742 -58.16 0.0006177481    1.164    0.141
        69  -7.8651     74.9482     74.2511   1.0998672156e+02   5.3048762648e+01    0.1898978    0.1713546  15.84 0.0004225767    1.143    0.125
        70  -7.9524    105.9444     67.0528   9.7774931668e+01   4.8697388170e+01    0.2684312    0.1954168  41.74  0.001322866    1.358    0.263
        71  -8.8516     84.1247     63.8360   1.0357683718e+02   5.3549498314e+01    0.3590073       0.2558   4.26  0.001095941    1.809    0.447
        72  -9.5745    240.8983     62.8845   7.0058776577e+01   1.6592378446e+01    0.2502127     0.245724  83.94 0.0003526181    1.141    0.123
        73  -9.5440     17.6225     62.3093   1.2808183268e+02   6.2170562283e+01    0.3901019    0.1952298 -32.39  0.002029481    2.124    0.529
        74  -7.2985    148.3219     63.3304   8.5558580711e+01   3.9482925289e+01    0.1591684    0.1171353  22.01  0.000704931    1.696    0.410
        75  -9.5786     62.7393     61.1772   1.1020830914e+02   5.7539939145e+01    0.6637182    0.2753775  26.95  0.002545623    3.210    0.688
        76  -8.7304     97.8704     57.3351   9.6932051142e+01   5.2108721690e+01    0.4974465    0.2838049  -7.86  0.001701873    3.686    0.729
        77  -9.0363     27.8669     60.3058   1.2347393839e+02   6.1773135986e+01     0.217962   0.09785284  32.72  0.001076607    2.521    0.603
        78  -8.0324    110.9728     58.8050   9.3547393891e+01   4.9089688577e+01    0.2509157    0.1620263  22.27  0.000821386    2.022    0.506
        79 -10.1295     75.2195     50.0004   1.0181269184e+02   5.7634518293e+01    0.3223598    0.2651362   5.97 0.0004646858    1.220    0.180
        80  -8.3292    118.5449     51.0521   8.8785421565e+01   4.8663152742e+01    0.2230011    0.1836267  46.92 0.0004579187    1.159    0.137
        81  -8.9353     45.2883     49.0684   1.1292788517e+02   6.2186417073e+01    0.3689138    0.1978885 -30.06  0.001654919    1.977    0.494
        82  -7.7716     40.3175     50.2873   1.1537885727e+02   6.2532645998e+01    0.1278933   0.08446977 -21.20 0.0002253136    1.591    0.372
        83  -7.8965    106.6367     48.7011   9.1249959408e+01   5.1705886539e+01    0.3217254    0.1562405  37.09  0.001273447    2.262    0.558
        84  -7.6995     91.3502     49.1571   9.6063403149e+01   5.4804415191e+01     0.196967    0.1253137 -44.25   0.00076517    1.684    0.406
        85  -9.7971     11.0859     46.4648   1.2675221344e+02   6.5835788609e+01    0.5986746    0.2991041  -8.54  0.002208777    2.653    0.623
        86  -9.2731     57.3212     42.1787   1.0558841344e+02   6.1829505624e+01    0.6872652    0.3410283 -15.34  0.002291219    4.703    0.787
        87  -7.1592     96.3109     45.6621   9.3215327293e+01   5.4372765619e+01    0.1363437    0.1131685 -74.89  0.000704498    1.688    0.407
        88  -8.6758      2.1721     44.5157   1.3018191275e+02   6.6731326553e+01    0.2523018    0.1610354 -47.52  0.001684026    1.194    0.163
        89  -8.2083    112.2879     43.4347   8.7763623874e+01   5.1259008318e+01    0.3414014    0.1998623  10.58  0.001037515    3.020    0.669
        90  -8.3551     92.2465     37.3662   9.1323222197e+01   5.6468390676e+01    0.3729573     0.202262 -47.23  0.001311439    2.316    0.568
        91 -10.6490     83.1378     40.1874   9.5371340030e+01   5.7829868567e+01     0.387267    0.2702252  -7.81 0.0002644433    1.638    0.389
        92  -8.7660     87.6990     37.8431   9.2953809433e+01   5.7307933396e+01    0.3056544    0.2071639   6.88 0.0006341983    1.811    0.448
        93  -8.9010     35.5200     38.4571   1.1330664646e+02   6.5256649889e+01    0.3059705     0.191584 -53.80  0.001363973    1.721    0.419
        94  -8.9896     38.2792     35.5900   1.1101509039e+02   6.5453753819e+01    0.3089764    0.1926728  14.35  0.001050441    1.758    0.431
        95  -7.5269    124.1912     39.7689   8.3376123228e+01   4.9009767094e+01    0.2000549    0.1589443  25.11 0.0005314645    1.325    0.245
        96  -8.5660     15.9072     39.7343   1.2260042075e+02   6.6808811142e+01    0.2055789    0.1522638 -87.44  0.001249054    2.151    0.535
        97  -8.8133      4.0000     39.4981   1.2801834015e+02   6.7616973214e+01    0.2509137    0.1088567 -58.83  0.001120137    1.874    0.466
        98  -9.6290    199.4965    250.0018   1.1548464224e+02  -3.7756001888e+00    0.2514348    0.1932566 -36.52  0.001739994    1.665    0.399
        99  -9.6812      2.3761     31.6821   1.2650367776e+02   6.9190495742e+01    0.4971957    0.2040606 -68.77  0.002240148    3.400    0.706
       100  -9.7235     69.6381     36.1945   9.8535334447e+01   6.0873184039e+01    0.7125627     0.369203  23.48  0.003074274    2.562    0.610
       101 -10.0436    137.5673     37.7653   7.9599208551e+01   4.6002771374e+01     0.281056    0.2311959  53.26 0.0002982106    1.121    0.108
       102  -8.5769     18.7658     35.9865   1.2004918225e+02   6.7290134844e+01    0.1843868    0.1421691 -28.95 0.0003310062    1.071    0.066
       103  -9.2317     23.4140     35.9734   1.1788269738e+02   6.6900098115e+01    0.3637514     0.260187  53.66  0.002181268    2.281    0.562
       104  -8.7845     22.1251     32.1572   1.1711681817e+02   6.7702238570e+01    0.2651277    0.1651989  28.05  0.001338127    1.809    0.447
       105  -7.9491    106.0301     36.4750   8.6911304593e+01   5.3662965809e+01    0.2067516    0.1026954  33.26 0.0008083165    2.412    0.585
       106  -8.9911     56.2462     35.0709   1.0323249413e+02   6.3177404829e+01     0.316443    0.2041293 -17.58 0.0006944099    1.640    0.390
       107  -7.2870    144.3253     28.2885   7.5013022850e+01   4.5487415563e+01    0.1500901    0.1004887  35.93 0.0002857796    1.610    0.379
       108  -9.2502     41.9915     27.4796   1.0610601886e+02   6.6356395659e+01    0.2850136     0.184598 -41.21 0.0009295681    1.501    0.334
       109  -9.3229    182.9089    249.3907   1.1839154788e+02  -1.0842886353e+00    0.2525344    0.1474665  55.19  0.001367612    2.113    0.527
       110  -9.1045    167.3719    244.6766   1.2061545600e+02   2.0654654599e+00    0.1835856    0.1310685  60.57 0.0007901104    1.665    0.400
       111  -8.6015     25.6494     25.0338   1.1266825595e+02   6.8602767982e+01    0.3346065    0.1317961 -31.97  0.001522782    2.659    0.624
       112  -8.7821     28.9745     21.0442   1.0937376535e+02   6.8907977146e+01    0.2882144    0.2137802 -12.26  0.001944871    1.163    0.140
       113  -7.7562    118.4096     24.7600   7.9305384536e+01   5.2313526080e+01    0.1857741    0.1324036  -3.42 0.0006306356    1.632    0.387
       114  -8.2476    144.8932     23.3447   7.3250896588e+01   4.5912595880e+01    0.2259616    0.2001782  13.34 0.0003194275    1.249    0.200
       115  -8.4728     92.7640     20.5696   8.4398529074e+01   5.8581990935e+01    0.3080163    0.2025159   1.39  0.001364248    1.771    0.435
       116  -7.4499    114.5791    244.4519   1.3051166741e+02   1.0623905356e+01    0.1212121   0.09352738  52.57 8.618813e-05    1.012    0.012
       117  -8.0958    128.9760     22.6366   7.6160747330e+01   4.9994520146e+01    0.2048825    0.1673345  55.76 0.0005566219    1.107    0.097
       118  -8.4157    140.1942     19.9461   7.2978068036e+01   4.7480995339e+01    0.2335252    0.1840903  63.89 0.0004454723    1.154    0.134
       119  -8.3127      9.4459     19.7800   1.1875165520e+02   7.0874402065e+01    0.2378198    0.1310523   0.66  0.000702732    2.022    0.505
       120  -7.8868      5.1714     18.8749   1.2066885677e+02   7.1322617491e+01     0.154213    0.1268494 -38.35 0.0002786502    1.188    0.158
       121  -7.7568    119.7151    239.8619   1.2903816181e+02   1.0564890735e+01    0.1632025     0.153834 -26.02  0.001166279    1.457    0.314
       122  -9.3661    188.3788    234.5286   1.1525414263e+02   1.4289624933e-02    0.2486174    0.2098128  38.29  0.001682406    1.151    0.131
       123  -7.5080     44.8896    209.1924   1.4067364482e+02   2.6983561328e+01    0.1411111    0.1247095 -88.38  0.000363495    1.284    0.221
       124 -10.0120    170.4932    207.2328   1.1444351679e+02   7.2579213039e+00    0.2404169    0.1982059  38.19 0.0002376956    1.037    0.035
       125  -7.4256     11.6789    206.6475   1.4688775806e+02   3.1091775998e+01   0.09905078   0.07631602 -57.71 0.0002183539    1.750    0.429
       126  -7.7320    171.7309    192.4402   1.1165828505e+02   9.5424186760e+00    0.1845739     0.120811  33.87 0.0003141199    1.434    0.303
       127  -8.3305    117.3682    151.6040   1.1637384893e+02   2.8302393231e+01    0.2461695    0.2099137 -32.64 0.0001863324    1.382    0.276
       128  -9.2606     67.3569    144.8632   1.2809859522e+02   3.8150208843e+01    0.4195255    0.2851827  71.91  0.002164222    1.622    0.383
       129  -8.3366    182.8111    144.1875   9.9570515684e+01   1.6129086625e+01    0.2089562    0.1985191  61.34  0.000336959    1.110    0.099
       130  -9.8893    228.9715    137.7436   8.9284398627e+01   7.4545486215e+00    0.2910924    0.2351984  42.48 0.0005609984    1.271    0.213
       131  -7.4085    139.6464    138.6896   1.0813935945e+02   2.6637740539e+01    0.1557933    0.1223894   5.91 0.0004069277    1.725    0.420
       132  -8.3716    115.0644    136.6318   1.1389366392e+02   3.2086591889e+01    0.2245155    0.1953954 -72.46 0.0004427566    1.180    0.153
       133  -7.7200      5.4688    133.4883   1.4291810984e+02   4.7186397776e+01    0.1175457   0.09221043 -85.01 0.0008097381    1.007    0.007
       134  -7.1687    178.9392    130.0000   9.7092516878e+01   1.9696333548e+01    0.2545745   0.08532219  48.52 0.0007981145    2.913    0.657
       135  -7.4793    143.6960    126.6839   1.0435708284e+02   2.8317171437e+01    0.1543665    0.1242251   3.26 0.0007024998    1.623    0.384
       136  -7.3371    153.3729    124.3213   1.0145553496e+02   2.6649319269e+01    0.1634755    0.1235217  10.56  0.000703179    1.808    0.447
       137  -7.7622    134.5220    122.9630   1.0573978467e+02   3.1111956573e+01    0.2198717    0.1360429 -22.75 0.0008100208    2.576    0.612
       138  -7.3175     84.3364    122.3011   1.1923180778e+02   4.0865511774e+01    0.1419555     0.112205 -19.47 0.0006443388    1.661    0.398
       139  -7.3313    180.8168    120.3961   9.4357763386e+01   2.1100036939e+01     0.213591    0.1405899  39.66 0.0006623385    1.568    0.362
       140  -9.1229    247.1492    119.0275   8.2161494528e+01   6.7807693609e+00    0.2185985    0.1959641  44.73 0.0003404166    1.212    0.175
       141  -7.8077    119.8434    118.8203   1.0855128940e+02   3.5107670921e+01     0.230375    0.2094738  -2.29  0.001114185    1.265    0.209
       142  -7.8766    100.7628    118.7943   1.1378324448e+02   3.8828252534e+01    0.2366235    0.1598086 -11.93 0.0009342856    2.656    0.623
       143  -8.1699     15.3272    118.3393   1.3861000356e+02   4.9900570486e+01    0.1253947   0.07558101 -46.64 0.0007051622    1.732    0.422
       144  -7.5035    131.6802    112.6718   1.0389380225e+02   3.3934394607e+01    0.1573034    0.1246713   1.76 0.0005405198    1.686    0.407
       145  -7.6301    142.6408    111.6997   1.0086572244e+02   3.1696231248e+01    0.1607902     0.124249  11.71 0.0007036395    1.714    0.417
       146  -8.9266      2.1112    110.0116   1.4139847218e+02   5.2668234532e+01    0.3252319    0.1023333 -54.03  0.001493299    2.631    0.620
       147  -7.2749     39.3031    110.3144   1.3031675079e+02   4.9633301130e+01    0.1304242   0.08787581 -39.95 0.0006340486    1.617    0.382
       148  -7.7794    134.0349    105.9904   1.0153564259e+02   3.4824438108e+01    0.2492913    0.1941115   3.70 0.0006959492    1.737    0.424
       149  -7.6668    109.4836    106.4886   1.0830097371e+02   3.9914046149e+01     0.263859      0.14434  31.34  0.001021055    2.251    0.556
       150  -9.2741     14.2607    105.2282   1.3718615684e+02   5.2961930731e+01    0.3743272    0.1509335 -48.96  0.001405646    2.318    0.569
       151  -7.5321     70.0145    104.4554   1.1958287509e+02   4.7193523705e+01    0.1848259    0.1231499  -1.41  0.000515281    2.454    0.593
       152  -7.7013     93.9237    103.4770   1.1204150684e+02   4.3524488668e+01    0.2167503    0.1448683  38.12  0.000533141    1.554    0.356
       153  -9.0991    244.8128     98.8254   7.7919156128e+01   1.0381504534e+01    0.3492512    0.1292388 -51.79  0.001083535    4.204    0.762
       154  -7.3772    140.3007     99.3572   9.8142129984e+01   3.4762826608e+01    0.1601107    0.1248882   3.75 0.0007037265    1.710    0.415
