#   1 NUMBER                 Running object number                                     
#   2 MAG_AUTO               Kron-like elliptical aperture magnitude                    [mag]
#   3 X_IMAGE                Object position along x                                    [pixel]
#   4 Y_IMAGE                Object position along y                                    [pixel]
#   5 X_WORLD                Barycenter position along world x axis                     [deg]
#   6 Y_WORLD                Barycenter position along world y axis                     [deg]
#   7 A_WORLD                Profile RMS along major axis (world units)                 [deg]
#   8 B_WORLD                Profile RMS along minor axis (world units)                 [deg]
#   9 THETA_WORLD            Position angle (CCW/world-x)                               [deg]
#  10 FWHM_WORLD             FWHM assuming a gaussian core                              [deg]
#  11 ELONGATION             A_IMAGE/B_IMAGE                                           
#  12 ELLIPTICITY            1 - B_IMAGE/A_IMAGE                                       
         1 -13.2899      7.2217    138.4096   8.9224668234e+01   4.4975042903e+01     4.305666     1.494018 -77.29   0.01720647    2.388    0.581
         2 -14.0519     27.7324    141.1997   8.3605450735e+01   4.2665477475e+01     4.228512     3.380086 -53.97   0.02572933    1.351    0.260
         3 -10.5132    218.6386     17.0536   5.1284548728e+00   2.8428282803e+01    0.2667513    0.2311239 -25.55  0.001692497    1.255    0.203
         4  -9.0988    213.9966     11.9998   4.2083261553e+00   3.0020087639e+01     0.193565    0.1671402 -63.05 0.0003490089    1.012    0.012
         5  -9.7499    119.9042      8.7992   1.4535814856e+01   5.4092369439e+01    0.2735841    0.2627584 -59.08  0.001325923    1.118    0.105
         6  -8.2342    109.4455      1.4932   1.3420939875e+01   5.7392600179e+01     0.135047    0.1257936  62.01 7.657036e-05    1.049    0.047
         7  -8.4828     98.0896      1.4330   1.5756433158e+01   6.0227585891e+01    0.2033367    0.1225205  62.73 0.0003719364    1.518    0.341
         8 -14.4164      2.6887    210.7344   9.3890972750e+01   2.9309083512e+01    0.4448894    0.2957036 -84.80  0.001674437    1.427    0.299
         9 -12.0622    247.1543    244.2448   4.9626865062e+01  -6.9096482519e+00     1.203146    0.6767537 -25.72  0.008388695    1.744    0.427
        10 -14.1053     36.1235    247.4466   8.8999616074e+01   1.9363552860e+01     0.682193    0.4417525  13.27  0.004293302    2.412    0.585
        11 -18.3841     14.7201    235.1451   9.2443506539e+01   2.3643168802e+01     2.130702     1.534062  60.60   0.01642994    1.017    0.017
        12 -10.0932     64.4621    229.5731   8.2416529300e+01   1.9328834630e+01    0.2163657    0.1612219 -55.77 0.0009407436    1.708    0.414
        13 -10.2079     91.0764    215.9285   7.5606349010e+01   1.8431637386e+01    0.4370671    0.3376611  12.24  0.002679079    1.616    0.381
        14  -9.5991     81.0993    249.9717   8.0677894244e+01   1.3797432113e+01     0.154952    0.1228411  46.48   0.00114643    1.053    0.050
        15  -7.7773     81.3792    226.5095   7.8684335083e+01   1.7772282957e+01    0.1145405   0.09912385  46.31 -0.0001795374    1.102    0.093
        16 -14.0596    120.5723    226.4463   7.0531459960e+01   1.2426134983e+01     3.504042     3.182613  72.54   0.02486313    1.271    0.213
        17 -10.7853     62.2422    250.7519   8.4313854149e+01   1.5926316374e+01    0.1812483    0.0735837  35.86 0.0009901955    1.905    0.475
        18  -9.2447     77.4059    219.9488   7.8928077463e+01   1.9492825176e+01    0.1960184    0.1607743  73.44 0.0006513728    1.202    0.168
        19  -8.8187     65.0416    210.7224   8.0773954638e+01   2.2834266585e+01    0.1672628     0.124769  59.25 0.0003504135    1.150    0.130
        20  -9.6916     63.7450    219.2089   8.1760420627e+01   2.1345282854e+01    0.2475889    0.1606071  33.50 0.0004608973    1.434    0.303
        21 -10.6528     67.5839    216.6158   8.0729771836e+01   2.1369592610e+01    0.3491255    0.1660374 -64.03  0.001839507    2.307    0.566
        22  -7.7153     57.5720    217.0706   8.2899256760e+01   2.2497338834e+01    0.1544699   0.07942112  68.27 0.0007925595    2.094    0.522
        23  -7.7405     83.4944    215.7043   7.7222412136e+01   1.9495808796e+01    0.2942636    0.1818938  26.65  0.001637191    1.685    0.406
        24  -9.3207     43.9737    215.3788   8.5649991028e+01   2.4383069342e+01    0.1652019   0.09708417  35.26 0.0007967781    1.537    0.349
        25 -13.7243     26.5799    212.6488   8.9118642123e+01   2.6744676083e+01    0.9751223    0.2367292  33.69  0.002867848    3.086    0.676
        26  -7.4897     49.9238    209.8077   8.3989795075e+01   2.4817790344e+01    0.2376427    0.1363585  15.14  0.001192905    2.622    0.619
        27  -8.2614    182.0553    208.8371   5.5572793851e+01   6.0541898116e+00    0.1720796    0.1507707  28.38 0.0003202425    1.210    0.173
        28 -12.7446     55.7975    250.3261   8.5497265697e+01   1.6734999261e+01    0.2549913     0.122933  39.38  0.001557913    1.554    0.356
        29  -8.3684     31.6345    205.5858   8.7652528906e+01   2.7654098673e+01    0.1148239    0.0823133 -39.06 0.0006856318    2.128    0.530
        30  -8.6845     88.8419    202.4385   7.4640214250e+01   2.1347990688e+01    0.4027331    0.2210499  36.59  0.002084008    1.591    0.371
        31 -10.5175     48.2452    200.3150   8.3636181309e+01   2.6947924839e+01    0.2130033    0.1634329 -75.24 0.0004076624    1.359    0.264
        32 -10.6098     44.8283    198.8226   8.4289103783e+01   2.7644292037e+01    0.2275352    0.1589523  58.03 0.0003166364    1.200    0.167
        33 -11.0169     46.3268    250.2846   8.7257936508e+01   1.7794757011e+01    0.1538689    0.1094673  43.69 0.0003532065    1.149    0.130
        34  -9.3306    245.4444    194.8034   4.1825652588e+01  -1.1760078769e+00    0.2111415    0.1413264  25.07 0.0009080692    1.388    0.280
        35  -7.8644     40.3518    194.9778   8.5013339710e+01   2.8947240815e+01    0.1494698    0.1041262 -81.44 0.0003730331    1.394    0.283
        36  -9.2214     33.5527    193.7554   8.6469914083e+01   2.9925008513e+01    0.2760174     0.176997  63.67  0.001333169    1.336    0.252
        37  -7.0979     79.4294    194.4385   7.5911383813e+01   2.4279336596e+01    0.1262052    0.1134519  52.86 0.0004841155    1.064    0.060
        38  -8.0571     91.6883    190.2773   7.2530093529e+01   2.3425242541e+01    0.2692056    0.1918703 -10.62  0.001341756    2.259    0.557
        39 -10.3275    104.8108    186.0189   6.8842185902e+01   2.2348230257e+01    0.5896636    0.3415862  81.43  0.002281111    3.210    0.688
        40 -12.8095     11.7275    195.8006   9.1419332463e+01   3.1564798356e+01     1.530777    0.4233562  35.00  0.004710753    2.755    0.637
        41  -9.6689     72.1423    186.0748   7.6709640456e+01   2.7041591337e+01    0.3142766    0.2242268 -65.37 0.0007427123    1.472    0.321
        42  -8.0141     59.9665    186.4498   7.9683756568e+01   2.8520488129e+01    0.3878744    0.2082931  84.59  0.001618051    2.246    0.555
        43  -8.6055     55.4520    185.1741   8.0644904394e+01   2.9350040373e+01    0.2392687    0.1690706  62.27 0.0008786619    1.280    0.219
        44 -10.1674     12.9586    185.0789   9.0619186304e+01   3.3742825899e+01    0.2737039    0.2371705  39.98  0.001893924    1.302    0.232
        45  -8.5500     49.4569    181.2094   8.1723339887e+01   3.0935143463e+01    0.2016842    0.1166438 -81.28 0.0002654447    1.726    0.421
        46 -10.6075     28.9784    180.6627   8.6620660911e+01   3.3241951233e+01    0.4654545    0.1618706  46.68   0.00147529    2.391    0.582
        47 -11.2555    231.1437    170.4886   3.9632436387e+01   4.0978670636e+00     1.105113    0.4113463 -30.41  0.004741673    2.573    0.611
        48 -11.6771    241.2074    172.7665   3.8420865652e+01   2.2717903028e+00    0.9418331    0.6575345  29.75  0.005878536    1.441    0.306
        49 -10.8237    243.3268    164.0829   3.6389485239e+01   3.1402734633e+00    0.5720388    0.3470254  30.01   0.00327111    1.682    0.405
        50  -8.6972     71.5040    176.7227   7.5782806990e+01   2.9193474441e+01    0.6325884    0.4058508  67.17  0.003213732    1.661    0.398
        51  -9.8894     71.7346    166.8044   7.4481295928e+01   3.1426576271e+01    0.4541588    0.2100302 -65.33  0.001762253    2.174    0.540
        52  -9.7099     45.6428    176.6540   8.2239538676e+01   3.2394983722e+01    0.3687465    0.2099826  64.83  0.001710312    1.732    0.423
        53  -8.6271     62.4841    176.2363   7.7991386042e+01   3.0479468113e+01    0.2405028    0.1965285 -64.45 0.0007818984    1.296    0.228
        54 -10.1391    104.6166    174.4880   6.7191304462e+01   2.4818360387e+01    0.6216177    0.3086216 -38.92  0.002485406    2.838    0.648
        55 -10.7437     79.4869    163.6001   7.2005432768e+01   3.1084634405e+01    0.9799859    0.4606547 -58.23  0.004274248    2.123    0.529
        56 -10.4327     20.9569    173.9583   8.8087747976e+01   3.5504673670e+01    0.3929709    0.2733533  71.39  0.001982628    1.218    0.179
        57 -10.8926     27.4070    162.2477   8.5606387139e+01   3.7614901983e+01     0.596835     0.413101  43.81 0.0006002013    1.375    0.273
        58  -8.5461     90.6090    246.6806   7.8579211210e+01   1.3137221538e+01    0.2145628    0.1309235  51.36 0.0008806648    1.396    0.284
        59  -9.4507     51.1469    242.0551   8.5885852907e+01   1.8661428886e+01    0.1581585    0.1134735  66.59 0.0004540221    1.218    0.179
        60  -9.0984    125.1736    169.9050   6.1396755696e+01   2.2387690215e+01    0.2147855     0.187197  61.85 0.0005184998    1.218    0.179
        61  -8.9438     88.6620    170.3274   7.0586733560e+01   2.8199861990e+01    0.2692219    0.1527524  46.34  0.001033461    1.656    0.396
        62  -8.5356     85.4833    168.4555   7.1134164567e+01   2.9095162186e+01    0.3308383    0.2205249 -49.28  0.001196254    1.655    0.396
        63  -7.7715     40.2619    169.4795   8.2931204890e+01   3.4631164180e+01    0.3095951    0.1534824  62.77 0.0007324578    2.084    0.520
        64  -9.6180    110.9351    168.3615   6.4639826293e+01   2.5120267381e+01    0.3474152    0.2656679  58.47  0.001100247    1.368    0.269
        65  -9.7415     65.7417    164.4130   7.5749339911e+01   3.2785273831e+01    0.3199517    0.2094275  60.46  0.001347617    1.534    0.348
        66  -8.3345      9.8433    175.0018   9.0808550123e+01   3.6222891154e+01    0.1509469    0.1284225 -42.02 0.0004472816    1.577    0.366
        67 -11.3837     76.1498    150.0957   7.0895555662e+01   3.4761824068e+01    0.7696176    0.5008983 -37.19 0.0006942229    1.972    0.493
        68  -9.1310     90.6656    159.1796   6.8372337943e+01   3.0439961290e+01    0.2915697    0.2479275 -26.99 0.0008539272    1.425    0.298
        69  -8.5987     94.9982    154.9655   6.6520906690e+01   3.0734536513e+01    0.2291638    0.1622441  65.56 0.0009253184    1.606    0.377
        70  -8.7848     86.9186    153.5771   6.8476545994e+01   3.2327408818e+01    0.3057648    0.2037332   5.71  0.001143447    2.362    0.577
        71  -9.0772     93.3864    147.5112   6.5662871464e+01   3.2741145120e+01    0.3507408    0.2900283 -35.03  0.001855219    1.384    0.277
        72  -9.4601     95.3822    137.0457   6.3139743042e+01   3.4903655315e+01    0.5299169    0.3532457  61.57  0.001253738    1.777    0.437
        73  -8.6830    106.3315    135.9558   5.9829287964e+01   3.3262401969e+01    0.2717583    0.2174353   0.70  0.001317905    1.600    0.375
        74  -9.8259     81.8804    133.4565   6.6381689265e+01   3.7959641682e+01    0.3875554    0.2333863  54.66  0.001667313    1.853    0.460
        75  -7.8022    101.4332    123.7196   5.8578961049e+01   3.7036888876e+01    0.2066565    0.1399614 -42.59  0.000632293    1.539    0.350
        76  -8.3423    154.2932    119.8871   4.3635985250e+01   2.7258448621e+01     0.317427    0.1726066 -44.79  0.001113359    1.840    0.456
        77 -12.8057     68.8277    144.0286   7.2029109316e+01   3.7269661972e+01     2.190959     1.193494  73.29  0.006674006    2.747    0.636
        78  -7.9378    185.7708     99.3459   3.1614168398e+01   2.4245515475e+01    0.2108928    0.1832434  86.70  0.001097675    1.388    0.280
        79  -8.4935    202.9950     97.6905   2.8110259221e+01   2.0756995456e+01    0.2343833    0.1877479 -31.79 0.0003706724    1.145    0.127
        80  -8.0833     91.1809     71.8405   4.7499592752e+01   5.0984314759e+01    0.2079603    0.2041011 -83.00 0.0003102371    1.102    0.092
        81  -7.7117    107.9230     65.4918   3.9894103496e+01   4.8748848458e+01    0.2202272    0.1512768  46.82 0.0004095458    1.470    0.320
        82  -8.2098     89.6780     63.3548   4.5061937165e+01   5.3061410444e+01    0.3260827    0.2230444 -75.69  0.001023487    2.509    0.601
        83  -8.0169     87.7060     60.3525   4.4657714467e+01   5.4066932615e+01    0.2199219    0.2075103 -71.69 0.0004980407    1.202    0.168
        84 -10.7950    177.6034     60.1589   2.2088583542e+01   3.2706418350e+01    0.5017704    0.4618739  54.56  0.001775115    1.131    0.116
        85  -8.2644    144.1718     59.6136   2.8393621533e+01   4.1140779827e+01    0.2528892    0.2048068 -50.68 0.0006655689    1.275    0.216
        86 -11.2415    202.9031     41.7676   1.3205238442e+01   2.9164537910e+01    0.7181523    0.5236354  56.06   0.00248825    1.474    0.321
        87 -11.2095    190.7953     52.0667   1.7674679306e+01   3.0673280012e+01    0.7998464    0.5464829 -41.07  0.003984806    1.362    0.266
        88 -11.3962    194.1155     48.2126   1.6116656822e+01   3.0407155394e+01     1.132542     0.832033  74.32  0.005895998    1.435    0.303
        89  -8.0011    175.8076     42.1342   1.6940989294e+01   3.5757838565e+01    0.1933473    0.1664101  33.30 0.0002260073    1.315    0.240
        90  -8.6594    221.5903     40.1319   1.0716622983e+01   2.5077055434e+01    0.2540164    0.1751858 -60.78 0.0006322496    1.420    0.296
        91  -7.7192    199.6833     30.2991   1.0417123497e+01   3.1361685274e+01    0.1457453   0.09203085 -60.86 0.0002084558    1.613    0.380
        92  -9.7121     68.5551    240.8167   8.2427746385e+01   1.6850232459e+01    0.1535046    0.1194617  40.13 0.0004385599    1.156    0.135
        93  -7.5205     78.6825     18.2731   2.9554539785e+01   6.2998904382e+01    0.1280442    0.1103834 -74.88 0.0002673233    1.565    0.361
        94  -8.0537    189.9606     15.5230   7.2761711320e+00   3.5392102528e+01    0.2022035    0.1266191  75.85 0.0005814315    1.555    0.357
        95 -10.4560    223.6685     17.8663   4.9356072334e+00   2.7210788284e+01    0.2636954    0.1787993 -14.09  0.001444408    1.767    0.434
        96 -11.3278     62.2044    238.1785   8.3488200863e+01   1.8063881171e+01    0.1832127     0.145103  55.45 0.0003509546    1.048    0.046
        97  -8.5258     54.2649    237.2530   8.4985194584e+01   1.9148511899e+01   0.09075478   0.08329846  18.92 0.0006797429    1.440    0.306
        98  -7.9029     81.5913    232.7334   7.9186383610e+01   1.6636529837e+01    0.1229675   0.09917481  63.57 0.0002677112    1.169    0.145
