#   1 NUMBER                 Running object number                                     
#   2 MAG_AUTO               Kron-like elliptical aperture magnitude                    [mag]
#   3 X_IMAGE                Object position along x                                    [pixel]
#   4 Y_IMAGE                Object position along y                                    [pixel]
#   5 X_WORLD                Barycenter position along world x axis                     [deg]
#   6 Y_WORLD                Barycenter position along world y axis                     [deg]
#   7 A_WORLD                Profile RMS along major axis (world units)                 [deg]
#   8 B_WORLD                Profile RMS along minor axis (world units)                 [deg]
#   9 THETA_WORLD            Position angle (CCW/world-x)                               [deg]
#  10 FWHM_WORLD             FWHM assuming a gaussian core                              [deg]
#  11 ELONGATION             A_IMAGE/B_IMAGE                                           
#  12 ELLIPTICITY            1 - B_IMAGE/A_IMAGE                                       
         1  -8.4052     13.2550     21.5513   1.2920096662e+02   7.1317711799e+01    0.2508006    0.1492891  57.09   0.00128382    2.666    0.625
         2  -7.9898     17.0077     14.2341   1.2404547633e+02   7.2562966008e+01    0.1648978    0.1405205 -32.71 0.0004414394    1.070    0.066
         3  -8.6406     55.6648     10.1705   1.0045844393e+02   6.8315027792e+01     0.220173    0.2042057 -70.21 0.0007443076    1.459    0.314
         4  -8.1364     47.8363     10.0962   1.0419092019e+02   6.9615855713e+01    0.1994121    0.1455597 -61.34   0.00082273    2.045    0.511
         5  -8.3516     28.1258     10.1748   1.1519409178e+02   7.2270196131e+01    0.1555116    0.1447122 -58.06 0.0004920026    1.332    0.249
         6  -8.6439     90.8631      9.1262   8.6654501020e+01   6.1330669667e+01    0.2097797    0.1891744 -55.76 0.0006411782    1.311    0.237
         7  -8.2964     69.0266      7.9749   9.3546831556e+01   6.6156473798e+01     0.165695    0.1440548  -8.91 0.0005155985    1.053    0.050
         8  -8.7024     33.4032      5.0729   1.0919598821e+02   7.2538921958e+01    0.2871062     0.196271 -62.10  0.001272895    2.247    0.555
         9  -8.5423     79.0100      3.6549   8.7537892832e+01   6.4632846270e+01    0.2672906    0.1728652 -39.77  0.001339516    1.690    0.408
        10  -7.7313     44.6841      3.3359   1.0185915959e+02   7.1185200260e+01    0.1190016    0.1017191 -63.13 0.0007047663    1.695    0.410
        11  -7.7939     15.7071      3.3346   1.1966359862e+02   7.4816460529e+01    0.1071005    0.0932854 -84.28 0.0002508901    1.639    0.390
        12  -8.5089     62.3376      1.7119   9.2631847634e+01   6.8300839426e+01    0.2005015    0.1743118  55.41  0.001214848    1.375    0.273
        13  -7.7066     39.4496      1.5141   1.0355474310e+02   7.2270921892e+01    0.1268996    0.1074864 -15.10 0.0001248817    1.027    0.026
        14  -9.1736    120.2453    245.6119   1.3337900140e+02   1.3098469041e+01    0.2900575    0.1595141  62.90   0.00152877    2.406    0.584
        15  -9.2845    240.5734    240.3444   1.1292780682e+02  -2.3099149827e+00    0.3821606    0.1561509 -14.52   0.00204547    3.459    0.711
        16 -10.2734    248.7177    243.2946   1.1211926951e+02  -3.5463519110e+00    0.9402009    0.1743429 -29.32   0.00402936    6.124    0.837
        17  -9.3696    247.5383    234.8444   1.1112588287e+02  -2.7186574768e+00     0.384907    0.1387012  33.78  0.002141851    2.085    0.520
        18  -9.6253    246.6800    229.5558   1.1050195559e+02  -2.1675372640e+00    0.3744607    0.1705117 -21.73  0.001966215    2.338    0.572
        19  -8.4928     94.0062    249.6188   1.3822811080e+02   1.5878186842e+01    0.2289502   0.09317375  56.91  0.001257005    2.641    0.621
        20  -7.2786     86.2971    250.6796   1.3961832869e+02   1.6662890397e+01    0.1040245   0.05580133  56.54 0.0003221715    1.617    0.382
        21  -8.8000      9.5162    244.0555   1.5211778698e+02   2.5620742623e+01    0.1837275   0.06973797  83.77  0.001194241    2.564    0.610
        22  -8.3782     67.8146    245.1157   1.4242908794e+02   1.9587574604e+01     0.190132   0.09064172  74.18  0.001147033    2.632    0.620
        23  -8.4153    139.4777    244.4534   1.2994044436e+02   1.0703923544e+01    0.1466791    0.1026444 -77.07 0.0008010184    2.377    0.579
        24  -8.3391     50.0178    244.2624   1.4542174893e+02   2.1663370111e+01    0.2358111   0.09321327  80.04   0.00127728    3.483    0.713
        25  -9.0009    201.8615    242.8595   1.1929267390e+02   2.4586871121e+00    0.2380157    0.1385014 -35.00  0.001224083    2.239    0.553
        26  -8.4285    169.1043    243.6568   1.2479580899e+02   6.7910561567e+00    0.1527368    0.1297732  44.84 0.0005289777    1.352    0.260
        27  -7.6936     34.6787    244.3237   1.4800412042e+02   2.3228026001e+01    0.1055066   0.04611616  56.77 0.0004144302    1.679    0.404
        28  -9.0606    194.2670    240.4430   1.2022679374e+02   3.7172736618e+00    0.2455321    0.1603861 -40.16  0.001131379    2.142    0.533
        29  -9.3219    160.3726    240.5999   1.2593862673e+02   8.3300835328e+00    0.2611507    0.1974656  89.69  0.001177002    2.498    0.600
        30  -8.7099     77.3349    242.8028   1.4063940984e+02   1.8819518783e+01    0.1960321    0.1133723  62.42  0.001144658    1.605    0.377
        31  -9.3393    183.2030    240.1099   1.2201688609e+02   5.2556378330e+00    0.3136209    0.2352164  56.94  0.002177407    1.889    0.471
        32  -8.0164    153.2425    242.2114   1.2733811042e+02   9.1150981080e+00    0.1439039    0.1023048  49.29  0.001058354    1.379    0.275
        33  -7.9746     88.3665    242.2438   1.3867407600e+02   1.7578718234e+01    0.1244074    0.0860118  79.60 0.0005485053    1.659    0.397
        34  -8.1643    146.6528    240.0694   1.2825092251e+02   1.0270908706e+01    0.1671427   0.09558959  61.67 0.0009402259    2.732    0.634
        35  -8.0508      2.9449    240.3087   1.5308650510e+02   2.6747298029e+01    0.1657167          nan  45.77 0.0007039058    4.375    0.771
        36  -9.6546    236.1261    230.6862   1.1226343724e+02  -9.1631395684e-01    0.2473105    0.1604763 -24.68 0.0005161071    1.774    0.436
        37  -8.4092    209.2525    238.7141   1.1757589117e+02   1.8765114527e+00    0.1494319    0.1207863 -11.63 0.0007098326    1.439    0.305
        38  -9.0468    135.7947    239.0212   1.3004179574e+02   1.1878294548e+01    0.2252851    0.1129163  50.07  0.001009239    1.846    0.458
        39  -9.0488    129.4575    239.1360   1.3116861642e+02   1.2718231425e+01    0.2264664       0.1014  48.67  0.001187283    1.948    0.487
        40  -9.2497    210.8869    246.3350   1.1828835955e+02   9.4402392455e-01    0.1686471    0.1469649 -40.64  0.001248594    1.923    0.480
        41  -8.1545     25.7669    237.1723   1.4922864369e+02   2.5169122472e+01    0.1803899   0.04750689  56.85  0.000952835    2.824    0.646
        42  -9.8549    214.9019    233.2277   1.1594407989e+02   1.6493330216e+00    0.3827707     0.310655  82.43  0.002403739    3.491    0.714
        43  -8.9802    203.1141    234.9413   1.1807813812e+02   3.0743614396e+00    0.1900391    0.1750113 -60.83  0.001102309    1.937    0.484
        44  -9.7365    175.6520    233.1919   1.2245473696e+02   7.0631297240e+00    0.3525989    0.2438017 -64.39   0.00226157    2.837    0.648
        45  -8.2512    170.4303    235.9600   1.2368242577e+02   7.4763195642e+00    0.1256782    0.1080424 -36.93  0.000558762    1.578    0.366
        46  -7.7856    113.3155    236.3259   1.3377375951e+02   1.5240314778e+01    0.1511497   0.09149913  31.20 0.0006294573    1.499    0.333
        47  -9.1513    108.4273    234.4025   1.3448029565e+02   1.6148032586e+01    0.2737803    0.1518285  55.82  0.001035884    1.726    0.421
        48  -8.0382     57.9421    237.0000   1.4367625294e+02   2.1883170249e+01    0.1649474   0.04405253  35.41 0.0007956683    2.896    0.655
        49  -7.7673    153.3062    235.6422   1.2661278722e+02   9.8963522444e+00    0.1053667   0.07238258  57.06 0.0005858173    1.725    0.420
        50  -8.9348     79.0421    234.6186   1.3978401033e+02   1.9807332579e+01    0.2136615    0.1173884  63.01 0.0009476778    1.780    0.438
        51  -8.1261    122.9380    234.0190   1.3183424700e+02   1.4273648653e+01    0.1671894    0.1041626  57.87 0.0005459707    1.679    0.404
        52  -8.0067     99.6275    234.3374   1.3606044004e+02   1.7295085250e+01    0.1653176   0.09334255  57.46 0.0007913179    1.681    0.405
        53  -9.3662     68.5074    232.6715   1.4154219164e+02   2.1341574879e+01    0.3725762    0.1338706  60.91  0.001793285    3.358    0.702
        54  -9.3454      7.6622    234.1041   1.5216616825e+02   2.7288461357e+01    0.1665599    0.1135772  41.27 0.0009282965    1.342    0.255
        55  -8.3693    194.4617    232.8558   1.1923393622e+02   4.4769486775e+00    0.1899267    0.1399917  44.08  0.001033658    1.475    0.322
        56  -8.8873    140.1005    230.2849   1.2836776808e+02   1.2414945418e+01    0.2677796    0.1370475  54.15  0.001061398    2.217    0.549
        57  -8.1780    132.7356    232.7822   1.2995268737e+02   1.3105883119e+01    0.1506177    0.1018866  51.64 0.0006627273    1.367    0.269
        58  -8.0170     37.2106    233.0349   1.4710034985e+02   2.4682255169e+01    0.1742741   0.07311534  63.04  0.001080571    2.058    0.514
        59  -9.1734    186.5855    230.7880   1.2029080714e+02   5.7980136224e+00    0.2397634    0.2038793  86.09  0.001656126    2.195    0.544
        60  -7.9287    157.8295    232.3227   1.2544468045e+02   9.6700820871e+00    0.1446975    0.1180583  39.84  0.001058986    1.164    0.141
        61  -8.3873     92.6512    231.8382   1.3711941151e+02   1.8542972022e+01    0.2814996    0.1087788  55.86  0.001400516    2.818    0.645
        62  -8.7202      1.7967    230.9276   1.5306272243e+02   2.8281064676e+01    0.1799607    0.0800186  64.68 0.0007928897    1.648    0.393
        63  -8.8112    151.3184    228.9693   1.2621232948e+02   1.1006853235e+01    0.2261763    0.1508151  71.91  0.001190184    2.682    0.627
        64  -9.4236    148.8106    224.6772   1.2616800243e+02   1.1917697280e+01    0.3421408    0.2343909  74.11  0.001499652    2.509    0.601
        65  -8.4453    229.7645    228.9398   1.1300114951e+02   7.3065528552e-02    0.1272242    0.1245957 -34.97 0.0008553756    1.926    0.481
        66  -8.6887    162.3366    228.1055   1.2415470344e+02   9.5483690307e+00     0.249163    0.1183239  50.35 0.0008396573    2.320    0.569
        67  -8.6371    128.0391    227.4610   1.3025493977e+02   1.4472858922e+01    0.2062402    0.1416532  59.83 0.0009840546    1.577    0.366
        68  -8.0581    119.9851    227.4247   1.3172640618e+02   1.5585314005e+01    0.2035585    0.1399575 -71.07  0.001406214    1.993    0.498
        69  -8.4173    223.7124    226.5422   1.1361466246e+02   1.1055772124e+00    0.2161651    0.1139075 -11.27  0.000995433    2.318    0.569
        70  -8.9662    205.9996    226.1310   1.1642443922e+02   3.5769191708e+00    0.1711664    0.1547761 -28.68 0.0008618058    1.607    0.378
        71  -7.6044    177.6466    227.2777   1.2137417268e+02   7.4608412819e+00    0.1063049   0.07380109  50.88 0.0004965692    1.649    0.393
        72  -7.9587     49.3851    227.2217   1.4465834457e+02   2.4323437121e+01    0.1953559    0.0811538  51.92  0.001194808    1.788    0.441
        73  -7.5927    200.2875    226.6712   1.1744525955e+02   4.3190800306e+00   0.09604806   0.07873927  48.41 0.0007012733    1.615    0.381
        74  -8.1912    143.3449    226.5697   1.2737366862e+02   1.2447507259e+01    0.2209183   0.08167864  41.53  0.000927688    2.045    0.511
        75  -8.0330     39.0735    225.5759   1.4642764632e+02   2.5667327991e+01    0.2808744   0.07051998  59.35  0.001189612    4.219    0.763
        76  -8.8724    216.6009    223.7885   1.1436447872e+02   2.3448201125e+00    0.2440511    0.1513965 -34.10 0.0009314622    2.036    0.509
        77  -8.8973    180.7051    224.2959   1.2046021763e+02   7.3689997157e+00    0.2405525    0.1901453  50.02  0.001157455    1.501    0.334
        78  -8.7190    104.9402    224.0489   1.3418775070e+02   1.8102226108e+01    0.2511765    0.1381591  60.73  0.001492255    2.001    0.500
        79  -8.8964     94.1893    224.3689   1.3622047011e+02   1.9460981120e+01    0.3553916     0.145079  54.22  0.001844472    2.421    0.587
        80  -8.5378    172.9228    223.0582   1.2166029501e+02   8.6401263085e+00    0.2016065    0.1601032 -58.41 0.0009423615    1.937    0.484
        81  -7.6960    113.8301    224.3371   1.3256018350e+02   1.6865269442e+01    0.1480337    0.1141117  54.51 0.0006091963    1.180    0.152
        82  -8.1418     59.9682    223.9747   1.4254149703e+02   2.3670982498e+01    0.1798688   0.08833038  58.93  0.001123516    1.757    0.431
        83  -9.4540    230.7563    237.1161   1.1398118521e+02  -7.9282755317e-01    0.2459654    0.2125076 -47.95  0.001436201    2.307    0.567
        84  -9.2405    160.2066    221.3085   1.2370469130e+02   1.0706592112e+01     0.436334     0.198714  54.00  0.001512994    3.245    0.692
        85  -8.9643    238.9336    221.3844   1.1048709138e+02  -4.4549771390e-01    0.1836371    0.1349278 -22.22  0.000535408    1.600    0.375
        86  -9.2668    225.5381    221.7397   1.1263602554e+02   1.3204743171e+00    0.1989177    0.1565389  35.82 0.0005109138    1.451    0.311
        87  -9.2627    192.3777    221.0243   1.1801187204e+02   6.0610490861e+00    0.2389209     0.214615 -46.73  0.001149663    1.679    0.404
        88  -9.1886      7.4892    222.2553   1.5187619978e+02   2.9177091202e+01    0.2277222   0.05696124  44.47  0.001310243    2.304    0.566
        89  -9.1934    120.5273    219.3855   1.3080793457e+02   1.6664848100e+01    0.3659033    0.1824735  58.35  0.001908883    2.501    0.600
        90  -8.1935     73.0070    220.9661   1.3991446159e+02   2.2629079848e+01    0.1813798   0.09549035  60.22  0.001122312    1.756    0.431
        91  -8.0842     27.5325    220.9419   1.4829164927e+02   2.7564565148e+01    0.1381529   0.08491815 -89.65   0.00103217    1.594    0.373
        92  -8.2658    202.6669    220.1229   1.1614340048e+02   4.6832722009e+00    0.1421492    0.1326633   4.52  0.000561996    1.421    0.296
        93  -9.2600    247.8827    216.9933   1.0846399134e+02  -1.2249624970e+00    0.3100251     0.276829 -76.79  0.002157047    3.020    0.669
        94  -9.3428    133.0369    216.3119   1.2811646702e+02   1.5333793794e+01    0.4089546    0.2374905  69.12  0.002065615    3.102    0.678
        95  -7.8949    140.4514    222.9380   1.2749168068e+02   1.3345365670e+01    0.1343177    0.0933038  80.97 0.0008070542    2.428    0.588
        96  -8.5922     82.6731    220.6039   1.3806898277e+02   2.1502849841e+01    0.2774419     0.115256  58.07 0.0009860046    2.587    0.614
        97  -8.4452     62.1385    217.4332   1.4171278069e+02   2.4478409531e+01    0.3020552    0.1034725  53.68  0.001525714    2.540    0.606
        98  -8.7407     51.7626    217.2752   1.4365495296e+02   2.5671245064e+01    0.2525117    0.1232764  59.49  0.001116095    1.742    0.426
        99  -8.4813     18.5810    216.3258   1.4972263152e+02   2.9167352489e+01    0.1762398     0.080054  87.47   0.00113168    2.114    0.527
       100  -8.6585    232.1276    214.4996   1.1051797787e+02   1.1213195775e+00    0.1853444     0.143752 -17.46 0.0009327541    1.456    0.313
       101  -8.4359    185.7908    214.6807   1.1827590776e+02   7.7586745072e+00    0.1677888    0.1451084  75.32 0.0007709706    1.891    0.471
       102  -8.0178    154.2437    215.1938   1.2402715919e+02   1.2384160414e+01    0.1526334    0.1170109  52.75 0.0006292504    1.383    0.277
       103  -8.9733     93.6070    214.4147   1.3545619281e+02   2.1082007843e+01    0.3274779    0.1366448  56.44  0.001603979    2.642    0.621
       104  -8.6533    169.4291    216.2511   1.2139657031e+02   9.9933130041e+00     0.217173    0.1758107  77.34 0.0009511189    1.995    0.499
       105  -9.4001     73.3252    212.0690   1.3918297882e+02   2.4034840057e+01    0.5361763    0.1640695  55.66  0.002182085    3.891    0.743
       106  -7.9070    224.7825    212.8650   1.1144171885e+02   2.3045428521e+00    0.1390463    0.1294418 -49.19 0.0009565242    1.909    0.476
       107  -9.4912    213.8598    212.1268   1.1311534353e+02   3.9360252105e+00     0.267064    0.2107563  41.35  0.001450611    1.484    0.326
       108  -8.5263    161.4104    212.4796   1.2235809299e+02   1.1677872898e+01     0.196921    0.1344054  48.24 0.0007790372    1.422    0.297
       109  -8.0654    106.4584    212.9781   1.3283566389e+02   1.9582451652e+01    0.1400773    0.1104517 -79.31 0.0008597418    1.539    0.350
       110  -8.7672    204.3247    210.8842   1.1452956030e+02   5.4595852256e+00    0.2053823    0.1785706 -59.07 0.0009082101    1.984    0.496
       111  -9.3601    175.7554    210.2647   1.1944517281e+02   9.8035464013e+00    0.3286887    0.2182921  61.56  0.001687055    2.391    0.582
       112  -9.5348      6.8230    209.6889   1.5162830386e+02   3.1319071211e+01    0.4508269   0.08908609  63.28  0.001855825    4.644    0.785
       113  -7.6702    250.3238    211.3116   1.0722152064e+02  -1.0332289363e+00    0.1138566    0.0624084  13.18 0.0007039353    1.656    0.396
       114  -8.4080    210.2042    219.0093   1.1472923776e+02   3.7293633557e+00    0.1581038    0.1251013 -31.49 0.0007040258    1.658    0.397
       115  -8.7801    147.9650    210.6373   1.2462221907e+02   1.3944646913e+01    0.2137225    0.1732385  67.97  0.001012485    1.559    0.359
       116  -8.8391    116.4106    210.6446   1.3066407153e+02   1.8556168279e+01    0.2808146    0.1509246  56.76  0.001095102    2.001    0.500
       117  -7.9799    192.1863    210.2579   1.1652761768e+02   7.3319398565e+00    0.1407837    0.1257505  41.89  0.000657542    1.397    0.284
       118  -8.6332     85.8985    209.6684   1.3653052668e+02   2.2853308840e+01     0.271003    0.1461006  71.03  0.001495194    2.350    0.574
       119  -8.5860    142.9355    216.4838   1.2628228060e+02   1.3872351490e+01    0.1837112    0.1531474  75.98 0.0007554404    1.565    0.361
       120  -7.8936     32.3032    210.6444   1.4695143378e+02   2.8818231283e+01    0.1143184   0.05377426  60.19 0.0007039449    1.712    0.416
       121  -9.2522    236.5431    207.5022   1.0874418864e+02   1.1950216080e+00    0.3181526    0.1798455 -26.61  0.001968208    1.891    0.471
       122  -9.3909    246.3389    207.3360   1.0720149676e+02  -1.3284202080e-01    0.2305881    0.1599744  -6.79 0.0005325471    1.301    0.231
       123  -9.4739    250.1083    201.8678   1.0575283737e+02  -1.2850571073e-01    0.2926695    0.1450653 -25.28  0.001495021    2.030    0.507
       124  -8.1085    156.3940    208.2183   1.2272640214e+02   1.3010602622e+01    0.1325115    0.1146247 -66.89 0.0007496602    1.603    0.376
       125  -8.3720    139.0378    207.8188   1.2596587729e+02   1.5683117530e+01    0.1806089    0.1474906  85.15 0.0007351249    1.650    0.394
       126  -9.2631    124.4133    206.4028   1.2862843655e+02   1.8057406671e+01    0.2942718     0.176253  63.95            0    2.179    0.541
       127  -9.0370     99.4637    206.3069   1.3353647922e+02   2.1603904258e+01     0.326467    0.1836413  67.82  0.001622212    2.266    0.559
       128  -8.5111     11.8067    207.1373   1.5063250947e+02   3.1328097495e+01    0.1636121   0.09831533  60.68 0.0006838435    1.210    0.173
       129  -8.5078     56.6309    205.6541   1.4197257704e+02   2.7090284777e+01    0.2062837    0.1003722  74.04 0.0008653052    2.331    0.571
       130  -9.2023    194.9305    203.7778   1.1508805266e+02   7.6909529345e+00    0.3160347    0.2476543  51.29  0.001584568    1.606    0.377
       131  -9.4180    192.4728    197.6840   1.1458945111e+02   8.8169288686e+00     0.383137    0.3572569  79.15  0.001834112    1.650    0.394
       132  -9.1005    183.8837    203.9954   1.1708292742e+02   9.3562159451e+00    0.2579407    0.1958548  56.81  0.000835481    1.746    0.427
       133  -8.5386    131.4403    204.2673   1.2699944865e+02   1.7346990590e+01    0.2514091    0.1377497  59.82 0.0008950344    2.412    0.585
       134  -8.1173    109.1642    205.2262   1.3150002353e+02   2.0433066626e+01    0.1589481    0.1150261  61.54 0.0004679512    1.371    0.271
       135  -7.9353     92.2311    205.2480   1.3487072851e+02   2.2753778509e+01    0.1634544     0.107104  57.85 0.0007292922    1.377    0.274
       136  -8.0167     25.3076    205.6286   1.4804020970e+02   3.0361294793e+01    0.1160468   0.05248274  60.43 0.0007033468    1.765    0.433
       137  -9.5693    163.9897    203.1956   1.2061937487e+02   1.2535881003e+01    0.3652209    0.2044339  52.81  0.001354202    2.071    0.517
       138  -8.3363     48.8282    202.6994   1.4331469889e+02   2.8475005479e+01    0.2196203    0.1022988  67.00  0.001230671    2.151    0.535
       139  -7.5782     41.6552    203.3376   1.4476581668e+02   2.9130366182e+01    0.1202485   0.05688893  59.17 0.0007048783    1.775    0.437
       140  -9.2393    243.0352    200.6214   1.0663328033e+02   9.6669193995e-01    0.2533365    0.1460193 -22.92 0.0009439092    1.749    0.428
       141  -8.4396    210.8858    201.8050   1.1203339007e+02   5.5071885255e+00    0.1709051    0.1531578 -66.67 0.0007055773    1.998    0.500
       142  -8.8998    140.4536    201.1065   1.2483913986e+02   1.6464198712e+01    0.2986336    0.1960776  71.42  0.001181106    2.430    0.589
       143  -8.3699     80.2360    201.6666   1.3694561345e+02   2.4926882843e+01    0.2870221    0.1119375  62.22  0.001147484    3.975    0.748
       144  -8.0817     10.7442    202.5987   1.5067327058e+02   3.2207891911e+01    0.1466496   0.06631842  44.41 0.0009553668    1.636    0.389
       145  -7.9874    222.1290    201.2457   1.1006974551e+02   3.8997549225e+00    0.1405302    0.1233519  25.13 0.0005695577    1.358    0.264
       146  -8.9505    236.8047    198.2474   1.0722045506e+02   2.0849654521e+00     0.248768    0.1739208 -36.91  0.001469954    1.962    0.490
       147  -9.4452    149.7085    198.8763   1.2274072534e+02   1.5367946321e+01    0.3357199    0.2404966  74.08  0.001352778    2.180    0.541
       148  -8.8394    124.0979    199.3410   1.2784843525e+02   1.9207695943e+01    0.2613564    0.1758997  71.14   0.00108394    1.977    0.494
       149  -9.1308    112.8756    198.6812   1.3002715427e+02   2.0964566935e+01    0.4110901     0.211117  61.42  0.001961754    2.600    0.615
       150  -9.1237     88.6741    198.5803   1.3494194058e+02   2.4355491411e+01    0.3381944    0.1836828  68.84  0.001533947    2.309    0.567
       151  -8.3874    177.1935    199.0896   1.1757307683e+02   1.1029393190e+01    0.1993947     0.136379  55.93 0.0006234349    1.866    0.464
       152  -8.4951    202.3545    197.6805   1.1284821031e+02   7.2841187734e+00    0.1934621     0.179033 -22.88   0.00095399    1.429    0.300
       153  -9.0541     61.4637    197.0669   1.4037484687e+02   2.8041119758e+01    0.3501091    0.1666539  67.58  0.001532322    2.342    0.573
       154  -8.9377     12.9900    197.8152   1.5007200508e+02   3.2859209848e+01    0.2454868   0.08192597  58.55  0.001339549    2.330    0.571
       155  -8.5826    216.0591    195.7536   1.1019487041e+02   5.4123516793e+00    0.2175265    0.1586122 -45.40 0.0009206097    2.076    0.518
       156  -7.8740     53.7879    196.9363   1.4192897372e+02   2.8948642678e+01    0.1927098   0.09457278  66.97  0.001073135    2.064    0.515
       157  -7.8035    133.0993    196.1987   1.2565224288e+02   1.8343458451e+01    0.1646744    0.1242635  57.18 0.0006745761    1.357    0.263
       158  -7.6547     35.6848    196.3839   1.4554666643e+02   3.0984570555e+01    0.1215425   0.05715415  61.37 0.0007020024    1.822    0.451
       159  -9.7461    245.7792    192.6872   1.0489838556e+02   1.3674418393e+00    0.3438637    0.2084422 -23.71  0.001395003    1.654    0.396
       160  -7.4107    209.3199    195.6600   1.1132318329e+02   6.4511968132e+00    0.1034405   0.09206913  59.15 0.0007049915    1.715    0.417
       161  -8.8186    185.2337    194.8096   1.1544781927e+02   1.0322749681e+01    0.2003707    0.1848557  -2.59   0.00066106    1.248    0.199
       162  -8.6761    161.0295    194.4983   1.1993483402e+02   1.4221469101e+01     0.217769    0.1808217  81.37 0.0007394155    1.762    0.433
       163  -8.6973     77.1217    194.0297   1.3688943536e+02   2.6662299258e+01     0.220725    0.1508819  68.77 0.0005467946    1.414    0.293
       164  -8.1326    230.5505    194.0150   1.0752170514e+02   3.4355310098e+00    0.1572326     0.102205 -21.55 0.0006087791    1.567    0.362
       165  -8.7239     43.9490    193.6041   1.4370640983e+02   3.0631598074e+01    0.3231251    0.1453927  62.70  0.001787238    2.084    0.520
       166  -8.2627      6.2963    190.6448   1.5111090711e+02   3.4717981826e+01    0.1995186   0.06355304  78.34 0.0009671973    3.106    0.678
       167  -8.6165    224.5630    194.1111   1.0851250353e+02   4.3146988102e+00    0.2076439    0.1833171 -40.39  0.001074969    1.733    0.423
       168  -7.9706    205.0232    191.7048   1.1142284513e+02   7.5881941144e+00     0.167425     0.128149  26.04 0.0005234543    1.060    0.057
       169  -8.0238    198.9990    191.9503   1.1252027579e+02   8.5061679961e+00    0.1601422    0.1440527  61.94 0.0006026201    1.629    0.386
       170  -8.0843    179.1783    192.1054   1.1614130642e+02   1.1648500589e+01    0.1538851    0.1362927  50.41 0.0006492599    1.356    0.263
       171  -8.5380    172.3368    191.7846   1.1737328904e+02   1.2793397860e+01    0.2068963    0.1786144  70.13  0.001100233    1.603    0.376
       172  -9.1298    139.5511    190.6312   1.2360828368e+02   1.8215954546e+01    0.3229538    0.2306411  79.52  0.001149078    2.153    0.536
       173 -10.3065     92.0216    188.4170   1.3319641505e+02   2.5683938637e+01    0.8532162    0.2857744  49.33  0.003604441    2.811    0.644
       174  -8.7179     21.0158    191.0312   1.4820842845e+02   3.3373232447e+01     0.281434   0.08846818  58.75  0.001393336    2.707    0.631
       175  -8.6390    148.3715    189.0509   1.2161670458e+02   1.7058177523e+01    0.2208905    0.1814161 -88.64 0.0008093393    1.708    0.415
       176  -8.9938    129.5821    188.8816   1.2539496676e+02   2.0059585626e+01    0.3206005    0.1910702  63.30  0.001046848    2.268    0.559
       177  -9.1783    121.8591    188.8244   1.2697986168e+02   2.1260150926e+01    0.2712544    0.2178569  59.05 0.0005043177    1.229    0.187
       178  -9.2223    120.2346    185.2435   1.2684956539e+02   2.2113743211e+01    0.2553463      0.18019 -72.54  0.001171389    1.811    0.448
       179  -8.4694    237.2654    188.3015   1.0548544074e+02   3.0521489980e+00    0.2289464    0.1374054 -16.96 0.0006047779    1.632    0.387
       180  -9.0720    191.5631    187.7692   1.1317234141e+02   1.0227379191e+01    0.2697157    0.2278183 -68.17  0.001112876    1.953    0.488
       181  -9.2719    155.7497    187.2590   1.1988781919e+02   1.6139042086e+01    0.2960853     0.190312 -57.28  0.001026911    2.145    0.534
       182  -8.6036     34.3529    188.6070   1.4536588342e+02   3.2545726184e+01    0.2532018     0.119853  61.05 0.0009291764    1.820    0.451
       183  -8.8622    216.5284    187.7549   1.0879030352e+02   6.2602726776e+00    0.2009112    0.1875594  10.03 0.0007119643    1.368    0.269
       184  -8.9887     54.8656    187.2323   1.4098043744e+02   3.0603584240e+01    0.3611609    0.1472861  58.67  0.001737486    2.436    0.590
       185  -8.1706    230.1343    187.1027   1.0642429164e+02   4.2467567470e+00    0.1505006    0.1480754 -64.52  0.001113509    1.730    0.422
       186  -8.5471    164.8135    186.7789   1.1804019541e+02   1.4730465156e+01    0.2035575    0.1752758 -66.54 0.0008131367    1.605    0.377
       187  -9.1699    109.5983    185.9950   1.2918841351e+02   2.3591614297e+01    0.3290102    0.2046519  71.28  0.001248215    2.147    0.534
       188  -8.4116    249.2567    185.6017   1.0315647831e+02   1.5845674248e+00    0.1899648    0.1243278 -31.19 0.0006836882    1.768    0.434
       189  -8.5418    210.1200    184.2266   1.0928734137e+02   7.6906442389e+00    0.1872377    0.1546389  -7.33 0.0005118423    1.210    0.173
       190  -8.3568    202.8473    184.7636   1.1065044302e+02   8.7901583495e+00    0.1805933    0.1605876 -72.45 0.0006377898    1.888    0.470
       191  -8.4301    183.0077    184.9846   1.1429088070e+02   1.1995019276e+01    0.1851705    0.1596066  28.34 0.0005922055    1.100    0.091
       192  -8.7566     66.7375    184.6031   1.3822423465e+02   2.9688138057e+01    0.3622727    0.1529377  52.33  0.001323408    2.120    0.528
       193  -8.3208    224.1211    183.7642   1.0683587230e+02   5.5418979055e+00    0.1771713    0.1491477 -15.85 0.0004310048    1.319    0.242
       194  -8.4199    197.0275    183.7428   1.1151572201e+02   9.8635883026e+00    0.1914431     0.155064 -43.87  0.000902954    1.640    0.390
       195  -9.1600    174.4772    182.7922   1.1554408421e+02   1.3712528446e+01    0.4322351    0.2375504 -35.76  0.002153379    2.110    0.526
       196  -8.1056      2.1662    183.9335   1.5170080576e+02   3.6284617418e+01    0.1961217   0.08631688  45.78  0.001245308    1.721    0.419
       197  -8.8537    240.8776    181.5417   1.0374393114e+02   3.2348918290e+00    0.2519071    0.1795473 -50.92  0.001461497    2.716    0.632
       198  -8.8439     44.2706    182.4070   1.4287530730e+02   3.2687798643e+01    0.2836824     0.148402  71.79  0.001017025    1.887    0.470
       199  -9.1264    147.6743    180.8888   1.2054062843e+02   1.8451495424e+01     0.308901    0.2233857  72.25  0.001189533    2.009    0.502
       200  -7.5345     83.2853    182.5624   1.3444259431e+02   2.7940821618e+01    0.1297426   0.07633775  67.63 0.0004339298    1.890    0.471
       201  -9.6787     25.5358    178.7675   1.4664595151e+02   3.5264417823e+01     0.569418    0.1853377  71.98  0.002340036    3.951    0.747
       202  -8.6452    137.6527    179.3656   1.2237613449e+02   2.0342917067e+01    0.2524572    0.1828122  67.59 0.0009777232    1.749    0.428
       203  -9.2953    191.5068    178.2457   1.1158349665e+02   1.1503128233e+01    0.2539649    0.2505566  41.71 0.0005392417    1.367    0.268
       204  -8.5879    194.6551    172.6876   1.1003056391e+02   1.1727275110e+01    0.2672018    0.1318082  27.57  0.001238348    2.186    0.543
       205  -8.2703    169.4420    178.6954   1.1584566000e+02   1.5152602183e+01    0.1989808    0.1246442 -47.56 0.0008095007    1.976    0.494
       206  -9.1436     35.9430    176.8642   1.4428907790e+02   3.4622468630e+01    0.4845484    0.1673353  72.11  0.001879976    4.284    0.767
       207  -9.5933    248.4445    176.4165   1.0166080961e+02   2.6514385895e+00    0.3519348    0.2353881 -35.58  0.001927719    1.871    0.466
       208  -8.5152    250.5282    172.9089   1.0070974419e+02   2.7109279210e+00    0.1665529    0.1373312   1.60 0.0005725097    1.169    0.145
       209  -8.3831    231.1205    177.2253   1.0453621403e+02   5.1991696700e+00    0.1871606    0.1584784 -14.03 0.0005305922    1.299    0.230
       210  -8.4777    205.1342    177.6784   1.0902521133e+02   9.3152891117e+00    0.1915957    0.1625147 -30.49 0.0006216788    1.412    0.292
       211  -8.4431    129.1777    177.5332   1.2388961746e+02   2.2025636543e+01    0.2589723    0.1724893  68.76  0.001026225    2.026    0.507
       212  -8.1716     97.4577    177.9406   1.3081557952e+02   2.6819437017e+01    0.1966967    0.1551883  16.42 0.0008876159    1.594    0.373
       213  -8.8566     89.0280    177.1055   1.3257657647e+02   2.8173386812e+01    0.2567415    0.1586044  68.87 0.0008634332    1.836    0.455
       214  -8.2955    217.3314    177.0582   1.0679929893e+02   7.4049372705e+00    0.1647989    0.1370177  -4.58 0.0004946282    1.168    0.144
       215  -8.2666    211.6035    176.7486   1.0772816549e+02   8.3720113446e+00    0.1548471    0.1119394 -36.22 0.0009505089    1.646    0.392
       216  -9.2628    183.0792    176.2802   1.1281767872e+02   1.3194780418e+01    0.2294143    0.2039985 -29.58 0.0005489194    1.313    0.239
       217  -9.2786    104.5099    174.9102   1.2887784962e+02   2.6339477171e+01    0.4753457    0.2213318  60.55  0.001944528    3.159    0.683
       218  -9.9730     57.3091    173.2832   1.3927693901e+02   3.2995041386e+01    0.7227509    0.2912055  71.95  0.002732625    4.276    0.766
       219  -8.8632     12.7935    176.4792   1.4922955888e+02   3.6835446757e+01    0.2473126    0.1233207  81.19    0.0014747    1.756    0.431
       220  -9.1778    158.7047    174.7509   1.1732762902e+02   1.7575020808e+01    0.3313745    0.2453075 -64.13  0.001325513    1.919    0.479
       221 -10.5860     76.0040    170.6895   1.3477903287e+02   3.1175010823e+01    0.9754416    0.3891759 -81.60  0.003486534    4.796    0.792
       222  -8.3604     78.8812    158.6627   1.3269554261e+02   3.3190870069e+01     0.358601    0.1846027  21.75  0.001560189    2.935    0.659
       223  -8.0447    224.4015    174.2937   1.0511372536e+02   6.6000176005e+00    0.1500223    0.1080919 -32.18 0.0006373526    1.582    0.368
       224  -9.4690    175.6339    172.4715   1.1358710181e+02   1.5019125440e+01    0.2582173    0.2205819 -30.50 0.0008161353    1.321    0.243
       225  -8.2556    143.1003    172.7454   1.2021763300e+02   2.0543863585e+01    0.1977091    0.1761335 -83.16 0.0006901938    1.385    0.278
       226  -8.4936    134.8678    171.6679   1.2179366318e+02   2.2103697333e+01    0.2243301    0.1705392 -84.42  0.001037455    1.826    0.452
       227  -9.5577    121.4565    170.6246   1.2454384325e+02   2.4483332335e+01    0.3373716    0.2420529  84.42  0.001170347    1.906    0.475
       228  -9.0302     45.1144    171.0855   1.4183579523e+02   3.4802865226e+01     0.316534    0.1592841  77.18  0.001169682    2.140    0.533
       229  -9.0063    230.5811    170.5234   1.0340825686e+02   6.0548337853e+00    0.2195091    0.1875131  -3.33    0.0011913    1.189    0.159
       230  -8.3566    205.8558    170.5195   1.0761673161e+02   1.0119362039e+01    0.2134313    0.1600937 -48.43  0.000698814    1.881    0.468
       231  -8.3623    237.0968    169.7216   1.0221115296e+02   5.1152652718e+00    0.1866281    0.1510701 -24.22  0.000954645    1.395    0.283
       232  -8.3403    198.3172    170.0761   1.0889142031e+02   1.1457717228e+01    0.1695666    0.1503503  -0.35 0.0005264668    1.144    0.126
       233  -9.2255    167.3236    168.8638   1.1459799736e+02   1.7007661660e+01    0.3189501    0.2273209  64.12  0.001023057    1.956    0.489
       234  -8.5749    149.8702    169.6383   1.1829628616e+02   1.9909571866e+01    0.2239081    0.1744854 -78.11 0.0007794449    1.853    0.460
       235  -8.0078    244.2120    169.2166   1.0100045647e+02   4.0650312239e+00    0.1453151    0.1314407  -3.07 0.0005578044    1.358    0.263
       236  -8.4479    218.8501    168.3407   1.0495777999e+02   8.2243520842e+00    0.1895171    0.1572313 -23.52 0.0005924652    1.331    0.249
       237  -8.7645    111.7540    167.9070   1.2630282562e+02   2.6524859765e+01    0.3425158    0.2007751  65.76  0.001249832    2.296    0.564
       238  -8.1508     88.7845    168.8755   1.3164632019e+02   2.9779011054e+01    0.1792229    0.1283818  66.31  0.001061099    1.391    0.281
       239  -7.8483    211.3547    168.1923   1.0622153141e+02   9.4942075188e+00    0.1605152     0.110825 -38.50 0.0004859727    1.721    0.419
       240  -8.9650    192.0010    166.7231   1.0944344413e+02   1.3009821192e+01    0.2230427    0.2069353 -49.50 0.0007680584    1.432    0.302
       241  -9.0008    185.1026    166.7169   1.1074247606e+02   1.4216074256e+01    0.1918169    0.1752997 -39.87 0.0005561505    1.348    0.258
       242  -9.4308     20.3389    166.1729   1.4706744223e+02   3.8212987905e+01    0.3110205    0.1345164  60.48  0.001283711    2.016    0.504
       243  -9.8303    136.7879    164.4961   1.2023300940e+02   2.3028915831e+01    0.5813738    0.2663312  55.24  0.002155175    2.918    0.657
       244  -9.9877     94.8190    162.7840   1.2946418102e+02   3.0093078098e+01    0.7267771    0.3684683  71.91   0.00274452    3.863    0.741
       245  -8.6702    233.8610    165.0743   1.0186248058e+02   6.1643899828e+00    0.1698583    0.1515795  -8.58 0.0005286702    1.289    0.224
       246  -8.6973    159.3863    164.2444   1.1540041536e+02   1.9135312931e+01    0.2541059    0.2161175  87.63 0.0008814535    1.619    0.382
       247  -9.3665     33.5655    163.5487   1.4389346557e+02   3.7512011346e+01    0.5014518    0.1481115  52.53  0.002173199    3.043    0.671
       248  -8.7961    246.1208    163.0998   9.9562229607e+01   4.4446791733e+00    0.1993421    0.1439743 -22.54 0.0006021697    1.365    0.267
       249  -8.3072    239.8929    164.1825   1.0073447302e+02   5.3030205147e+00    0.1682753     0.148018   6.36 0.0005441985    1.228    0.186
       250  -8.3851    212.9735    163.5710   1.0507528337e+02   9.8149206825e+00    0.2078226    0.1676536 -39.90 0.0006980284    1.564    0.360
       251  -8.5903    204.8595    163.0414   1.0640721593e+02   1.1279949511e+01    0.1771602    0.1684386  16.84 0.0005753934    1.269    0.212
       252  -9.4195      3.3536    162.2429   1.5065182791e+02   4.0379706153e+01    0.3926702    0.1262252  52.54   0.00188365    2.400    0.583
       253  -9.1988    177.5546    160.7819   1.1111173243e+02   1.6438874308e+01    0.2761724    0.2423453  77.57 0.0009804356    1.577    0.366
       254  -8.6866    151.5864    161.0364   1.1646494305e+02   2.1047871226e+01    0.2439758    0.2083571  84.03 0.0009108615    1.523    0.343
       255  -8.4087     60.6876    160.3387   1.3723922937e+02   3.5196168688e+01    0.2098387    0.1330293  83.98  0.000811704    1.641    0.390
       256  -8.4903    227.2909    159.1773   1.0180841926e+02   7.9482096362e+00    0.2108598    0.1566214 -39.69 0.0009136846    1.692    0.409
       257  -8.3768    128.3345    159.1150   1.2121321413e+02   2.5437920871e+01    0.2827677    0.1953712  75.25  0.001096337    2.068    0.516
       258  -9.5824    250.1986    157.7156   9.7914859227e+01   4.4040911775e+00    0.2798551    0.1474936 -25.61 0.0007289491    1.767    0.434
       259  -8.3858    236.9926    159.0140   1.0020673158e+02   6.3661723403e+00     0.152655    0.1183427  -7.13 0.0005445263    1.142    0.124
       260  -9.5677    105.9243    157.9767   1.2618045755e+02   2.9336366260e+01    0.4354455    0.2677908  70.14  0.001113485    2.207    0.547
       261  -8.4913    196.7613    158.0815   1.0693444124e+02   1.3389307926e+01    0.1800052    0.1759936  32.33 0.0007273707    1.299    0.230
       262  -8.2042    188.1022    158.0511   1.0855395022e+02   1.4948439102e+01    0.1816846    0.1620573  81.15 0.0005378848    1.612    0.379
       263  -9.1583    167.6469    157.5253   1.1248798462e+02   1.8740246208e+01    0.2804591    0.2261916  68.72  0.001124372    1.644    0.392
       264  -8.3391    217.9445    156.6102   1.0287917970e+02   9.8601104929e+00    0.2313953    0.1541057 -45.17 0.0008232986    2.011    0.503
       265  -9.2082    157.3725    156.2892   1.1438698333e+02   2.0809907359e+01    0.2674172     0.227606 -71.43 0.0008281175    1.534    0.348
       266  -9.1817    119.6040    155.4073   1.2259104322e+02   2.7606262665e+01    0.3677288    0.2522722  80.34  0.001831143    2.094    0.523
       267  -9.2041     81.8796    155.1698   1.3152474330e+02   3.3489359525e+01    0.4549709    0.2331401  64.66  0.001442278    2.557    0.609
       268  -9.0567     49.4981    155.1555   1.3941108031e+02   3.7577085851e+01    0.3420269    0.1620294  67.63  0.001619501    2.425    0.588
       269  -8.9257    238.3748    150.1403   9.8247648664e+01   7.1877131841e+00    0.3210957    0.1283586  35.75  0.001447178    2.459    0.593
       270  -9.3876    242.8121    154.8480   9.8485499388e+01   5.9053211376e+00     0.172462    0.1493104 -13.22 0.0003374508    1.260    0.206
       271  -7.6602    204.5964    155.5196   1.0500732529e+02   1.2348537206e+01    0.1284079    0.1108551  12.78 0.0001528421    1.033    0.032
       272  -8.3403    144.4789    155.0828   1.1693448802e+02   2.3343080241e+01    0.2183138    0.1741316  61.42  0.001180671    1.397    0.284
       273 -10.0913    133.2204    151.9490   1.1888119427e+02   2.5912067061e+01    0.5824329    0.3672813 -54.86  0.001689614    1.816    0.449
       274  -9.5412     67.7666    153.5846   1.3477361239e+02   3.5713879584e+01    0.4396176    0.2353294  73.25  0.001428464    2.384    0.581
       275  -8.2395    232.7964    153.9941   9.9899303540e+01   7.6576659517e+00    0.1747304    0.1367582 -48.49 0.0005668906    1.887    0.470
       276  -8.2567    151.6215    152.8686   1.1497862095e+02   2.2439532022e+01    0.1787022    0.1282634 -58.94 0.0006750468    1.758    0.431
       277  -9.0277     20.1963    152.4301   1.4626629119e+02   4.1041765088e+01    0.2367922     0.120436  57.91 0.0008532648    1.705    0.414
       278  -9.7699     29.0827    150.3517   1.4397305092e+02   4.0684293317e+01     0.499294    0.2063514  71.52  0.002289163    2.740    0.635
       279  -8.7468      2.8779    150.7744   1.5026602394e+02   4.2744632626e+01    0.2987066    0.1272028 -89.81  0.001645039    2.020    0.505
       280  -9.4844    248.8006    149.3970   9.6498492896e+01   5.5612927229e+00    0.2939816    0.1721881 -24.06 0.0007541258    1.568    0.362
       281  -8.5113    243.1303    150.1834   9.7516824695e+01   6.3948614046e+00    0.2511146    0.1513513 -29.44 0.0008298745    1.622    0.384
       282  -8.8661    189.5065    150.4903   1.0680902216e+02   1.5811918062e+01    0.2394644      0.22944 -75.58 0.0009648682    1.389    0.280
       283  -7.9163    182.4631    151.2305   1.0831684140e+02   1.7005507044e+01    0.1697894    0.1274209 -49.63 0.0004799775    1.663    0.399
       284  -8.6419    162.8089    150.7638   1.1220383398e+02   2.0736866391e+01     0.229656    0.1791485 -78.92 0.0009636134    1.970    0.492
       285  -8.6877     98.2222    150.6449   1.2690726779e+02   3.2000190418e+01    0.2681294    0.1855897  79.86 0.0007873533    1.777    0.437
       286  -8.3767    213.0046    150.0005   1.0242099834e+02   1.1597612187e+01    0.1765929    0.1631001 -74.74 0.0005320869    1.629    0.386
       287  -8.4168    198.8413    149.0484   1.0476853003e+02   1.4299901743e+01    0.1795946    0.1778008   2.03 0.0004207534    1.288    0.224
       288  -9.9129     89.0997    146.1911   1.2848296873e+02   3.4304045356e+01    0.6203967    0.3388363  79.47  0.002468643    3.272    0.694
       289  -8.1771     52.3464    149.2857   1.3811570517e+02   3.8496763129e+01    0.1124354   0.09404919 -30.73 0.0004728637    1.650    0.394
       290  -9.6146     39.7559    147.8437   1.4112363427e+02   4.0173401268e+01     0.460047    0.1927971  61.47  0.001809973    2.604    0.616
       291  -8.9698    233.1245    147.8949   9.8630144425e+01   8.3464961660e+00    0.2117103    0.1604598 -16.55 0.0006138947    1.224    0.183
       292  -8.5236     57.5070    135.4725   1.3517803005e+02   4.0894141984e+01    0.2342463    0.1728106 -18.01 0.0009507702    2.125    0.529
       293  -8.0888    223.4774    146.9089   1.0000812032e+02   1.0145066598e+01    0.1809084    0.1168425 -26.56 0.0004606587    1.512    0.339
       294 -10.2359    149.0760    145.0899   1.1405375169e+02   2.4277478525e+01    0.4991494    0.3607673  85.27  0.001891336    2.291    0.564
       295  -9.8317    139.0846    144.8071   1.1623664494e+02   2.6178460756e+01    0.4399951    0.2896175 -71.96  0.001427228    2.356    0.576
       296 -10.1500    106.6052    144.3044   1.2383999332e+02   3.1949254053e+01    0.6453325    0.3974524  83.61  0.002303766    2.719    0.632
       297  -9.3964     13.5167    146.4241   1.4750207148e+02   4.2856019651e+01    0.3267972    0.1273941  55.01  0.001166624    2.248    0.555
       298  -8.9948    240.3608    145.3112   9.6966315333e+01   7.4315090321e+00    0.2252952    0.1514095 -19.79 0.0005216773    1.364    0.267
       299  -7.8507    206.5526    146.5087   1.0285163795e+02   1.3243149784e+01      0.13072    0.1151979  12.40 0.0001249207    1.051    0.048
       300  -8.3090    175.5479    146.2012   1.0868590042e+02   1.9091618163e+01     0.208191    0.1797316  61.92 0.0006785326    1.395    0.283
       301 -10.7060     68.3510    140.4987   1.3297305298e+02   3.8427779339e+01    0.8065534    0.4842674 -76.64  0.003630316    1.737    0.424
       302  -8.8272    165.5318    144.2029   1.1033995175e+02   2.1323095449e+01    0.2603069    0.2051759  57.20 0.0006457453    1.424    0.298
       303  -9.8334    125.2101    142.9272   1.1910470774e+02   2.9040509405e+01    0.5212018    0.3512956  88.84  0.001691889    2.429    0.588
       304  -9.0610    246.9775    144.0597   9.5702109578e+01   6.4742449556e+00    0.1864528    0.1504688  -2.72 0.0005042658    1.049    0.046
       305  -7.8631    194.3770    144.1758   1.0460458597e+02   1.5841749890e+01    0.1768467    0.1218332 -44.12 0.0005500601    1.709    0.415
       306  -9.4202      2.6871    141.5890   1.4987909293e+02   4.4678022883e+01    0.4056828    0.1542834  80.07  0.001924119    2.443    0.591
       307 -10.3368     54.8434    143.8816   1.3688972174e+02   3.9369442546e+01    0.8778861    0.4217689  82.73  0.003054461    2.888    0.654
       308  -8.6007    181.9625    141.5426   1.0645063682e+02   1.8607686581e+01     0.245007    0.1872014 -51.29 0.0007172004    1.630    0.386
       309  -8.1228    242.6808    143.3211   9.6204111683e+01   7.2781498084e+00    0.1694106    0.1053952 -14.86  0.000945897    1.506    0.336
       310  -9.0937    135.4074    124.2201   1.1290273276e+02   3.0788989383e+01    0.2259283    0.2022485  21.77  0.001268971    1.154    0.133
       311 -10.3037    130.9513    118.7521   1.1277820884e+02   3.2734650670e+01    0.5924299    0.4016223 -78.96    0.0022411    2.377    0.579
       312  -9.5338    136.0265    135.9670   1.1521447850e+02   2.8406018714e+01    0.2527251    0.2037289 -47.71  0.001394744    1.333    0.250
       313 -10.1617    132.1318    131.5449   1.1523849121e+02   2.9989586085e+01    0.5486819     0.319648 -63.47  0.002159791    2.379    0.580
       314  -9.6548     23.5440    138.2258   1.4442171722e+02   4.3789891793e+01    0.4932263    0.1869262  61.01  0.002217537    2.783    0.641
       315  -7.8667    218.5940    138.7746   9.9143583317e+01   1.2092429120e+01    0.1713222    0.1165711 -36.37 0.0005380692    1.579    0.367
       316  -8.5665    172.4057    138.4201   1.0772265810e+02   2.0961728527e+01    0.2696248    0.2051673 -86.49 0.0009002601    2.238    0.553
       317  -8.3515    241.3136    138.3106   9.5382208057e+01   8.1114900286e+00     0.131729   0.08405976  10.98 0.0003004262    1.631    0.387
       318  -8.3929    206.9442    137.8315   1.0097025715e+02   1.4390903455e+01    0.2290486    0.1740328 -59.16   0.00121059    2.008    0.502
       319  -8.4396    197.7000    137.6334   1.0261010197e+02   1.6179265049e+01    0.2448076    0.1726233 -42.57 0.0007997276    1.622    0.383
       320  -8.9374    150.6621    136.4860   1.1197595967e+02   2.5522849703e+01    0.4076553    0.2363794  18.76  0.001597418    2.846    0.649
       321 -10.2755     83.3923    132.8251   1.2787129732e+02   3.8001401083e+01    0.5190899    0.3056619 -77.38  0.001324262    2.040    0.510
       322  -8.2321    162.6986    136.5664   1.0936596907e+02   2.3169855727e+01    0.2088867    0.1703648 -68.62 0.0004367524    1.629    0.386
       323  -8.3372    140.3743    137.1204   1.1443709079e+02   2.7370124183e+01    0.2485156     0.181167  31.84 0.0008759117    1.371    0.271
       324  -8.3040     77.9177    147.1142   1.3142182112e+02   3.5719548129e+01     0.206901    0.1529731  68.75 0.0006240745    1.342    0.255
       325  -9.2963     39.0425    136.0856   1.4017177006e+02   4.2806475993e+01    0.2692169    0.1607313  73.90 0.0007305703    1.662    0.398
       326  -8.7611    248.3392    135.0574   9.3648827499e+01   7.3012667939e+00    0.2486313    0.1612313 -27.86 0.0006692844    1.451    0.311
       327  -8.2651    246.8323    130.7495   9.2965938504e+01   8.0705848103e+00    0.2334654    0.1536182 -32.75 0.0008493352    1.527    0.345
       328  -7.8629    187.8582    135.8027   1.0408257375e+02   1.8362846263e+01    0.1713308    0.1661862 -73.46 0.0005663283    1.299    0.230
       329  -9.1031    113.0623    133.4389   1.2029221739e+02   3.3073831753e+01    0.4056174    0.2667757  76.09  0.001320971    2.252    0.556
       330  -8.6458    179.3593    133.8623   1.0533744245e+02   2.0341428442e+01    0.2423354    0.2073907 -66.27 0.0007968051    1.554    0.357
       331  -7.5534    237.4226    133.5374   9.4979335541e+01   9.3745792306e+00    0.1267738    0.1083068  -1.83 0.0002277827    1.060    0.057
       332  -9.0814    143.1091    131.9372   1.1274073993e+02   2.7819408202e+01     0.316193    0.2361767 -69.73 0.0008319111    1.777    0.437
       333 -10.5921     98.5118    130.8703   1.2354505787e+02   3.6069482654e+01    0.5721726    0.2984986 -63.18  0.001943068    2.145    0.534
       334  -8.7244    250.7431    130.1163   9.2261045852e+01   7.4748771892e+00    0.3586946     0.100787 -25.59  0.001298811    3.603    0.722
       335  -9.4133    152.8694    128.9612   1.0988591967e+02   2.6455094516e+01    0.4230033     0.270856 -61.48 0.0007683323    2.199    0.545
       336  -9.7421     73.3713    129.4966   1.3004200231e+02   4.0167369857e+01     0.445056    0.2536766  79.18  0.001333657    2.510    0.602
       337  -8.4586     25.3006    130.2084   1.4329058584e+02   4.5405090744e+01     0.336181    0.1915931  -1.79  0.001626086    3.280    0.695
       338  -9.9753     12.9453    129.2023   1.4652506958e+02   4.6623613376e+01    0.5022285    0.2209893  75.49  0.002501145    2.259    0.557
       339  -7.8170    204.5399    130.4909   9.9811097994e+01   1.5905048341e+01    0.1348854    0.1220366   8.32 6.699075e-05    1.048    0.046
       340  -7.8011    192.8021    130.3395   1.0194386519e+02   1.8232731704e+01    0.1800665    0.1640631 -22.04 0.0003883689    1.152    0.132
       341  -8.9993    168.3571    129.5337   1.0665024565e+02   2.3255385982e+01    0.3147651    0.2456116  73.09  0.001017888    1.757    0.431
       342  -8.0977      1.6695    130.3479   1.4955799156e+02   4.7154781150e+01    0.1856271   0.09528574  61.13   0.00108547    1.702    0.412
       343  -8.0378    211.4362    129.2334   9.8314420152e+01   1.4750152339e+01    0.1793985    0.1209275 -39.86 0.0004670671    1.627    0.386
       344 -10.2480     60.0865    125.2355   1.3308238410e+02   4.2868228547e+01    0.6885577    0.3465955  71.09   0.00234628    2.924    0.658
       345 -10.6612     44.8699    123.6244   1.3716642868e+02   4.4996234519e+01     1.046118    0.4550846  72.33  0.003896191    3.742    0.733
       346  -9.7631    117.8303    125.2537   1.1746944329e+02   3.3902597699e+01     0.492184    0.3281395  78.53  0.001354827    2.340    0.573
       347  -8.3001    228.4174    125.6688   9.4694989578e+01   1.2013503600e+01    0.2378282    0.1140075 -33.51 0.0008988635    2.004    0.501
       348 -10.5686     28.3546    121.6098   1.4163201846e+02   4.7071901330e+01    0.9354109    0.3913963  75.80  0.003863178    3.140    0.681
       349  -8.9966    179.1753    124.8030   1.0336237145e+02   2.1853747834e+01    0.3238797     0.238708  61.21  0.001039451    1.648    0.393
       350  -7.9461    188.4355    124.2109   1.0140229168e+02   2.0061086128e+01    0.1875107    0.1300023 -44.34 0.0006489596    1.617    0.381
       351  -8.4775     84.7311    122.9468   1.2582233292e+02   3.9968443066e+01    0.3065692    0.1900663   4.29  0.001182289    3.525    0.716
       352  -7.6745    203.2187    122.4022   9.8234186496e+01   1.7349978114e+01    0.1771904    0.1306877  57.96 0.0004348557    1.620    0.383
       353  -8.0523    195.1673    122.2006   9.9663662021e+01   1.9004848806e+01    0.1810044    0.1652447 -57.32 0.0004190219    1.361    0.265
       354  -8.7237    171.9878    121.5140   1.0407821162e+02   2.3879717496e+01    0.2451624    0.1957649 -52.60 0.0004617562    1.470    0.320
       355  -9.0732    158.6669    121.5474   1.0693879059e+02   2.6621910409e+01    0.2791326    0.2361575 -78.33 0.0007208952    1.536    0.349
       356  -8.4644    100.2234    120.1713   1.2105236957e+02   3.8079499807e+01    0.4830093    0.2468019  20.22  0.001590286    4.165    0.760
       357  -9.6009     71.1276    119.6375   1.2907454740e+02   4.2686849090e+01    0.4502748    0.2304331 -76.08  0.001440114    2.378    0.579
       358  -7.9239    245.4321    120.4623   9.0955138496e+01   9.5607793508e+00    0.1290826    0.1071179  -2.47 2.419781e-05    1.012    0.012
       359  -9.7583    141.4320    118.2856   1.1013310529e+02   3.0741841236e+01    0.5296621    0.2970402 -55.00  0.001808383    2.164    0.538
       360  -9.5442      3.1325    117.4572   1.4840826563e+02   4.9900679015e+01    0.4657836    0.1704198  66.96  0.002111988    2.828    0.646
       361  -9.8287    109.2418    114.3423   1.1739755855e+02   3.7746446878e+01    0.5011932    0.3399677 -83.03  0.001327791    2.148    0.534
       362  -8.9222    109.6906    107.5346   1.1574347746e+02   3.9112969632e+01     0.386374    0.2530607  10.57  0.001565933    2.676    0.626
       363 -10.2560    246.6225    114.7678   8.9527356448e+01   1.0042099756e+01    0.3910761    0.2338245  47.31 0.0008005192    1.785    0.440
       364  -8.0480    153.4411    115.9192   1.0679383794e+02   2.8723310228e+01    0.1917825    0.1265196 -66.24 0.0007015544    2.327    0.570
       365  -8.6111     59.2533    115.5606   1.3185947867e+02   4.5177800212e+01    0.3169728    0.1861953  14.09  0.001448222    2.605    0.616
       366  -8.0381    193.0384    115.3354   9.8459206852e+01   2.0501433186e+01    0.1913268    0.1730954  34.36 0.0004293275    1.106    0.096
       367  -9.9692     78.7288    112.4761   1.2559145358e+02   4.3217702482e+01    0.5562455    0.3550919  81.73   0.00189434    2.150    0.535
       368  -8.7343     78.8231    105.2332   1.2413075813e+02   4.4847533876e+01    0.3119562    0.2243378  -0.13  0.001159914    2.164    0.538
       369  -7.8233    167.4412    114.4919   1.0337882593e+02   2.6036505258e+01    0.1427367    0.1368141  18.79 0.0001088827    1.035    0.034
       370  -9.9679     92.7047    112.4740   1.2156712718e+02   4.1020851563e+01    0.4693912    0.3052872 -76.66  0.001307241    1.928    0.481
       371  -8.7010     93.1873    105.1973   1.1986942365e+02   4.2551343808e+01    0.3085225    0.2134266 -16.59  0.001369068    2.335    0.572
       372  -8.9766    159.3417    112.2203   1.0458575797e+02   2.8155044034e+01    0.3051774    0.2376326 -57.17 0.0008289436    1.522    0.343
       373  -9.9129    133.7333    109.2851   1.0988056194e+02   3.4057379809e+01    0.6363339    0.2955356 -51.25  0.001852366    2.423    0.587
       374 -10.0692    121.6649    112.1379   1.1362025258e+02   3.5879207884e+01    0.4246899    0.3032928 -76.29 0.0009522476    1.910    0.477
       375  -9.9229     14.3975    111.2872   1.4469650448e+02   5.0546622806e+01    0.3985134    0.1914359  67.43  0.001346719    2.140    0.533
       376  -8.5689    174.7578    111.8730   1.0121604101e+02   2.4927368574e+01    0.2596654    0.1920525 -53.45  0.000728751    1.625    0.385
       377  -9.4445     66.3689    110.6489   1.2891676495e+02   4.5386713099e+01    0.3375022    0.2346507  77.11  0.001036831    1.641    0.391
       378  -9.1102     66.4716    106.0037   1.2804099721e+02   4.6443799437e+01    0.3267122    0.2215193 -10.37  0.001509518    2.519    0.603
       379  -8.1594    149.6601    109.8598   1.0619920750e+02   3.0637914392e+01     0.203353    0.1342007 -50.01 0.0004777987    1.666    0.400
       380  -9.3174    248.6965    108.2018   8.7766585827e+01   1.0464711731e+01    0.3170723    0.1971067  18.64  0.001501768    1.827    0.453
       381  -7.7604    182.7705    109.4006   9.8999919431e+01   2.3618965998e+01     0.141509    0.1087141 -58.00 0.0003459678    1.658    0.397
       382  -8.7080     43.7702    109.3226   1.3557712838e+02   4.8408853434e+01    0.2545221    0.1655303  19.31  0.001372565    1.919    0.479
       383  -8.0718    189.2242    108.2118   9.7458856809e+01   2.2424339486e+01    0.1887274    0.1666503 -56.85 0.0005445714    1.354    0.261
       384  -9.0991    139.8756    104.6924   1.0723638372e+02   3.3683899656e+01    0.3371812    0.2688977  84.27 0.0008219891    1.651    0.394
       385 -10.4325     45.6673    102.5102   1.3395488821e+02   4.9798544515e+01    0.7299039    0.3558265  67.76  0.002961018    3.036    0.671
       386 -10.6036     23.0806    102.8675   1.4118515216e+02   5.1836813588e+01    0.7522223    0.3288484  67.78  0.002827996    2.891    0.654
       387  -7.0847    205.3089    105.6249   9.3898275710e+01   1.9396099150e+01    0.1413198    0.1090056 -61.41 0.0004623141    1.778    0.438
       388  -8.5586    166.8696    104.3923   1.0100435291e+02   2.7915683313e+01    0.2664976    0.1991083 -52.39  0.000694774    1.540    0.351
       389  -9.4037    150.6660    103.3626   1.0433929730e+02   3.1632476047e+01    0.4389861    0.2855158 -63.77  0.001161186    2.239    0.553
       390  -8.1287    150.7038     96.1218   1.0243812415e+02   3.2964007710e+01    0.4373409    0.2375026 -13.60  0.001310728    4.346    0.770
       391 -10.3534    108.8521     98.8709   1.1389564425e+02   4.1117169717e+01    0.8713598    0.4858023  68.86  0.001610264    3.649    0.726
       392  -8.9845    108.2482     92.4618   1.1243019889e+02   4.2596686131e+01    0.4697739    0.2966959  23.23   0.00198523    2.192    0.544
       393  -8.8958      6.8970    103.0972   1.4625428289e+02   5.2921912819e+01    0.2792449    0.1419781  62.70  0.001160261    1.944    0.486
       394  -8.7837    249.8109    102.5382   8.6330343516e+01   1.0947356767e+01    0.2741695    0.1108958 -19.25  0.001096069    2.705    0.630
       395 -10.0527    128.6441    101.4064   1.0921301860e+02   3.6670099122e+01     0.546382    0.3337852 -37.63  0.002246699    1.747    0.427
       396  -7.9269    175.7117    102.5326   9.8690846840e+01   2.6289203817e+01    0.1884188    0.1424818  60.42 0.0005606716    1.489    0.329
       397  -8.3422    159.8638    101.2728   1.0172307391e+02   3.0004754963e+01    0.2555085    0.1952246 -48.39 0.0006157284    1.414    0.293
       398  -8.3563    192.0097    101.0547   9.5149847415e+01   2.2944712280e+01     0.226054    0.1765003 -65.16  0.001091681    1.738    0.425
       399  -9.1429     82.1769    100.1013   1.2202218733e+02   4.5494546785e+01     0.340657    0.2310625 -81.12 0.0009657096    1.825    0.452
       400  -9.0697     95.0506     97.0992   1.1744836219e+02   4.4022402905e+01    0.3045885    0.2206809 -69.55 0.0005294706    1.546    0.353
       401  -9.9763     63.9527     95.8908   1.2686467861e+02   4.9129718386e+01    0.5136696    0.3062216  86.74  0.001625488    2.458    0.593
       402  -8.3076    249.2457     95.4292   8.4770300562e+01   1.1916560280e+01     0.158352    0.1299246  70.67 0.0009445649    1.631    0.387
       403  -8.3111    164.9495     94.4297   9.8813484494e+01   3.0075494288e+01    0.2745931    0.1971137 -50.93 0.0006535573    1.569    0.363
       404  -8.3090    176.5305     93.4308   9.6150475308e+01   2.7620208919e+01    0.2892451    0.1950424 -51.37 0.0007814583    1.741    0.426
       405 -10.2673    124.2244     90.7305   1.0755493172e+02   3.9736923821e+01    0.8226662    0.6060078 -14.20  0.002486897    1.798    0.444
       406  -9.1803     46.1379     92.7545   1.3215644043e+02   5.2043822697e+01    0.4245683    0.2300231  11.74  0.001875748    2.873    0.652
       407  -9.3498    139.1405     92.4620   1.0420935710e+02   3.6199159251e+01    0.3913677    0.2859787 -81.24 0.0007765193    2.066    0.516
       408  -9.4692      5.5362     92.3955   1.4575025566e+02   5.5471806711e+01    0.3783805    0.1449703  49.51  0.001692492    2.712    0.631
       409  -7.8512    157.6355     91.7905   9.9694093204e+01   3.2195694324e+01    0.2083806    0.1362222 -46.59 0.0005154407    1.630    0.387
       410  -9.4125     34.8940     90.0825   1.3553136172e+02   5.3822429604e+01    0.4386842    0.2275904  80.94  0.001518407    2.586    0.613
       411  -8.9136     23.0687     90.0845   1.3959358340e+02   5.4838408736e+01     0.237141     0.215456 -58.57 0.0009150461    1.174    0.148
       412  -8.1416    150.9740     89.2857   1.0051200491e+02   3.4156600762e+01    0.2066902    0.1995743  33.00 0.0005104452    1.024    0.024
       413  -9.9798     86.4641     86.2721   1.1738308135e+02   4.7906375723e+01    0.6072286    0.3724607 -65.60   0.00160633    1.876    0.467
       414  -8.4677     64.5317     87.9923   1.2498744974e+02   5.0887376325e+01    0.3294866     0.222058  -3.36  0.001512556    2.422    0.587
       415  -7.7990    164.0000     87.0377   9.6995132266e+01   3.1570731912e+01    0.2394438   0.08472643 -35.72 0.0004191825    2.832    0.647
       416  -9.7463     48.4565     83.8303   1.2964795371e+02   5.3889086345e+01    0.6178362    0.3560398 -87.14  0.002298346    2.243    0.554
       417  -8.2365    157.8978     84.1113   9.7493358104e+01   3.3492768186e+01    0.2201548    0.2027346 -67.25 0.0003498216    1.213    0.176
       418  -9.2866    140.7259     82.5887   1.0103800571e+02   3.7715096387e+01    0.3737534    0.2497467 -48.58   0.00090452    1.590    0.371
       419  -9.6719    104.6237     83.0393   1.1092460354e+02   4.5296575062e+01    0.4321926    0.2949294 -65.04  0.001028942    1.775    0.437
       420  -8.5894    105.4700     77.1776   1.0897766766e+02   4.6358659625e+01    0.2860222     0.211052  24.52  0.000760023    1.610    0.379
       421  -9.7036     24.6011     80.4193   1.3764038177e+02   5.7003664185e+01    0.5161099     0.247901  83.82  0.001397227    2.760    0.638
       422  -9.3668     10.1273     81.3299   1.4301388698e+02   5.7789320687e+01    0.4147629    0.1706798  58.31  0.001348604    2.963    0.662
       423  -8.3757     36.3434     82.3120   1.3368970067e+02   5.5524885792e+01    0.1332887   0.08853409 -38.62 6.850059e-05    1.704    0.413
       424  -8.3118    150.1934     80.7888   9.8269749061e+01   3.5870790672e+01    0.2671225    0.1964129 -48.45  0.000751879    1.447    0.309
       425  -8.6918    119.3114     80.4768   1.0598020396e+02   4.2834676919e+01    0.3372883    0.2380285 -62.40  0.001028135    1.719    0.418
       426  -8.8436     74.5908     80.5267   1.1978822593e+02   5.1129382189e+01    0.3193898    0.2169654 -76.56  0.001098059    1.811    0.448
       427  -8.1492    166.8062     79.8217   9.4361570210e+01   3.2138086266e+01     0.216596    0.1976022   4.24 0.0004019065    1.113    0.101
       428  -9.0064    184.0115     78.4805   9.0614684415e+01   2.8285216534e+01    0.2341358     0.193838 -25.43 0.0005711863    1.182    0.154
       429  -9.8502     63.3962     73.6293   1.2190830971e+02   5.4360005852e+01    0.4822159    0.2656766 -69.84  0.001504997    2.183    0.542
       430  -7.5575    174.5597     78.5303   9.2428384463e+01   3.0513238181e+01    0.1480066    0.1429609  -3.78 0.0001467927    1.012    0.012
       431  -9.2532    128.0849     75.3904   1.0209134674e+02   4.1921802006e+01    0.3740718    0.2428005 -54.54 0.0006760562    1.771    0.435
       432  -9.2574     65.3303     77.6763   1.2225850029e+02   5.3158765758e+01    0.2694904    0.2279698 -83.96  0.001101287    1.253    0.202
       433  -8.0790    157.3598     76.2476   9.5325487142e+01   3.4982709252e+01    0.2216404     0.134569 -44.47 0.0006673083    1.717    0.417
       434  -8.6504    140.3598     75.4465   9.9004856081e+01   3.9118531707e+01    0.2855518    0.1832173 -42.80 0.0006671473    1.576    0.365
       435  -9.6469     82.5305     72.9506   1.1502051534e+02   5.1524450707e+01    0.4214046    0.2869926 -76.04  0.001179238    2.009    0.502
       436  -8.4193    163.3771     73.4842   9.3219738275e+01   3.4010408877e+01    0.2868847     0.175055 -38.07 0.0008707963    1.625    0.384
       437  -8.8707    115.6016     72.7315   1.0467680131e+02   4.5168356767e+01    0.3476103    0.1771739 -45.20  0.001036081    1.962    0.490
       438  -7.9170     42.5188     73.0430   1.2953788001e+02   5.7085571972e+01    0.2018993    0.1183842 -66.84 0.0005341031    1.560    0.359
       439  -7.7010    175.4856     72.5340   9.0517181021e+01   3.1247062916e+01    0.1483358    0.1441526  -1.60 0.0001342477    1.011    0.011
       440  -8.7493    105.8762     71.7004   1.0719230492e+02   4.7404754202e+01    0.2760373    0.2097977 -51.83 0.0005181814    1.341    0.254
       441  -9.1640     95.0883     71.1385   1.1035638478e+02   4.9645159661e+01    0.3522282    0.2472261 -67.32 0.0007984428    1.773    0.436
       442  -9.3703     51.4440     69.8467   1.2537992021e+02   5.6806533182e+01     0.426274    0.2542548 -83.62  0.001309274    2.337    0.572
       443  -8.9812     28.6427     70.6778   1.3441429490e+02   5.8976884007e+01    0.2812665    0.1737065 -21.90   0.00103708    2.223    0.550
       444  -8.1463     32.0247     67.7731   1.3249495425e+02   5.9363715279e+01    0.2092727    0.1697762 -55.65 0.0008624031    1.110    0.099
       445  -8.9564     16.6521     70.1463   1.3902487223e+02   6.0012688699e+01     0.271006    0.1704904  77.26 0.0009969993    1.734    0.423
       446  -8.6488    147.0692     68.2181   9.5182705399e+01   3.8823742712e+01    0.3155409    0.2084454 -40.54 0.0004423641    1.519    0.342
       447  -8.6463    138.6498     66.2673   9.6554772392e+01   4.1171879276e+01    0.3526043    0.2037924 -53.70  0.000936244    2.149    0.535
       448  -8.8109    121.6176     66.1644   1.0091059661e+02   4.5122750635e+01    0.3255813    0.2336694 -61.60 0.0007695602    1.719    0.418
       449  -8.3461    151.3887     73.2440   9.5749489711e+01   3.6920787451e+01    0.2122147    0.1389188 -44.95 0.0004932293    1.588    0.370
       450  -9.0160    109.9687     63.5353   1.0334551642e+02   4.8178630656e+01    0.3635844    0.2056626 -47.58 0.0007408436    1.817    0.450
       451  -8.3242     83.3214     65.3296   1.1244347038e+02   5.3036924123e+01    0.1473883    0.1116835 -13.26 0.0007048846    1.693    0.409
       452  -8.7355     64.5838     63.5965   1.1867020440e+02   5.6456250992e+01    0.4469229     0.274545  -7.51  0.001754391    3.199    0.687
       453  -8.7855     37.3484     64.2891   1.2957825095e+02   5.9671163610e+01    0.3101694    0.1835924  75.88  0.001098688    2.558    0.609
       454  -8.2943    158.2549     62.0200   9.0771130100e+01   3.7133180476e+01     0.213323    0.1906265 -34.56 0.0003328078    1.117    0.105
       455  -9.2673     97.4280     60.9048   1.0631030869e+02   5.1295006267e+01    0.3048806    0.2410555  62.29 0.0009146072    1.465    0.317
       456  -9.5464     73.4344     59.6402   1.1414038331e+02   5.5943184231e+01    0.3877161    0.2577031 -63.89  0.001044728    1.730    0.422
       457  -7.9108     19.9586     62.0000   1.3626771444e+02   6.1701420147e+01    0.1779597   0.07252807  19.94  0.000742902    2.922    0.658
       458  -8.3244    146.9729     59.3168   9.2347649063e+01   4.0354225151e+01    0.2102462    0.1991956  50.80 0.0004292373    1.063    0.059
       459  -8.2316     88.9925     59.3515   1.0855501895e+02   5.3251067500e+01    0.1943643    0.1925798 -35.92 0.0005686073    1.047    0.045
       460  -9.8143     23.4695     56.4625   1.3363569776e+02   6.2733714842e+01    0.4458773    0.2450723  79.62  0.002027324    2.685    0.628
       461  -9.5135      7.6296     57.4847   1.4070140434e+02   6.3520569163e+01    0.3401827    0.1939854  73.04  0.001067596    2.051    0.513
       462  -8.1503    130.9093     57.9649   9.5730103628e+01   4.4468207302e+01     0.236396    0.1842389 -69.81 0.0005367058    1.628    0.386
       463  -7.5803    174.3603     57.3183   8.6153222803e+01   3.3847514168e+01    0.1622028    0.1117801  24.70 4.911933e-05    1.764    0.433
       464  -9.2219    119.1427     55.2412   9.7888372183e+01   4.7697339748e+01    0.5566297    0.2426472 -43.44  0.001602383    2.338    0.572
       465  -9.5475     54.4037     55.7724   1.2029522713e+02   5.9628604733e+01    0.3523503    0.2408109 -73.06  0.001106451    1.739    0.425
       466  -8.0881    140.0093     56.1251   9.2886385144e+01   4.2589678990e+01    0.2389245    0.1815242 -67.78 0.0005877442    1.671    0.402
       467  -8.7626     44.1460     55.6300   1.2451405737e+02   6.0935024870e+01    0.2669456    0.1943267 -89.20 0.0009809367    1.734    0.423
       468  -7.8741    197.6498     53.7854   8.1235302813e+01   2.8571103877e+01    0.2046067    0.1247254 -35.88 0.0004399393    1.557    0.358
       469  -8.4689    105.9451     53.4655   1.0105959499e+02   5.0964011512e+01    0.2774338    0.2025065 -57.63 0.0006933217    1.599    0.375
       470  -9.5155     92.3555     50.6554   1.0435012353e+02   5.4327657090e+01    0.4349089    0.2435295 -51.93  0.001281523    1.991    0.498
       471  -7.6103    149.6957     49.2976   8.8398766169e+01   4.1274499975e+01    0.1529166    0.1180147 -67.42 0.0002473419    1.585    0.369
       472  -8.3033    144.7410     48.9887   8.9365652107e+01   4.2569323910e+01    0.2202228    0.1882287 -30.52 0.0004379233    1.168    0.144
       473  -8.1663    129.8692     49.1726   9.2920583601e+01   4.6212376383e+01    0.2302028    0.2040735 -60.97 0.0004835539    1.246    0.197
       474  -8.7380    120.8514     47.5032   9.4639172817e+01   4.8649009391e+01    0.2640006    0.2047291 -33.40 0.0004425294    1.279    0.218
       475  -8.4000    112.2676     46.9354   9.6797727775e+01   5.0738271542e+01    0.2724298    0.2155914 -62.12 0.0006556755    1.517    0.341
       476  -8.7504     81.9896     46.5998   1.0642397446e+02   5.7122702374e+01     0.264537    0.1993017 -51.72 0.0005856907    1.375    0.273
       477  -8.5907     44.9368     44.7091   1.2079427132e+02   6.3273797051e+01    0.2474766    0.1795635 -63.89 0.0005934731    1.400    0.286
       478  -9.2668     16.7025     44.5538   1.3400529664e+02   6.5976085490e+01    0.2836676    0.1513525 -77.94 0.0006814421    1.935    0.483
       479  -8.8032    132.7906     43.3013   9.0080786704e+01   4.6439301871e+01    0.3493289    0.2137871 -52.23 0.0009396541    1.958    0.489
       480  -9.0226     58.2801     42.9285   1.1432566719e+02   6.1852074619e+01    0.3233385    0.2008827 -62.29 0.0009656511    1.905    0.475
       481  -8.3104     32.5141     44.4668   1.2643598892e+02   6.4689717175e+01    0.2104121    0.1240716   3.98  0.001027841    2.360    0.576
       482  -9.5609      5.2324     41.8919   1.3901238675e+02   6.7246191410e+01    0.4346852    0.1952213 -89.19  0.001947865    2.756    0.637
       483  -8.3621     92.7202     42.4693   1.0110144445e+02   5.5788488133e+01    0.2556769    0.1763669 -15.04 0.0009816925    1.783    0.439
       484  -9.3866     69.4660     41.3017   1.0910872867e+02   6.0401611366e+01    0.4687817    0.2603879 -58.38  0.001395759    2.309    0.567
       485  -8.7475    105.9242     41.4445   9.6538733175e+01   5.3120248677e+01    0.2773901    0.1954668 -49.90 0.0005209326    1.563    0.360
       486  -8.1711    140.3570     41.2696   8.7604524490e+01   4.4852124205e+01    0.2154586    0.1340692 -39.44  0.000657589    1.620    0.383
       487  -8.3666     36.9058     41.0857   1.2329663647e+02   6.4987768027e+01    0.1898128     0.167486 -84.26 0.0005013524    1.303    0.233
       488  -8.8043     95.6340     37.9774   9.8337826904e+01   5.5972989866e+01    0.3695062    0.1651047 -40.54  0.001274488    2.191    0.544
       489  -8.3983    133.6179     36.7320   8.7446990260e+01   4.7226027827e+01     0.215559    0.1348811 -39.52   0.00094265    1.620    0.383
       490  -7.9835     80.8153     36.8321   1.0296118444e+02   5.9192940630e+01    0.1924784    0.1647011 -59.48 0.0004492837    1.351    0.260
       491  -8.0051    125.9635     35.6664   8.8850974306e+01   4.9297079909e+01    0.2041739    0.1876746  58.21 0.0003541014    1.112    0.100
       492  -8.4642    111.8542     34.5911   9.2094054565e+01   5.2875897864e+01    0.2950085    0.1783355 -48.51  0.000785224    1.893    0.472
       493  -8.7236    119.3052     33.3088   8.9590369665e+01   5.1285167640e+01    0.3329308    0.2072942 -46.99  0.000708957    1.784    0.439
       494  -8.9451     48.3876     33.3928   1.1503950956e+02   6.5218520806e+01    0.2715909    0.2093409 -65.35 0.0007130048    1.517    0.341
       495  -8.8932     60.5737     32.6877   1.0926072686e+02   6.3551523409e+01    0.2509634    0.2146581 -60.25 0.0005697781    1.343    0.255
       496  -8.9461     72.0537     31.2647   1.0390132935e+02   6.1847780889e+01    0.2412302    0.1869781 -60.66 0.0006896916    1.610    0.379
       497  -7.6169    139.2848     31.6409   8.4281956757e+01   4.6500256606e+01    0.1571614    0.1122879 -58.91 0.0007020389    1.677    0.404
       498  -9.2146     12.8776     30.2879   1.3220733287e+02   6.9440551696e+01    0.3324099    0.1625267 -73.60   0.00130969    2.124    0.529
       499  -8.1864     42.1427     30.1417   1.1672205719e+02   6.6697020095e+01    0.1677294    0.1511781 -71.59 0.0003898847    1.314    0.239
       500  -8.3872    101.4530     28.8724   9.2690769159e+01   5.6174960431e+01    0.2702464    0.1340966 -36.85 0.0007391362    1.977    0.494
       501  -7.9773    109.7772     27.4157   8.9685764939e+01   5.4451621373e+01    0.2731295    0.1640204 -39.48 0.0008690543    1.700    0.412
       502  -8.7601     81.4551     27.5758   9.8695441003e+01   6.0684134919e+01    0.2799742    0.2205227 -57.96 0.0007607936    1.566    0.361
       503  -8.7058      3.5678     27.4272   1.3663069427e+02   7.0588662310e+01    0.2450392    0.1612635  75.97 0.0009452286    1.937    0.484
       504  -8.7456     91.7945     26.4731   9.4646525402e+01   5.8697757919e+01    0.3057583    0.1933201 -41.34 0.0005945975    1.621    0.383
       505  -8.4166    104.3103     22.9959   8.9287011184e+01   5.6379622723e+01    0.2017367    0.1813809 -24.89 0.0004934882    1.111    0.100
       506  -8.9249     63.6416     21.3423   1.0274828310e+02   6.5100094225e+01    0.2926445    0.2120183 -50.86 0.0008714353    1.576    0.365
       507  -8.9139     48.3663     21.8798   1.1000465056e+02   6.7466738535e+01    0.2189353     0.213395 -70.36 0.0006154281    1.279    0.218
       508  -8.4199     19.7551     21.4728   1.2532431900e+02   7.0839098840e+01    0.2184622    0.1377584 -66.62 0.0007673096    1.645    0.392
       509  -9.3821    243.0197    246.6324   1.1340826814e+02  -3.1223967221e+00    0.3134757    0.1658242 -12.44  0.001795431    2.022    0.505
       510  -8.1870    120.7787     21.0653   8.4200629167e+01   5.2622342623e+01    0.1962374    0.1188446 -27.27 0.0008533886    1.656    0.396
       511  -8.9670     74.0640     19.3502   9.7548090549e+01   6.3484578570e+01    0.3258058    0.1946908 -48.09 0.0008010695    1.960    0.490
       512  -8.2504     88.0984     17.9000   9.1859162123e+01   6.0786262320e+01    0.2059863    0.1875737 -47.59 0.0004498251    1.241    0.194
       513  -7.8065     39.0008     18.5432   1.1319585946e+02   6.9380460451e+01     0.171126    0.1246567  29.61 0.0004938785    1.504    0.335
       514  -7.8545    112.6503     16.8487   8.4348198089e+01   5.5183495303e+01    0.1997404    0.1264653 -36.49 0.0002258461    1.615    0.381
       515  -8.0583     30.0503     16.2845   1.1708717067e+02   7.0889807337e+01    0.1702049     0.151101 -30.84 0.0005753738    1.079    0.073
       516  -8.2421    145.8172     20.8443   7.8917806570e+01   4.6163702183e+01    0.2013675     0.169456 -58.21 0.0003342427    1.289    0.224
       517  -8.3976    156.4821     15.2392   7.5038604479e+01   4.3953828598e+01    0.2147114    0.1269226 -38.05 0.0009457039    1.698    0.411
       518  -7.8758    191.3787    249.6939   1.2181288711e+02   3.1763405132e+00   0.09932726   0.06770065  49.31 0.0001791429    1.780    0.438
       519  -9.3625    176.0546    246.6682   1.2397378556e+02   5.5251603963e+00    0.3818938    0.2602977 -19.27  0.002050053    1.920    0.479
       520  -8.5019    156.4428    248.5239   1.2745857944e+02   7.9521123837e+00    0.1760767    0.1216252  62.03 0.0009587188    2.021    0.505
       521  -8.7713    132.3841    248.0738   1.3150826115e+02   1.1200576744e+01    0.2050112    0.1403648  65.42 0.0007427523    1.853    0.460
       522  -7.8574    113.3178    248.7990   1.3484829949e+02   1.3578937437e+01    0.1545125   0.09380912 -78.27  0.001043245    2.548    0.608
       523  -7.8911    119.5276     11.4547   8.0367960080e+01   5.4092076473e+01    0.1446498    0.1369441  33.64 0.0002698562    1.004    0.004
       524  -9.2608    103.7611    246.9111   1.3634473869e+02   1.5034934300e+01    0.3180366    0.1832329  84.84  0.001990557    2.807    0.644
       525  -8.7540    232.6452    247.4054   1.1506305184e+02  -1.9130111753e+00    0.1800045    0.1432276  11.65 0.0008300917    1.294    0.227
       526  -8.5790    235.2793    243.4434   1.1414287772e+02  -1.9095411492e+00    0.2146337    0.0888254  27.79  0.001294901    1.895    0.472
       527  -8.5028    218.6165    247.5624   1.1723334059e+02  -1.6131939517e-01    0.2006966   0.09031575 -25.39  0.001194347    2.741    0.635
       528 -10.0242    223.8856    244.2343   1.1598942471e+02  -5.3991163723e-01    0.3407511    0.1940357 -38.01  0.002359879    2.580    0.612
       529  -8.9398    147.1389    246.0347   1.2878240869e+02   9.4867853700e+00    0.2304234    0.1322887  60.33  0.001235298    2.548    0.608
