#   1 NUMBER                 Running object number                                     
#   2 MAG_AUTO               Kron-like elliptical aperture magnitude                    [mag]
#   3 X_IMAGE                Object position along x                                    [pixel]
#   4 Y_IMAGE                Object position along y                                    [pixel]
#   5 X_WORLD                Barycenter position along world x axis                     [deg]
#   6 Y_WORLD                Barycenter position along world y axis                     [deg]
#   7 A_WORLD                Profile RMS along major axis (world units)                 [deg]
#   8 B_WORLD                Profile RMS along minor axis (world units)                 [deg]
#   9 THETA_WORLD            Position angle (CCW/world-x)                               [deg]
#  10 FWHM_WORLD             FWHM assuming a gaussian core                              [deg]
#  11 ELONGATION             A_IMAGE/B_IMAGE                                           
#  12 ELLIPTICITY            1 - B_IMAGE/A_IMAGE                                       
         1 -12.3975    200.3532     33.7972   4.9405814672e+01   2.9932613563e+01     1.414494    0.9734634  29.80  0.005632878    1.689    0.408
         2 -12.1378    214.5177     18.7924   4.3237766916e+01   2.7858387978e+01    0.8487793    0.8314531 -35.83   0.00316071    1.043    0.041
         3  -9.8896     32.8915     22.1299   9.1275504286e+01   6.9896060595e+01    0.5693647    0.0811244 -56.00  0.001343079    7.696    0.870
         4  -9.0927     32.6469      3.6064   8.1868334408e+01   7.3501015390e+01    0.3199099    0.1039848 -48.90   0.00125763    2.957    0.662
         5  -9.6608     20.5679      2.3120   8.8721669960e+01   7.5174561316e+01    0.2717639    0.1528841 -19.17  0.001341223    2.549    0.608
         6 -11.7832    124.6070    227.9035   1.0341611930e+02   1.6617564808e+01    0.8735301    0.4120918  62.82  0.004595291    3.037    0.671
         7 -11.6424     51.7141    246.0015   1.1665614984e+02   2.3362244481e+01       1.2157    0.5402442 -54.34  0.007448477    4.315    0.768
         8 -10.9241     65.0763    239.0217   1.1416296710e+02   2.2803356417e+01    0.4468471    0.2422928  39.75 0.0009966568    1.514    0.340
         9 -13.2714     94.0859    247.6940   1.1000119753e+02   1.8164721776e+01     2.412966    0.5996614  37.32   0.01103867    3.607    0.723
        10 -11.3918     72.4849    248.2092   1.1347270253e+02   2.0714096619e+01    0.7722284    0.2731974  49.69  0.004941803    1.842    0.457
        11 -10.9506     63.3754    249.8098   1.1499578588e+02   2.1556639826e+01    0.7040968    0.2390185  51.93  0.004216569    1.954    0.488
        12 -13.0231     46.4271    219.5035   1.1627912815e+02   2.7746326137e+01     1.265082     1.139572  87.14  0.006119906    1.506    0.336
        13 -12.1455     41.8776    208.3178   1.1651611211e+02   2.9995424781e+01    0.6538115    0.5777943 -28.01 0.0009026223    2.098    0.523
        14 -13.5846     51.5874    197.8154   1.1412180919e+02   3.0625264748e+01     2.857807    0.8893299  56.60   0.01415359    2.741    0.635
        15  -8.4293     71.9665    230.4848   1.1252462952e+02   2.3173725935e+01    0.1544695   0.07131253  43.11 0.0007855185    1.548    0.354
        16 -10.0380    164.8638    222.0980   9.6097533653e+01   1.1480899574e+01    0.4372011    0.2365923  62.60  0.002301611    3.124    0.680
        17  -8.9981    183.7486    215.9949   9.2277117022e+01   9.3166328851e+00    0.1157983    0.0935221 -27.53 0.0008954907    1.605    0.377
        18  -9.0696    178.1939    218.5748   9.3500077566e+01   9.8773992098e+00    0.1631103   0.08588138 -43.94  0.001023229    2.628    0.619
        19 -15.6150      8.0982    242.3805   1.2335096747e+02   2.8236452530e+01     12.21073     1.888517 -82.94  0.003922578    6.676    0.850
        20  -7.4915     96.6280    201.2689   1.0589322113e+02   2.4293605791e+01    0.1186874   0.06382412  58.88 0.0006994479    1.672    0.402
        21  -9.7700     28.4121    196.5084   1.1841502092e+02   3.3359474943e+01    0.2018774    0.1219925  61.41 0.0007636077    1.176    0.149
        22  -8.1549     82.8097    195.3830   1.0797631921e+02   2.7123312455e+01    0.1507124   0.09021739  36.34 0.0007829724    1.632    0.387
        23  -8.5838    193.3055    192.1006   8.7405276300e+01   1.0444062774e+01    0.2987239    0.1195773  37.59  0.001489315    2.090    0.522
        24  -8.3422     73.5174    188.0708   1.0915070152e+02   2.9573908500e+01    0.1460883    0.1006483 -84.10 0.0004091759    1.516    0.340
        25 -10.2762     67.4920    180.0859   1.0967302735e+02   3.1743171045e+01    0.3170328    0.2456669 -41.26  0.002138183    2.082    0.520
        26 -10.1620     72.2607    174.5383   1.0818496655e+02   3.2114333101e+01    0.2418781    0.2341141 -22.74 0.0008415412    1.554    0.357
        27  -7.8128     99.5378    180.5365   1.0320796813e+02   2.7223876155e+01    0.1195906   0.09294259  57.56 0.0001111113    1.026    0.026
        28  -9.8916     97.1974    169.7670   1.0244276030e+02   2.9434058599e+01    0.4060558    0.1283572  55.00  0.001442957    4.063    0.754
        29  -8.2369    193.9036    166.8734   8.3242130629e+01   1.3355463652e+01    0.1940878    0.1444014  25.07   0.00121451    1.239    0.193
        30  -7.5136     37.2733    167.6540   1.1503221733e+02   3.7598582178e+01    0.1183111   0.06126341  65.76 0.0005688276    1.623    0.384
        31  -9.8869     32.7464    165.8605   1.1588403558e+02   3.8416177048e+01    0.2541367    0.1647568  75.48  0.001761951    1.247    0.198
        32 -11.7790     68.5996    144.3902   1.0578873144e+02   3.8383727455e+01     0.907228    0.4897736  76.62  0.004529652    2.180    0.541
        33 -11.6966     69.0773    160.3614   1.0746255145e+02   3.5174266847e+01    0.5600728    0.4073727 -41.24  0.002128422    2.138    0.532
        34 -10.7584     81.2458    164.5662   1.0524489648e+02   3.2710557326e+01    0.4310608    0.3327871  56.87 0.0005579275    1.065    0.061
        35 -10.7556     86.7612    158.6931   1.0335075877e+02   3.3013091425e+01    0.5483556    0.4167211 -25.14  0.001730788    2.348    0.574
        36 -10.1584     32.3538    156.4888   1.1534723561e+02   4.0267673511e+01    0.3224755    0.1632071 -75.72  0.001935872    1.851    0.460
        37  -8.5379     38.6594    146.1258   1.1310210499e+02   4.1674620254e+01    0.2090465    0.1225575  52.65 0.0008632118    1.427    0.299
        38  -8.6029     85.2807    144.6483   1.0187180582e+02   3.5947300668e+01    0.2854723    0.1705092  67.83  0.001498698    1.783    0.439
        39 -10.5364     89.2587    142.0816   1.0057483359e+02   3.5850222610e+01    0.2430823    0.2290958  44.85 0.0005206101    1.268    0.211
        40  -9.1517    101.8569    142.2867   9.7659930304e+01   3.3798393000e+01    0.4549412    0.2955592 -30.22  0.002162114    2.800    0.643
        41  -7.7681     79.4931    139.4985   1.0254366134e+02   3.7839527710e+01    0.1287363     0.105773  69.96 -0.0001620283    1.036    0.035
        42 -10.5853     58.4060    129.7441   1.0651658393e+02   4.2770157838e+01    0.5851369    0.2223215 -78.88   0.00231079    3.360    0.702
        43  -8.4698    110.9117    131.8738   9.3811582520e+01   3.4278536000e+01    0.1930691    0.1793248  29.01 0.0005985065    1.270    0.213
        44  -9.8449     32.6450    130.6255   1.1323622227e+02   4.5531461203e+01    0.3950606   0.07888559 -70.34  0.001478366    4.008    0.751
        45  -8.0614    105.9851    131.2218   9.4865895898e+01   3.5267943119e+01     0.222991    0.1351698  66.71  0.001062129    1.937    0.484
        46  -9.1509     98.5668    127.9563   9.6095633627e+01   3.7187867320e+01    0.2375332    0.2084093  -4.36 0.0007671777    1.631    0.387
        47  -8.3624    135.4943    127.5045   8.7336342306e+01   3.0521426177e+01    0.1376764    0.1247477  58.40 0.0008106176    1.013    0.013
        48  -8.1063    107.7318    120.0436   9.2381387712e+01   3.7196349394e+01    0.1786852    0.1653521  84.70 0.0002484423    1.055    0.052
        49  -7.9429    134.4935    113.4833   8.4593566039e+01   3.3323698430e+01     0.141413    0.1310058  64.44 0.0008103377    1.020    0.020
        50  -7.9028    205.6866    110.2882   6.9681059373e+01   1.8545705451e+01    0.1288098    0.1094575 -73.58  0.000699764    1.585    0.369
        51 -13.6479     10.4773    206.5119   1.2204639228e+02   3.3428107369e+01     1.139003    0.7852197  53.15  0.007679872    1.174    0.148
        52  -8.1833     45.5203    105.5167   1.0683107203e+02   4.9657171069e+01    0.1275636    0.1045942  83.22 5.896611e-05    1.033    0.032
        53 -10.0039     32.6373    100.9188   1.1007000275e+02   5.2074081185e+01    0.4213603   0.09990036 -71.64  0.001520959    3.659    0.727
        54  -8.2751    115.5265     94.4615   8.4737628460e+01   4.0914875412e+01    0.1419764    0.1363269  76.18 6.576301e-05    1.037    0.036
        55 -11.7604    136.2434    229.8213   1.0165315609e+02   1.4740384940e+01    0.5904758    0.1921115  42.35  0.003109071    2.174    0.540
        56  -8.6230     76.0803    233.5136   1.1202276965e+02   2.2251820312e+01    0.1531129   0.07166901  42.46 0.0005337773    1.543    0.352
        57  -9.2680     33.0000     71.9681   1.0549455635e+02   5.8708476191e+01    0.3694133     0.061866 -67.60  0.001068129    5.088    0.803
        58  -9.4506    163.2238    231.4022   9.7406935198e+01   1.0694770926e+01    0.1576898   0.07281128  46.95 0.0009593854    1.675    0.403
        59  -8.5467    114.5976     57.3870   7.4061668442e+01   4.8456782727e+01    0.3089424    0.1174912 -51.37 0.0009589345    3.357    0.702
        60  -8.7238    148.3055     52.3050   6.4163154234e+01   4.1150710313e+01    0.2698537    0.2338586 -47.76 0.0004273568    1.165    0.142
        61  -9.2197    145.6818     50.3228   6.4041445932e+01   4.2139185780e+01     0.332545    0.2398154 -68.75  0.001071414    1.728    0.421
        62  -9.6253     83.6217    230.0374   1.1052582009e+02   2.1799543089e+01    0.1996074    0.1805255  79.38  0.001800641    1.412    0.292
        63 -10.8841    100.2864    228.1007   1.0755308640e+02   1.9911484136e+01    0.4417422    0.1909456  37.61  0.002619014    1.946    0.486
        64  -9.1037    147.8532     44.2017   6.1437864013e+01   4.2530504624e+01    0.2883508    0.2387411 -68.48 0.0005960398    1.341    0.254
        65 -10.8692    191.6694     40.4212   5.2643504100e+01   3.1421071202e+01    0.3876419    0.3387735 -31.54 0.0009124565    1.111    0.100
        66  -7.6629    173.3179    248.3296   9.7612827836e+01   7.5576810458e+00   0.09904081   0.06048122  24.18 0.0007047008    1.684    0.406
        67 -10.6479    209.8122     24.5397   4.5455580076e+01   2.8485785857e+01     0.465293     0.300283  45.25  0.001230283    1.671    0.402
        68 -11.0124    126.1684    241.5224   1.0437368596e+02   1.4738495274e+01    0.3249782    0.1749913  38.55  0.002267526    1.427    0.299
        69 -10.0029     95.3894    224.1599   1.0808065179e+02   2.1100074063e+01    0.2498021    0.2123094  47.63 0.0009482162    1.283    0.220
        70 -11.5783    112.9269    229.5699   1.0553313983e+02   1.8017138083e+01    0.6217119    0.2413808  41.24  0.003600092    1.872    0.466
        71 -11.1429    133.9333    239.3835   1.0293075743e+02   1.3930180181e+01     0.321817    0.2327708  -2.70   0.00217471    2.615    0.618
