#   1 NUMBER                 Running object number                                     
#   2 MAG_AUTO               Kron-like elliptical aperture magnitude                    [mag]
#   3 X_IMAGE                Object position along x                                    [pixel]
#   4 Y_IMAGE                Object position along y                                    [pixel]
#   5 X_WORLD                Barycenter position along world x axis                     [deg]
#   6 Y_WORLD                Barycenter position along world y axis                     [deg]
#   7 A_WORLD                Profile RMS along major axis (world units)                 [deg]
#   8 B_WORLD                Profile RMS along minor axis (world units)                 [deg]
#   9 THETA_WORLD            Position angle (CCW/world-x)                               [deg]
#  10 FWHM_WORLD             FWHM assuming a gaussian core                              [deg]
#  11 ELONGATION             A_IMAGE/B_IMAGE                                           
#  12 ELLIPTICITY            1 - B_IMAGE/A_IMAGE                                       
         1 -14.8861    187.0327     92.0189   8.5102797413e+01   2.5330983666e+01     9.137671     4.747331 -56.97    0.0337672    2.425    0.588
         2 -15.5154    205.9083     61.5625   7.4023654985e+01   2.5943638598e+01     11.68659     5.319976 -61.76   0.03940542    3.449    0.710
         3 -13.9269    180.3728     20.4438   6.7187236831e+01   3.7751683065e+01     2.254036     1.504912  26.15   0.01129983    2.175    0.540
         4 -12.7900    206.6456      6.5564   6.0652547557e+01   3.2919908188e+01     1.130018    0.7807788  48.73  0.004282488    1.692    0.409
         5 -15.5919    140.0267     43.9015   8.1020945563e+01   4.4653637805e+01     11.65846     3.227878  50.95   0.03908752    3.117    0.679
         6 -13.1177    219.4173     15.8929   6.1473063531e+01   2.8902097485e+01     1.346134    0.5992812 -56.48  0.006132207    2.316    0.568
         7 -14.0904    232.8566      7.1774   5.8354956487e+01   2.6818531944e+01     1.030429     0.630695 -24.79  0.005705376    2.195    0.544
         8 -16.4093    243.8606     22.1695   6.0485479786e+01   2.2601317991e+01     2.678343     2.423056  51.73   0.01389106    1.493    0.330
         9 -10.3721    125.4424     14.4106   7.4618983520e+01   5.1431947746e+01    0.3532662    0.2667592 -27.18  0.001361966    1.489    0.328
        10 -12.1266    119.0785      9.8557   7.4403333379e+01   5.3267991280e+01    0.7158201    0.4072129  47.34   0.00279789    1.491    0.329
        11  -9.3995     52.7383     12.0010   9.3858712481e+01   6.5455978238e+01    0.1623821    0.1254279  -3.38 0.0004666554    1.096    0.087
        12  -9.3584    171.9784      3.8963   6.3941165904e+01   4.1458136946e+01    0.2385487    0.1707199 -37.45 0.0008410077    1.566    0.362
        13  -9.9348    159.7062     13.6673   6.8338134586e+01   4.3483027134e+01    0.3291524    0.1688393 -29.82  0.001126833    2.177    0.541
        14  -9.9159    112.7930      2.8334   7.3303766873e+01   5.5227417156e+01    0.2257783    0.1848485  39.75   0.00135262    1.058    0.055
        15 -14.0466    249.4281      3.5081   5.6307015086e+01   2.3600555076e+01    0.4627127    0.4303602 -81.91  0.003126479    1.348    0.258
        16  -8.3066    198.5068    153.4435   9.7772223966e+01   1.0479545073e+01    0.1490159    0.1456445 -10.95 -4.258949e-05    1.019    0.019
        17  -8.4078     22.1449    231.8341   1.4702111863e+02   2.3966264664e+01    0.1385405    0.1131621 -87.00 0.0004476526    1.304    0.233
        18 -10.6067    156.4954    139.2385   1.0367166876e+02   2.2753331406e+01     0.477197    0.3083975  83.86  0.001487297    2.761    0.638
        19 -11.4706    188.2023    137.5809   9.6243865704e+01   1.5986559019e+01    0.4776486    0.3621574  48.77  0.001623017    1.342    0.255
        20  -8.4740    113.0579    137.2581   1.1397990618e+02   3.2240310217e+01    0.1981185    0.1871846  83.63 0.0003227943    1.050    0.048
        21 -10.6887    210.3741    136.8251   9.1627229260e+01   1.1207454819e+01    0.3385055    0.2476979  32.93   0.00160208    1.565    0.361
        22 -12.8152     46.3684    168.5236   1.3624680355e+02   3.4982473642e+01       1.5948    0.6058052  26.56  0.001528901    4.006    0.750
        23 -10.5463    199.7497    134.1722   9.3079222664e+01   1.4085104092e+01    0.2778516    0.2152514  64.66  0.001327977    1.439    0.305
        24 -13.5730    217.3372     53.3297   7.0379269328e+01   2.4450133603e+01     2.693105     1.187256  65.46  0.008554962    2.230    0.552
        25 -10.7824    156.6408    129.4682   1.0128624431e+02   2.4872859813e+01    0.4600776    0.2886325 -75.37  0.001421081    2.690    0.628
        26 -11.5683    160.5822    128.1304   1.0003960035e+02   2.4272988345e+01    0.4747393    0.4053929 -51.21  0.001305846    1.161    0.138
        27 -10.2864    135.7191    129.1485   1.0628342166e+02   2.9538337223e+01     0.564532    0.2331738 -45.83  0.001959737    2.392    0.582
        28  -9.8807    168.0245    208.4291   1.1527159450e+02   5.7660265931e+00    0.2252627    0.2018431 -52.33 0.0001569098    1.222    0.182
        29 -11.3038    205.6974    122.9376   8.9245825833e+01   1.4973000657e+01    0.3709093    0.3072622 -41.14 0.0009796689    1.166    0.143
        30 -11.0229    143.9966    146.2419   1.0825869303e+02   2.3893203566e+01    0.6146227    0.3884279 -79.81  0.002249049    2.663    0.624
        31 -10.9869      2.8922    205.0987   1.4858544556e+02   3.1372150040e+01    0.5064216    0.2114997 -79.87  0.002817654    1.883    0.469
        32 -11.0643    217.9484    125.8705   8.7666115715e+01   1.1667681195e+01    0.4513848    0.2987408 -11.06   0.00147181    2.408    0.585
        33  -9.4470    173.9783    123.2582   9.5814304101e+01   2.2232482804e+01    0.2181604    0.2092841  67.36 0.0003116101    1.046    0.044
        34  -9.0000    192.1492    143.9202   9.6905541952e+01   1.3799619294e+01    0.2342822    0.2028026 -72.72 0.0004437265    1.286    0.222
        35 -12.4982    169.5430     68.8446   8.2275840494e+01   3.3723622018e+01    0.8546256     0.538674 -27.57  0.001123679    1.843    0.458
        36 -11.8980    214.7844    116.4246   8.6008236997e+01   1.4173716269e+01    0.7189338    0.3938054 -57.44  0.002729468    2.230    0.552
        37 -12.6409    206.9155    110.9433   8.6118147357e+01   1.7017683848e+01    0.8914865    0.6104352  60.21   0.00413008    1.552    0.356
        38 -10.1602    134.8078    121.9764   1.0474224208e+02   3.1345532338e+01    0.6357432    0.1849845 -48.03  0.001839702    3.439    0.709
        39  -9.9925    221.8980    120.0138   8.5594102734e+01   1.1910110658e+01    0.2222116    0.2055113 -54.84 0.0004403139    1.027    0.026
        40 -10.1169    134.7713    113.0265   1.0246088582e+02   3.3327873404e+01    0.5704545    0.1599583 -43.51  0.001623355    3.579    0.721
        41  -8.6527     89.5124    112.5414   1.1463645005e+02   4.2199581092e+01    0.2413066    0.1356388 -62.54 0.0005956651    2.011    0.503
        42  -8.8198    126.4693    110.5282   1.0394600267e+02   3.5647143306e+01    0.1526459    0.1490215 -60.09 7.169321e-05    1.005    0.005
        43  -8.3233    143.4992    108.9705   9.9211621706e+01   3.2270136647e+01    0.2237638    0.1339951 -66.09 0.0008089419    2.463    0.594
        44 -10.7069    222.3736    104.8333   8.1938469357e+01   1.4625116248e+01    0.4046218    0.2545676 -71.88  0.001396056    2.247    0.555
        45 -11.4402    215.6780    102.6997   8.2561105359e+01   1.6543013750e+01    0.4876648    0.3718297 -76.15  0.002383243    1.505    0.336
        46  -8.6622    140.9749    104.6995   9.8691984531e+01   3.3737904935e+01     0.219089    0.2088106  47.29 0.0005783068    1.061    0.058
        47 -10.2964    122.4110    102.1191   1.0276619419e+02   3.8308118395e+01    0.4772597     0.255749  37.57  0.001899077    2.054    0.513
        48  -9.5421    146.9140    100.5300   9.6108337205e+01   3.3251661434e+01     0.308841    0.2803293   6.29  0.000655763    1.246    0.197
        49  -9.0920    133.4699     97.0927   9.8494449780e+01   3.6983732142e+01    0.2779341     0.232585 -89.69 0.0006657437    1.436    0.304
        50 -10.6514    207.3400     94.7907   8.2072691996e+01   1.9941649113e+01    0.4940788    0.3447313 -67.71   0.00151122    1.658    0.397
        51 -10.0097    156.3075     94.2593   9.2182973235e+01   3.2314308501e+01    0.4731696    0.3199609  35.70  0.002062923    1.690    0.408
        52 -10.0637    170.6373     92.9783   8.8678540146e+01   2.9129225503e+01    0.3061961    0.2520806 -84.18 0.0004243698    1.374    0.272
        53  -9.4567    114.6548     93.0367   1.0234196422e+02   4.1798245389e+01    0.2176409    0.1911376 -41.07 0.0006808724    1.112    0.101
        54 -10.2067    140.3303     90.3871   9.4890480627e+01   3.6789881386e+01    0.3801161    0.2749289 -45.98 0.0008968582    1.394    0.283
        55 -10.1306      2.8360     89.8649   1.3617560526e+02   5.6700510315e+01     0.184769    0.1222218 -49.90 0.0005540416    1.213    0.175
        56 -13.3216     16.3669    188.1331   1.4476380480e+02   3.3733508347e+01    0.9544414    0.6675978 -74.07  0.003874527    1.234    0.189
        57 -10.7893    171.1777     84.2565   8.6201149677e+01   3.0628326205e+01    0.5727715     0.404015  30.08  0.001658216    1.809    0.447
        58 -11.4362    154.6672     83.8842   8.9664134253e+01   3.4685216388e+01    0.5682084    0.3641872  46.62 0.0005567634    1.557    0.358
        59  -9.3028    191.3629    192.1571   1.0739922191e+02   4.3460544455e+00    0.4879297    0.2544894 -65.25  0.001493992    4.798    0.792
        60  -9.1924    115.0754    152.6175   1.1675707510e+02   2.8234338932e+01    0.2350294    0.1953924 -71.88 0.0004636353    1.197    0.165
        61 -10.1766    180.1039    147.1728   1.0020892264e+02   1.5791629720e+01    0.5837958    0.2617524 -37.06  0.002046989    2.491    0.599
        62  -9.7057    124.1476     74.6754   9.4382542690e+01   4.3362520561e+01    0.4263768    0.1874361 -49.73  0.001530455    2.750    0.636
        63 -10.6822    215.3778    188.7499   1.0192212047e+02   3.5433958096e-01    0.6517984    0.2984953  53.68  0.002468559    2.931    0.659
        64 -10.2021    133.5126    145.1113   1.1055717074e+02   2.6346433642e+01     1.117164     0.254228 -53.64  0.002531131    5.878    0.830
        65  -9.4941    221.4130    177.5543   9.8472548739e+01   1.2160829049e+00    0.2729619    0.2080043  65.67 0.0009849098    1.759    0.431
        66 -10.2203     71.5404     47.2083   1.0095812252e+02   5.7917540417e+01    0.3290574    0.2032017 -46.38  0.001383601    1.843    0.458
        67  -9.7332    206.7665     45.2239   6.9852574380e+01   2.8164657926e+01    0.3150781    0.2112318 -47.62  0.000882027    1.455    0.313
        68 -12.4220     68.9887    146.7188   1.2741148237e+02   3.7261286898e+01     1.773162     1.168792 -52.81  0.007954861    1.432    0.302
        69 -11.0850    109.7194     25.5226   8.1941085823e+01   5.3716495350e+01    0.3940127    0.2185807 -48.43  0.001552113    2.515    0.602
        70  -9.6557     52.9099     17.3280   9.6046104111e+01   6.4822877809e+01    0.2253307    0.1438207 -16.82 0.0007052747    1.441    0.306
        71 -12.9313     53.1031    163.9323   1.3405681739e+02   3.5245442955e+01     1.469573    0.7786933  37.83  0.004747966    2.052    0.513
        72 -12.2502     58.6330    159.1121   1.3202821299e+02   3.5687752495e+01    0.6929699    0.4445501  87.11  0.001837884    1.711    0.416
        73  -8.8639     56.7723     15.7671   9.3993632078e+01   6.4438768953e+01    0.1428269    0.1288662  -8.67 0.0004705434    1.318    0.241
        74  -9.8630    218.9940    169.7865   9.7301590055e+01   3.1031191036e+00    0.4780664    0.2375355  63.17  0.001501735    4.427    0.774
        75  -9.1866    230.5546    166.7534   9.4492429156e+01   1.4149863081e+00    0.2030932    0.1277933 -47.68 0.0008791771    1.659    0.397
        76  -9.0279    204.3512    161.7055   9.8423728092e+01   7.6054487197e+00    0.4181374    0.2427649 -65.01  0.001515504    3.008    0.668
        77  -8.4129    155.1608    159.2511   1.0850634938e+02   1.8599084270e+01    0.2094568    0.1766101  83.55 0.0004001303    1.336    0.251
        78  -8.6915    147.0120    157.7444   1.1007873206e+02   2.0653156635e+01    0.2139508    0.2002185  54.08 0.0003805252    1.059    0.056
