#   1 NUMBER                 Running object number                                     
#   2 MAG_AUTO               Kron-like elliptical aperture magnitude                    [mag]
#   3 X_IMAGE                Object position along x                                    [pixel]
#   4 Y_IMAGE                Object position along y                                    [pixel]
#   5 X_WORLD                Barycenter position along world x axis                     [deg]
#   6 Y_WORLD                Barycenter position along world y axis                     [deg]
#   7 A_WORLD                Profile RMS along major axis (world units)                 [deg]
#   8 B_WORLD                Profile RMS along minor axis (world units)                 [deg]
#   9 THETA_WORLD            Position angle (CCW/world-x)                               [deg]
#  10 FWHM_WORLD             FWHM assuming a gaussian core                              [deg]
#  11 ELONGATION             A_IMAGE/B_IMAGE                                           
#  12 ELLIPTICITY            1 - B_IMAGE/A_IMAGE                                       
         1 -14.7876    243.8391     11.2943   1.5721871273e+01   2.2029676646e+01     2.319022     1.159657 -44.40   0.01098989    1.825    0.452
         2 -12.0104      1.8035     23.8586   8.2565825824e+01   6.9100644337e+01    0.4596208    0.1128971 -58.73  0.002047273    3.072    0.675
         3 -13.3148      6.4405      8.7681   7.5139433850e+01   7.1478242971e+01    0.9929556    0.3488066 -40.46  0.005432324    2.054    0.513
         4 -12.2054     16.2460      5.1813   6.8756036090e+01   7.1351046589e+01    0.3557816    0.1941981 -26.20  0.002258798    1.551    0.355
         5 -13.3988     12.7051     22.1340   7.7125289517e+01   6.8784921299e+01    0.6229132    0.2120707 -38.37  0.003102588    2.424    0.588
         6 -12.0581     20.2774     12.8276   7.0108096826e+01   6.9809523070e+01    0.3337213    0.1215531 -37.84   0.00169939    2.190    0.543
         7 -12.0360     13.6554     11.3804   7.2661428086e+01   7.0560067727e+01    0.2756387    0.1341181 -35.62  0.001674939    1.593    0.372
         8 -12.1261     25.1713      3.1055   6.3437161162e+01   7.0865727147e+01    0.3867917    0.2115035   5.89  0.002253969    2.162    0.537
         9 -11.6037     73.1782    239.2182   9.5242829298e+01   1.8450484497e+01      0.29724    0.1265698  60.69  0.001668891    2.021    0.505
        10 -12.5186    247.8240    225.1093   6.3258676722e+01  -8.0043928573e+00    0.6888798    0.3293511  -3.86  0.002909944    3.918    0.745
        11 -11.6358    233.6069    249.7428   6.9441318461e+01  -8.2788344609e+00    0.4004133    0.1663648  38.24  0.002206362    1.786    0.440
        12 -12.7695    235.0235    242.7727   6.8175349149e+01  -7.8065540418e+00    0.4760912    0.2557655  16.67   0.00263591    2.175    0.540
        13 -12.4365    242.2818    236.2571   6.5975752454e+01  -8.2827978961e+00    0.5921605    0.2829635  11.31  0.002534386    3.802    0.737
        14 -12.1301    243.4768    244.4737   6.7049849492e+01  -9.2800159231e+00    0.4070849    0.2457262  14.71  0.001985176    1.624    0.384
        15 -10.9349    249.2897    243.9935   6.6035339842e+01  -1.0113675631e+01    0.2521835    0.1989238  -3.87  0.001147266    1.330    0.248
        16 -12.0487    247.8005    237.9144   6.5331744474e+01  -9.3025639989e+00    0.4353612     0.249568   3.57  0.002557112    2.051    0.512
        17 -11.5417    249.9029    231.6808   6.3993239761e+01  -9.0066773734e+00    0.3519963    0.1858076 -18.31  0.002042066    2.172    0.539
        18 -11.3659    249.0127    249.1756   6.6867276740e+01  -1.0554606730e+01     0.435481    0.2111647  36.16  0.002154406    1.530    0.346
        19 -11.2742    241.1680    249.9374   6.8242740374e+01  -9.4512077631e+00    0.4027497    0.1714202  36.61  0.002132977    1.749    0.428
        20 -11.5034     87.1818    250.1957   9.3835656973e+01   1.4791128750e+01    0.3571196    0.1083302  45.24  0.001787395    2.459    0.593
        21 -11.5251     76.4858    249.6407   9.5489011278e+01   1.6347367853e+01    0.3160434     0.131182  53.13  0.001881633    1.759    0.431
        22 -11.3226     51.4487    249.2758   9.9330709049e+01   1.9620105895e+01    0.3750124    0.1307433  51.70  0.002213356    2.015    0.504
        23 -11.5037     37.6264    247.7348   1.0131260193e+02   2.1497734536e+01    0.4106259    0.1695177  67.64  0.002477937    2.013    0.503
        24 -11.3987     20.9997    248.1350   1.0375092459e+02   2.3263649370e+01    0.3099137    0.1379285  69.21  0.002045755    1.680    0.405
        25 -11.0828     12.8399    247.8902   1.0489623537e+02   2.4146809926e+01    0.3056964    0.1233434  63.78  0.002001436    1.747    0.428
        26 -11.3166      3.9692    249.5880   1.0619093801e+02   2.4759831121e+01    0.2590279    0.1692054  53.88  0.002176593    1.398    0.285
        27 -11.7948      3.5428    241.7117   1.0595968210e+02   2.6047963441e+01    0.3697308    0.1582186  72.56  0.002050367    1.715    0.417
        28 -12.0171     85.3233    243.1929   9.3577776564e+01   1.6142143232e+01    0.3034739     0.132128  58.33  0.001719716    1.902    0.474
        29 -10.2439     65.3279    238.6374   9.6468807535e+01   1.9584147080e+01    0.1796605   0.08978729  66.25  0.001112562    1.699    0.411
        30 -10.2778     38.6052    238.8843   1.0068045761e+02   2.2817799303e+01    0.2059524   0.07959771  64.87   0.00118734    2.195    0.544
        31 -10.7893     45.6996    236.1731   9.9421623305e+01   2.2437202705e+01    0.2186921    0.1117083  70.39  0.001449201    1.592    0.372
        32 -11.5405     57.7873    240.6505   9.7808429865e+01   2.0219532497e+01     0.347115    0.1466468  59.92  0.002072863    1.878    0.468
        33 -10.8882      6.8309    234.6321   1.0521200193e+02   2.6882480921e+01    0.2462631    0.1175694  78.16  0.001624227    1.563    0.360
        34 -12.3792    232.1021    232.5899   6.7093949658e+01  -6.2781737215e+00    0.3473051    0.1851152  17.36  0.001805094    2.291    0.564
        35 -10.9162     14.4206    230.6210   1.0391874056e+02   2.6801063323e+01    0.2832102    0.1251723  66.69  0.001910942    1.688    0.408
        36 -11.3507     60.8895    230.2610   9.6584826723e+01   2.1556704799e+01    0.2704772    0.1023938  64.95  0.001324503    2.784    0.641
        37 -11.0375     39.9365    229.6977   9.9933932151e+01   2.4204006368e+01    0.2481058    0.1211993  75.02  0.001581249    1.770    0.435
        38 -11.9353     26.5219    226.9514   1.0188592807e+02   2.6167247523e+01    0.4091381    0.1583447  82.59  0.002258571    2.604    0.616
        39 -10.3593     48.5675    228.6860   9.8486304489e+01   2.3358298115e+01    0.2000362   0.08691686  58.60  0.001199207    1.800    0.444
        40 -11.2818      5.0874    226.8485   1.0514362712e+02   2.8348594535e+01    0.3333265    0.1425791  73.38  0.002226919    1.796    0.443
        41 -11.4943     30.1984    239.3843   1.0198227461e+02   2.3681661741e+01    0.3239266    0.1448414  73.24  0.002093874    1.870    0.465
        42 -10.6813     11.4177    224.4386   1.0408557537e+02   2.8148031352e+01    0.2796908    0.1126399  62.52  0.001801206    1.860    0.462
        43 -11.0239     19.2324    220.6969   1.0269387211e+02   2.8012346841e+01    0.2348745    0.1117223  76.69    0.0015468    1.697    0.411
        44 -11.5016      2.4311    219.2548   1.0521884625e+02   2.9894080350e+01    0.2803046    0.1311574  85.58  0.001950607    1.639    0.390
        45 -10.8075     35.1036    215.7543   9.9848844706e+01   2.7190939621e+01    0.2491211    0.1151496  83.86   0.00147604    2.020    0.505
        46 -11.3758     13.1049    215.6017   1.0339737124e+02   2.9519034357e+01    0.2987329    0.1445446  68.43  0.002001108    1.570    0.363
        47 -11.7418    248.4788    213.7496   6.1219609610e+01  -6.8808251026e+00    0.3618521    0.2075792 -11.74  0.002014552    1.995    0.499
        48 -11.3562      2.6108    210.8312   1.0481855865e+02   3.1351622240e+01     0.260327    0.1213202  74.83  0.001764922    1.635    0.388
        49 -10.6472     21.5052    210.4900   1.0177121590e+02   2.9592221076e+01    0.1848076   0.07444325  88.38  0.001034361    2.300    0.565
        50 -12.0354     12.8729    203.0200   1.0277519240e+02   3.1806154749e+01    0.3491023    0.1470576  65.52  0.002129958    1.953    0.488
        51 -10.3391      1.4910    204.4795   1.0470214068e+02   3.2587930121e+01    0.1991657   0.07454994 -81.60  0.001201423    2.132    0.531
        52 -11.9020      4.0826    195.6835   1.0384543445e+02   3.3967923092e+01    0.3555605     0.148256  79.16  0.002127778    2.035    0.509
        53 -10.5359     17.5923    188.7718   1.0112218860e+02   3.4031039267e+01    0.1558846   0.07606371  87.85 0.0009535322    1.706    0.414
        54 -11.7713      3.8825    186.6870   1.0339941386e+02   3.5674632670e+01    0.3962148    0.1224076  63.23  0.001958978    3.088    0.676
        55 -10.9699     11.9845    181.9859   1.0169215925e+02   3.5864134786e+01     0.182542   0.08998813  70.19  0.001139578    1.714    0.417
        56 -11.5384      2.2557    176.8052   1.0312698746e+02   3.7710099782e+01    0.2736198    0.1233604  88.06  0.001677056    1.781    0.439
        57 -11.3309      6.5936    170.2985   1.0193345963e+02   3.8627962383e+01    0.2126859    0.0797692 -83.84  0.001142715    2.200    0.545
        58 -10.5092     11.4761    165.9817   1.0071386274e+02   3.9078403229e+01    0.1620958   0.06573787  79.32 0.0008098914    2.532    0.605
        59 -11.0914      1.5306    163.5387   1.0245226556e+02   4.0381677297e+01    0.2017018   0.07491578  89.50   0.00104083    2.407    0.585
        60 -11.2954      9.9922    154.0048   1.0012006341e+02   4.1643584434e+01    0.1873843   0.09808753  71.43  0.001144975    1.744    0.427
        61 -10.4448      2.5277    141.5022   1.0069529664e+02   4.4799561367e+01     0.110027   0.07964616 -89.34 7.432437e-05    1.016    0.016
        62 -12.0042      4.0386     48.9871   8.8104961564e+01   6.4168297097e+01    0.3699987     0.101428 -55.10  0.001814098    2.273    0.560
        63 -11.7312      2.8519     38.9530   8.6239372211e+01   6.6203397887e+01    0.2745368    0.1233192 -60.44  0.001607093    1.670    0.401
        64 -12.1723    226.3905    246.9295   7.0215438348e+01  -6.8728685336e+00    0.3123063    0.1960666  12.77  0.001970744    1.738    0.425
        65 -11.7430     66.0509    247.8621   9.6998371596e+01   1.8006483073e+01    0.3608478     0.159382  60.77  0.002204193    1.805    0.446
        66 -10.0623     26.7947    247.8184   1.0290294637e+02   2.2692911678e+01    0.1447507   0.07484553  66.11 0.0008749479    1.353    0.261
        67 -11.8408    214.0047    244.0000   7.1855197465e+01  -4.5787947531e+00    0.3372639    0.1028409  40.34  0.001506977    2.498    0.600
        68 -11.2204     45.4981    243.7143   9.9905541938e+01   2.1224332695e+01    0.2764594    0.1375018  68.46  0.001863282    1.591    0.372
        69 -11.4993     99.0046    243.6026   9.1364312563e+01   1.4111141121e+01     0.311827    0.1290319  59.44  0.001610812    2.276    0.561
        70 -11.7682     16.3682    238.9474   1.0400945666e+02   2.5223572133e+01     0.423621    0.1528009  57.23  0.002641312    1.948    0.487
