#   1 NUMBER                 Running object number                                     
#   2 MAG_AUTO               Kron-like elliptical aperture magnitude                    [mag]
#   3 X_IMAGE                Object position along x                                    [pixel]
#   4 Y_IMAGE                Object position along y                                    [pixel]
#   5 X_WORLD                Barycenter position along world x axis                     [deg]
#   6 Y_WORLD                Barycenter position along world y axis                     [deg]
#   7 A_WORLD                Profile RMS along major axis (world units)                 [deg]
#   8 B_WORLD                Profile RMS along minor axis (world units)                 [deg]
#   9 THETA_WORLD            Position angle (CCW/world-x)                               [deg]
#  10 FWHM_WORLD             FWHM assuming a gaussian core                              [deg]
#  11 ELONGATION             A_IMAGE/B_IMAGE                                           
#  12 ELLIPTICITY            1 - B_IMAGE/A_IMAGE                                       
         1 -14.9482    106.1911    106.2000   9.0279494892e+01   4.0248000356e+01      1.74753     1.441899  18.01  0.007782725    1.420    0.296
         2 -15.4491      6.1660     69.2189   1.1475222370e+02   6.0926169409e+01     2.025267    0.8714108 -64.52  0.007340641    1.757    0.431
         3 -13.5639     58.6096     64.1844   9.3631767843e+01   5.7275423008e+01     1.577529    0.8438229 -26.53  0.006795675    2.402    0.584
         4 -14.6352    119.8142     54.5578   7.0368840465e+01   4.7936871199e+01     1.223665    0.8370097  22.62  0.002016881    1.769    0.435
         5 -13.4839    131.7065     32.7217   5.9571805777e+01   4.8409629058e+01    0.9405154    0.4876866 -31.88  0.003465301    1.967    0.492
         6 -14.2607    121.8875     37.5026   6.3656141530e+01   5.0101439889e+01     1.001136    0.5616589  30.71  0.002453401    2.160    0.537
         7 -12.2057    232.5933      2.2202   3.6732896974e+01   2.6703801188e+01    0.4148463    0.2408909  55.85  0.001944795    1.928    0.481
         8 -15.4660    218.3725     16.4887   4.1396745257e+01   2.8500747257e+01     2.163105     1.198439 -27.98  0.009007676    1.903    0.475
         9 -14.0419    188.9794     25.9943   4.7336602028e+01   3.4704890356e+01     1.762377    0.6543388 -56.45  0.005294551    4.441    0.775
        10 -14.3785    188.4064     13.5240   4.3856639001e+01   3.6258509521e+01     1.615764    0.6984635 -51.54  0.006499516    2.575    0.612
        11 -13.0439      7.8875      2.6717   9.2426917014e+01   7.3614228846e+01    0.4926639    0.3854266  24.18  0.002394057    1.653    0.395
        12 -13.4636      2.6573     10.7322   9.9235345298e+01   7.2702922039e+01    0.7254367    0.3271297 -53.32  0.004085668    2.087    0.521
        13 -13.3136     16.9088     10.6920   9.1361892540e+01   7.1622168971e+01    0.4486247    0.3024194 -56.46  0.001000354    2.210    0.548
        14 -16.0570     13.9077     20.2538   9.7198901952e+01   7.0297712960e+01     1.893626    0.9640368 -31.94  0.009528183    1.626    0.385
        15 -13.1973    139.3029     22.0181   5.4141432584e+01   4.7842084541e+01    0.5984734    0.3156401  55.03 0.0009814508    1.699    0.411
        16 -14.7424    166.5555     30.1252   5.1931627832e+01   3.9960440088e+01      1.15687     1.065194  61.05  0.003966072    1.043    0.041
        17 -14.9189    147.2078     29.9490   5.5350812367e+01   4.4920589252e+01     1.504258     1.023614  57.73  0.005233436    1.372    0.271
        18 -12.8554    120.2388     26.6850   5.9998368065e+01   5.1914080064e+01    0.7848092    0.4575489  39.61  0.003644209    1.688    0.407
        19 -12.6385     71.7332     17.1655   7.0148130269e+01   6.3236908077e+01    0.4961357    0.2841324 -33.75  0.002595735    1.772    0.436
        20 -15.4401     97.6673     12.3764   5.9955928172e+01   5.8626575323e+01     1.665237    0.7778495  50.60  0.005425754    1.904    0.475
        21 -11.6968     60.0510     17.1512   7.4491360449e+01   6.5233852965e+01    0.3508985    0.1671022 -33.72  0.001729116    2.001    0.500
        22 -14.4825     42.7387      3.7264   7.4967406669e+01   6.9561469800e+01     1.231473     0.670338 -20.26  0.006158043    1.681    0.405
        23 -12.4508     48.9789      3.6715   7.2237830750e+01   6.8641002017e+01    0.1961144    0.1610819  12.88 0.0003250758    1.127    0.113
        24 -15.1548    212.2794     41.0651   4.8436580945e+01   2.6919411223e+01     2.958296    0.8700716  71.69  0.008499611    4.730    0.789
        25 -11.7488    153.2315      8.6231   4.7129237176e+01   4.5715042097e+01    0.2437699    0.2272768  28.95 0.0008159824    1.140    0.123
        26 -11.2117     59.2012      6.5606   6.9632923206e+01   6.6671135741e+01    0.2167569    0.1919651 -32.22  0.001320944    1.466    0.318
        27 -11.0491    160.8725      5.9312   4.5141090088e+01   4.4023646695e+01    0.2196734    0.1662046  44.30   0.00101749    1.333    0.250
        28 -11.2073     68.2982      5.2674   6.5667814824e+01   6.5218777991e+01    0.2445839    0.1321799 -42.93  0.001179477    2.608    0.617
        29 -11.7913    119.6650      3.6985   5.1262992584e+01   5.4432180931e+01    0.4159384     0.172401  66.43  0.001709273    2.392    0.582
        30 -11.3331    117.3159      1.6642   5.0942869155e+01   5.5156701918e+01    0.2271937    0.1855104  74.09 0.0008530589    1.297    0.229
        31 -11.9282     78.2993      2.4881   6.1052385396e+01   6.3594680138e+01    0.3583719    0.2225439  39.52  0.001736463    1.401    0.286
        32 -11.0666     83.0077      1.2368   5.9060619385e+01   6.2765803886e+01     0.194799    0.1211308  49.51  0.000843449    1.462    0.316
        33 -11.9476     61.5911      2.0077   6.6418641655e+01   6.6747724406e+01    0.3128727     0.203263  47.65  0.001392162    1.612    0.380
        34 -11.3438    112.1217      1.8324   5.2085719011e+01   5.6357458270e+01    0.4506332    0.1865314  65.25  0.001884569    2.393    0.582
        35 -14.5856     24.0497     13.9822   8.9204169586e+01   7.0430826012e+01    0.7493718    0.4494147  16.68  0.002217024    1.718    0.418
        36 -13.3919     22.2571    181.3037   1.2398765011e+02   3.3970286610e+01    0.5723139    0.4099587 -67.41  0.002631753    1.407    0.289
        37 -12.5623     57.4315    246.7672   1.2218321411e+02   1.6987753686e+01    0.4203243     0.152198  39.96  0.002184486    2.371    0.578
        38 -13.5605     28.3261    246.1678   1.2699705774e+02   2.0524583507e+01    0.6070172     0.285788  75.27  0.003775169    1.851    0.460
        39 -11.7958      2.6922    249.8385   1.3117042250e+02   2.2536230305e+01    0.2938376    0.1353024  48.00  0.001827969    1.673    0.402
        40 -13.8094      9.0478    245.6017   1.3003102127e+02   2.2643783987e+01    0.7022306    0.3333191  58.68  0.003273226    1.501    0.334
        41 -14.8050      8.4204    183.5366   1.2694282074e+02   3.4763968385e+01      1.02723    0.8283717  76.21  0.007749406    1.142    0.124
        42 -14.3739     16.0407    175.7221   1.2485276022e+02   3.5775365617e+01     1.297637    0.4267791  46.25  0.006297574    2.687    0.628
        43 -13.9909     18.0017    161.1709   1.2325385295e+02   3.8846887968e+01     1.938403      1.12111  10.07   0.01023447    3.048    0.672
        44 -13.1515    246.3452    133.4081   6.6312821113e+01   4.6579805754e+00     0.511346    0.3932868 -40.03  0.002840108    1.256    0.204
        45 -14.8620    232.9551    129.5763   6.7648809769e+01   7.9118885998e+00     1.124101    0.8380043 -42.95  0.005885671    1.322    0.243
        46 -12.3222    163.9720    194.6308   9.4998961053e+01   9.8279908002e+00    0.4741625    0.2348299 -55.72  0.001983145    2.644    0.622
        47 -13.4078    120.3661    102.2451   8.5232639331e+01   3.8333210755e+01     0.655237     0.349853  38.54  0.002500428    2.025    0.506
        48 -14.1540    105.3736    121.9914   9.4412541009e+01   3.6713821232e+01     1.595235      1.09249  37.82  0.007468897    1.555    0.357
        49 -13.8576    171.3140    243.2473   1.0108375577e+02   6.5993687979e-01    0.9192314    0.4822096  34.09  0.004978103    1.640    0.390
        50 -11.2797     59.7785    125.5063   1.0800903995e+02   4.2921963103e+01    0.2935407     0.197271  -0.42  0.001131811    2.452    0.592
        51 -11.7453    181.1827    121.1890   7.5486827176e+01   2.0716255514e+01    0.2514647    0.2253336  84.21 0.0007048693    1.286    0.223
        52 -12.4248     77.0220    117.2323   1.0140986403e+02   4.2566101790e+01    0.5336149    0.4080633 -86.41  0.002747683    1.472    0.320
        53 -12.3042     88.2346    109.5472   9.6358543039e+01   4.2648079338e+01    0.4546137    0.3221967 -61.38  0.001910648    1.381    0.276
        54 -11.9779      3.9197    119.9011   1.2274897509e+02   4.9435898251e+01    0.4175196    0.1815381  18.19  0.002136242    3.118    0.679
        55 -12.4744     22.9084     71.7862   1.0909741666e+02   5.9296751634e+01     0.325691    0.2207032  10.15 0.0006392834    1.818    0.450
        56 -14.1819     17.6751    111.2133   1.1785624489e+02   5.0545684555e+01    0.8936041    0.7398965 -69.72  0.004310744    1.063    0.060
        57 -11.8764    107.6012    244.1997   1.1303542300e+02   1.0498749998e+01    0.3436162    0.2591055   7.98   0.00204707    2.294    0.564
        58 -13.4152      6.2605     43.7802   1.0884594153e+02   6.6334876413e+01    0.8088987    0.4172422  24.62  0.004742972    2.361    0.576
        59 -13.6059      2.2325     97.2078   1.2055396057e+02   5.4789360100e+01    0.8825435    0.3250598 -78.71  0.003812996    2.474    0.596
        60 -14.8466     24.8108     94.5785   1.1304226229e+02   5.3927459995e+01     1.928773     1.171778  -9.27   0.01015179    2.404    0.584
        61 -11.3236    121.5169    112.3572   8.7619798216e+01   3.5824047326e+01    0.2600356    0.1479755  43.60 0.0007119053    1.813    0.448
        62 -11.7013     45.2464    110.2920   1.0950163647e+02   4.8299106364e+01    0.3686062    0.2861561 -67.81  0.002169953    1.104    0.094
        63 -13.1042     85.2257    115.5393   9.8642424950e+01   4.1708553366e+01    0.6723506    0.3749219  30.98  0.002018227    2.104    0.525
        64 -10.3884    212.3190    200.3485   8.6397293384e+01   1.6476745050e-01    0.1392817   0.09289698   5.54  0.000655179    1.734    0.423
        65 -12.1575     33.2524    104.7744   1.1217859842e+02   5.0803195017e+01    0.4058857     0.272286 -47.60  0.001688543    1.401    0.286
        66 -12.1463    136.0171    103.1679   8.1311684777e+01   3.4776524719e+01    0.6491281    0.2540134  44.92  0.002174694    2.617    0.618
        67 -12.4938     62.6733     99.8986   1.0192433095e+02   4.8725017757e+01    0.6567383    0.4260236  69.26  0.003005241    2.287    0.563
        68 -11.4925     43.0779     91.2481   1.0636044131e+02   5.3054382165e+01    0.4930623    0.2935517 -79.69  0.002344785    2.075    0.518
        69 -12.7980     51.3562     98.9015   1.0531758746e+02   5.0349872944e+01     0.747093    0.4574623  -1.21  0.003209316    2.670    0.625
        70 -13.6246    249.0707     97.1199   5.7497175741e+01   9.9956763272e+00     0.777226    0.2173172 -38.49  0.002661671    2.958    0.662
        71 -12.2209    136.9764     95.7340   7.8963558158e+01   3.6146171020e+01    0.5214465    0.3700437  69.05  0.002056357    1.818    0.450
        72 -11.1013     25.6586    127.1071   1.1774484492e+02   4.6134023943e+01    0.2101321    0.1738179 -32.84 0.0009417608    1.511    0.338
        73 -12.4460     49.1456     94.4904   1.0506812250e+02   5.1642250480e+01    0.4065663    0.3319626  89.26  0.001847954    1.388    0.279
        74 -12.0350     89.7977     88.3413   9.0304254875e+01   4.7274621118e+01     0.461785    0.3431326  44.82  0.001707738    1.469    0.319
        75 -12.9863    135.6311     79.9939   7.4603494947e+01   3.9655810759e+01     0.749815    0.4230865  48.42  0.003061585    1.794    0.443
        76 -12.1473    127.0851     85.6057   7.8576605026e+01   4.0461262566e+01    0.4405984    0.3823303 -23.52  0.002225505    1.184    0.155
        77 -12.4901    132.3599     85.9401   7.7274389697e+01   3.9214846781e+01    0.3997984    0.3005409  38.31  0.001453115    1.387    0.279
        78 -11.2532     34.4066     86.8618   1.0833691820e+02   5.4916303021e+01    0.2186153     0.180786 -16.26 0.0008198993    1.393    0.282
        79 -13.0270    188.4757     84.3027   6.4134535479e+01   2.6012188140e+01    0.7999559    0.3370363  42.77  0.002699745    2.818    0.645
        80 -12.2248    149.7667     85.0057   7.2627050569e+01   3.5350113041e+01    0.5560505     0.361022  28.83  0.002259236    1.966    0.491
        81 -13.3205    163.9669     71.3487   6.5291440894e+01   3.4408441231e+01     1.581443      0.48488  44.52  0.004471044    3.830    0.739
        82 -12.8561    160.0469     68.0907   6.5131222724e+01   3.5956449609e+01    0.6762084    0.4938849 -47.63  0.001425697    1.410    0.291
        83 -13.5830    160.6061     80.9826   6.8921910492e+01   3.3492934246e+01    0.9683578    0.7054846  13.70  0.003118405    1.881    0.468
        84 -14.5765    169.3063     77.1484   6.5904765104e+01   3.2045424712e+01     1.438216    0.7465264  50.53  0.005191044    1.924    0.480
        85 -11.9033     40.4750    243.7709   1.2486031384e+02   1.9570440499e+01    0.2630481    0.1571643  81.80  0.001804097    1.434    0.303
        86 -12.9641     55.0309     81.7461   9.9995614080e+01   5.3902384800e+01    0.5503193    0.3382136 -41.64  0.001874987    1.492    0.330
        87 -13.8496     60.9619     75.4894   9.6198945634e+01   5.4543212423e+01    0.6897772    0.4052744 -39.71  0.001207042    1.582    0.368
        88 -13.5936    213.2800     78.4420   5.8210298762e+01   2.1004673140e+01     1.133228    0.6409286  77.46  0.004417824    2.570    0.611
        89 -13.0203    216.6517     73.5004   5.6387019470e+01   2.1011205250e+01    0.7446819    0.4799903 -76.41  0.003192292    2.157    0.536
        90 -12.0701    114.1561     80.2279   8.0518331893e+01   4.4347568737e+01    0.3991968    0.3253098 -51.70  0.001016335    1.265    0.210
        91 -13.8721    237.1828     80.2201   5.5098370112e+01   1.5223863964e+01    0.7746041     0.443622  78.72  0.003260018    2.548    0.608
        92 -11.6175    176.6254    110.8174   7.3780423143e+01   2.3835862641e+01    0.3777661    0.2787144  -5.80   0.00163048    1.811    0.448
        93 -12.3017     79.5725     61.1457   8.5117119644e+01   5.4736114374e+01    0.4737787     0.411162  -9.61  0.001970616    1.117    0.105
        94 -13.0394     81.4447     54.6234   8.2165325385e+01   5.5659316269e+01    0.7354311    0.4215327  37.62   0.00332628    1.828    0.453
        95 -13.0506     91.2852     57.8844   8.0051528428e+01   5.3273888358e+01     0.710667    0.4352374 -51.17  0.003234191    1.869    0.465
        96 -13.6924     85.8479     66.6223   8.4856801263e+01   5.2573184270e+01     1.191754    0.7130086   5.74  0.004466763    3.147    0.682
        97 -13.1494     70.7237     75.8388   9.2903790577e+01   5.3095220042e+01    0.5478085    0.4241474 -18.82  0.001568772    1.402    0.287
        98 -12.2151     77.2719     73.9607   9.0099344072e+01   5.2491917862e+01    0.3291754    0.2802104 -45.26  0.001008462    1.106    0.096
        99 -12.7771     28.5268    122.5482   1.1634538652e+02   4.6972712917e+01    0.3633004    0.2489544 -71.55  0.002151297    1.185    0.156
       100 -11.2431     42.0823     76.9241   1.0332697253e+02   5.6445580928e+01    0.2086147    0.1942956   8.59  0.001264118    1.239    0.193
       101 -13.9912    198.9652     69.7953   5.8220403536e+01   2.5907243742e+01    0.9923013    0.6331552  42.04  0.003121426    1.782    0.439
       102 -12.1603    199.8859     62.2286   5.5973577294e+01   2.6892239188e+01    0.3672154    0.3200424 -28.47  0.000507115    1.183    0.154
       103 -12.5986    241.9099     71.5311   5.2345650517e+01   1.5535918749e+01    0.4370566    0.2893476 -68.09  0.002127859    1.792    0.442
       104 -13.3780    133.5465     65.9709   7.0655486657e+01   4.2780616416e+01    0.8786913    0.7265236  -4.38  0.002670316    1.357    0.263
       105 -10.7168    100.9965     70.0058   8.1142667326e+01   4.9080129443e+01    0.2265032    0.1861266 -78.38  0.001122443    1.642    0.391
       106 -12.4772     38.1876     68.3134   1.0250738738e+02   5.8745502839e+01    0.5644476    0.2728957  29.83  0.002768949    2.377    0.579
       107 -11.5851    100.2667     64.9383   7.9665304500e+01   5.0212601637e+01    0.4189943    0.2490669 -22.22  0.001733569    2.125    0.529
       108 -13.9773    178.0839     57.6833   5.8386684478e+01   3.3111583776e+01    0.9375899    0.7313466 -44.56  0.002795596    1.274    0.215
       109 -12.0382     24.3903     59.8998   1.0559636006e+02   6.1780630933e+01    0.3004624    0.1889753 -48.55 0.0008575373    1.246    0.198
       110 -13.7790     96.6798    238.9568   1.1452638413e+02   1.3008259767e+01    0.5954165    0.4018026  52.49  0.002732365    1.180    0.152
       111 -12.7483    135.6636     50.4086   6.4891722566e+01   4.4901914810e+01    0.6101271    0.3470705  32.09  0.002434096    2.199    0.545
       112 -13.4453     91.1141    232.2614   1.1490755574e+02   1.5009221620e+01    0.4781421    0.2569026  87.08  0.002395481    2.559    0.609
       113 -12.9651    110.0478     42.1798   6.8545990765e+01   5.2100742747e+01    0.5942249    0.2474219  45.06  0.001680916    2.329    0.571
       114 -11.9836    147.3214    239.0343   1.0501696527e+02   5.1433488845e+00    0.1661457    0.1490453  50.71 0.0009951204    1.121    0.108
       115 -13.1418    113.6893     38.2639   6.6067520841e+01   5.1872767568e+01    0.4103884    0.3881852  52.33  0.002214016    1.143    0.125
       116 -10.5681     38.4931     60.0008   1.0003037552e+02   6.0498109076e+01    0.1745879    0.1098334 -77.90  0.000810541    2.577    0.612
       117 -10.7984     47.5414     56.9976   9.5539197931e+01   6.0137078335e+01    0.2059444    0.1142595 -51.23  0.001029668    1.615    0.381
       118 -13.3248    248.2406     51.7837   4.6874273105e+01   1.7047186972e+01    0.6946074    0.4192328 -33.89  0.003544043    1.527    0.345
       119 -12.0121    230.4307     55.5870   4.9878374563e+01   2.0521451767e+01    0.4289464     0.216387  69.58  0.001853911    2.203    0.546
       120 -11.7590    109.8879     53.9095   7.2912489711e+01   5.0234273499e+01    0.3773577    0.2168332 -31.59  0.001651507    1.751    0.429
       121 -13.5311    103.0561     50.4509   7.3665625714e+01   5.2265019203e+01    0.8186155    0.5373656 -58.51  0.001177558    2.192    0.544
       122 -12.3937     98.2995     50.8566   7.5267440435e+01   5.3167144268e+01    0.6060188    0.3727027 -56.58  0.001709278    2.347    0.574
       123 -13.3323     65.9177     48.9453   8.5647151133e+01   5.9240195871e+01     0.493735    0.4712642  79.34  0.003097889    1.421    0.296
       124 -11.7891     25.1763     47.9053   1.0181150724e+02   6.4211721870e+01    0.5718338    0.2145179 -31.01   0.00223126    3.533    0.717
       125 -12.2028     14.2544    223.7119   1.2817172838e+02   2.6106727558e+01      0.46562    0.1957342  67.69  0.002062928    2.001    0.500
       126 -13.7718     25.6893    227.5504   1.2641941440e+02   2.4196857532e+01     1.196702    0.4144478 -81.41  0.006078634    2.743    0.635
       127 -13.4882     20.7511    225.2134   1.2713886765e+02   2.5160035979e+01    0.4601992    0.3000157 -87.71  0.002490187    1.301    0.231
       128 -12.7685    237.4982    230.9906   8.7232811196e+01  -7.9816715528e+00    0.2247617    0.1543886  42.33  0.001411504    1.645    0.392
       129 -11.7456    169.4777     43.7586   5.5696509083e+01   3.7397221412e+01    0.2889852    0.2049382  62.52 0.0009149365    1.370    0.270
       130 -10.6874     55.5031     41.0963   8.6688285556e+01   6.2172803351e+01     0.185482    0.1138312 -38.70 0.0003632701    1.443    0.307
       131 -12.7596     75.7359     37.3829   7.7525538614e+01   5.9637975915e+01    0.3404089    0.2398527  38.34 0.0008391712    1.459    0.315
       132 -12.2145     69.5481     36.7839   7.9528945215e+01   6.0782043831e+01    0.4352885    0.2275955  32.63  0.001036807    2.015    0.504
       133 -13.8913    241.9308     34.6518   4.3492923370e+01   2.0770454863e+01     0.836736    0.6204703  76.47  0.002969976    1.373    0.272
       134 -11.2452    104.4792     37.0125   6.8144457642e+01   5.4080467373e+01     0.218012    0.1355925 -29.11  0.001037037    1.605    0.377
       135 -13.1990     66.4659    223.1685   1.1871789781e+02   2.0143596098e+01    0.6774546    0.5218505  40.63  0.004575014    1.414    0.293
       136 -13.9007     62.9579    214.4590   1.1861695033e+02   2.2310993309e+01    0.7024805    0.3956635  60.94  0.004026938    1.563    0.360
       137 -12.8518      1.8540     21.6617   1.0400497262e+02   7.0838650667e+01    0.1999324    0.1325791 -52.70 0.0005098886    1.328    0.247
       138 -12.8130     94.5179    218.7479   1.1283781635e+02   1.7023988377e+01    0.3246739    0.2302987  55.48  0.001469159    1.185    0.156
       139 -11.0478     85.2783    215.9793   1.1437367932e+02   1.8924581205e+01    0.1783575    0.1458303  72.96   0.00117221    1.059    0.056
       140 -11.7309     58.4829     35.4012   8.3211634571e+01   6.2732063005e+01    0.5041732    0.2225278  33.38  0.002280713    2.423    0.587
       141 -12.2703     46.1743     33.8710   8.7657029861e+01   6.4671729821e+01    0.4724122    0.2778393 -29.80  0.002570721    1.523    0.343
       142 -12.0973    185.6277    213.7645   9.3891447269e+01   2.7014075900e+00    0.2131033     0.174381 -50.22   0.00129306    1.512    0.339
       143 -13.1323      9.1668    210.8243   1.2838542154e+02   2.9093700079e+01    0.6061924    0.4243138  41.79  0.004463541    1.575    0.365
       144 -11.2236    136.8371    211.3498   1.0331355930e+02   1.1589183149e+01    0.2118955    0.1782165 -81.70 0.0008079918    1.365    0.267
       145 -11.4847     31.4090     31.0821   9.3076987340e+01   6.6841161278e+01    0.2267794    0.1530035  12.68 0.0006924627    1.571    0.363
       146 -12.4496     41.8692    206.9539   1.2207338455e+02   2.6437356660e+01     0.333239    0.1585052  69.88  0.001652132    2.088    0.521
       147 -10.8031     89.2819     30.1057   6.9949013416e+01   5.8206640970e+01    0.1833104    0.1596166  -8.08 0.0002608121    1.075    0.069
       148 -12.9078     56.4555     27.4158   8.0622912781e+01   6.4315716115e+01    0.5784026    0.2848854  41.97  0.001903198    2.267    0.559
       149 -12.8293     67.7886     24.5113   7.4923073353e+01   6.2945306756e+01    0.6356277    0.3292081  40.82   0.00315219    1.934    0.483
       150 -11.5780     27.7283     33.4365   9.5687915723e+01   6.6776206239e+01    0.3406003    0.1982327 -54.15   0.00190415    1.773    0.436
       151 -10.9212     97.9290     27.1651   6.6098760660e+01   5.6836351211e+01    0.1994886    0.1925235  72.36  0.001220011    1.274    0.215
       152 -11.9873     46.8566     21.0664   8.1787240205e+01   6.6647901096e+01    0.3909466    0.2828966  16.55  0.002181037    1.329    0.247
       153 -10.7786     80.5068    208.5008   1.1453492490e+02   2.1101666601e+01    0.1286132    0.1022787  68.57 -3.104616e-05    1.053    0.050
       154 -11.1217    150.7470    206.9932   9.9795241847e+01   9.9650670340e+00    0.2589383    0.1610513  30.47  0.001292619    1.668    0.401
       155 -12.6011     57.3864    203.5656   1.1872095072e+02   2.5247805332e+01    0.5173784    0.2445163 -87.57  0.002472869    2.403    0.584
       156 -12.9333     40.5011    195.3430   1.2139693360e+02   2.9015661979e+01    0.4323589    0.1822113  85.70   0.00189249    2.885    0.653
       157 -12.4601    201.0545    192.0161   8.7000380168e+01   3.4664702717e+00    0.3511945    0.2799308  -4.81  0.001509175    1.288    0.224
       158 -11.8166     49.0911    181.5458   1.1831138270e+02   3.1013542538e+01    0.3486196     0.227345 -56.02  0.002011314    1.698    0.411
       159 -13.1719    197.4234    180.0669   8.5396268537e+01   6.1495670072e+00    0.6646003    0.4148987 -66.78  0.002589205    3.408    0.707
       160 -12.6998     16.7653    195.5566   1.2609183575e+02   3.1463970624e+01    0.9059777    0.2401587 -72.29  0.004052527    3.030    0.670
       161 -12.6243    124.6025    167.8126   9.8943147299e+01   2.2586322071e+01    0.4601946     0.240023 -58.69  0.001934862    2.074    0.518
       162 -11.9902     77.3549    156.9348   1.0857535207e+02   3.2951088636e+01    0.3928708    0.2817639  30.27  0.001547982    1.639    0.390
       163 -13.1162    157.7654     43.7316   5.7874805310e+01   4.0398508717e+01    0.8439446    0.5268318  32.84  0.003633584    1.950    0.487
       164 -13.1728     73.8910    153.4446   1.0890043301e+02   3.4277014055e+01    0.6374487    0.5229381  39.22  0.002664076    1.339    0.253
       165 -13.4953     29.9410    169.3981   1.2133205333e+02   3.5853275374e+01    0.6854241    0.4133168 -49.10  0.002325443    2.066    0.516
       166 -12.5889    208.9811    154.8855   7.7809794948e+01   8.3312618243e+00     0.627925    0.3533272  44.37   0.00280894    1.800    0.445
       167 -11.6671     85.9365    152.7065   1.0573672153e+02   3.2663558719e+01    0.4545124    0.2042998 -51.50  0.001868155    2.211    0.548
       168 -10.9166    133.0537    152.7000   9.3996276963e+01   2.4331451172e+01    0.2041478    0.1883099  48.44 0.0002693422    1.070    0.065
       169 -11.7647    103.1767    150.2463   1.0092471600e+02   3.0421011614e+01    0.4033979    0.2685587 -39.21  0.001824032    1.788    0.441
