#   1 NUMBER                 Running object number                                     
#   2 MAG_AUTO               Kron-like elliptical aperture magnitude                    [mag]
#   3 X_IMAGE                Object position along x                                    [pixel]
#   4 Y_IMAGE                Object position along y                                    [pixel]
#   5 X_WORLD                Barycenter position along world x axis                     [deg]
#   6 Y_WORLD                Barycenter position along world y axis                     [deg]
#   7 A_WORLD                Profile RMS along major axis (world units)                 [deg]
#   8 B_WORLD                Profile RMS along minor axis (world units)                 [deg]
#   9 THETA_WORLD            Position angle (CCW/world-x)                               [deg]
#  10 FWHM_WORLD             FWHM assuming a gaussian core                              [deg]
#  11 ELONGATION             A_IMAGE/B_IMAGE                                           
#  12 ELLIPTICITY            1 - B_IMAGE/A_IMAGE                                       
         1 -15.2854     27.8738     83.8608   1.1155506511e+02   5.6299073456e+01     2.058545     1.206159 -42.41  0.009732286    1.627    0.385
         2 -17.5809    121.8464     40.4788   6.6951011112e+01   4.9781729380e+01     4.238458     3.403766 -12.07   0.01491621    1.299    0.230
         3 -13.6784     71.0534     44.2112   8.3999746780e+01   5.9365346657e+01     1.576627    0.6228029 -36.10   0.00551654    2.428    0.588
         4 -14.2893    208.1343     22.7223   4.6094363300e+01   3.0054741711e+01     1.078411    0.8145669  26.98  0.005620218    1.741    0.426
         5 -13.9096    196.9153     35.2827   5.1002910041e+01   3.1370769147e+01      1.02703    0.9479858  27.26  0.003394446    1.240    0.194
         6 -14.6962      9.1035     11.5897   9.7649534869e+01   7.2191891847e+01     2.264638      1.10267 -30.77   0.01340886    1.714    0.417
         7 -13.5081     65.2824     15.9857   7.3943796788e+01   6.4630061554e+01    0.8431621    0.5432172  30.79  0.003483672    1.489    0.328
         8 -12.3187     76.5027     23.7840   7.3531733091e+01   6.1624367344e+01    0.5300805    0.4243065  26.14  0.002592049    1.179    0.152
         9 -11.1516    232.2502      1.4544   3.8429122739e+01   2.6478006967e+01    0.4309721    0.1189219  76.07  0.001543083    3.547    0.718
        10 -10.7127    155.8567    200.2127   9.9732342291e+01   1.0756071856e+01    0.3117065    0.1777246 -68.44  0.001274766    2.965    0.663
        11 -15.8251    173.7760    241.0272   1.0237104106e+02   1.2039062882e+00     3.069024     2.186099  54.04   0.01946331    1.436    0.304
        12 -15.1339     70.5828    153.9384   1.1151999973e+02   3.4982120924e+01     3.161779     1.088779 -72.37   0.01019737    4.061    0.754
        13 -17.7999     13.6061    227.0485   1.2969957151e+02   2.6352286247e+01     4.838902     2.160982 -85.04   0.03035713    1.896    0.473
        14 -10.7369    191.0111    184.0062   8.9761249081e+01   6.9515836547e+00    0.2574883    0.1913984  37.96  0.001038236    1.231    0.188
        15 -13.0265    183.8356    182.4375   9.0895299981e+01   8.6062241099e+00    0.6596473    0.4483422  49.50   0.00208551    1.458    0.314
        16 -12.2260    148.8043    191.1550   9.9694924163e+01   1.3716726171e+01    0.5266663    0.3825591  53.88   0.00250651    1.310    0.236
        17 -18.3095    119.0782    225.5011   1.1056932772e+02   1.2632674216e+01     5.283959     1.629284  46.61   0.02176682    2.665    0.625
        18 -11.7517    170.4958    179.1659   9.3007235260e+01   1.1799368055e+01    0.4028741    0.3584184  25.22  0.002317896    1.109    0.099
        19 -11.1084     47.2229    172.1222   1.1924358766e+02   3.3843013604e+01    0.2161012    0.1952798 -83.03 0.0008586459    1.239    0.193
        20 -10.1816    163.9720    169.9602   9.2606683313e+01   1.4836981670e+01    0.2201914     0.174719  84.08 0.0005246453    1.643    0.391
        21 -11.3651    193.9334    166.8824   8.5752596029e+01   9.3456977771e+00    0.3153601     0.292744 -44.23 0.0009011455    1.189    0.159
        22 -15.0833     51.6858    201.3018   1.2113300114e+02   2.7072028372e+01      2.06607     1.249707 -47.76   0.01143212    2.496    0.599
        23 -11.5208     59.3260    151.9111   1.1397830137e+02   3.6962558596e+01    0.3113572    0.2260123 -81.75   0.00114536    1.226    0.184
        24 -12.3336     55.4494    147.0341   1.1425354570e+02   3.8590368272e+01    0.5455096    0.4169208 -31.78  0.003089834    1.850    0.459
        25 -11.5715    133.7628    143.5027   9.4026007058e+01   2.6480830267e+01    0.8210581    0.2293219 -55.63   0.00203928    5.395    0.815
        26 -16.0370    130.5862    185.9313   1.0271089955e+02   1.8087080515e+01     2.278976     2.056491 -69.37   0.01374902    1.178    0.151
        27  -9.4230    109.2961    147.6356   1.0086544546e+02   3.0238020605e+01    0.1533393    0.1093298  83.58 0.0007031392    1.717    0.417
        28 -10.9639     86.7426    145.7094   1.0616444585e+02   3.4501958799e+01    0.2592517    0.1969681  76.39 0.0005678181    1.375    0.273
        29 -10.6821     47.0869    145.8525   1.1616976519e+02   3.9862532206e+01    0.2071194    0.1493713  76.19 0.0007721535    1.327    0.247
        30 -16.1961     92.6575    181.9407   1.1040845556e+02   2.5388928809e+01     1.911958    0.8244025  43.48  0.007049403    2.137    0.532
        31 -12.1858    103.5535    140.9951   1.0100911284e+02   3.2793281165e+01    0.6182189    0.3428077 -32.07  0.002266528    3.140    0.682
        32 -12.4521     91.1218    141.3811   1.0426455174e+02   3.4814680149e+01    0.2790664    0.2538171 -56.52 0.0004017574    1.156    0.135
        33 -16.6441     89.5779    171.1411   1.0956495858e+02   2.8234670934e+01     2.159962     1.070098  47.50  0.008669068    1.912    0.477
        34 -10.3869     29.8804    139.1256   1.1960707002e+02   4.3237592138e+01    0.1889999    0.1415077  78.46 0.0004913585    1.225    0.183
        35 -11.0185    112.3177    131.2701   9.6723955695e+01   3.3447768010e+01    0.2925346    0.2413914 -12.09 0.0007670514    1.618    0.382
        36 -11.2348    106.0953    130.8027   9.8244441265e+01   3.4708326306e+01    0.3471742    0.2962755 -78.12  0.001378753    1.175    0.149
        37 -13.0510    118.5753    125.8086   9.3864205331e+01   3.3497522081e+01    0.8086859    0.3957672 -40.15  0.003040257    2.332    0.571
        38 -11.3776     99.6009    127.5747   9.9268215444e+01   3.6623620944e+01    0.3422329     0.266135 -24.43 0.0009441698    1.689    0.408
        39 -10.9461    125.6839    127.3366   9.2394036626e+01   3.1730943284e+01    0.2431136     0.181367  85.90 0.0006544038    1.743    0.426
        40  -9.7203      7.3323    124.0174   1.2363200154e+02   4.8576035274e+01    0.1657975     0.119347 -80.05 0.0006906666    1.058    0.054
        41 -12.5720     40.8755    119.5913   1.1400277532e+02   4.6743474879e+01    0.6904252    0.3254875 -43.90   0.00310019    2.489    0.598
        42 -10.5548    108.5659    119.8824   9.5123333252e+01   3.6785996330e+01    0.2291743    0.2048297  30.68 0.0003733358    1.237    0.192
        43 -13.1442    118.3602    110.0990   9.0064784754e+01   3.7106135800e+01    0.6810893    0.4809611  56.34  0.003136072    1.551    0.355
        44 -10.6201    107.9535    113.9813   9.3869946731e+01   3.8261980147e+01    0.2222418    0.2095779 -74.72  0.001212045    1.035    0.034
        45 -10.6777     53.4001    110.2238   1.0874334861e+02   4.7580665816e+01    0.2460259    0.1562495 -70.84 0.0008329388    1.466    0.318
        46  -9.8318    205.7075    110.0680   7.0150161776e+01   1.7125335043e+01    0.2172048    0.1902215 -31.67 0.0006090897    1.100    0.091
        47 -11.0390     70.6093    106.4873   1.0283307595e+02   4.6226309330e+01    0.4467821    0.2778786  48.93  0.002174755    1.821    0.451
        48 -11.9676     63.2905    101.3483   1.0390104701e+02   4.8438389553e+01    0.4389085    0.3838347  43.63  0.001755243    1.286    0.222
        49 -10.9289     52.9652    100.4572   1.0689916388e+02   4.9938547875e+01    0.2689265    0.2287366  41.59   0.00088604    1.348    0.258
        50 -12.4586     56.9561     94.4239   1.0430774863e+02   5.0864679444e+01    0.6539611    0.3650414 -53.28  0.001814168    1.528    0.346
        51 -16.8201    115.3782    206.8847   1.0896825964e+02   1.6628054017e+01     2.011604     1.272754  76.78   0.00957846    1.970    0.492
        52 -12.0996     78.9987     89.9315   9.6176269145e+01   4.8801514303e+01     0.582747     0.381762 -62.81  0.001788393    1.610    0.379
        53 -13.2217     47.3675     75.5397   1.0286756042e+02   5.6278287110e+01    0.7333449    0.4796418  27.52  0.003823225    1.789    0.441
        54 -12.1066     60.8550     77.7618   9.8789208743e+01   5.4142405017e+01    0.7145052    0.3189647 -44.10  0.002767551    2.040    0.510
        55 -13.4689     55.2114     63.6885   9.6648092558e+01   5.7892290565e+01     0.754108    0.7272764 -64.70  0.003028023    1.214    0.176
        56 -11.1369     66.4745     64.9008   9.2982165553e+01   5.6108411763e+01    0.4434185    0.2879689 -61.05  0.001796832    1.800    0.444
        57 -10.9427      8.1477     80.8361   1.1762169074e+02   5.8368944172e+01    0.2356789    0.1882787  39.92  0.001313047    1.574    0.365
        58 -10.3886    250.1323    240.8413   8.9083490090e+01  -1.0554781606e+01    0.2177812    0.1405358 -13.77  0.001016336    1.520    0.342
        59 -11.1315    151.9859     55.1988   6.5039372467e+01   4.0157067832e+01    0.3311535    0.2506639 -88.22 0.0004628792    1.677    0.404
        60 -12.7451     53.9779     51.1223   9.2958619839e+01   6.0579773978e+01    0.8049777    0.5449684  -1.88  0.003293379    1.824    0.452
        61 -11.6594     64.6538    238.8736   1.2181404018e+02   1.8268498403e+01    0.3081029    0.1802872  43.26   0.00103579    1.551    0.355
        62  -9.9863     13.6437     59.9216   1.1143464904e+02   6.2625187350e+01    0.1695642    0.1197924 -58.42 0.0004318611    1.124    0.110
        63 -10.7777    153.9476     48.9627   6.2569263086e+01   4.0629008590e+01    0.2574849    0.2214804  85.96 0.0005118184    1.272    0.214
        64 -13.9185    193.1830    192.9979   9.1023773642e+01   5.0505986809e+00     1.001047    0.5680767 -56.39  0.004413517    2.717    0.632
        65 -12.8871    187.6435     42.1022   5.4347019103e+01   3.2863538112e+01    0.4581926    0.4256461  20.90 0.0009263318    1.208    0.172
        66 -10.0668     58.9104    228.0766   1.2199495321e+02   2.0956770014e+01     0.174907    0.1128142  67.51  0.000348058    1.234    0.190
        67 -12.1046    184.4918    190.2854   9.2235230241e+01   7.1319999394e+00    0.5334315    0.2084747  37.11  0.002045254    2.566    0.610
        68 -12.1171     61.0429     23.1191   7.8876064729e+01   6.4349085518e+01    0.5036564    0.3097468 -22.18  0.002035888    1.530    0.346
        69 -10.9269     66.6796    206.3823   1.1866442223e+02   2.4098982998e+01    0.2212203    0.1954415 -62.08  0.001539191    1.468    0.319
        70 -11.7160    180.0067    175.7422   9.0376996596e+01   1.0547385778e+01    0.2873284     0.213196 -29.50 0.0007802978    1.487    0.327
