#   1 NUMBER                 Running object number                                     
#   2 MAG_AUTO               Kron-like elliptical aperture magnitude                    [mag]
#   3 X_IMAGE                Object position along x                                    [pixel]
#   4 Y_IMAGE                Object position along y                                    [pixel]
#   5 X_WORLD                Barycenter position along world x axis                     [deg]
#   6 Y_WORLD                Barycenter position along world y axis                     [deg]
#   7 A_WORLD                Profile RMS along major axis (world units)                 [deg]
#   8 B_WORLD                Profile RMS along minor axis (world units)                 [deg]
#   9 THETA_WORLD            Position angle (CCW/world-x)                               [deg]
#  10 FWHM_WORLD             FWHM assuming a gaussian core                              [deg]
#  11 ELONGATION             A_IMAGE/B_IMAGE                                           
#  12 ELLIPTICITY            1 - B_IMAGE/A_IMAGE                                       
         1  -9.3164    119.0613     19.9079   4.8247298980e+01   5.2364736330e+01    0.3707968    0.2118051 -76.57  0.001484029    3.236    0.691
         2  -8.4305     87.7407     17.4249   5.4849970103e+01   5.9631495820e+01    0.2143364    0.1476554 -35.54 0.0006162401    1.651    0.394
         3  -7.9760     30.0072     16.0067   7.6227965754e+01   6.9797614105e+01    0.1524395    0.1494961 -45.17 0.0007183324    1.680    0.405
         4  -7.4902    119.5326     11.0030   4.5049554733e+01   5.3115706432e+01    0.1773148   0.09413049 -50.95 0.0008078781    2.452    0.592
         5  -8.6897     55.6947      9.9635   6.1985467355e+01   6.6609236891e+01    0.1952248    0.1769004 -51.50 0.0007979998    1.622    0.384
         6  -7.9628     47.4783     10.2379   6.5381542422e+01   6.7965800421e+01    0.1507809    0.1066168 -33.47 0.0008601054    1.629    0.386
         7  -8.5140     90.7490      8.8918   5.0573854862e+01   5.9810359329e+01    0.2160013    0.1632713 -43.50 0.0008355827    1.630    0.386
         8  -8.4551     33.4859      5.2875   6.9072344935e+01   7.0656322363e+01    0.2428947    0.1727948 -54.81  0.001331299    2.975    0.664
         9  -8.5061     79.0356      4.0188   5.1634242577e+01   6.2696476533e+01    0.1765574    0.1462156 -60.70 0.0007324815    1.681    0.405
        10  -7.4572     44.6818      3.3012   6.3039838399e+01   6.9147645124e+01   0.09761152   0.09574864 -73.68 0.0003626387    1.621    0.383
        11  -7.6593    167.5805      1.4150   3.5180978923e+01   4.2461035645e+01    0.1261087    0.1040888 -89.62 0.0001719856    1.041    0.040
        12  -8.3111     62.4439      1.4533   5.5501276596e+01   6.6185274480e+01    0.1853233    0.1108837  62.53 0.0006460214    2.023    0.506
        13  -9.1092    210.9444    246.5711   8.4133767130e+01  -7.0797071049e+00    0.1933799    0.1620207 -42.92 0.0006551946    1.618    0.382
        14  -8.5115    248.9526    249.2750   7.7805772132e+01  -1.2251820062e+01    0.2882034    0.1434575 -19.02  0.001631207    2.005    0.501
        15  -9.7404    248.5200    242.3353   7.6747474163e+01  -1.1340176313e+01    0.3816403    0.2071954 -36.68  0.001459467    1.911    0.477
        16  -9.1813    247.9122    234.5318   7.5548937489e+01  -1.0263112662e+01    0.2615827    0.1864579 -37.11  0.001731526    1.639    0.390
        17  -9.4704    246.4656    229.1991   7.4888326440e+01  -9.3746064530e+00    0.4399666    0.1841839 -35.17  0.002257653    2.212    0.548
        18  -8.2167    191.3759    249.6599   8.8315278890e+01  -4.7820421222e+00    0.1665349    0.1377001  53.15 0.0009033401    1.656    0.396
        19  -7.9739    184.2409    250.3570   8.9798115894e+01  -3.8574380081e+00    0.1752561    0.0970797  39.67  0.000944645    1.660    0.398
        20  -8.4590     93.7562    249.4000   1.0789192280e+02   9.8265448037e+00    0.2604737    0.1528153  83.31  0.001245969    2.371    0.578
        21  -7.8882     25.4929    250.4787   1.2117013035e+02   1.8378165691e+01    0.1158492   0.08390469  65.86 0.0001996916    1.023    0.023
        22  -9.0261    147.0452    245.9491   9.6590088076e+01   2.4253739569e+00    0.2777469    0.2029037  70.61  0.001385706    1.954    0.488
        23  -9.0899    120.1659    245.3972   1.0204310117e+02   6.6448702707e+00    0.3386513    0.2212394  73.33  0.001718232    2.126    0.530
        24  -8.4061     67.5229    244.5704   1.1270860609e+02   1.4393855015e+01    0.2300982    0.1151771 -71.87  0.001121532    2.157    0.536
        25  -8.3372     50.0000    244.9830   1.1619803892e+02   1.6571669988e+01    0.1812239    0.0626484 -71.77 0.0008098278    2.994    0.666
        26  -8.8598      9.5954    243.8935   1.2369418516e+02   2.1336799800e+01    0.2628155   0.08352985  88.92  0.001134914    3.466    0.712
        27  -8.9185    202.0054    243.4201   8.5316916086e+01  -5.3893526015e+00    0.2027993    0.1668658 -48.23 0.0008159025    1.662    0.398
        28  -7.9710    139.3451    244.6672   9.7995495009e+01   3.8309018140e+00    0.1310641   0.09046977  61.10 0.0007049989    1.762    0.432
        29  -9.3815     78.2053    243.2575   1.1043445834e+02   1.3194891360e+01    0.3464318     0.162253  67.86  0.001474801    2.999    0.667
        30  -8.6080    168.9251    243.2131   9.1765228024e+01  -4.7745048679e-01    0.1862335     0.155622  43.98 0.0006814729    1.271    0.213
        31  -8.1982    214.3646    241.8194   8.2738590567e+01  -6.8839260021e+00    0.1646309   0.09986419 -24.13 0.0009464364    1.657    0.397
        32  -9.2413    183.1166    240.2209   8.8480903996e+01  -2.1496259956e+00     0.390802    0.2547082  60.15  0.001686699    2.683    0.627
        33  -9.4552    160.1129    240.3550   9.3130431434e+01   1.3461899155e+00    0.3665724    0.2595959 -85.98  0.001624095    2.714    0.632
        34  -8.0486    153.4258    242.2723   9.4774579220e+01   2.0610694958e+00    0.1564176    0.1262364 -68.19 0.0009437262    1.651    0.394
        35  -8.2420     88.1673    242.2185   1.0829268738e+02   1.1989964189e+01    0.1744584    0.1258892  69.15 0.0006058732    1.368    0.269
        36  -8.6365    240.3424    240.6359   7.7872786347e+01  -1.0124525924e+01      0.27407    0.1325739 -25.54  0.001489461    2.009    0.502
        37  -8.6219    243.1321    236.0541   7.6625508052e+01  -9.8713161325e+00    0.2402401    0.1277857 -10.21  0.001230125    2.170    0.539
        38  -8.4339    146.3665    239.9254   9.5898015991e+01   3.5631674429e+00    0.2945449    0.1957236  71.01   0.00112227    2.479    0.597
        39  -9.0409    194.0840    239.8424   8.6272188772e+01  -3.7180152282e+00    0.1775939    0.1558138  32.74 0.0004890609    1.277    0.217
        40  -9.0184    135.7501    239.1753   9.8004632860e+01   5.3583669160e+00    0.2843943    0.1530493  49.54  0.001385228    1.865    0.464
        41  -8.4602    129.0008    238.7310   9.9359289438e+01   6.4942302321e+00    0.2105859    0.1670569 -88.31  0.000758074    1.600    0.375
        42  -9.2575    230.8937    236.7282   7.8889365555e+01  -8.3955269188e+00    0.3319439    0.2145396 -35.63   0.00138343    1.621    0.383
        43  -7.9617    209.1720    238.2533   8.3130319442e+01  -5.6525509993e+00    0.1486771    0.1412906   8.94 0.0005829517    1.367    0.269
        44  -8.6793     25.7180    237.2221   1.2034518102e+02   2.0967418084e+01    0.2450393      0.08244  62.94  0.001027976    3.155    0.683
        45  -8.6456     12.1854    236.8000   1.2286414868e+02   2.2481644148e+01     0.215391   0.06952817  61.90 0.0009578096    2.901    0.655
        46  -9.9882    214.8020    233.1971   8.1239367465e+01  -5.7088329959e+00    0.4583572    0.3540799 -81.72  0.002315368    3.397    0.706
        47  -9.1641    203.1248    234.8707   8.3726054665e+01  -4.2867894365e+00    0.2565022    0.1697835 -49.17 0.0009860405    1.991    0.498
        48  -9.9438    175.6297    233.2448   8.8889395816e+01   1.1609325982e-01    0.4754272    0.2634791 -57.79  0.002216142    2.768    0.639
        49  -8.3988    170.2520    235.7602   9.0373137441e+01   5.3614389855e-01     0.197222    0.1565952 -45.59 0.0005968194    1.468    0.319
        50  -7.6056     57.9941    237.0000   1.1397233127e+02   1.7153103578e+01    0.1946113   0.06140481  35.10 0.0006337708    2.886    0.654
        51  -9.3356    108.8142    234.2975   1.0306762457e+02   1.0460875580e+01    0.4777777    0.2508894  55.10  0.001225204    2.023    0.506
        52  -8.2602     99.8023    234.6048   1.0502238814e+02   1.1768559233e+01    0.2479511    0.1522278  76.19  0.001217011    2.163    0.538
        53  -9.0264     78.5863    234.3921   1.0948117214e+02   1.4901240480e+01    0.2677575    0.1713373  87.31 0.0009600112    1.756    0.431
        54  -8.9760    132.4244    233.1795   9.7887495569e+01   6.9791297830e+00    0.2764658    0.1982579 -50.19   0.00140147    1.590    0.371
        55  -8.2499    122.7607    234.2309   1.0008655199e+02   8.3082779860e+00    0.2002836    0.1549192  74.11 0.0007948035    1.523    0.344
        56  -9.4345     68.4816    232.6285   1.1142132519e+02   1.6657412694e+01    0.4475327    0.1885096  63.17  0.001795966    3.119    0.679
        57  -8.2101    194.2233    232.6606   8.5088579214e+01  -2.6337154055e+00    0.1831286    0.1435242  38.59 0.0006858696    1.346    0.257
        58  -8.4823    144.8123    233.2074   9.5266947723e+01   4.9998876052e+00    0.2808667    0.1451414  56.07  0.001180861    2.714    0.632
        59  -8.6298    140.0315    230.0852   9.5829722686e+01   6.3373622844e+00    0.2461677    0.1611996  52.42 0.0008220972    1.601    0.375
        60  -9.4703    186.5721    230.8604   8.6306903837e+01  -1.1862887328e+00    0.3043054    0.2464753 -85.61  0.001675819    2.194    0.544
        61  -8.4148    157.8441    232.0738   9.2365921067e+01   3.1209391595e+00    0.1939551    0.1501929  81.84 0.0007012438    1.996    0.499
        62  -8.2562     92.4062    231.7099   1.0626598036e+02   1.3448138318e+01    0.2828763    0.1521174  70.42 0.0009431749    2.622    0.619
        63  -8.9168    236.1485    230.8020   7.6955978146e+01  -8.2693726462e+00    0.2162211    0.1655358 -18.79 0.0006618947    1.182    0.154
        64  -8.5203      1.5286    230.9420   1.2453876688e+02   2.4708163017e+01    0.1649238    0.0887017 -88.78 0.0007231382    1.552    0.356
        65  -8.7388    229.5885    229.2783   7.7864534761e+01  -7.1840496501e+00    0.2100822    0.1076383 -39.25 0.0009329407    2.016    0.504
        66  -9.9457    149.5976    226.1933   9.3210903924e+01   5.5068327233e+00    0.6043051    0.3767464 -85.12  0.002360218    3.900    0.744
        67  -9.0046    162.1015    227.9641   9.0844188639e+01   3.1610921545e+00    0.2504531    0.1991866  57.10  0.001156133    1.497    0.332
        68  -8.9010    127.8399    227.2837   9.8052814661e+01   8.8302160920e+00    0.3166987    0.2080096  64.17 0.0009296377    1.910    0.477
        69  -8.7519    119.9384    227.6415   9.9816203275e+01   1.0023836408e+01    0.2499925    0.1752057  89.11  0.001291373    1.940    0.485
        70  -9.0277      8.3835    228.2001   1.2312184867e+02   2.4613997347e+01    0.1685256   0.08338894  83.39 0.0006891424    1.757    0.431
        71  -7.9854    223.3623    227.1929   7.8637294639e+01  -6.0298625356e+00    0.1595896    0.1082927 -41.62 0.0005840571    1.698    0.411
        72  -8.1479     49.7290    226.9230   1.1481208944e+02   2.0290866746e+01    0.2189754    0.1116556  70.16  0.001072008    2.076    0.518
        73  -8.3420    206.0069    226.0373   8.1695610910e+01  -3.3590388482e+00    0.1694509      0.16023  85.10 0.0005449622    1.628    0.386
        74  -8.7210    200.0171    226.5140   8.2934578675e+01  -2.5382574959e+00    0.1870463    0.1131337  33.38 0.0005351935    1.518    0.341
        75  -8.2036     78.5067    225.9999   1.0862191699e+02   1.6641519787e+01    0.1850353   0.09997063  80.56 0.0008104515    2.553    0.608
        76  -8.6733    180.4255    224.1303   8.6439715379e+01   8.8935345766e-01    0.2341571    0.1890609  64.05 0.0005380461    1.756    0.431
        77  -8.9462    104.7568    223.7989   1.0263128526e+02   1.3184031451e+01    0.3477762    0.2256473  82.93  0.001314348    2.066    0.516
        78  -9.0940     94.0634    224.3590   1.0504994024e+02   1.4705231567e+01    0.3833986    0.2015096  60.55   0.00162521    2.215    0.549
        79  -8.0893     38.4409    224.9531   1.1698120387e+02   2.2073063010e+01     0.179625      0.08171  76.29 0.0008072289    2.520    0.603
        80  -8.8759    216.2873    223.4534   7.9301721164e+01  -4.4683481268e+00    0.2232851    0.2149982 -68.58 0.0009800002    1.589    0.371
        81  -8.6428    173.0036    223.2580   8.7820251089e+01   2.2284937389e+00    0.2119427    0.1869938  85.40 0.0006390749    1.592    0.372
        82  -8.0835    113.9683    224.0333   1.0063557109e+02   1.1689498661e+01    0.2167464    0.1472253  65.26 0.0006747078    1.687    0.407
        83  -9.0075    239.1849    221.4291   7.4799174927e+01  -7.3548760698e+00    0.2524357     0.182187 -32.26  0.001060483    1.383    0.277
        84  -9.5154    225.5458    221.7470   7.7292767155e+01  -5.5329150222e+00    0.2308959    0.2091459  33.43  0.001113966    1.445    0.308
        85  -9.7490    191.2372    220.6337   8.3665946000e+01  -2.3225983233e-01    0.4431054    0.3013998  56.62  0.002134666    2.177    0.541
        86  -9.1110    159.9517    220.9820   9.0188091771e+01   4.7658250335e+00    0.4773713    0.2429058  55.21  0.001609979    2.978    0.664
        87  -9.2863    120.2141    219.0219   9.8562176533e+01   1.1701732320e+01    0.4528506    0.2622394  68.26  0.001761562    2.711    0.631
        88  -8.9172     82.6301    220.3101   1.0709076319e+02   1.7253049660e+01    0.3378474    0.1924671  70.67  0.001301018    2.148    0.534
        89  -8.2205     73.1628    220.5360   1.0919820150e+02   1.8556349335e+01    0.2435721    0.1347731  82.10  0.001063891    2.306    0.566
        90  -8.0278     27.5693    220.6716   1.1888738310e+02   2.4220173904e+01    0.2280397   0.07124282 -60.03 0.0009562966    3.304    0.697
        91  -8.3021      6.3166    221.6464   1.2316672611e+02   2.6181251914e+01    0.1287168   0.06223232  65.21 0.0007046302    1.741    0.426
        92  -8.2551    202.7261    220.1914   8.1322979074e+01  -1.9410130472e+00    0.1806227    0.1629477 -49.30 0.0006967518    1.458    0.314
        93  -8.5655    248.9095    218.2803   7.2568731925e+01  -8.1852308767e+00    0.2133771    0.1812722  81.45  0.001267526    2.728    0.633
        94  -8.2803    210.0272    219.2889   7.9758257951e+01  -2.9017686221e+00    0.1753267    0.1487049  12.13 0.0004365084    1.076    0.071
        95  -9.5003    133.2399    216.4285   9.5283389782e+01   1.0081066855e+01    0.5218857    0.3130784  72.76  0.002067496    3.161    0.684
        96  -8.6435     62.2445    217.6006   1.1128371139e+02   2.0685013866e+01     0.303268    0.1670021  66.49  0.001334842    1.917    0.478
        97  -8.9981     51.7557    217.3880   1.1354238316e+02   2.2090897238e+01    0.2834775    0.1488701  86.21  0.001095156    2.128    0.530
        98  -8.7081    142.7722    216.3369   9.3162755532e+01   8.5057676739e+00    0.2838356    0.1886563 -73.77 0.0009466255    2.227    0.551
        99  -8.5120    111.7408    217.1856   1.0019870262e+02   1.3447949404e+01    0.2155453    0.1648366  78.44  0.001170311    1.499    0.333
       100  -7.8657     55.9947    216.9909   1.1258696583e+02   2.1637734730e+01    0.1532318    0.1215064 -89.44            0    1.167    0.143
       101  -8.7204     18.5050    216.5017   1.2044732882e+02   2.6079794768e+01    0.2096821   0.09377514  87.56  0.001028845    2.163    0.538
       102  -8.6086    232.2899    214.8206   7.4845519716e+01  -5.4472391612e+00    0.2052874    0.1787192 -42.71 0.0008148527    1.525    0.344
       103  -8.2526    154.2318    215.1925   9.0475834162e+01   6.8001918767e+00    0.1827163    0.1589225  66.85 0.0006059354    1.365    0.267
       104  -7.7119     41.3486    215.0351   1.1557114979e+02   2.3880907356e+01    0.2118747   0.08226394  81.68 0.0007046649    4.393    0.772
       105  -9.3260    213.9222    212.2886   7.7771394484e+01  -2.3748669416e+00    0.3143957    0.2637501  59.31  0.001424868    1.792    0.442
       106  -9.1731     93.0248    213.9440   1.0399314943e+02   1.7073406327e+01    0.3693574    0.1840899  55.68   0.00158074    2.175    0.540
       107  -9.4836     73.0544    211.9466   1.0827618270e+02   2.0450410232e+01    0.6936049    0.2547888  57.10  0.002372845    3.739    0.733
       108  -8.6623    161.5576    212.2898   8.8409180892e+01   6.1138518480e+00    0.2203463    0.1971728 -86.78 0.0006693406    1.428    0.300
       109  -8.3106    106.4538    212.9263   1.0080517042e+02   1.5192806453e+01    0.1922867     0.134846 -68.31  0.001003485    1.563    0.360
       110  -7.7001    242.7715    211.9773   7.2491655295e+01  -6.4713331977e+00    0.1519958   0.08804109 -32.02 0.0003324671    1.543    0.352
       111  -8.2330    185.5032    214.1319   8.3699005759e+01   1.7936325199e+00    0.1878309    0.1294791 -41.01 0.0008461931    1.528    0.346
       112  -9.0330    204.1557    210.9072   7.9399373456e+01  -6.4260437969e-01    0.2902206    0.1987935 -47.04  0.000938457    1.697    0.411
       113  -9.5367    175.3565    209.9534   8.5068861864e+01   4.2189092112e+00    0.4032074    0.3010566 -88.01  0.001393364    2.451    0.592
       114  -8.8440      8.5028    212.0225   1.2219086087e+02   2.8036553605e+01     0.178653   0.07139116  74.55 0.0008101078    2.540    0.606
       115  -8.3695    192.4319    210.7080   8.1687677128e+01   1.2625732132e+00    0.2273694    0.1279079 -46.99 0.0007652467    1.987    0.497
       116  -8.8819    147.9350    210.4266   9.1072065968e+01   8.7931727040e+00    0.3048841     0.230323  81.24  0.001269971    1.922    0.480
       117  -8.9062    116.3250    210.1622   9.8157411617e+01   1.4179870747e+01    0.3774837    0.2557026  80.91  0.001261201    2.036    0.509
       118  -9.2285    156.4288    209.2562   8.9008351861e+01   7.5681238679e+00    0.2810108    0.2365562 -33.10 0.0007178248    1.261    0.207
       119  -8.5254     85.3452    209.3928   1.0517045964e+02   1.9233483535e+01    0.2966059    0.1686144  74.50  0.001240601    2.376    0.579
       120  -9.2672    236.5905    208.0153   7.2848921692e+01  -5.0271905833e+00    0.3740161    0.2279646 -37.72     0.001399    1.590    0.371
       121  -8.6451    126.4782    208.5267   9.5590667312e+01   1.2831810137e+01    0.2582325    0.1734937  70.05 0.0005990727    2.010    0.502
       122  -8.6339    169.3410    216.3160   8.7430236840e+01   4.0633713108e+00    0.2748146    0.2280536 -71.83 0.0008994558    1.649    0.393
       123  -9.4112    246.4910    207.3239   7.1009595819e+01  -6.2918686186e+00    0.2705072    0.1887331 -27.45 0.0006290664    1.246    0.198
       124  -9.5584    245.3386    193.4324   6.8621818019e+01  -4.0328359381e+00    0.2630415    0.2203825 -57.36 0.0004719748    1.762    0.433
       125  -7.8757    248.3165    197.3219   6.8852751930e+01  -5.0478861996e+00     0.128987    0.1060956 -15.30 0.0008410962    1.060    0.057
       126  -8.3891    138.9710    208.0205   9.2678394940e+01   1.0810913324e+01    0.2213211    0.1667814  72.66  0.000663557    1.724    0.420
       127  -9.1957     99.5075    206.3420   1.0149105722e+02   1.7729878246e+01    0.4066441    0.2496752  75.87  0.001441913    2.237    0.553
       128  -8.4497    108.9283    205.3583   9.9157675807e+01   1.6429833030e+01    0.2229664    0.1861971 -85.50 0.0004980627    1.282    0.220
       129  -8.7115     56.2838    205.1896   1.1134407543e+02   2.4244981438e+01    0.3229958    0.1685389  81.92  0.001301436    2.341    0.573
       130  -8.4356     11.6807    206.7100   1.2121224317e+02   2.8903152739e+01    0.1076509   0.08566403 -54.26 0.0004295322    1.601    0.375
       131  -9.0428    183.8080    203.9922   8.2236917891e+01   3.8831515948e+00    0.3125032    0.2558152  76.25  0.001135377    1.856    0.461
       132  -8.8174    131.3346    204.0163   9.3763823973e+01   1.2952166323e+01    0.3381189    0.2328923  85.61  0.001153963    2.215    0.548
       133  -8.5670     24.5097    205.4548   1.1841333400e+02   2.7901652592e+01    0.1244702   0.09973867  77.86 6.408338e-05    1.014    0.014
       134  -9.3229    194.9170    203.3952   7.9857925571e+01   2.1330299479e+00    0.3804949     0.242999 -37.72  0.001101594    1.561    0.360
       135  -9.2949    192.3913    197.3614   7.9242334629e+01   3.6355745308e+00    0.3562077    0.2593721 -56.52 0.0008885651    1.760    0.432
       136  -9.6342    163.6846    202.9323   8.6325779960e+01   7.5423881440e+00    0.4017113    0.2832523  62.49  0.001136304    1.943    0.485
       137  -8.5262    211.0737    202.1382   7.6450268615e+01  -2.6669277611e-01    0.2183182     0.173246 -65.12 0.0005003045    1.964    0.491
       138  -8.6688     80.1840    201.6913   1.0539609315e+02   2.1738519365e+01    0.3670779    0.1919129  71.02   0.00145063    2.781    0.640
       139  -9.1052    242.9996    200.8511   7.0412560287e+01  -4.8410941222e+00    0.2976918     0.157628 -40.72 0.0008806836    1.850    0.460
       140  -9.0606    140.4250    201.0224   9.1185586277e+01   1.2001776338e+01    0.3891005    0.2614386  83.33  0.001638168    2.576    0.612
       141  -8.3066     48.1936    202.0190   1.1286341833e+02   2.5993737911e+01    0.2292996     0.123133  75.61  0.001069556    2.068    0.517
       142  -7.9026     10.4795    202.5027   1.2119029494e+02   2.9955181181e+01    0.1225652   0.09409183  78.61 -5.071362e-07    1.009    0.009
       143  -9.0291    123.9573    199.5098   9.4742700873e+01   1.5185010877e+01    0.3900929    0.2580166  83.73  0.001293275    2.349    0.574
       144  -9.3282    237.0447    198.6470   7.1031861041e+01  -3.6498764261e+00    0.3194236    0.1647421 -39.59 0.0009902279    1.835    0.455
       145  -9.5281    149.4195    198.4343   8.8694324089e+01   1.0952022552e+01    0.4641255    0.3183898 -81.10  0.001330797    2.390    0.582
       146  -9.5455    112.9312    198.5400   9.7185753382e+01   1.7272083439e+01    0.4782095    0.2831579  69.25  0.001947095    2.523    0.604
       147  -9.1036     88.8681    198.8368   1.0295903084e+02   2.1085331050e+01    0.3987079    0.2400683  79.43  0.001544903    2.246    0.555
       148  -8.4084    177.0236    199.0205   8.2746836225e+01   5.9702631878e+00    0.2038801    0.1738581  78.13 0.0006051891    1.627    0.386
       149  -7.3189    133.3068    199.3051   9.2532114597e+01   1.3608780422e+01    0.1409378    0.1119118  -6.28 0.0002281611    1.605    0.377
       150  -8.3389    202.1236    198.0589   7.7423750418e+01   1.8815510403e+00    0.1929579    0.1710621 -87.13 0.0006550641    1.687    0.407
       151  -9.1245     61.4665    197.1839   1.0926487816e+02   2.5417076754e+01    0.4251148    0.2197424  68.75  0.001503368    2.382    0.580
       152  -8.1485     12.6050    197.0438   1.2036723572e+02   3.0991341419e+01    0.2964573    0.1226958  84.20   0.00132448    2.496    0.599
       153  -8.3291    132.8525    196.0187   9.2081734481e+01   1.4393124104e+01     0.226537    0.1648011  87.22  0.000764035    1.932    0.482
       154  -8.8912    224.5042    193.8760   7.2369449500e+01  -9.9692432958e-01    0.3748603    0.1824562 -43.43   0.00174177    2.084    0.520
       155  -8.9882    185.1183    194.7277   8.0240671467e+01   5.3711622536e+00    0.2824044    0.2210703 -53.47 0.0008961334    1.495    0.331
       156  -9.0248    178.9677    193.5493   8.1309764956e+01   6.6724425764e+00     0.419978    0.1945084 -44.34    0.0017478    2.200    0.545
       157  -9.0266    161.0109    194.5233   8.5391604126e+01   9.6804440724e+00    0.3015237    0.2330002  67.73 0.0009826511    1.713    0.416
       158  -8.9703     43.7007    193.6462   1.1306057983e+02   2.8490560762e+01    0.4185771    0.2118767  71.68  0.001871436    2.276    0.561
       159  -7.9337    231.0824    194.1674   7.1237158042e+01  -2.0533015344e+00    0.1626515    0.1480287 -34.89 0.0005061796    1.312    0.238
       160  -8.8194     77.0318    193.8436   1.0512862963e+02   2.4024472732e+01    0.2821377    0.2035255  79.81 0.0007523251    1.447    0.309
       161  -9.3964    250.1071    201.9965   6.9421866393e+01  -5.9944160158e+00    0.3797168    0.1563677 -36.54  0.001435121    2.140    0.533
       162  -7.9942    205.2199    191.9540   7.5647203104e+01   2.4440476151e+00     0.175559    0.1053249 -39.54 0.0003531062    1.618    0.382
       163  -8.3357    198.8421    191.9012   7.6897876767e+01   3.5289096987e+00    0.2350095    0.1772529 -42.08 0.0004449909    1.365    0.267
       164  -8.3686    172.1704    191.8350   8.2441302217e+01   8.2146741052e+00    0.2100103    0.1949459  72.56 0.0007262066    1.299    0.230
       165  -9.1423    139.4408    190.5415   8.9583462641e+01   1.4401432932e+01    0.3538866    0.2662765  85.34  0.001039897    1.841    0.457
       166  -8.6920    215.9345    195.7552   7.4320177835e+01   3.7384112364e-02    0.2749607    0.1737757 -54.45 0.0007958507    2.215    0.549
       167 -10.5413     91.8340    188.1882   1.0070665844e+02   2.3103859071e+01      1.00714    0.4912073  54.50  0.003010316    2.339    0.572
       168  -8.8206    148.2538    189.1686   8.7288176946e+01   1.3096913927e+01    0.2533014    0.1997052 -73.75  0.000684951    1.584    0.369
       169  -8.9320    129.3781    188.7478   9.1641834413e+01   1.6601354236e+01    0.3329745    0.2379237  78.74  0.001009855    1.940    0.484
       170  -8.2756    237.1459    188.6062   6.9102257808e+01  -2.0695928622e+00    0.2136232    0.1547461 -38.17 0.0006488049    1.344    0.256
       171  -9.2339    155.9678    187.7132   8.5252748957e+01   1.1992287437e+01    0.3532799    0.2359279 -63.48  0.001015463    1.908    0.476
       172  -9.7130    120.7954    186.6052   9.3334344955e+01   1.8606399776e+01    0.5599331    0.3219653 -76.11  0.002146302    2.734    0.634
       173  -9.0161     34.2582    187.9757   1.1471765609e+02   3.0912985028e+01    0.3915155    0.1783279  78.15  0.001488963    2.763    0.638
       174  -8.2220    230.4977    187.4952   7.0055821983e+01  -8.7246656783e-01    0.2249093     0.113813 -47.27  0.000951484    2.248    0.555
       175  -8.9591    216.4730    187.7330   7.2667399349e+01   1.3225272396e+00    0.2460147    0.2105675 -43.95 0.0008722781    1.320    0.242
       176  -8.8632    191.5329    187.5258   7.7525062722e+01   5.5997768001e+00    0.2820616    0.2262996 -71.50 0.0009351391    1.801    0.445
       177  -9.1387     54.7457    187.0400   1.0969778323e+02   2.8706615383e+01    0.4167312    0.2225684  74.30  0.001803606    2.309    0.567
       178  -8.7592    164.9929    186.9990   8.3091158108e+01   1.0484385483e+01    0.2727955     0.221704  78.52 0.0007953854    1.683    0.406
       179  -9.3858    109.1559    185.5936   9.6012786419e+01   2.0859431916e+01    0.5450925    0.3307309  85.23  0.001913502    2.788    0.641
       180  -9.0295    249.0638    185.4978   6.6486466593e+01  -3.3310171763e+00    0.2550878    0.1625268 -34.14 0.0007828395    1.356    0.263
       181  -8.8510    182.8679    185.0802   7.8845915144e+01   7.6106652220e+00    0.2754257    0.1959123 -40.14 0.0008175179    1.397    0.284
       182  -8.6501    210.2020    184.4919   7.3219507363e+01   2.9332588824e+00      0.23616    0.1728383 -34.64 0.0004259461    1.284    0.221
       183  -8.7134    202.8002    184.5711   7.4675694160e+01   4.1825765997e+00    0.2597788    0.1792104 -56.33 0.0008419733    1.875    0.467
       184  -8.9013     66.4981    184.7252   1.0651253924e+02   2.7702539288e+01    0.3341429    0.1937764  62.73 0.0008566868    1.899    0.474
       185  -8.5822    224.1432    183.6774   7.0451476320e+01   7.7387692372e-01    0.2311395    0.1621854 -41.93 0.0006306354    1.426    0.299
       186  -8.8809    174.1685    183.3754   8.0370933142e+01   9.5319288691e+00    0.3056372    0.2314594 -60.12  0.001028248    1.597    0.374
       187  -9.1536     43.9410    181.5754   1.1172021130e+02   3.1355055650e+01    0.4847782    0.2301793  87.08  0.001955327    2.681    0.627
       188  -7.9425      1.8106    183.6547   1.2181959985e+02   3.5018215726e+01    0.1654876   0.09147566  45.02 0.0009440322    1.745    0.427
       189  -9.3335    147.4807    180.5360   8.5839006693e+01   1.5094417546e+01    0.3913906     0.282591 -79.78  0.001116338    1.994    0.499
       190  -9.5275     25.7834    179.3206   1.1591149750e+02   3.3877740361e+01    0.6726552    0.2556589  76.76  0.002178262    4.542    0.780
       191  -7.7140    235.3067    181.6812   6.8072798467e+01  -6.5738585124e-01    0.1196548    0.1031674 -62.36 0.0004096946    1.634    0.388
       192  -7.8307    240.4755    180.5027   6.6953695706e+01  -1.2589152666e+00    0.1312859    0.1091446 -17.85 5.760608e-05    1.002    0.002
       193  -8.7658    137.5463    179.4023   8.7976529785e+01   1.7196655820e+01    0.3141343    0.2391798  70.46 0.0009307186    1.636    0.389
       194  -8.9379    204.8093    177.7400   7.2909797048e+01   5.0858228362e+00    0.2989757    0.2158315 -48.53  0.000852219    1.497    0.332
       195  -9.2802    191.4770    178.4271   7.5721632384e+01   7.3379391948e+00    0.2815957    0.2504941  70.33 0.0005887527    1.445    0.308
       196  -7.9847    169.3044    178.6414   8.0494279161e+01   1.1396279551e+01    0.2104027     0.172252  83.03  0.000593766    1.684    0.406
       197  -9.0884     35.9466    177.0582   1.1320150055e+02   3.3362636045e+01    0.4967792    0.2169106  83.48  0.001844157    3.246    0.692
       198  -9.4493    248.3995    176.3472   6.4819421282e+01  -1.7813425085e+00    0.4223383     0.252213 -49.02  0.001707777    1.954    0.488
       199  -8.6117    250.5040    172.8813   6.3797807250e+01  -1.5384575541e+00    0.2358865    0.1575796 -36.99 0.0006826759    1.309    0.236
       200  -8.7357    129.2811    177.4257   8.9606431189e+01   1.9171781292e+01    0.3242737     0.214825  85.45 0.0008813773    2.503    0.600
       201  -8.6210    231.1477    176.7924   6.7830353039e+01   8.1813794311e-01    0.2381897    0.1589528 -43.03 0.0007113662    1.481    0.325
       202  -8.3625    217.7695    177.2086   7.0331813448e+01   2.9493810453e+00    0.1945828    0.1800046 -43.82 0.0006662725    1.252    0.201
       203  -8.9310    183.0802    176.4156   7.7062689529e+01   9.2719005543e+00    0.2568458    0.2226179 -73.64 0.0004649823    1.472    0.321
       204  -9.6156    104.2691    174.8564   9.5409124553e+01   2.4234579823e+01     0.632974    0.3971486  61.83  0.002531912    1.919    0.479
       205  -7.8004     97.6972    177.6633   9.7567084406e+01   2.4666214005e+01    0.1463228    0.1150065 -24.77 0.0007037694    1.666    0.400
       206  -8.6864     89.0269    176.8372   9.9652424894e+01   2.6273238231e+01    0.2935987    0.2205162  83.56 0.0008467797    1.466    0.318
       207 -10.0500     57.3036    173.3397   1.0734006075e+02   3.1729344408e+01    0.8570634    0.3927509  82.07  0.002656073    4.454    0.775
       208  -7.9277    211.4973    176.4999   7.1367703654e+01   4.1471608227e+00    0.1388732    0.1244436 -15.41 0.0008106101    1.020    0.020
       209  -9.3455    158.9220    175.1292   8.2122647812e+01   1.4097551513e+01    0.3990297    0.2947399  82.72  0.001247811    2.095    0.523
       210 -10.7209     75.8392    169.9971   1.0200677866e+02   2.9984969463e+01     1.353137    0.5059322 -74.37   0.00379927    4.753    0.790
       211  -8.6108    224.5438    174.3593   6.8516239218e+01   2.3153538877e+00     0.249621     0.119951 -43.57 0.0008517245    2.008    0.502
       212  -9.7219    175.7611    171.8549   7.7693991668e+01   1.1567296638e+01    0.4910133    0.2403124 -42.85  0.001178578    2.018    0.504
       213  -8.6044    143.2977    172.9858   8.5350753444e+01   1.7548310155e+01    0.2696465    0.2072104  67.80 0.0007235293    1.595    0.373
       214  -8.4288    134.7886    171.9757   8.7210660203e+01   1.9390436837e+01    0.2336023    0.2004225  87.48 0.0008659525    1.343    0.255
       215  -9.5064    121.4845    170.4775   9.0227276636e+01   2.2217777076e+01    0.4411146    0.3003106 -82.98  0.001228378    2.056    0.514
       216  -9.1900     45.1067    171.1820   1.1021395401e+02   3.3772654929e+01    0.3823346    0.2091337  86.20   0.00115517    2.103    0.525
       217  -8.9378    230.5360    170.2324   6.6615740083e+01   2.0395739890e+00    0.2476788    0.1181323 -41.30 0.0007386424    1.913    0.477
       218  -8.6262    205.8774    170.3310   7.1180489471e+01   6.2708851578e+00    0.3092631    0.1905408 -53.55   0.00121728    1.954    0.488
       219  -8.5232    198.5418    170.4358   7.2646156892e+01   7.5814837017e+00    0.2568801    0.2010566  82.18  0.001046672    2.042    0.510
       220  -8.4773    237.0387    169.4990   6.5347396219e+01   1.1073831596e+00    0.2438859    0.1642081 -46.26 0.0006745156    1.537    0.349
       221  -8.5367    149.7070    169.5051   8.3123252041e+01   1.7090974415e+01    0.2906195    0.2266253 -87.16 0.0007567808    1.735    0.424
       222  -8.0497    244.3969    169.2634   6.4072097454e+01  -1.6828453946e-02    0.1793774    0.1083023 -43.47 0.0004473619    1.585    0.369
       223  -8.3137    218.8776    168.3720   6.8321769444e+01   4.3361250055e+00    0.2271573      0.17363 -43.96 0.0005542866    1.312    0.238
       224  -9.1484    167.0661    168.5778   7.8930862197e+01   1.3921170376e+01    0.3093819    0.2450315  75.79  0.001019063    1.711    0.416
       225  -8.9480    111.8416    167.6395   9.2150372623e+01   2.4643039091e+01    0.4085954    0.2532627  73.44  0.001377834    2.551    0.608
       226  -8.2840     88.6904    169.1119   9.8469661397e+01   2.8221535717e+01    0.2427854    0.1759147  88.71  0.001060773    1.581    0.368
       227  -7.8990    211.3759    168.1784   6.9679292292e+01   5.6876479511e+00    0.2206577    0.1293573 -40.62 0.0005971286    1.592    0.372
       228  -8.6063    213.0216    163.8256   6.8458548093e+01   6.1959744075e+00    0.2847438    0.1883637 -33.78 0.0008817775    1.399    0.285
       229  -8.4376     13.4624    167.9472   1.1786916513e+02   3.7777836379e+01    0.1854184   0.08543675  77.36 0.0008073894    2.407    0.584
       230  -9.1904    191.9108    166.4534   7.3150677959e+01   9.5856692996e+00    0.3581176    0.1933279 -43.69 0.0007407197    1.796    0.443
       231  -8.9019    185.0893    166.7298   7.4624534810e+01   1.0825547225e+01    0.2516773     0.194143 -51.67 0.0006406104    1.383    0.277
       232  -9.9044     95.0755    162.5426   9.5618073377e+01   2.8799814386e+01    0.9670584    0.5870407  85.87  0.003167893    2.653    0.623
       233  -9.1009     20.4672    166.1869   1.1595644872e+02   3.7584905698e+01    0.3530655    0.1538241  58.92  0.001306315    2.574    0.611
       234  -9.7514    136.6607    164.5226   8.5253054153e+01   2.0740877784e+01    0.6298645    0.3066403  56.18  0.002147433    2.905    0.656
       235  -8.3995    233.9117    165.1024   6.4986258968e+01   2.3668081911e+00    0.1983446    0.1679014 -45.77 0.0005625405    1.276    0.216
       236  -8.7450    159.5114    164.5527   7.9801037479e+01   1.6260554966e+01    0.2839821    0.2438286 -69.73 0.0008858383    1.336    0.252
       237  -9.9182     33.5392    163.4240   1.1229435561e+02   3.6987045694e+01    0.5754972    0.2265345  55.39  0.002209325    3.093    0.677
       238  -9.1032    246.0072    163.1719   6.2586763606e+01   7.4054238957e-01    0.2284702    0.1618127 -34.45 0.0004335452    1.201    0.167
       239  -8.2689    240.0634    164.3213   6.3791192214e+01   1.4959167734e+00    0.1808706    0.1604072 -20.41 0.0006195207    1.068    0.063
       240  -9.2117     12.5977    175.8554   1.1875710935e+02   3.5947828681e+01      0.41906    0.1689024 -86.59  0.001825078    2.407    0.585
       241  -8.7042    204.8873    162.9046   6.9812353664e+01   7.8484103742e+00     0.250874     0.182846 -44.74 0.0006021347    1.350    0.259
       242  -9.3062      3.5156    162.4226   1.1984872224e+02   3.9913520070e+01    0.4018084     0.180108  54.43  0.001959644    2.277    0.561
       243  -8.9945    151.6141    161.1030   8.0914081864e+01   1.8581427909e+01    0.3234211    0.2494683 -78.92 0.0008585865    1.704    0.413
       244  -7.8921    124.6439    162.6966   8.7895749405e+01   2.3465097346e+01    0.1567298    0.1224776  -7.78 0.0007039446    1.714    0.417
       245  -8.9894    177.7079    160.7160   7.4910049006e+01   1.3482972495e+01    0.2977103    0.2619755  83.09 0.0009978713    1.410    0.291
       246  -8.7319     60.6668    160.5213   1.0462609736e+02   3.4501871259e+01    0.3602906    0.1879567  64.52  0.001232449    2.605    0.616
       247  -9.6266    241.9998    154.4384   6.1451137459e+01   2.8578875828e+00    0.5406178    0.3557815  85.36  0.002064663    4.501    0.778
       248  -9.8808    250.1717    157.8555   6.0852577513e+01   9.6595660665e-01    0.3836598    0.1856456 -42.57 0.0008035451    1.837    0.456
       249  -9.4608    246.5778    155.5074   6.0940031762e+01   1.9298535082e+00     0.237806    0.1494029 -28.07 0.0005788336    1.454    0.312
       250  -8.6723    227.3652    159.0471   6.4863042082e+01   4.5320526750e+00    0.3264566    0.2009122 -56.97  0.001066885    2.195    0.544
       251  -9.6221    105.7894    157.9296   9.1872887149e+01   2.8084383738e+01    0.5311068    0.3418009  75.42  0.001222629    2.331    0.571
       252  -8.5859    237.0314    158.9895   6.3203904599e+01   2.9020597312e+00    0.2015508    0.1572853 -61.04 0.0005425548    1.666    0.400
       253  -9.0995    167.7499    157.4787   7.6399146357e+01   1.6145020937e+01    0.3914112    0.2888128 -81.40   0.00102658    2.041    0.510
       254  -8.3604    128.0180    159.0216   8.6282433715e+01   2.3689449527e+01    0.2455768    0.1881903  81.07 0.0006120258    1.676    0.403
       255  -8.2955    196.5108    158.0953   7.0427863982e+01   1.0351089727e+01    0.2239445    0.2023249 -87.99  0.000873158    1.384    0.278
       256  -8.2126    188.0620    157.9981   7.2126478950e+01   1.2005572943e+01    0.2221448    0.1825888 -79.88 0.0005438283    1.637    0.389
       257  -8.1150     79.2548    158.5470   9.9204592845e+01   3.2339738241e+01    0.2239213    0.1470624  35.09 0.0006357084    1.597    0.374
       258  -9.5457     81.8184    154.9427   9.7858800520e+01   3.2851983329e+01    0.4983586    0.3120965  80.04  0.001272333    2.273    0.560
       259  -8.5499    217.8670    156.5561   6.6025788883e+01   6.6610737888e+00    0.2780322    0.1659405 -52.32 0.0007748105    1.916    0.478
       260  -9.0702    157.4290    156.2058   7.8483876692e+01   1.8500720971e+01    0.3282096    0.2595128 -74.97 0.0009110846    1.588    0.370
       261  -9.3414    119.4658    155.3338   8.7723583195e+01   2.6200215687e+01    0.4171086    0.2886918 -84.25  0.001452893    2.031    0.508
       262  -9.2974     49.5693    155.3421   1.0691421136e+02   3.7222927003e+01    0.4105998    0.2299115  71.73  0.001426049    2.314    0.568
       263  -7.9344    204.8276    155.3265   6.8196159965e+01   9.3033071722e+00    0.2007044    0.1658653 -43.64 0.0004644502    1.181    0.153
       264  -8.7080    144.5351    154.9514   8.1288791944e+01   2.1380832321e+01    0.2893268    0.2137459  60.35 0.0007007609    1.565    0.361
       265  -9.6396    132.9097    152.9999   8.3758283464e+01   2.4150262081e+01    0.4791071     0.350008  82.34  0.001243421    1.930    0.482
       266  -8.8140    133.7558    148.2103   8.2489142426e+01   2.5103055351e+01    0.4121698    0.2667008 -47.54  0.001790017    1.528    0.346
       267  -9.5096     68.1173    153.9882   1.0152216589e+02   3.5136389076e+01    0.4851457    0.2710683  69.58  0.001439753    2.619    0.618
       268  -8.7087    151.6333    152.5138   7.9036443619e+01   2.0495947872e+01    0.2713417    0.1457074 -47.16  0.001011739    1.843    0.457
       269  -9.3214     20.0713    152.5595   1.1463834720e+02   4.0990234366e+01    0.2081803    0.1495013 -78.70 0.0005824959    1.165    0.141
       270  -9.7137     29.2271    150.4585   1.1189448536e+02   4.0671233166e+01    0.5263885     0.246957  73.91  0.002025089    3.092    0.677
       271  -9.5567    248.8473    149.4579   5.9347838508e+01   2.5771581410e+00    0.3401014    0.1822835 -38.91  0.000814555    1.570    0.363
       272  -9.0910    247.0294    144.0253   5.8506272977e+01   3.7924994905e+00    0.2513257    0.1579311 -37.67 0.0004634357    1.339    0.253
       273  -9.6994    242.7159    149.9277   6.0403639540e+01   3.5086163402e+00    0.3266201    0.2987562  55.79  0.001760589    1.367    0.268
       274  -8.8723    189.4483    150.5344   7.0193104068e+01   1.3234217777e+01     0.300439    0.2370638 -68.05 0.0008110324    1.588    0.370
       275  -7.9673    182.4361    151.2635   7.1815819106e+01   1.4491274337e+01    0.2059216    0.1394427 -53.37 0.0006048196    1.586    0.370
       276  -8.0668    162.9152    150.9930   7.6055396361e+01   1.8524730579e+01    0.2444886    0.1922902 -89.01  0.001094907    1.738    0.425
       277  -8.7859     98.3304    150.7107   9.2468673951e+01   3.1183263121e+01    0.3274566    0.2373254  78.50 0.0009430276    1.744    0.427
       278  -7.9578    213.0094    149.9878   6.5496971211e+01   8.7730725329e+00    0.2073422    0.1693653 -70.21 0.0004151605    1.580    0.367
       279  -9.9225     40.0431    147.5909   1.0847870715e+02   4.0284657425e+01    0.6802665    0.3734376  86.83  0.002526843    2.229    0.551
       280  -8.5039    198.8420    149.0717   6.7983979683e+01   1.1667079921e+01    0.2196827    0.1944029 -63.45 0.0005396955    1.278    0.218
       281 -10.0323     89.1795    146.2536   9.4141136727e+01   3.3855757164e+01    0.6925656    0.3984365 -87.58  0.002391838    3.141    0.682
       282  -9.4591    233.5754    147.6539   6.1408504623e+01   5.4660105994e+00    0.2575704    0.1818592 -32.62 0.0006916086    1.249    0.199
       283  -9.1649     78.2248    147.0133   9.7414546149e+01   3.5416605186e+01    0.3785027    0.2316406  87.69  0.000968474    2.409    0.585
       284 -10.3720     54.8825    144.7662   1.0377247704e+02   3.9262386281e+01    0.8137971    0.4085791  70.67  0.002790416    3.594    0.722
       285  -9.9967     56.4462    135.8191   1.0177113694e+02   4.1348270134e+01    0.5789831    0.3094124  -1.17  0.001837944    4.753    0.790
       286  -8.3297    223.1753    146.8931   6.3008863582e+01   7.4621203181e+00    0.2056407    0.1783528 -50.55 0.0004601805    1.208    0.172
       287  -8.1800    206.9193    146.6473   6.5894821288e+01   1.0564467152e+01    0.1886399    0.1840789  25.61 0.0005820626    1.120    0.107
       288 -10.2411    148.8571    144.8444   7.7969299292e+01   2.2791720502e+01    0.5784785    0.3937611 -79.85  0.001453539    2.345    0.573
       289 -10.4888    139.0673    143.7751   8.0140544746e+01   2.5056888970e+01    0.9416864    0.3482518 -50.92  0.002672311    2.787    0.641
       290 -10.2503    106.6394    144.1382   8.8803683067e+01   3.1322848833e+01    0.7828867     0.512425 -85.72  0.002103302    2.323    0.570
       291  -9.3723     13.5215    146.5425   1.1575820090e+02   4.3031928893e+01    0.3306408      0.19534  62.31  0.001139451    1.804    0.446
       292  -8.1612    175.6369    146.3315   7.2157238369e+01   1.6902456504e+01    0.2234736    0.1789395 -81.68 0.0006289486    1.653    0.395
       293 -10.1786    241.0283    144.2446   5.9485093211e+01   4.7696824866e+00    0.3769472    0.2675317   6.56  0.001302613    1.893    0.472
       294  -8.9677    165.3707    144.0927   7.3920977912e+01   1.9512672931e+01    0.2726716    0.2256527  57.65   0.00054546    1.319    0.242
       295 -10.9471     68.9688    140.1462   9.8820185189e+01   3.8541323995e+01    0.9036861    0.4438789 -62.68   0.00350668    1.932    0.482
       296  -9.8135    125.0698    142.4476   8.3444151312e+01   2.8198820697e+01    0.6831428    0.4173467 -72.78  0.001569154    2.470    0.595
       297  -9.8062      2.8285    141.4621   1.1815608488e+02   4.5062888415e+01    0.5215459    0.2337901  80.64  0.002288791    2.557    0.609
       298  -8.2678    238.2940    140.6674   5.9162984485e+01   5.8633657973e+00     0.165638    0.1430636  79.43 0.0003730467    1.531    0.347
       299  -8.4153    182.1208    141.8697   6.9746348016e+01   1.6490180035e+01    0.2318732    0.2020603 -73.77 0.0006128633    1.331    0.248
       300  -8.4308    250.4740    140.9383   5.7346719237e+01   3.7400965117e+00    0.2052385    0.1103172 -39.47 0.0009313413    1.553    0.356
       301  -9.6717     23.4888    138.3042   1.1197225895e+02   4.4260305267e+01    0.5341561    0.2632563  65.48  0.002091512    2.696    0.629
       302  -8.5244    172.2258    138.1535   7.1004180134e+01   1.9340343369e+01    0.2855201    0.2034871 -61.39 0.0006835542    1.638    0.390
       303  -7.8787    218.5221    138.5442   6.1994844186e+01   9.8619813494e+00    0.1424306    0.1277089 -37.11 0.0002280508    1.030    0.029
       304  -8.2807    207.4851    138.0706   6.3871298414e+01   1.2094028714e+01    0.2247026    0.1943018 -66.34  0.000784589    1.314    0.239
       305  -8.7876    197.4549    137.5129   6.5642871280e+01   1.4215156766e+01    0.3014351    0.2281041 -61.81 0.0009412389    1.534    0.348
       306  -9.3920    189.0811    135.2293   6.6769887234e+01   1.6395879345e+01    0.9108838    0.4602231 -58.48  0.003176411    2.931    0.659
       307  -9.3355    241.1437    136.6596   5.7866895122e+01   6.0595805865e+00    0.3226546    0.1453312 -36.72 0.0007459194    1.936    0.483
       308  -8.4994    162.4798    136.6289   7.2827916063e+01   2.1740822223e+01    0.2707888    0.2147614 -65.62 0.0006851357    1.435    0.303
       309  -9.2531     39.1388    136.1206   1.0703785499e+02   4.3297995461e+01    0.2861831    0.1973264  76.67 0.0007951737    1.628    0.386
       310  -9.1292    248.3559    135.1509   5.6458548263e+01   5.0718784272e+00    0.2889205    0.1831727 -41.63 0.0006750224    1.339    0.253
       311  -9.0609    250.7247    130.1929   5.5077149703e+01   5.5040874962e+00    0.4338653     0.108928 -39.25  0.001479521    3.289    0.696
       312  -8.5853    246.8918    130.2022   5.5635864072e+01   6.1632462842e+00    0.2571262    0.1576952 -48.57 0.0006520326    1.534    0.348
       313  -8.8441    151.7022    135.5932   7.5108697888e+01   2.4269969956e+01    0.3040946    0.1523264  39.92  0.001133637    2.112    0.527
       314 -10.3923     83.4945    133.0111   9.3063296242e+01   3.8122773069e+01    0.5792128    0.3636213 -73.65  0.001368176    1.907    0.476
       315  -8.3143    237.5734    133.8194   5.7815766142e+01   7.1857990035e+00    0.1953177     0.111756 -47.64 0.0009314765    1.653    0.395
       316  -8.0164    231.5123    134.0504   5.8827412532e+01   8.2452447807e+00    0.2113715    0.1213433 -38.90 0.0004036612    1.516    0.341
       317  -8.4586    179.7245    134.0606   6.8423470496e+01   1.8605181281e+01    0.2373616    0.1989525 -64.34 0.0007913731    1.313    0.238
       318  -8.9612    112.7868    133.3595   8.4676175813e+01   3.2793004086e+01    0.3462665    0.2531508  77.03 0.0008904092    1.843    0.458
       319  -9.3756    143.2512    131.8809   7.6277908413e+01   2.6906288581e+01    0.3663307    0.2704271 -74.84 0.0008890479    1.762    0.432
       320  -9.9606    130.8542    118.7354   7.6156220745e+01   3.2540453794e+01    0.5888537    0.3932625  82.30  0.002027962    2.590    0.614
       321  -9.9544    132.1169    131.2243   7.8954861427e+01   2.9404685235e+01    0.5508877    0.3794356 -79.74  0.001118921    2.170    0.539
       322  -9.2786    134.3901    124.7453   7.6763125964e+01   3.0417974988e+01    0.5145512    0.2219965  31.91  0.001535174    3.532    0.717
       323 -10.5365     98.1886    129.6867   8.7981757360e+01   3.6424636813e+01    0.9909145    0.3478186 -53.55  0.002259401    2.761    0.638
       324  -8.2334    204.4964    130.4482   6.2683703204e+01   1.4154711957e+01    0.2648546    0.1255174 -49.82 0.0006195953    2.213    0.548
       325  -9.5375    168.3624    129.5609   6.9798803059e+01   2.1990572901e+01    0.3608098    0.2569328 -56.72 0.0007190531    1.509    0.337
       326  -9.4620    152.8639    129.0471   7.3239519746e+01   2.5471883958e+01    0.4598317    0.2756572 -59.64 0.0008155275    2.023    0.506
       327 -10.1292     12.8900    128.7048   1.1386349021e+02   4.7511766329e+01    0.6547399    0.3062197 -88.46  0.002538943    2.385    0.581
       328  -7.7353    220.7291    129.9764   5.9709713111e+01   1.1015609388e+01    0.1843291    0.1131724 -38.85 0.0008572563    1.453    0.312
       329  -8.1182    192.8007    130.3543   6.4886918403e+01   1.6592653943e+01    0.2098955    0.1771218 -48.03 0.0005785413    1.139    0.122
       330  -9.8681     73.1966    129.0728   9.5344720785e+01   4.0728315812e+01    0.4692823    0.2897826 -73.60  0.001245922    1.874    0.466
       331  -8.0237      1.6510    130.2960   1.1734823540e+02   4.7873592293e+01    0.1281772   0.08147282  66.90 0.0007033497    1.679    0.404
       332  -8.5458    234.6845    129.7037   5.7379756830e+01   8.4316443725e+00    0.1337444    0.1031421  -5.00 0.0002301617    1.605    0.377
       333  -7.6072    211.6565    129.3259   6.1132109579e+01   1.2922315225e+01    0.1478172     0.111116 -72.24 0.0007050836    1.739    0.425
       334 -10.7524     44.6539    123.3296   1.0316881756e+02   4.5939041434e+01     1.137951    0.5908262  79.11  0.003875428    3.899    0.743
       335 -10.5516     59.6693    124.7636   9.8672142598e+01   4.3734963352e+01    0.7627385     0.446116  87.48  0.002486156    2.790    0.642
       336  -8.6863     59.0975    115.6803   9.6958377570e+01   4.6087081946e+01    0.4405239    0.2565677 -20.13  0.001709469    2.860    0.650
       337  -9.9996    117.9463    124.8615   8.1197156247e+01   3.3804633930e+01    0.6564671    0.5148577 -71.69  0.002066964    1.463    0.317
       338  -9.0482    234.2060    125.7957   5.6604225220e+01   9.2076305047e+00    0.2330511    0.1433817 -70.67 0.0009617874    2.864    0.651
       339  -8.4342    228.4117    125.2872   5.7404158947e+01   1.0388329780e+01    0.2043458    0.1155604 -47.79 0.0009414431    1.661    0.398
       340  -8.8362    179.3103    124.8449   6.6294787693e+01   2.0590250107e+01    0.2788104    0.2321948 -84.59 0.0006443383    1.449    0.310
       341 -10.3513     28.2523    122.3470   1.0822326975e+02   4.7847618571e+01    0.7455016    0.3708486  74.32  0.002791299    3.455    0.711
       342  -8.6866     26.7269    113.7737   1.0730395482e+02   5.0120096461e+01    0.2391266    0.1607364 -25.32 0.0009448783    1.792    0.442
       343  -8.0597    188.4904    124.0302   6.4231697368e+01   1.8767018930e+01     0.231332    0.1413152 -44.29 0.0006403623    1.544    0.353
       344  -8.6793     85.0554    122.5713   9.0262791863e+01   4.0466983784e+01    0.4609165    0.2530082  16.28  0.001612854    3.125    0.680
       345  -7.8315    194.7838    122.0007   6.2521656502e+01   1.7818838037e+01    0.1995856     0.115089 -40.90 0.0003677593    1.617    0.382
       346  -8.7095    171.9785    121.5655   6.7041274460e+01   2.2875198732e+01    0.2768411    0.2082641 -59.74 0.0005177478    1.445    0.308
       347  -9.0519    158.4164    121.2945   7.0000155612e+01   2.5939569843e+01    0.3885049    0.2543734 -51.46  0.001160047    1.552    0.356
       348 -10.0981    141.4651    118.4490   7.3354397866e+01   3.0306054305e+01    0.5900387    0.3081967 -57.28  0.001057834    2.343    0.573
       349  -9.6552     71.0466    119.6675   9.3977793633e+01   4.3407019712e+01    0.4655114     0.304078  88.79  0.001422587    2.301    0.565
       350  -9.8632      2.9413    117.1896   1.1545704693e+02   5.0999903211e+01    0.5418989    0.2620091  75.41  0.002394749    2.746    0.636
       351  -7.8060    231.5152    117.4993   5.5194903337e+01   1.1175629905e+01    0.1410182     0.120057 -49.52 0.0002046866    1.083    0.077
       352  -8.1775    185.6775    116.0235   6.2838661797e+01   2.0970496455e+01    0.2196857    0.1817422 -47.64 0.0005147374    1.148    0.129
       353  -8.2168    192.8878    115.1492   6.1229608030e+01   1.9561617872e+01    0.2292958    0.1905362 -61.73 0.0004721875    1.249    0.199
       354  -7.8453    153.2871    115.6445   6.9752083647e+01   2.8294039741e+01    0.1620013    0.1237125 -77.24 0.0007023491    1.674    0.403
       355  -9.9889     79.0230    112.5021   8.9751391839e+01   4.3927204189e+01    0.7254458     0.455545 -85.61  0.002753142    2.764    0.638
       356  -8.7999     78.3879    105.3933   8.8170962747e+01   4.5738138359e+01    0.3841407    0.2131465  20.31   0.00149079    2.521    0.603
       357  -8.0412    167.4590    114.4916   6.6239270640e+01   2.5347742968e+01    0.1551914    0.1484868 -56.12 0.0001143566    1.017    0.016
       358 -10.4418    133.6655    109.2846   7.2926678562e+01   3.4039758638e+01    0.8043448    0.3468023 -49.25  0.002194701    2.388    0.581
       359 -10.1148    128.3958    101.7629   7.2247977993e+01   3.6831686714e+01    0.4168018    0.2954672 -59.93  0.001000855    1.594    0.372
       360 -10.1031     92.7798    112.5832   8.5450538045e+01   4.1552098319e+01    0.5035419    0.3537536 -73.80  0.001293186    1.809    0.447
       361  -8.7157    174.7731    111.9848   6.4041225711e+01   2.4209321546e+01    0.3244448    0.1958806 -53.50 0.0007754776    1.765    0.433
       362  -9.9653    121.8695    112.4328   7.6922257572e+01   3.5876824422e+01    0.5047082     0.341507 -70.09 0.0007946689    1.990    0.497
       363 -10.0017    118.5903    105.6942   7.6010722096e+01   3.8082240149e+01    0.4278618    0.3952601 -23.27  0.001969145    1.121    0.108
       364 -10.6849    108.6512     98.6272   7.6883323410e+01   4.1709504871e+01    0.8222517    0.5041096  70.68  0.000946934    2.981    0.665
       365  -9.3172    107.3120     92.9803   7.5649403403e+01   4.3211561519e+01      0.66882    0.3450791  27.77  0.002334002    2.851    0.649
       366  -8.5938    159.1677    111.7447   6.7376901259e+01   2.7792661299e+01    0.2729055    0.2031851 -54.68 0.0006117092    1.382    0.276
       367 -10.2235     66.4729    109.8305   9.3197514000e+01   4.6503871360e+01     0.644216    0.3207457 -62.51  0.002073323    2.105    0.525
       368 -10.2472     13.6618    110.8703   1.1115320298e+02   5.1859363986e+01    0.4140943     0.261421  77.91  0.002161791    1.888    0.470
       369 -11.3194    248.7346    107.8599   5.0642201851e+01   9.5962099427e+00    0.7370761    0.3153849 -46.63  0.003243184    2.053    0.513
       370  -8.7532     42.9286    109.3913   1.0103314924e+02   4.9610564977e+01     0.303096    0.1411672  11.97  0.001132327    3.405    0.706
       371  -8.1201    189.3855    108.1643   6.0175742552e+01   2.1682190371e+01    0.2210234    0.1298003 -50.62 0.0006176276    1.710    0.415
       372  -9.0484    109.9928    107.0327   7.8826648220e+01   3.9554209137e+01    0.4008283    0.2119524  29.89  0.001433706    2.442    0.591
       373  -9.3246    140.0254    104.7203   7.0066693756e+01   3.3609695494e+01     0.415787    0.3121928 -85.33  0.001112979    1.823    0.451
       374 -10.5633     45.3034    101.9748   9.8618482714e+01   5.1156260000e+01    0.7813298    0.4576346  71.90   0.00305737    3.207    0.688
       375  -9.3181     45.8049     92.4447   9.6197787276e+01   5.3369011095e+01    0.4472477    0.2747187  -0.82  0.002044559    2.275    0.560
       376 -10.6498     22.9516    102.7495   1.0663735198e+02   5.3142134279e+01    0.7187442    0.3966571  77.04  0.002489982    2.952    0.661
       377  -8.5614    166.6461    104.3371   6.3784068914e+01   2.7598201817e+01    0.3001401    0.2135132 -63.05 0.0007152557    1.624    0.384
       378  -9.6040    150.5547    103.3168   6.7129320467e+01   3.1509484717e+01    0.4779656     0.293796 -63.14  0.001228267    2.170    0.539
       379  -8.8716     94.5435    104.3478   8.2740273909e+01   4.3165446068e+01    0.4392348    0.2218636  24.79  0.001510807    2.986    0.665
       380  -9.4602      6.7124    102.7014   1.1224242944e+02   5.4289255717e+01    0.3023307    0.1600472 -85.94  0.001241092    2.052    0.513
       381  -7.7353    175.5661    102.4546   6.1432961609e+01   2.5917810419e+01    0.1536922    0.1426584 -64.34 0.0001439551    1.056    0.053
       382  -8.2651    159.8642    101.0713   6.4395963877e+01   2.9819632417e+01    0.2436163    0.1994418 -68.64  0.000569952    1.346    0.257
       383  -9.2275     82.1635    100.0624   8.5526046200e+01   4.6360116103e+01    0.3458053    0.2522926 -72.97  0.000833356    1.725    0.420
       384  -8.6947     65.7906     87.5428   8.7643766587e+01   5.1839125473e+01     0.573947    0.2990111   9.23  0.001869442    4.148    0.759
       385 -10.2312     64.0972     95.9655   9.0543420318e+01   5.0159653350e+01    0.6540418    0.4156679 -84.64  0.001614917    2.796    0.642
       386  -9.8933    109.2803    114.2929   8.0964020208e+01   3.8022148274e+01    0.4941436    0.3473421 -77.60  0.001423582    1.991    0.498
       387  -9.2719     95.0584     97.0808   8.0566536004e+01   4.4724317928e+01    0.3825255     0.256155 -60.55 0.0006044091    1.701    0.412
       388 -10.2090     94.1238     91.1763   7.9156131487e+01   4.6206400683e+01    0.2893704    0.2477993  29.63  0.001505848    1.205    0.170
       389  -9.0057    189.1363     94.4859   5.6784454562e+01   2.4313115487e+01     0.325024     0.174131 -53.08  0.001312526    2.004    0.501
       390  -8.3538    151.7085     95.0113   6.4583530459e+01   3.2926926150e+01    0.3169579    0.1867713  28.04  0.001000347    2.619    0.618
       391  -8.3599    176.4652     93.4292   5.8896770671e+01   2.7437430906e+01    0.2686419    0.1923318 -69.70 0.0005470901    1.684    0.406
       392  -8.2551    164.8832     94.1760   6.1450927774e+01   3.0006222526e+01    0.2370033    0.2004497 -74.13  0.000506158    1.282    0.220
       393 -10.2787    123.8512     91.2701   7.0465447074e+01   4.0044463601e+01    0.6016334    0.4683002  35.23  0.001248156    1.352    0.261
       394  -9.1039    139.1210     92.5209   6.6881846920e+01   3.6342330662e+01    0.3290385     0.251909 -89.39 0.0007986587    1.723    0.420
       395  -9.5394      5.0180     92.2272   1.1117251588e+02   5.6878576392e+01    0.3428097    0.2025591  61.89  0.001374546    2.326    0.570
       396  -8.2302    157.7593     91.4460   6.2237567802e+01   3.2207537613e+01    0.2820724    0.1792633 -51.17  0.000665143    1.628    0.386
       397  -9.7218     34.7735     89.7512   9.9642463652e+01   5.5186691537e+01    0.5097324    0.2867949 -81.37  0.002151669    2.705    0.630
       398  -8.2897     35.4908     82.5247   9.7610504461e+01   5.6782225850e+01    0.2602131   0.09080892 -48.41  0.001014711    2.352    0.575
       399  -9.1771     22.7743     90.3338   1.0427026670e+02   5.6125133660e+01    0.3089428     0.219578 -27.85  0.001131751    1.462    0.316
       400  -8.0959    150.6548     89.1868   6.3194892071e+01   3.4316179872e+01    0.2129883    0.1439322 -31.74 0.0004656975    1.599    0.375
       401  -9.9589     86.2848     86.6385   8.0338801994e+01   4.8643978521e+01    0.5003501    0.3714634 -85.52  0.001144922    2.100    0.524
       402  -8.8352     87.2367     80.9972   7.8302294508e+01   4.9665938318e+01    0.3991709    0.2140712  21.03  0.001429893    3.005    0.667
       403  -9.5528    248.8747     87.7054   4.6334460941e+01   1.2854160566e+01    0.1903445    0.1723946  32.09  0.001218247    1.444    0.307
       404  -7.5848    179.2967     85.6567   5.6306177968e+01   2.8204448864e+01    0.1571153    0.1115079 -69.66 0.0005233269    1.667    0.400
       405  -9.7134    104.8202     83.2647   7.3473875474e+01   4.5758687396e+01    0.4528674    0.3241156 -70.06  0.001001764    1.955    0.489
       406  -8.3901    157.8867     83.9062   6.0108458138e+01   3.3604510440e+01    0.2689327     0.196798 -47.63 0.0003920092    1.358    0.263
       407  -9.0838    140.7576     82.7201   6.3643931325e+01   3.7880264876e+01    0.4191982    0.2212773 -49.13   0.00103669    2.025    0.506
       408  -7.6017    170.5112     83.5085   5.7411174455e+01   3.0670731742e+01    0.1517938    0.1415356 -72.76  7.97894e-05    1.041    0.039
       409  -7.5803    185.3454     82.6726   5.4425224966e+01   2.7316010974e+01    0.1581346    0.1098228 -72.66 0.0007050408    1.748    0.428
       410  -8.2164     63.7889     82.2475   8.6834585172e+01   5.3311088891e+01    0.2179272    0.1771218 -71.62 0.0007027167    1.503    0.335
       411  -9.6608     24.6702     80.6160   1.0138092321e+02   5.8219278706e+01    0.4256081    0.2712001  88.41  0.001422664    2.432    0.589
       412  -9.3977      9.7018     80.9975   1.0735214651e+02   5.9215593265e+01    0.3243423    0.1990375  60.44  0.001370263    2.402    0.584
       413  -9.7884     48.4252     83.7256   9.2964926233e+01   5.5062905303e+01    0.5765431    0.3784482 -74.60  0.002125865    2.065    0.516
       414  -8.5153    150.3197     80.4400   6.0772853130e+01   3.6046936037e+01    0.3260349    0.2048864 -68.55  0.001098891    2.336    0.572
       415  -8.6420    119.4391     80.5820   6.8457373518e+01   4.3164676463e+01    0.2901291    0.2431003 -61.75 0.0008236592    1.328    0.247
       416  -8.8896     74.6540     80.3693   8.2386288309e+01   5.2006953635e+01    0.3486607    0.2352885 -65.45  0.001134609    1.959    0.489
       417  -8.2064    166.8309     79.8175   5.7126090656e+01   3.2211972452e+01    0.2143628    0.2029667  -1.85 0.0004479925    1.197    0.164
       418  -9.3589    128.2240     75.4927   6.4566434278e+01   4.2147245573e+01    0.3890665    0.2443246 -56.93 0.0007429792    1.944    0.486
       419  -7.9779    157.4372     76.5344   5.8116250397e+01   3.5049894322e+01     0.150948     0.141554 -77.21 0.0003571434    1.054    0.051
       420  -8.4113    140.4799     75.4464   6.1552734796e+01   3.9294799954e+01    0.2563508     0.194438 -71.59 0.0006122055    1.623    0.384
       421  -9.8639     63.1506     73.7971   8.4498433683e+01   5.5213924724e+01    0.4055132     0.283299 -64.09  0.001009248    1.813    0.448
       422  -9.6852     82.5773     72.8800   7.7275148216e+01   5.2171655289e+01    0.4253718    0.2998286 -70.04  0.001130903    2.164    0.538
       423  -8.4917    163.2855     73.3303   5.6019051788e+01   3.4201894377e+01    0.3011776    0.1855571 -49.03 0.0008406524    1.654    0.396
       424  -7.9216    151.4702     73.5041   5.8507594815e+01   3.7018878455e+01    0.1498418    0.1434189 -84.98 0.0001612555    1.028    0.027
       425  -8.6115    115.6893     72.8977   6.7083475900e+01   4.5457147529e+01    0.2713364    0.1979507 -55.78 0.0006867625    1.567    0.362
       426  -9.2961     95.2211     71.3638   7.2636531083e+01   5.0059371194e+01    0.3611795    0.2349433 -55.43 0.0008135648    1.853    0.460
       427  -8.4295     42.4601     72.7470   9.2194271980e+01   5.8193962020e+01    0.2570608    0.1258854 -58.76 0.0008675883    2.132    0.531
       428  -7.5875    175.4680     72.5533   5.3502062113e+01   3.1402109317e+01    0.1472201    0.1371138 -77.06 0.0001272706    1.017    0.016
       429  -9.4193    105.8471     71.6622   6.9494758127e+01   4.7818168231e+01    0.2826547    0.2085567 -49.81 0.0006562199    1.455    0.313
       430  -9.6386     51.3369     69.5040   8.7679199501e+01   5.7779566206e+01    0.4689049    0.2575023 -64.38  0.001577888    2.641    0.621
       431  -9.4217     16.6519     69.1036   1.0185404770e+02   6.1416198778e+01    0.5790055    0.1969501 -62.97  0.002352237    2.766    0.638
       432  -8.7418    147.0911     68.1585   5.7877954479e+01   3.8995891693e+01    0.3104019    0.2055144 -45.89 0.0006880434    1.542    0.352
       433  -8.9347    138.6265     65.5932   5.8990935851e+01   4.1458683229e+01    0.4439638    0.2085808 -40.74  0.001412843    2.150    0.535
       434  -7.6313    203.2696     66.7165   4.7506735686e+01   2.5814209820e+01    0.1403864   0.09762087 -66.91 0.0002748702    1.496    0.332
       435  -8.8787    121.4865     65.8813   6.3275869168e+01   4.5416161453e+01    0.2748231    0.2283527 -81.42 0.0007503524    1.483    0.326
       436  -8.5846     83.5679     65.4490   7.4457876774e+01   5.3426684350e+01    0.4081848    0.2053344  19.60  0.001275145    4.246    0.764
       437  -8.7377     37.2826     64.4351   9.1822381226e+01   6.0533622661e+01     0.280227    0.2214837 -76.98   0.00123545    1.739    0.425
       438  -8.7928    110.2287     63.7143   6.5614953697e+01   4.8312729234e+01    0.2856145    0.2173054 -64.59  0.000852762    1.689    0.408
       439  -8.7173     64.8384     62.9134   8.0284593295e+01   5.7138207893e+01    0.4185692      0.24156  10.57  0.001723196    2.668    0.625
       440  -8.1425    158.1573     61.8168   5.3732000667e+01   3.7359120910e+01    0.1890674    0.1698467  30.73 0.0003030682    1.253    0.202
       441  -9.2994     29.6960     70.2649   9.6696511928e+01   6.0072104045e+01    0.5036785    0.2373287 -17.45  0.001906777    3.635    0.725
       442  -9.3580     97.7118     60.7125   6.8269865942e+01   5.1502326011e+01    0.3608467    0.2614985  59.25  0.001271611    1.602    0.376
       443  -9.6363     73.3288     59.4739   7.5951584435e+01   5.6375311580e+01    0.4300123    0.2525439 -51.58  0.001445172    2.005    0.501
       444  -8.4326     88.8514     59.5639   7.0664824604e+01   5.3487587033e+01     0.224069     0.167125 -42.19 0.0005186889    1.388    0.280
       445  -8.1209    130.7862     57.8044   5.8368730618e+01   4.4599391464e+01    0.1978448    0.1686344 -71.19 0.0004588639    1.330    0.248
       446  -9.8950     23.4233     56.3604   9.5355931561e+01   6.3561701741e+01     0.402395    0.2807695  86.75  0.001970933    2.757    0.637
       447  -9.5417      7.4402     57.2207   1.0283932714e+02   6.4569169277e+01    0.2652066    0.2019974 -83.15  0.001025227    1.698    0.411
       448  -7.7158    193.6883     56.6889   4.6368637404e+01   2.9584124507e+01    0.1335512    0.1096372  27.80 0.0002229417    1.628    0.386
       449  -8.1635    139.8843     56.1280   5.5777919560e+01   4.2690703813e+01    0.2210497    0.1913182 -72.30 0.0004834749    1.254    0.202
       450  -9.1604    119.2173     55.5033   6.0457648039e+01   4.7662416062e+01    0.3649518    0.2325016 -50.76  0.001155745    1.821    0.451
       451  -8.6374     44.1503     55.4504   8.5974007609e+01   6.1518498835e+01    0.2759125    0.1985768 -61.42  0.001014592    1.792    0.442
       452  -8.9872     62.9328     54.7503   7.8123557548e+01   5.8964654446e+01    0.2511894    0.1872676 -45.71 0.0007001912    1.419    0.295
       453  -9.0498     53.7892     53.3446   8.1225247332e+01   6.0609211503e+01    0.4456895    0.2072155 -54.21  0.001753347    2.876    0.652
       454  -8.4208    105.8455     53.3342   6.3312153912e+01   5.1003724574e+01    0.2360268    0.1914202 -47.92 0.0006041341    1.365    0.267
       455  -9.4773     92.3816     50.7441   6.6383799571e+01   5.4263680233e+01    0.3687258    0.2352978 -48.32  0.001041672    1.840    0.456
       456  -8.2026     74.8065     51.7709   7.2626536809e+01   5.7473662964e+01    0.2341917    0.1403223   4.06 0.0009447695    2.748    0.636
       457  -7.3445    158.3430     49.6794   5.0159333962e+01   3.9160672067e+01    0.1517789    0.1052916 -73.06 0.0007049955    1.724    0.420
       458  -8.2865    144.6577     48.8821   5.2530799885e+01   4.2620875123e+01    0.2059414    0.1226705 -45.39 0.0006982698    1.770    0.435
       459  -8.4464    129.9549     49.2948   5.5811417814e+01   4.6101466480e+01    0.1996029    0.1800487  58.63 0.0004680933    1.057    0.054
       460  -8.7393    120.8556     47.3658   5.7314586765e+01   4.8524078749e+01    0.2255235     0.190457 -45.53  0.000481246    1.275    0.216
       461  -8.5943    112.2862     46.8929   5.9313963347e+01   5.0559130855e+01     0.251118    0.2047617 -62.29  0.000644727    1.490    0.329
       462  -9.0494     82.0666     46.4660   6.8127066396e+01   5.6989237353e+01    0.2800902    0.2102225 -40.79  0.000854235    1.434    0.303
       463  -8.5359     45.0573     44.8302   8.1701920397e+01   6.3350166615e+01    0.1748728    0.1694273 -11.34 0.0004683956    1.301    0.232
       464  -9.1550     16.5378     44.8515   9.4877367408e+01   6.6413693758e+01    0.1937875    0.1872359  75.89 0.0006609698    1.475    0.322
       465  -8.8233     92.8405     42.7157   6.3277563905e+01   5.5398908999e+01    0.2819002    0.1954592  -8.97  0.001414038    1.708    0.415
       466  -8.9473     58.1907     42.6604   7.5389257307e+01   6.1797989575e+01    0.3039755    0.2001228 -55.43  0.001168129    2.195    0.544
       467  -7.7695     33.3511     44.2839   8.6718203336e+01   6.4891499799e+01    0.1316714   0.08343107 -14.59 0.0007018539    1.657    0.396
       468  -9.5537      5.3833     42.2345   9.9525860206e+01   6.7713673321e+01    0.3170595    0.2013543 -78.59  0.001457093    2.514    0.602
       469  -8.0991    132.7110     43.1775   5.3209473705e+01   4.6314309456e+01    0.2170787    0.1673414 -54.47 0.0004936238    1.442    0.307
       470  -9.2159     69.5394     41.2381   7.0484621903e+01   6.0120246141e+01    0.3875393    0.2524793 -50.91  0.001420064    2.026    0.507
       471  -8.5481    105.9570     41.4650   5.9068254509e+01   5.2756006609e+01    0.2525088    0.1874721 -49.70 0.0006040164    1.582    0.368
       472  -7.6675    164.2751     41.3732   4.6739890821e+01   3.8862280186e+01    0.1380805    0.1065529  25.74 0.0007004273    1.688    0.408
       473  -8.5847     36.8935     40.6804   8.3720803308e+01   6.5115988159e+01    0.2275794    0.1711148 -44.78 0.0006487347    1.411    0.291
       474  -7.7172    156.2035     39.0501   4.7412520820e+01   4.1148782205e+01    0.1771631    0.1120249 -31.18 0.0005829413    1.711    0.416
       475  -9.0372     95.6346     38.0437   6.0691970167e+01   5.5473645893e+01    0.3017907    0.2198138 -49.44  0.001061219    1.673    0.402
       476  -8.2380     80.5091     36.5192   6.4788311164e+01   5.8772223199e+01    0.2187535    0.1197253 -43.35 0.0009576884    2.133    0.531
       477  -8.0740    133.4139     36.1981   5.0790852171e+01   4.7069919171e+01    0.1883785    0.1259917 -44.47 0.0005350437    1.619    0.382
       478  -8.6416    125.8890     35.6516   5.2197678041e+01   4.8938472944e+01    0.2159107    0.1903426  -1.29 0.0003024543    1.264    0.209
       479  -9.3279     26.0686     35.3658   8.6746217670e+01   6.7259713520e+01    0.2592906    0.2054303 -50.60  0.001023902    1.513    0.339
       480  -8.8474    111.8969     34.5292   5.5047183189e+01   5.2343464239e+01    0.2885796    0.1897714 -35.35 0.0008193945    1.631    0.387
       481  -7.9415    104.4798     34.4746   5.6914129978e+01   5.4022868783e+01    0.1372104    0.1237015  35.38 0.0001921753    1.012    0.012
       482  -7.7661     88.5260     34.5044   6.1449504411e+01   5.7440401012e+01    0.1339409    0.1216488  24.87 2.897165e-05    1.031    0.030
       483  -9.0036     48.4978     33.3459   7.5576060569e+01   6.4752923226e+01    0.2424083    0.2109773 -39.38  0.000677138    1.398    0.285
       484  -8.5805     60.6651     32.5909   7.0289963020e+01   6.2942163949e+01    0.2207019    0.1512988 -34.80 0.0003612133    1.498    0.333
       485  -8.0876    139.4701     31.9352   4.8233110553e+01   4.6134327896e+01    0.2000387   0.09986979 -53.04 0.0008088051    2.574    0.611
       486  -8.7373     72.0681     31.2812   6.5531894136e+01   6.1102649238e+01    0.2172231    0.1778047 -53.32 0.0007624716    1.656    0.396
       487  -8.6651     12.8929     30.2010   9.1417871902e+01   6.9388415885e+01    0.2576115    0.1517449 -56.60   0.00095297    2.005    0.501
       488  -8.2873    101.6340     29.5365   5.5825894646e+01   5.5270122730e+01    0.2144622     0.156024 -51.05 0.0008323236    1.706    0.414
       489  -8.4539    119.1787     33.2008   5.2855342522e+01   5.0826759742e+01    0.1811038     0.157513 -68.03 0.0004483102    1.326    0.246
       490  -9.1638      3.6416     27.5527   9.5398161133e+01   7.0541771964e+01    0.2957476    0.1802015 -65.96  0.001529902    2.357    0.576
       491  -7.8324    230.0322     27.9660   3.5470531519e+01   2.5302229226e+01    0.1503137    0.1205106 -68.26 0.0003439771    1.009    0.009
       492  -8.8277     81.5350     27.4285   6.0791655202e+01   5.9770636503e+01    0.2505386    0.1930701 -61.22 0.0008434503    1.924    0.480
       493  -8.8808     91.8870     26.2395   5.7216786533e+01   5.7776648606e+01     0.279758    0.1723702 -39.15 0.0007547578    1.841    0.457
       494  -8.3593    104.4322     23.1834   5.2730954698e+01   5.5379984107e+01    0.1741528    0.1213382 -40.62 0.0005433991    1.639    0.390
       495  -7.7770     34.6733     23.3340   7.7412870337e+01   6.8165912325e+01    0.1031154   0.09993839 -88.39 0.0005355382    1.717    0.417
       496  -8.9493     63.7394     21.2926   6.4222663629e+01   6.3905464896e+01    0.2543242    0.1857435 -40.59 0.0008656373    1.671    0.402
       497  -8.7532     48.4230     21.7528   7.0481188208e+01   6.6418551857e+01    0.1948858    0.1884448   0.32  0.000648035    1.398    0.285
       498  -9.0132    175.6171    247.9133   9.1125388320e+01  -2.2232216991e+00    0.2854218    0.2182206  68.46  0.001556372    2.138    0.532
       499  -8.9760     74.0669     19.4677   5.9846911337e+01   6.2185065937e+01    0.2630535    0.1871091 -49.03 0.0007370876    1.943    0.485
       500  -8.3888    113.0651    248.5315   1.0387248565e+02   7.1504617224e+00    0.2228677    0.1637045  88.41 0.0008805465    1.703    0.413
       501  -7.9854     19.4216     21.2376   8.4159170663e+01   7.0256685085e+01    0.1503307    0.1024288 -45.46 0.0009421913    1.647    0.393
       502  -9.3010    103.9078    246.7182   1.0554106394e+02   8.8434200696e+00    0.4138839    0.2235287 -81.93  0.001910137    2.939    0.660
       503  -7.6170      7.4864     15.4963   8.8186655999e+01   7.2256170774e+01    0.1110741   0.08860644 -16.92  0.000807976    1.116    0.104
       504  -8.0088     17.1934     14.3605   8.2144615213e+01   7.1514948073e+01    0.1427522   0.09564255  28.84 0.0004081782    1.616    0.381
       505  -8.9933    242.9503    246.6232   7.8402290425e+01  -1.1210693838e+01    0.3511796    0.1551556 -29.10  0.001377612    2.159    0.537
       506  -7.9673     38.7627     18.5801   7.3271704986e+01   6.8273759896e+01    0.1453644    0.1064921  35.32 0.0003843406    1.453    0.312
       507  -8.8238    232.7800    247.2858   8.0285024954e+01  -1.0040907092e+01    0.2099419    0.1391617 -31.77 0.0007333227    1.552    0.356
       508  -8.1839    234.7509    243.2382   7.9280073820e+01  -9.7629818621e+00    0.1717561   0.09343848  20.98  0.000978875    1.694    0.410
       509  -8.2473    218.4191    247.7961   8.2949393228e+01  -8.2526895532e+00    0.1978539    0.1084467 -39.94  0.001119741    2.046    0.511
       510  -8.2445     97.1357     15.1356   5.1455821469e+01   5.7837730643e+01    0.1631829    0.1514628 -70.89 0.0004266893    1.310    0.237
       511  -8.4800    156.0916    248.1894   9.5062803111e+01   6.7083972268e-01    0.2253674    0.1497611  48.21 0.0004838648    1.534    0.348
       512  -8.8168    132.0575    247.8382   9.9902701017e+01   4.3997053584e+00    0.2389188    0.1868842  65.92 0.0008029146    1.473    0.321
       513  -8.2097     63.4879    248.5015   1.1384204648e+02   1.4165547157e+01    0.1210639   0.09712796  60.17 0.0008104614    1.023    0.023
       514  -9.9578    223.9906    244.2699   8.1370763529e+01  -8.5129438317e+00    0.4178711    0.2165268 -44.82  0.002227968    2.492    0.599
