#   1 NUMBER                 Running object number                                     
#   2 MAG_AUTO               Kron-like elliptical aperture magnitude                    [mag]
#   3 X_IMAGE                Object position along x                                    [pixel]
#   4 Y_IMAGE                Object position along y                                    [pixel]
#   5 X_WORLD                Barycenter position along world x axis                     [deg]
#   6 Y_WORLD                Barycenter position along world y axis                     [deg]
#   7 A_WORLD                Profile RMS along major axis (world units)                 [deg]
#   8 B_WORLD                Profile RMS along minor axis (world units)                 [deg]
#   9 THETA_WORLD            Position angle (CCW/world-x)                               [deg]
#  10 FWHM_WORLD             FWHM assuming a gaussian core                              [deg]
#  11 ELONGATION             A_IMAGE/B_IMAGE                                           
#  12 ELLIPTICITY            1 - B_IMAGE/A_IMAGE                                       
         1 -13.9093    159.5768     52.8230   8.0278226205e+01   3.8528448809e+01     1.615365     1.202123  16.63  0.005166396    1.702    0.413
         2 -13.8873    171.5524     37.1731   7.3269236186e+01   3.7695951287e+01     0.984781    0.9469668   3.32  0.003560088    1.128    0.113
         3 -11.5750    189.8951     14.6919   6.4121423020e+01   3.5682187716e+01    0.3141302    0.2375538 -44.20   0.00104835    1.321    0.243
         4 -13.5718    188.2856      5.2836   6.1685166753e+01   3.7023626723e+01    0.9984613    0.6899257  69.36  0.003878305    1.315    0.240
         5 -10.3374    198.8820    222.6879   1.1230379094e+02   8.5582813767e-02    0.1766296    0.1379268  31.69 0.0004376375    1.093    0.085
         6 -18.7031     66.9373    244.3077   1.3945493712e+02   1.7025083598e+01      5.75565      4.90385  65.80   0.03679517    1.200    0.167
         7  -9.7785    180.1839    192.3967   1.1069958599e+02   8.0517728737e+00    0.1916325    0.1188731  50.46  0.000507131    1.673    0.402
         8 -11.4086    167.7091    190.5668   1.1289344055e+02   1.0669342705e+01    0.3422172    0.2676519  11.33  0.001754842    1.485    0.326
         9 -10.8529      6.4594    220.8722   1.4840971750e+02   2.8124748198e+01    0.1245534   0.07808065 -70.17 0.0008801653    1.673    0.402
        10 -10.2760    176.5157    187.9313   1.1062146239e+02   9.5036450385e+00    0.1985969    0.1359901 -41.47  0.001027099    1.574    0.365
        11 -13.5530    137.7956    199.0736   1.2052097600e+02   1.4502882486e+01    0.7606685    0.4149964  51.39  0.003619829    1.788    0.441
        12 -18.9321     51.9859     92.8015   1.2262824577e+02   5.1823048192e+01     18.65136       1.0294 -58.14   0.02797228   17.034    0.941
        13 -12.1579     10.3419    206.6190   1.4698036220e+02   3.0500313543e+01    0.3495792    0.2737455  69.14  0.002728322    1.150    0.130
        14 -11.9881     38.2760    183.6666   1.3983265923e+02   3.2391870557e+01    0.2094639    0.1677623  88.00 0.0003463614    1.055    0.052
        15 -10.1911     31.7409    207.1498   1.4305542447e+02   2.8226708215e+01     0.170662    0.1186454   8.61 0.0009818894    2.866    0.651
        16 -11.5554    205.5128    180.4916   1.0349309449e+02   5.3746461218e+00    0.4699817    0.2613871  40.28  0.002075632    1.710    0.415
        17 -11.5001    208.6881    178.6597   1.0252875907e+02   5.0879060979e+00    0.3880603    0.3040347  15.79  0.002100554    1.261    0.207
        18 -10.1153     26.8309    179.9803   1.4191378060e+02   3.4397690890e+01    0.1501484    0.1352011 -84.57 0.0005641591    1.267    0.211
        19 -10.4118     17.5722    180.6025   1.4388307119e+02   3.5164553896e+01    0.1122486   0.08957753  89.31 0.0005849401    1.098    0.089
        20 -11.4535    163.5334    203.9654   1.1603524360e+02   9.0707438973e+00    0.3185517    0.2315396 -50.06 0.0005324561    1.577    0.366
        21 -11.1649    158.4131    204.5516   1.1716031656e+02   9.8757474475e+00    0.3030463    0.1981026  65.07  0.001484502    2.064    0.515
        22 -10.3367     35.0375    177.9351   1.3999058649e+02   3.3988021783e+01    0.1836805    0.1532026   6.84 0.0004150245    1.841    0.457
        23 -12.0964    196.0567    171.7342   1.0356779522e+02   8.6311405365e+00    0.6786378    0.3851234 -47.54  0.002471899    1.998    0.499
        24 -11.6698    155.4625    197.4616   1.1659900424e+02   1.1661764187e+01    0.2893445     0.200808  61.53 0.0008431861    1.679    0.404
        25 -11.3432    142.2130    165.9318   1.1380224953e+02   2.0260526846e+01    0.3214305    0.1933417 -56.84 0.0007295076    1.842    0.457
        26 -10.6205    122.9644    166.0215   1.1822653993e+02   2.3847772752e+01    0.2152241     0.194977  68.09     0.001225    1.063    0.060
        27 -10.1387    194.4716    165.9790   1.0269588235e+02   9.9474008838e+00    0.2524197    0.1753338 -51.42 0.0007878594    1.684    0.406
        28 -10.1033    223.7994    164.0361   9.6745426097e+01   4.6529251313e+00    0.2002829    0.1818388 -48.28 0.0006421434    1.324    0.244
        29 -11.7963    111.9350    159.1219   1.1957102065e+02   2.7335201310e+01    0.3917914    0.2616259  75.47  0.001781688    1.974    0.493
        30 -11.5486     25.0004    156.6556   1.4017591894e+02   3.9737249776e+01    0.4838593     0.245903  47.37  0.002657034    1.958    0.489
        31 -10.9090    140.0221    156.5175   1.1243922580e+02   2.2655289442e+01    0.2543442    0.2133749 -54.00 0.0003339541    1.224    0.183
        32 -10.1056    237.6741    159.3167   9.3324329877e+01   2.8545628797e+00    0.1258519     0.107512 -66.48 0.0004677723    1.673    0.402
        33 -12.9708    193.5696    192.9611   1.0816983275e+02   5.5194327789e+00    0.9499173    0.5250988 -52.59  0.002923608    2.466    0.594
        34 -12.1257    134.3977    148.2033   1.1203904802e+02   2.5541307000e+01    0.6610805    0.2817407 -56.90  0.002312949    2.839    0.648
        35 -12.3985    134.0000    144.0062   1.1123909260e+02   2.6532250504e+01    0.8406768    0.3016459 -57.30  0.002468001    4.004    0.750
        36 -11.5561     27.0663    150.6576   1.3906496800e+02   4.0906393073e+01    0.2980418    0.1762899  55.96  0.001701994    1.705    0.414
        37  -9.6949     16.6248    151.4677   1.4162161989e+02   4.1662471475e+01    0.1740847    0.1191193   2.26  0.001022713    2.402    0.584
        38 -10.5020    174.7661    148.8866   1.0306434378e+02   1.7131090815e+01       0.2797    0.2102744 -60.91 0.0009415158    1.596    0.373
        39 -11.9029    144.7624    145.7432   1.0906804111e+02   2.3994537687e+01    0.3879998    0.2930874  64.40  0.001865504    1.510    0.338
        40 -13.4069      4.0658    130.9204   1.4268618936e+02   4.7285540182e+01     1.786619    0.6561856 -76.35  0.008571577    2.169    0.539
        41 -12.8771     94.3781    139.3893   1.2022837229e+02   3.4846712679e+01    0.8038287    0.2847147 -50.75  0.002898366    2.702    0.630
        42 -12.9626    113.7638    138.8519   1.1513418397e+02   3.1567836435e+01    0.8221343    0.5492072  12.00  0.003375599    2.552    0.608
        43 -12.1539    104.1647    138.3202   1.1747852303e+02   3.3421997357e+01    0.2981779    0.2608933  51.86 0.0003596609    1.158    0.136
        44 -11.7595     18.0207    141.6737   1.4030429176e+02   4.3772461232e+01    0.2093831    0.1570575  13.95  0.001208629    1.863    0.463
        45 -12.0110    105.9825    130.8826   1.1543305330e+02   3.4809405336e+01    0.4085256    0.3518989 -77.03  0.001347951    1.186    0.157
        46 -11.0249    107.9402    125.3882   1.1369169521e+02   3.5713197996e+01    0.3165553    0.2710316 -21.65  0.000671625    1.375    0.272
        47 -12.1820    119.3451    129.4462   1.1164095817e+02   3.2639006201e+01    0.4322455    0.3783518 -57.47  0.001197427    1.119    0.106
        48 -12.2419    124.5311    126.8053   1.0970328660e+02   3.2212359690e+01    0.6201186    0.3640506  69.72  0.002213861    2.983    0.665
        49 -10.6566    160.7965    128.0868   1.0128846382e+02   2.4294236416e+01    0.3365963     0.212222 -54.72  0.001427424    1.778    0.438
        50 -11.6681    135.4533    122.0926   1.0582107660e+02   3.1015459209e+01    0.5970896    0.1724635 -51.37  0.001623378    4.156    0.759
        51 -11.1876    113.3472    118.5702   1.1064940173e+02   3.6246292590e+01    0.2791777    0.2395392  69.71 0.0005710346    1.273    0.215
        52 -11.8135     11.9055    116.1060   1.3896099884e+02   5.0133741399e+01    0.2154132    0.1810184   9.10  0.001045082    1.584    0.369
        53 -10.5665    168.2521    113.3609   9.5923172414e+01   2.5591891370e+01    0.3848135     0.288533 -84.56  0.001325013    1.885    0.469
        54 -12.0752      6.0814    112.1040   1.4009517847e+02   5.1445387339e+01    0.5015641    0.2644072   1.74  0.001989856    3.058    0.673
        55 -10.2177    205.5299    110.2095   8.7670023643e+01   1.7659447832e+01    0.2664113    0.2126753  48.83 0.0006598683    1.308    0.236
        56 -11.8382     84.5136    110.4955   1.1675713584e+02   4.3193877663e+01    0.2473157     0.236618   9.16   0.00134508    1.164    0.141
        57 -10.7460     25.1775    108.8436   1.3411843825e+02   5.0791998970e+01    0.1730524    0.1256658 -49.04 0.0003641318    1.326    0.246
        58 -11.0926    208.3470    196.8554   1.0607918204e+02   2.2815376136e+00    0.2215203    0.1691116  42.23 0.0007140939    1.316    0.240
        59  -9.7761    147.4765     79.5190   9.1150059689e+01   3.6995164602e+01    0.1519317    0.1500027 -11.49 6.204025e-05    1.007    0.007
        60 -10.4773     92.4797     79.0860   1.0589612829e+02   4.8777714505e+01    0.2476175    0.2078054  49.16 0.0003443713    1.312    0.238
        61 -11.0744     13.3951    245.1924   1.4841820184e+02   2.3058788769e+01    0.2441058   0.08035152 -68.28  0.001361509    3.004    0.667
        62 -12.2978    158.9117    235.8362   1.2169752958e+02   4.6987865139e+00    0.3565805    0.2584909  26.41  0.001139539    1.372    0.271
        63  -9.9912     13.5925     59.5200   1.2841141316e+02   6.2692528231e+01    0.2147411    0.1479069 -58.71 0.0005775276    1.196    0.164
        64 -12.6037    175.5806     29.8589   7.0424048885e+01   3.7589182030e+01    0.5138747    0.3903843  34.53  0.001151742    1.499    0.333
        65 -10.1046    129.4854     28.0143   7.8127038277e+01   4.9325587779e+01    0.2607731    0.1940388  78.55 0.0007122007    1.578    0.366
        66 -10.9665    168.6169    233.9228   1.1962310001e+02   3.4111275435e+00    0.2426297    0.1713043  64.03  0.001080019    1.857    0.461
