#   1 NUMBER                 Running object number                                     
#   2 MAG_AUTO               Kron-like elliptical aperture magnitude                    [mag]
#   3 X_IMAGE                Object position along x                                    [pixel]
#   4 Y_IMAGE                Object position along y                                    [pixel]
#   5 X_WORLD                Barycenter position along world x axis                     [deg]
#   6 Y_WORLD                Barycenter position along world y axis                     [deg]
#   7 A_WORLD                Profile RMS along major axis (world units)                 [deg]
#   8 B_WORLD                Profile RMS along minor axis (world units)                 [deg]
#   9 THETA_WORLD            Position angle (CCW/world-x)                               [deg]
#  10 FWHM_WORLD             FWHM assuming a gaussian core                              [deg]
#  11 ELONGATION             A_IMAGE/B_IMAGE                                           
#  12 ELLIPTICITY            1 - B_IMAGE/A_IMAGE                                       
         1 -11.5312      3.8872     18.0310   1.0631043444e+02   6.9662370049e+01    0.3342831    0.2180939  -7.84  0.001630254    1.730    0.422
         2 -11.9864     21.0774     18.9322   9.9083033665e+01   6.8349526720e+01     0.482275    0.3910793 -62.46  0.001180538    1.580    0.367
         3 -12.0160    129.5934     24.1506   6.4717201096e+01   5.0171158389e+01    0.7068365    0.4241615 -28.00  0.002056981    1.655    0.396
         4 -11.6681     60.6865     23.0249   8.4799515922e+01   6.3344662660e+01        0.512    0.3003254 -55.20   0.00247107    2.671    0.626
         5  -9.9352     34.7303     16.2197   9.2164696578e+01   6.7564051438e+01    0.3978069    0.1729046 -31.49  0.002008067    2.153    0.536
         6 -11.0580     64.2243     14.4329   7.9793756983e+01   6.4115056668e+01    0.4991928    0.2604255  14.11  0.002174665    3.043    0.671
         7  -9.7217     73.1976      2.3451   7.1056762206e+01   6.4214360973e+01    0.1997446    0.1670342 -62.00 0.0008510129    1.953    0.488
         8 -11.5155     75.8910     15.3391   7.6140127975e+01   6.2141237236e+01    0.4905837    0.2799138 -18.69  0.001640382    1.742    0.426
         9 -12.0168     70.4518     14.4719   7.7606806550e+01   6.3146945502e+01    0.3662081    0.2089617 -21.97 0.0009775552    1.646    0.392
        10 -12.1977     81.0964      6.9280   7.0654434066e+01   6.2304005515e+01    0.5395687    0.3272351  20.31  0.002845882    1.756    0.430
        11 -11.4270     74.0910      7.1524   7.3028510561e+01   6.3497527400e+01    0.2737402    0.1876133 -18.47 0.0003165629    1.296    0.228
        12  -9.8742     49.8270     15.2856   8.5609249152e+01   6.5982138178e+01    0.2241439    0.1903341 -31.71  0.001544659    1.263    0.208
        13  -9.6526     50.9574     11.0415   8.3257292101e+01   6.6462417695e+01    0.2325346    0.1297292 -14.07 0.0008586107    2.018    0.504
        14  -9.8393     15.2409     14.3580   9.9912886224e+01   6.9579881524e+01     0.166892    0.1158713 -59.33 0.0007822614    1.667    0.400
        15 -10.2009    139.4633     13.2834   5.8474133047e+01   4.9101649722e+01    0.3779419    0.2405833 -76.84 0.0009992912    2.581    0.613
        16 -10.3152    100.0944     13.0024   6.7727837676e+01   5.7963774861e+01    0.2993397    0.1803838 -11.76  0.001180859    1.731    0.422
        17 -10.3112     55.0076     13.2822   8.2705224665e+01   6.5597675445e+01    0.2174724     0.153489 -31.95 0.0003548075    1.261    0.207
        18 -10.7288     59.4706     10.3038   7.9657925679e+01   6.5389146969e+01    0.3833314    0.1910891  44.20  0.001989434    2.344    0.573
        19 -10.4636     26.4299     13.9512   9.4780974108e+01   6.8733493529e+01    0.1969168     0.125878 -22.98 0.0003375367    1.385    0.278
        20 -11.5448    117.6955     10.4912   6.2160673539e+01   5.4498571970e+01     0.626338    0.2405806 -36.90  0.002456738    2.773    0.639
        21 -11.0933    115.9365      3.1443   5.9559770058e+01   5.5644675273e+01    0.2601343    0.1830335  -9.33 0.0004383573    1.424    0.298
        22  -9.7069      5.2882     11.6741   1.0344864243e+02   7.0698382212e+01     0.151899   0.08632654 -35.55   0.00102589    1.349    0.259
        23  -9.9310    185.7940     11.0507   4.9905660747e+01   3.7450818421e+01    0.2081597    0.1808962 -67.43 0.0004718636    1.201    0.167
        24  -9.9218      6.4823      8.0006   1.0148316688e+02   7.1248583071e+01    0.1478709    0.1430422 -85.66 0.0005879053    1.616    0.381
        25 -10.1050     10.8631      9.8116   1.0013707556e+02   7.0657172286e+01    0.2601736    0.1471428 -55.55 0.0009218942    1.771    0.435
        26 -12.1327     24.7289      5.8848   9.2035515180e+01   7.0168568866e+01    0.6113645     0.364677 -14.97  0.003328494    1.673    0.402
        27 -12.1195     11.7945      2.4926   9.6608274922e+01   7.1777867228e+01    0.3481935    0.1930199 -21.11  0.001635154    1.701    0.412
        28 -11.2591     16.6946      2.0360   9.4031834593e+01   7.1463470802e+01    0.4350301    0.1492782 -47.04  0.001471967    2.529    0.605
        29  -9.9714    107.4983      9.7459   6.4371235504e+01   5.6803656994e+01    0.3099463       0.1456  50.56  0.001396844    1.997    0.499
        30 -13.0392     31.9924      2.0617   8.6948962948e+01   7.0005903853e+01    0.2627028    0.1878952  11.91 0.0006033744    1.408    0.290
        31 -10.4312    178.1382      9.1659   5.0393819641e+01   3.9659496736e+01    0.2269083    0.1815085  42.88 0.0006360945    1.241    0.194
        32 -10.4056    127.7556      8.5780   5.9119603838e+01   5.2396474447e+01    0.2525667    0.2018272 -69.68 0.0007352222    1.660    0.398
        33 -10.3326    123.0681      7.7792   5.9831341626e+01   5.3566202147e+01    0.2851896    0.1602255  18.95  0.001247579    2.176    0.540
        34 -10.4257     91.7011      7.0049   6.7488629874e+01   6.0317224532e+01      0.37093    0.2389603   8.86  0.001728065    1.646    0.392
        35 -10.4566    146.7414      6.1410   5.4440976022e+01   4.8037470883e+01    0.4080572    0.1721147 -34.24  0.001648913    2.432    0.589
        36 -10.3371    228.7469      5.8666   4.3407678743e+01   2.6830346892e+01    0.2544072    0.1842771 -89.57 0.0005518614    1.354    0.261
        37  -9.4232    165.5099      5.5068   5.1077351665e+01   4.3316650049e+01    0.1420282     0.131053  52.60 5.501802e-05    1.009    0.009
        38 -10.0117     59.5957      5.5030   7.7348781660e+01   6.6006212989e+01    0.2365145    0.1137891  41.52  0.001227411    2.223    0.550
        39 -10.3718    176.8553      3.9342   4.8893109912e+01   4.0509050021e+01    0.2157437    0.1753515  39.66 0.0003110571    1.239    0.193
        40  -9.5963    167.9533      2.2805   4.9626255153e+01   4.2985393312e+01    0.1942893    0.1723976  65.38 0.0003975892    1.056    0.053
        41  -9.8175    139.2165      1.6339   5.4150166673e+01   5.0318464770e+01    0.1988562    0.1116424  52.31 0.0004685991    1.575    0.365
        42 -10.1568    174.4896    219.3132   1.0276615062e+02   6.0944319560e+00    0.2655076    0.1230475  36.53  0.001044765    2.110    0.526
        43 -10.8515    250.4151    245.8662   9.4130503922e+01  -9.3609828771e+00    0.3531917    0.1524428 -21.85  0.001971293    2.902    0.655
        44 -10.0249     72.6113    250.0941   1.2268679690e+02   1.7174833265e+01    0.1508297    0.1290244  46.08  0.001263218    1.637    0.389
        45 -11.9936     27.9151    247.1499   1.2895439048e+02   2.2893565806e+01     0.382017    0.1900626  84.95  0.002839691    1.651    0.394
        46 -12.5700     20.1884    248.4557   1.3007672140e+02   2.3502820047e+01    0.7003322     0.141581  47.20  0.003902989    3.000    0.667
        47 -13.4398      7.3167    244.5524   1.3166018507e+02   2.5388376412e+01    0.8790926    0.6726538  47.89  0.006780204    1.719    0.418
        48 -10.8190      9.5187    216.8999   1.3017855847e+02   2.9675209700e+01    0.2565041    0.1266414  62.00  0.001058461    1.485    0.327
        49  -9.9715    191.6128    217.1989   9.9478444115e+01   3.3925976493e+00     0.151244    0.1147655 -19.79 0.0009530825    1.670    0.401
        50  -9.6144     38.0292    217.4850   1.2583486122e+02   2.6644141984e+01    0.1435247   0.08232928  49.35 0.0006028203    1.542    0.351
        51  -9.0466     73.2843    221.2756   1.2041810720e+02   2.1697413236e+01   0.08757164   0.08210687  69.11 0.0002203448    1.507    0.337
        52 -10.5892     31.1829    215.7305   1.2680354380e+02   2.7694986151e+01    0.2177348    0.1452592  47.76  0.001560406    1.536    0.349
        53  -9.5547    201.5554    215.5205   9.7501447904e+01   1.8701529592e+00    0.1243461   0.09834459  31.48  0.000126565    1.090    0.082
        54  -9.6445    194.5427    215.4858   9.8710574054e+01   3.1061740944e+00    0.1234405    0.1002813  38.90 5.352299e-06    1.006    0.006
        55  -9.6667    170.3012    213.3262   1.0265109748e+02   7.6851540470e+00    0.1186413   0.08956483  19.45 0.0004116414    1.639    0.390
        56 -11.0632     21.3064    212.3891   1.2815357099e+02   2.9302732620e+01    0.2843928    0.1187989  61.03  0.001808902    1.877    0.467
        57 -10.1531    208.9686    212.0856   9.5679954061e+01   1.0100036444e+00    0.1866395    0.1504723  32.80 0.0004461901    1.015    0.015
        58  -9.3169     76.3557    212.3013   1.1913042829e+02   2.2837390307e+01   0.09240425   0.09007411  11.32 0.0007038037    1.708    0.414
        59  -9.7915      2.2905    212.3453   1.3104872200e+02   3.1121699791e+01     0.139239    0.1009034  83.81  0.000555579    1.194    0.163
        60 -12.0447      5.2817    208.0263   1.3039979729e+02   3.1599873556e+01    0.4843005    0.1946608  84.56  0.003024578    2.057    0.514
        61  -9.2279    184.3096    208.3657   9.9418686451e+01   5.9082296993e+00    0.1256274   0.09025698  15.86 0.0006456884    1.755    0.430
        62  -9.2280    218.3117    207.3245   9.3290577760e+01  -3.1861582804e-02     0.127283   0.08370206  17.88 0.0002988692    1.658    0.397
        63 -11.5263     18.7599    202.9547   1.2802496892e+02   3.1227101383e+01    0.3014429    0.1983925 -76.13  0.001288053    1.453    0.312
        64 -10.2195    175.2934    202.6768   1.0016199819e+02   8.3760764784e+00    0.2107167    0.1685052  59.66 0.0005567783    1.249    0.199
        65  -9.1491     67.9930    203.7657   1.1981200087e+02   2.5474655112e+01    0.1363243   0.07944752  48.18 0.0004262479    1.539    0.350
        66  -9.8699    223.0928    201.2589   9.1433821102e+01  -1.1220340720e-01     0.285408    0.2019309 -77.73  0.001313712    3.620    0.724
        67 -10.4162     10.8131    208.3862   1.2956826299e+02   3.1025598387e+01    0.1598244    0.1308796 -70.74 0.0008569443    1.671    0.402
        68  -9.6059     34.3496    201.0628   1.2535393638e+02   2.9968341707e+01    0.1447063    0.1007572  85.30 0.0005207502    1.104    0.094
        69  -9.3874    227.1796    197.0219   8.9985403198e+01  -3.0307694143e-01    0.1902857    0.1158035  26.91 0.0008232653    1.592    0.372
        70 -10.0299    215.5409    194.3133   9.1530168710e+01   2.1649181883e+00    0.1650702    0.1187019 -13.01 0.0007982381    1.606    0.377
        71 -10.6159    187.3205    190.8320   9.6021173510e+01   7.9455915630e+00    0.3031554    0.1167045 -32.23  0.001098511    4.104    0.756
        72  -9.2597      1.5991    188.2207   1.2999917247e+02   3.5479893579e+01    0.1312904   0.07000535 -75.67 0.0005235653    1.568    0.362
        73  -9.9780    218.0000    186.9404   8.9761839440e+01   2.7165929657e+00    0.1949363    0.0737834 -35.80 0.0008015574    2.936    0.659
        74 -11.2311     16.1098    182.6693   1.2723190779e+02   3.5233720659e+01    0.3558628    0.1593622  81.58  0.002108616    1.980    0.495
        75  -9.1796      8.6487    184.3004   1.2860964923e+02   3.5600044710e+01    0.1104039   0.05333265  68.46 0.0007037824    1.695    0.410
        76  -9.9770    167.0382    183.5082   9.8599657559e+01   1.2976389298e+01    0.2080894    0.1174688  46.32 0.0008067764    1.559    0.358
        77  -9.5013     58.5123    182.4552   1.1954487739e+02   3.0709922939e+01    0.1159877   0.08983768  79.73 0.0003549489    1.006    0.006
        78  -9.6626      1.9715    180.4866   1.2952181155e+02   3.6888766551e+01    0.1307507   0.08416866  51.11 0.0005692768    1.529    0.346
        79 -10.0799    244.4157    178.3273   8.3546596600e+01  -1.0204021043e+00    0.2258245    0.1189685 -23.43  0.001102832    2.043    0.511
        80 -10.7125    224.2250    178.3586   8.7039702099e+01   2.7343258228e+00    0.2289148    0.2155165  33.08 0.0005600645    1.186    0.157
        81  -9.6592     70.0685    177.6796   1.1684304318e+02   3.0175988699e+01     0.155663    0.1299493  66.00  0.000481668    1.161    0.139
        82  -9.9609     46.3376    177.4848   1.2136545199e+02   3.3131590549e+01     0.197452    0.1628984  38.24  0.001442558    1.603    0.376
        83  -9.1045     36.4501    178.4708   1.2329005625e+02   3.4024285669e+01    0.1107417   0.08330372  84.14  0.000286373    1.031    0.030
        84 -10.0569    200.2053    176.6038   9.1064978705e+01   7.6470943622e+00    0.1952194    0.1128155  36.62 0.0007741841    1.640    0.390
        85 -11.1547     18.2212    172.9868   1.2620016348e+02   3.6906510037e+01    0.3557931    0.1326186  67.31  0.001775298    2.858    0.650
        86  -9.4658     75.0447    170.9633   1.1508910057e+02   3.0856488248e+01    0.1727956    0.1456383 -38.82  0.001118269    1.750    0.429
        87 -10.9718     51.0284    164.3225   1.1916788641e+02   3.5247903909e+01    0.3881425    0.2191576 -64.14  0.002323061    1.638    0.390
        88 -11.4177     44.6097    162.9769   1.2031436598e+02   3.6251022939e+01    0.3181682    0.1741265 -74.50  0.001782947    1.543    0.352
        89 -10.3086     47.7640    160.0202   1.1937405870e+02   3.6508898974e+01    0.2094257    0.1730144 -82.45  0.001073344    1.153    0.133
        90 -11.9636     36.8174    159.2516   1.2150655799e+02   3.7850577963e+01    0.6352216    0.1449945 -69.06 0.0008412701    3.500    0.714
        91  -9.7530     67.1535    165.1470   1.1599529063e+02   3.3097019698e+01    0.1745621    0.1191095  74.91 0.0007800002    1.344    0.256
        92  -9.5777    200.4865    162.9051   8.8332610503e+01   9.7564820367e+00     0.190109     0.137703 -38.08 0.0005850922    1.490    0.329
        93 -10.1503    238.4050    158.7263   8.0592597403e+01   2.7635668366e+00    0.2505801    0.1484092  27.49  0.000922498    1.801    0.445
        94 -11.3180     22.3863    156.4209   1.2411911415e+02   3.9836383922e+01    0.3578916    0.2784545  58.76  0.002732825    1.327    0.246
        95  -9.0312    147.5023    156.4884   9.7703794375e+01   2.1657214428e+01    0.1402589    0.1283157  66.93 0.0008104141    1.028    0.027
        96 -10.2746     12.0631    153.2146   1.2588537774e+02   4.1387645917e+01     0.208672    0.1488836  16.66  0.001318404    2.300    0.565
        97 -10.3374    178.0680    151.4464   9.0373205825e+01   1.6376636354e+01    0.2556755    0.2353637 -78.88  0.000878377    1.217    0.178
        98 -10.1684     41.3584    146.3597   1.1922571989e+02   4.0072825341e+01    0.1914984    0.1385611  82.68 0.0002657931    1.182    0.154
        99 -10.3059     18.0826    146.5741   1.2412827364e+02   4.2241731877e+01    0.2077802    0.1581496 -23.61 0.0008726927    2.310    0.567
       100 -10.0836     12.9720    147.0125   1.2520490207e+02   4.2578837146e+01    0.1705297    0.1300453  69.78 0.0003529132    1.228    0.186
       101 -11.6685     11.6782    143.7168   1.2519181073e+02   4.3361609100e+01    0.2818105    0.2303758 -19.27  0.001790017    2.055    0.513
       102  -9.5043      2.4960    144.0269   1.2707231925e+02   4.4000037575e+01    0.1524552   0.05590051 -58.94 0.0008101471    2.572    0.611
       103 -10.2980     49.4687    141.7265   1.1690892264e+02   4.0183762429e+01    0.2173653    0.1784361 -51.00 0.0008215323    1.471    0.320
       104  -9.6957     25.0125    142.2781   1.2228172066e+02   4.2529448315e+01    0.1505796    0.1172788 -88.96  0.000236978    1.044    0.042
       105  -9.4164    240.1186    140.8412   7.6412191932e+01   5.0130016834e+00    0.1955352    0.1502565  16.25 0.0004921298    1.319    0.242
       106  -9.9091    207.0330    146.0563   8.3531644311e+01   1.1145782419e+01    0.2213158     0.205042  26.50 0.0006920202    1.012    0.012
       107 -10.2717     56.0796    137.9966   1.1493736170e+02   4.0231597910e+01    0.3327597     0.183521 -86.58  0.001711118    1.946    0.486
       108  -9.5475     88.0687    137.8790   1.0754910202e+02   3.5973134715e+01     0.160711    0.1520559 -45.40 0.0004126402    1.289    0.224
       109  -9.0342    143.7032    137.3381   9.4705214446e+01   2.6213207962e+01    0.1476599    0.1116676  89.57 0.0006580801    1.656    0.396
       110 -10.3754      9.2852    136.7535   1.2509131528e+02   4.4989225255e+01    0.1584951    0.1284917 -88.88 0.0003311488    1.141    0.124
       111 -10.5455      2.8038    136.2803   1.2640640387e+02   4.5562911123e+01    0.2253379    0.1042399 -70.50  0.001221888    1.631    0.387
       112 -10.8147     21.0365    135.9590   1.2250477094e+02   4.4209737854e+01     0.215769    0.1791788  63.06  0.001019527    1.299    0.230
       113  -9.3544    250.4651    134.4515   7.3246779900e+01   3.8444308321e+00    0.1382705    0.1236331   0.50  0.000548062    1.008    0.008
       114 -10.1504    106.9797    133.2212   1.0228768220e+02   3.3949247100e+01    0.2359946    0.1956476 -63.06 0.0009559735    1.150    0.130
       115  -9.8432     79.7770    133.1816   1.0870343961e+02   3.8211908632e+01    0.1650057    0.1468029 -49.63 0.0004824448    1.292    0.226
       116  -9.4291    236.5715    138.4999   7.6492729781e+01   6.0929466274e+00    0.1418025    0.1260093   5.58 4.501216e-05    1.036    0.035
       117 -11.4626     37.4440    130.4846   1.1822291480e+02   4.3876911891e+01    0.4170308    0.2804497 -55.62  0.002586334    1.498    0.332
       118 -11.2635     33.2630    125.9421   1.1862698428e+02   4.5262886620e+01    0.2318864    0.1713954  68.70 0.0003378383    1.343    0.255
       119 -10.3743     73.9497    129.6951   1.0950982188e+02   3.9787998814e+01    0.2810405    0.1685033 -63.45 0.0009061834    1.481    0.325
       120 -10.9151      2.4076    123.7607   1.2542285098e+02   4.8186908472e+01     0.452786    0.1103354 -65.07     0.002137    2.756    0.637
       121  -9.7425    226.3160    124.3033   7.4986492878e+01   1.0495553414e+01     0.150474     0.108758  14.60 0.0005884662    1.621    0.383
       122  -9.5550    219.5708    124.5035   7.6241984678e+01   1.1959488601e+01    0.1457083    0.1376664   1.43 0.0002054614    1.014    0.014
       123 -11.2858     10.4727    122.4559   1.2349034856e+02   4.7900216591e+01    0.2501118    0.1774795 -72.40  0.001083728    1.140    0.123
       124 -11.9245     16.9370    115.8805   1.2127314825e+02   4.8820804485e+01     0.362085    0.2125126 -69.10  0.002328418    1.304    0.233
       125 -12.6373     15.4562    109.1828   1.2083730277e+02   5.0369846707e+01    0.5663482    0.3920112  85.02 0.0007583954    1.328    0.247
       126 -11.8513     23.4232    107.4668   1.1862505059e+02   5.0130298958e+01    0.3368315    0.2647815  81.97  0.001608336    1.236    0.191
       127 -10.4550     20.4346    121.6746   1.2111323397e+02   4.7302656857e+01    0.1684204    0.1308475 -30.67  0.001168956    1.852    0.460
       128  -9.4394     33.0003    118.9808   1.1779495924e+02   4.6800558512e+01    0.1481405    0.1079865 -75.24 0.0004287921    1.079    0.074
       129  -9.9239    249.5260    118.4994   6.9703078975e+01   6.3747089523e+00     0.140839    0.1290461 -11.29 6.562113e-05    1.033    0.032
       130  -9.9897    100.4919    118.0068   1.0080685431e+02   3.8358846111e+01    0.2043342     0.109215 -35.97 0.0008105155    2.676    0.626
       131  -9.5686    220.4570    116.9720   7.4258033590e+01   1.2995511967e+01    0.2207745    0.1413547 -34.62 0.0004617712    1.535    0.349
       132 -10.6567     51.0650    116.3542   1.1295446355e+02   4.5555379646e+01    0.2966779     0.144719 -62.38 0.0008213574    1.688    0.408
       133  -9.1072    243.2757    128.3380   7.3028045638e+01   6.2211831411e+00    0.1450561    0.1031649   7.62 0.0005430269    1.611    0.379
       134  -9.2073    214.1898    115.5922   7.5056235451e+01   1.4656598804e+01    0.2065359    0.1339414  38.78 0.0004788916    1.589    0.371
       135  -9.2026    166.4534    115.5380   8.4644649977e+01   2.5690801833e+01    0.1493806    0.1472452  76.10 7.785423e-05    1.021    0.020
       136 -10.1867     35.0327    114.2403   1.1664693814e+02   4.7648261578e+01    0.2456805    0.1359295 -69.51 0.0008795156    1.445    0.308
       137 -11.9782     35.4649    108.3964   1.1568579177e+02   4.8889268036e+01    0.3937923    0.2274873  83.15  0.001293816    2.046    0.511
       138 -10.9669    249.0188    111.8612   6.8201468385e+01   7.4710940734e+00    0.2537471    0.1955845 -26.85 0.0006246015    1.212    0.175
       139  -9.9594     86.0554    116.6652   1.0415907969e+02   4.0941760058e+01    0.1796224    0.1664421 -82.86 0.0005737093    1.060    0.057
       140 -10.5720     55.7752    109.4312   1.1059277477e+02   4.6560011634e+01    0.2822924    0.1984457 -21.89  0.001334871    2.219    0.549
       141  -9.7396     91.5015    107.9191   1.0093717261e+02   4.2036398279e+01      0.20405    0.1245047 -54.73 0.0003715584    1.492    0.330
       142 -10.5149      6.3667    106.1597   1.2272255785e+02   5.1640286239e+01    0.2799518    0.1385201 -74.62 0.0008921167    1.505    0.336
       143 -10.8716      2.4688    105.2895   1.2358262558e+02   5.2068447645e+01    0.2327578    0.1529761 -78.21 0.0005887501    1.117    0.105
       144 -12.8102      2.8372    100.4393   1.2295111731e+02   5.3072804855e+01    0.2470484    0.1874192 -81.41 0.0004335538    1.068    0.064
       145 -11.0784      1.4013     95.7083   1.2276714811e+02   5.4157713960e+01    0.3207628     0.102021 -67.73 0.0005500326    2.132    0.531
       146  -9.6809     62.6271    106.2200   1.0820390161e+02   4.6459806312e+01    0.1849124   0.09956677 -53.05 0.0005046119    1.637    0.389
       147 -10.3201    243.4933    104.5240   6.7292107541e+01   9.7838748316e+00    0.1450854    0.1332285  -6.07 7.379356e-05    1.031    0.030
       148 -10.0285    223.3247    104.0176   7.0517554793e+01   1.4454981373e+01    0.2133464    0.1813365 -29.97 0.0004245984    1.142    0.124
       149 -10.9837    247.9030    102.2196   6.6034885302e+01   9.1592800654e+00    0.2817034    0.2080402  71.79   0.00140149    1.730    0.422
       150 -10.2023     76.5203    102.5281   1.0374263195e+02   4.5456871836e+01     0.133615    0.1169699 -65.21 0.0001122294    1.001    0.001
       151 -10.5304     35.5462    101.2901   1.1455782220e+02   5.0441293378e+01    0.2585799    0.1849263  63.56  0.001400168    1.581    0.368
       152  -9.7812    119.7798    101.4085   9.2094068684e+01   3.8482101487e+01     0.200129    0.1395899  31.60 0.0007677931    1.696    0.410
       153 -10.2970     91.4950    100.9414   9.9367523264e+01   4.3570276530e+01    0.2141761     0.125343 -53.89  0.001020819    1.554    0.356
       154  -9.5024    145.4939    100.4974   8.5545267348e+01   3.3354537125e+01    0.1501213    0.1469228 -67.17 9.798547e-05    1.016    0.015
       155 -11.0009     62.0624     98.7124   1.0688458414e+02   4.8193040737e+01    0.2997372    0.2780788  36.03  0.001083447    1.288    0.224
       156 -11.4601     20.6909     97.4826   1.1793674728e+02   5.2507096605e+01    0.4288905    0.1894956 -82.05  0.001796998    2.429    0.588
       157  -9.0757     50.5428     99.4496   1.1018610624e+02   4.9353896759e+01    0.1257024    0.1030798 -62.87 9.766304e-07    1.049    0.047
       158  -9.5929     30.5459     98.2076   1.1540505456e+02   5.1558066372e+01    0.1601426   0.08691899 -58.25 0.0002938428    1.477    0.323
       159 -10.4641     66.5981     97.5920   1.0540304040e+02   4.7874797385e+01    0.3399174    0.1337821 -50.98  0.001460237    2.204    0.546
       160  -9.4009    249.5384     95.5051   6.4130953561e+01   9.8043211292e+00    0.1433956    0.1320881 -22.07 -0.0001582852    1.016    0.016
       161 -10.3282     31.5044     93.0677   1.1429934968e+02   5.2597760651e+01    0.3261829    0.1522121 -74.18  0.001605763    2.039    0.509
       162 -11.3883     25.4821     91.7192   1.1574837785e+02   5.3386870456e+01     0.238136    0.2017349 -59.06 0.0002048744    1.161    0.139
       163 -10.9564     22.9144     87.0299   1.1569986966e+02   5.4599715863e+01    0.2588447    0.1653323 -60.35 0.0004018551    1.217    0.179
       164  -9.9692     58.2987     93.3407   1.0682937899e+02   4.9828127526e+01    0.1304353   0.08697002 -38.05 0.0002539778    1.666    0.400
       165  -9.5817    162.6194     92.1889   7.9342541013e+01   3.1085065739e+01    0.2176709     0.146497 -25.76 0.0004980267    1.684    0.406
       166 -10.7839    103.9672     92.0159   9.3819529488e+01   4.3407403118e+01    0.2568797    0.1919454 -42.13 -0.003769674    1.288    0.224
       167 -11.3743     30.5818     66.3202   1.0935047213e+02   5.8416992278e+01     0.534556    0.2521631 -41.57  0.002013311    2.042    0.510
       168 -10.7215     48.1523     90.4171   1.0911401309e+02   5.1595998233e+01    0.3734272    0.2082937 -55.89  0.001767442    1.462    0.316
       169 -11.6696     42.7932     82.2549   1.0901130284e+02   5.3917013107e+01    0.8526902    0.3678361  54.29   0.00344659    4.096    0.756
       170 -11.0409     36.3381     68.6987   1.0803771667e+02   5.7421024928e+01    0.4569587    0.3624299  74.43  0.003002701    1.601    0.375
       171  -9.9393     15.1220     83.9046   1.1741318154e+02   5.5825463680e+01    0.2162753    0.1664179 -51.60  0.001564266    1.247    0.198
       172 -12.3447     21.4397     77.7132   1.1451198994e+02   5.6709132780e+01    0.4206339    0.2854257 -71.33  0.001032987    1.224    0.183
       173 -11.2911     10.8341     90.7733   1.1963199931e+02   5.4637060961e+01    0.3200566    0.2222004  38.13  0.001704692    1.800    0.444
       174 -11.0438      4.4312     86.0577   1.2073275162e+02   5.6028050315e+01    0.4069709    0.1796019 -68.11  0.002356883    1.618    0.382
       175 -12.6102     13.1781     77.7270   1.1697535385e+02   5.7268640605e+01    0.4675563    0.2404806 -48.06  0.001291432    1.730    0.422
       176 -11.4116      3.4605     78.3978   1.1992112848e+02   5.7699326822e+01    0.4374515    0.1944665 -69.43  0.001232137    1.641    0.391
       177 -11.5074      7.5496     73.7754   1.1800076238e+02   5.8444134094e+01    0.3634674    0.2175176  30.08  0.002415638    2.155    0.536
       178 -10.5411    157.9969     90.1908   7.9823197470e+01   3.2549909832e+01    0.2822236    0.2270224 -37.13  0.001378334    1.236    0.191
       179 -10.7962     96.2066     90.4709   9.5532251263e+01   4.5072375124e+01    0.3932364    0.2419776  18.07  0.001655356    2.722    0.633
       180  -9.3216     21.3061     91.3212   1.1684185752e+02   5.3793699603e+01    0.1179434   0.06967274 -47.56  0.000345475    1.638    0.390
       181 -10.4792    112.3105     85.9898   8.9958663580e+01   4.3147042245e+01     0.316859    0.2323967  70.77  0.001519675    1.794    0.443
       182 -10.6014     66.7016     85.5083   1.0267879440e+02   5.0508856851e+01    0.3628838    0.2052558 -38.65  0.001380507    1.920    0.479
       183 -10.2084    167.6346     84.2705   7.5996068477e+01   3.1368954300e+01    0.3964309    0.2608511  87.45  0.001491059    2.594    0.614
       184 -10.3648    117.9291     82.8673   8.7583660395e+01   4.2702126273e+01    0.2727371    0.2020262 -40.32  0.001014622    1.293    0.227
       185  -9.4356     87.9886     83.5061   9.6020063728e+01   4.7894150738e+01    0.1791454    0.1374126  43.51  0.000355323    1.448    0.309
       186  -9.0623     62.2965     82.6108   1.0328885241e+02   5.1690112881e+01    0.1319203   0.09486474 -88.13  0.000701263    1.782    0.439
       187 -10.0773     29.7107     81.8388   1.1281177608e+02   5.5183972890e+01    0.1872144    0.1700895  54.45 0.0009559218    1.345    0.257
       188  -8.9237    146.6345     81.3191   7.9911468237e+01   3.6873279432e+01    0.1596267    0.1218295 -80.64 0.0007039322    1.780    0.438
       189  -9.6834     70.5465     79.4714   1.0006421742e+02   5.1303212115e+01    0.1334548    0.1138843 -47.40   9.8734e-05    1.047    0.044
       190 -10.2360    150.6481     77.7399   7.7904404268e+01   3.6621766469e+01    0.2834722    0.2500395 -56.62  0.001453683    1.195    0.163
       191 -10.1644     92.4886     77.4816   9.3083653568e+01   4.8432789227e+01     0.274765    0.2096281   7.72  0.001334004    1.730    0.422
       192 -10.8461     89.9886     75.0201   9.3110473240e+01   4.9352297726e+01    0.3290376    0.2262239 -15.19  0.001563578    2.053    0.513
       193 -12.1480     58.0183     74.1873   1.0253079810e+02   5.4010060033e+01    0.4644963    0.3349559  72.70 0.0004343815    1.973    0.493
       194 -12.1484     62.6138     71.6872   1.0046230165e+02   5.3980456842e+01    0.3171178    0.2734209 -57.96 0.0005884119    1.093    0.085
       195 -11.0602    138.8346     74.9639   7.9896421354e+01   3.9845547146e+01    0.2634825     0.236941 -52.42 0.0003307982    1.142    0.124
       196  -9.8832    122.1131     76.2963   8.4554130484e+01   4.3175964507e+01    0.2052771    0.1903593  51.43 0.0008762042    1.142    0.124
       197 -12.5952     44.7112     75.3312   1.0692076437e+02   5.5217339777e+01    0.3383816    0.2530929  88.31 0.0003532916    1.639    0.390
       198 -10.7441    108.9022     74.8128   8.7671861127e+01   4.6070534116e+01     0.267212    0.2134083 -53.92  0.001409217    1.262    0.208
       199  -9.7945    145.6808     73.7661   7.7874997162e+01   3.8513463812e+01    0.2406884    0.1918705 -19.19 0.0007919915    1.360    0.265
       200  -9.5595    128.8264     71.7753   8.1432063281e+01   4.2643995604e+01    0.1971454    0.1716225 -69.77 0.0002264825    1.318    0.241
       201 -10.3124     83.9647     72.3347   9.4120812229e+01   5.0862278875e+01     0.173996    0.1694617 -19.14 0.0003040823    1.107    0.097
       202 -11.7948     76.5957     71.1884   9.6017656312e+01   5.2202328854e+01    0.4855358    0.3615525  56.18  0.001962877    1.682    0.405
       203 -10.7376     77.3316     63.6870   9.3600585970e+01   5.3623903079e+01    0.3888212    0.2496928 -42.18  0.001028214    1.374    0.272
       204  -9.6359    160.9891     69.7370   7.3132540399e+01   3.5600160460e+01    0.2083853    0.1984194  33.43 0.0002974952    1.052    0.049
       205 -11.9167     94.4631     68.2446   8.9801384921e+01   4.9981539834e+01    0.4216001    0.2527356 -39.30  0.002020085    1.558    0.358
       206 -11.5285     50.6217     68.1653   1.0333227919e+02   5.6118255422e+01    0.3995249    0.2509241 -26.39  0.001752414    1.982    0.495
       207 -10.8856     51.1520     63.3044   1.0188542019e+02   5.7070900642e+01    0.3535161    0.1779966 -42.90  0.001265594    1.756    0.431
       208 -10.5065    102.4348     73.3138   8.9032891121e+01   4.7564934075e+01    0.2734796    0.1753421  46.84  0.001317682    1.710    0.415
       209 -10.3979    122.9766     68.5371   8.1943337055e+01   4.4496514256e+01    0.2754419    0.2004499 -44.25 0.0006408273    1.339    0.253
       210  -9.7524    120.2002     64.8505   8.1508053281e+01   4.5766888469e+01    0.2106537    0.1853613 -35.40 0.0004250488    1.084    0.077
       211 -12.3589     17.3595     67.2946   1.1380398749e+02   5.9198535336e+01    0.4621885    0.2889389 -15.08  0.001079135    2.239    0.553
       212 -10.7897     20.3945     61.8290   1.1169245008e+02   6.0131164729e+01    0.4459785    0.2200594  51.88  0.002260337    3.232    0.691
       213 -10.6164    102.9830     67.9890   8.7258541742e+01   4.8523996232e+01     0.225976    0.1716024  -4.94 0.0009747605    1.663    0.399
       214 -10.4781      6.6601     67.7242   1.1725377266e+02   5.9761743444e+01    0.1684777    0.1293057 -47.85 0.0005147393    1.245    0.197
       215 -11.9943      3.7753     64.6675   1.1762755553e+02   6.0551908281e+01    0.2814895    0.2193518 -83.71 0.0004593144    1.277    0.217
       216  -9.6769    128.5852     66.8114   7.9938161684e+01   4.3628731375e+01    0.2063343    0.1358262 -47.90 0.0002653172    1.566    0.361
       217 -12.1462     61.3199     60.4101   9.7741351146e+01   5.6467134966e+01    0.6460937    0.4745873  17.54  0.003815758    1.653    0.395
       218  -9.3764    160.4263     66.3947   7.2224905578e+01   3.6319954906e+01    0.1491027    0.1488252 -88.90 2.316471e-05    1.035    0.034
       219  -9.6973     68.6886     69.9973   9.8117718840e+01   5.3549199163e+01    0.2254457    0.1408769 -48.83 0.0002746556    1.369    0.270
       220  -9.6337    215.9429     64.4550   6.1191158540e+01   2.2551602952e+01    0.2267078    0.1493034  61.02 0.0007087952    1.561    0.359
       221 -10.2900     82.4808     50.2873   8.7656002826e+01   5.5418699809e+01    0.2299997    0.1207561  39.73  0.001077095    2.105    0.525
       222 -11.5255     84.9131     61.7773   9.0666128044e+01   5.2839318265e+01    0.4335648    0.3481557  29.55  0.002497676    1.381    0.276
       223 -10.2333     86.7055     56.6322   8.8462324139e+01   5.3545046759e+01    0.2529292    0.1981735  -4.90 0.0009069821    1.462    0.316
       224 -11.3445     87.1655     52.4842   8.6934682968e+01   5.4248822067e+01    0.3843834    0.2347356 -49.17 0.0009315427    1.645    0.392
       225 -10.5241     11.1756     62.7204   1.1489690326e+02   6.0543299552e+01    0.1790729    0.1438801 -57.86 0.0003441856    1.087    0.080
       226  -9.6786    201.2373     61.9914   6.2930009231e+01   2.6682777271e+01    0.2085444    0.1940043 -34.99 0.0002920844    1.064    0.060
       227 -10.4102     45.4184     50.7425   1.0026673761e+02   6.0221971798e+01    0.3181985    0.1700107 -41.16  0.001419634    1.597    0.374
       228 -11.4163     29.7643     60.8084   1.0834344636e+02   5.9632432532e+01    0.5693864    0.2345166  15.10  0.002559767    3.988    0.749
       229 -12.7456     37.1826     51.2048   1.0329828661e+02   6.0941326776e+01    0.7429515     0.498803 -39.83  0.003447785    1.272    0.214
       230 -10.1529     41.9894     64.7806   1.0526906130e+02   5.7714245428e+01     0.301998    0.1599484 -69.21  0.001092381    2.143    0.533
       231 -10.9303      5.6827     58.2044   1.1582392423e+02   6.1784255875e+01    0.3095247    0.1958121 -82.16   0.00201675    1.621    0.383
       232 -11.6254      5.1840     51.7814   1.1470308388e+02   6.3118818196e+01    0.3466837     0.210359 -43.86 0.0009867944    1.417    0.294
       233 -10.6282      4.6592     46.8668   1.1383171053e+02   6.4133894113e+01    0.2856793    0.1328562 -44.62  0.001715758    1.740    0.425
       234 -10.4155      6.9984     41.2552   1.1166641388e+02   6.5122063285e+01    0.2641778    0.1043074 -55.59 0.0007502157    1.729    0.422
       235 -10.4353     47.8369     58.2947   1.0161329469e+02   5.8454717983e+01    0.2460109    0.1900377 -67.22  0.001541827    1.379    0.275
       236 -10.2449     43.8381     57.1448   1.0264779898e+02   5.9102183934e+01    0.1863881    0.1490382 -46.33 0.0002883562    1.011    0.011
       237 -10.3255    129.2239     56.4380   7.6387188668e+01   4.5354496318e+01    0.3017586    0.1961412 -15.78   0.00116216    1.901    0.474
       238 -10.2906    123.0683     56.5969   7.8034077179e+01   4.6663436091e+01    0.2574538    0.2125766 -62.49 0.0008901806    1.446    0.308
       239 -12.2961    128.3842     50.4393   7.4560537487e+01   4.6561548205e+01    0.5268672    0.3546713  -3.17 0.0004983735    1.990    0.497
       240  -9.5477     22.6867     57.7659   1.1001372040e+02   6.0806427057e+01    0.1496423   0.08444145  39.65 0.0008777476    2.299    0.565
       241  -9.4620    146.7174     56.4031   7.2122526467e+01   4.1338017894e+01    0.1594755    0.1152847 -62.83 0.0001480373    1.782    0.439
       242 -10.9197     99.8388     55.7285   8.4206075967e+01   5.1435864023e+01    0.3725235    0.2133537  47.60  0.001726932    1.936    0.483
       243  -9.5164     96.2247     52.9931   8.4347940832e+01   5.2592112672e+01    0.1878709    0.1614243 -55.01 0.0003737815    1.297    0.229
       244  -9.9579     61.8063     54.2763   9.5727999807e+01   5.7627179960e+01    0.2398556    0.1639991 -66.80   0.00114376    1.857    0.461
       245 -10.8342     12.7233     51.6996   1.1205752814e+02   6.2709400956e+01    0.2617069    0.1769605 -70.89   0.00176213    1.371    0.271
       246 -10.1762    120.0064     52.7902   7.7551086490e+01   4.7978324103e+01     0.271259    0.1787558  32.71 0.0002776828    1.679    0.404
       247 -11.1147     69.8976     50.3788   9.1773987191e+01   5.7293923090e+01    0.3733853    0.2949702 -78.05  0.002104024    1.854    0.461
       248 -10.8337    103.8698     45.8969   7.9606856160e+01   5.2423003419e+01    0.3580583    0.1975825 -29.82 0.0008558783    1.809    0.447
       249  -9.4108     76.7946     50.4043   8.9520269608e+01   5.6281617863e+01    0.1690972    0.1244196  20.17 0.0005903369    1.560    0.359
       250 -10.1201    220.9301     48.9483   5.6109785472e+01   2.3549968251e+01     0.215217    0.2063624 -55.31 0.0003003707    1.012    0.012
       251 -11.6557    152.8251     47.9032   6.7926652406e+01   4.1227550247e+01    0.6887681    0.2938683  51.23  0.002553263    2.250    0.556
       252 -10.4131     75.4624     55.7026   9.1700461681e+01   5.5472705788e+01     0.229157    0.1873623 -34.49  0.000460413    1.073    0.068
       253  -9.9650    113.9372     48.3191   7.7634898276e+01   5.0007520177e+01    0.2202745    0.1861387  70.68  0.001177202    1.484    0.326
       254  -9.1970     78.4975     47.4527   8.7954705967e+01   5.6566630360e+01    0.1341034    0.1159018 -25.21 6.555864e-05    1.020    0.020
       255  -9.3333     62.2918     47.3433   9.3327337127e+01   5.8900077761e+01    0.1679656    0.1414551 -57.70 0.0004205096    1.325    0.246
       256 -10.5623     59.5216     45.4437   9.3646892177e+01   5.9614314749e+01    0.2521242    0.1941296 -11.59  0.001371086    1.386    0.279
       257 -11.0734     11.3182     44.3580   1.1082574306e+02   6.4263982805e+01    0.3914405    0.1649989 -45.05  0.001463403    1.854    0.461
       258 -10.1769    142.8069     45.8570   6.9482652637e+01   4.3973904124e+01    0.2747219    0.2332829 -65.32 0.0009047666    1.399    0.285
       259 -10.7919     86.2605     44.7766   8.4523955902e+01   5.5794016760e+01    0.3784647     0.167494 -31.72  0.001538203    2.397    0.583
       260  -9.1695    233.4204     45.4957   5.3458769078e+01   2.0879398711e+01    0.1426356    0.1362029 -44.74 7.599391e-05    1.027    0.027
       261  -9.8271     51.1826     44.8779   9.6394548167e+01   6.0728058562e+01    0.1928401    0.1388192 -32.92  0.000382463    1.217    0.178
       262 -11.0161     51.9190     40.8692   9.4788501561e+01   6.1395467084e+01     0.268645    0.2400592  79.70 0.0005011268    1.617    0.382
       263  -9.1952    175.2419     43.9868   6.2111081443e+01   3.6130288077e+01    0.1979433    0.1280957 -29.30 0.0008209318    1.563    0.360
       264 -10.4929    122.2474     42.9873   7.3512000571e+01   4.9124008991e+01    0.3715998    0.2467757 -51.56  0.001723708    1.812    0.448
       265 -10.5778    184.4559     42.1033   5.9856117640e+01   3.3996767813e+01    0.3890009    0.2217005 -51.77  0.001569437    2.060    0.515
       266 -10.7757     42.6508     39.2898   9.7653288321e+01   6.2712690680e+01    0.5848891    0.3231043 -53.32  0.003236499    1.655    0.396
       267  -9.7940    110.6030     41.7464   7.6190328908e+01   5.1777029166e+01     0.217356    0.1770278  78.56 0.0003405399    1.704    0.413
       268 -11.7479    101.8240     36.8659   7.6864775570e+01   5.4301355256e+01    0.5934106    0.3273926  23.20  0.002437969    2.609    0.617
       269 -11.3023     97.9340     31.8627   7.6078017040e+01   5.5824554501e+01    0.3373626    0.2451879  15.85 0.0004191242    1.494    0.331
       270 -10.4772    101.1222     28.7537   7.3921071853e+01   5.5670464334e+01    0.2293067    0.2143259 -72.41  0.000634676    1.394    0.283
       271 -11.5890     97.5223     41.0113   7.9688001371e+01   5.4446189489e+01    0.3639506    0.2882761  34.05 0.0006818475    1.308    0.235
       272 -11.3016     96.9734     36.9104   7.8311928078e+01   5.5217581330e+01    0.2590147    0.2471115  89.85 0.0003494054    1.347    0.258
       273 -10.8543     69.1544     38.2517   8.7769909660e+01   5.9612543746e+01    0.3751524    0.1968677 -18.37  0.001533952    3.019    0.669
       274 -10.2933     34.1794     34.1946   9.9161100633e+01   6.4492183936e+01    0.5754691    0.1636761  39.49  0.002253463    5.075    0.803
       275 -12.8064     25.0730     35.8643   1.0324308720e+02   6.4963113344e+01    0.4859189    0.4013154 -84.80  0.002168865    1.688    0.408
       276 -12.0173     20.5421     37.5328   1.0550399075e+02   6.4988826502e+01    0.3589526     0.232996 -68.22  0.001941052    1.696    0.410
       277  -9.3333    220.4333     41.5084   5.4104703914e+01   2.4697736804e+01    0.1444339    0.1401573 -56.98 8.681705e-05    1.016    0.016
       278  -9.5813    215.5171     40.8700   5.4610386641e+01   2.6047918714e+01    0.2165342    0.1437547 -28.86 0.0007720991    1.504    0.335
       279  -9.8360    226.0728     40.0426   5.2940626025e+01   2.3455901579e+01    0.2338179    0.1620246 -62.15 0.0006262687    1.585    0.369
       280 -10.8208     89.2751     39.1267   8.1501865764e+01   5.6247348470e+01    0.3264675    0.1643233 -35.21  0.001159129    1.828    0.453
       281  -9.8268     73.5747     31.4748   8.3671521466e+01   6.0097440693e+01    0.2303443    0.1756853 -39.15 0.0007567315    1.273    0.214
       282 -10.9582     80.4245     26.9287   7.9560049047e+01   5.9712022959e+01    0.4771458    0.2747366 -59.04  0.001875518    3.795    0.736
       283 -12.1075     81.6795     38.0685   8.3519832459e+01   5.7711328904e+01    0.5997489    0.3187583 -46.83  0.001550682    1.974    0.494
       284 -10.5595     78.1470     32.2168   8.2428355695e+01   5.9254208086e+01    0.5103884    0.2543978 -19.88  0.002079037    2.815    0.645
       285  -9.3319    249.7016     38.3458   4.9620939310e+01   1.7851695519e+01    0.1510306   0.09465456 -57.47 0.0007035666    1.677    0.404
       286  -9.6822     61.9213     37.7719   9.0113168360e+01   6.0703891208e+01    0.1681234    0.1430711 -26.28  0.000297089    1.032    0.031
       287 -10.6635     10.0732     25.2607   1.0598006167e+02   6.7992092794e+01    0.2443219    0.1753021 -24.05  0.001065675    1.350    0.259
       288 -10.9274     10.5054     34.7043   1.0860721601e+02   6.6193517374e+01    0.3046947    0.1944937 -13.81  0.001081696    1.844    0.458
       289 -10.6558      3.0320     36.8198   1.1207532830e+02   6.6194764278e+01    0.2951298      0.14008 -55.12  0.001115563    1.457    0.314
       290 -11.1673      6.2569     30.4842   1.0911819229e+02   6.7239572454e+01    0.3281313    0.1796422 -43.43  0.001390944    1.380    0.275
       291 -10.9345     10.1719     15.4396   1.0259911430e+02   6.9743333263e+01    0.1993542    0.1274098 -33.90 0.0005626971    1.225    0.183
       292 -10.2213      8.1284     20.6514   1.0531753602e+02   6.8948267608e+01    0.2762714     0.104649 -50.00 0.0008604085    1.818    0.450
       293 -12.0696    232.7304    244.6320   9.6711601117e+01  -6.5669313350e+00    0.5934346    0.2940486 -21.42  0.003434066    2.673    0.626
       294  -9.5710    147.0089     36.1966   6.5187339574e+01   4.4390820408e+01    0.1851346    0.1705182  42.13 0.0004518352    1.061    0.057
       295 -10.3148    150.7809     34.7668   6.3882549222e+01   4.3660344048e+01    0.2583954    0.1935558  44.51  0.001276303    1.296    0.228
       296  -9.4385     60.4318     33.5412   8.9071352796e+01   6.1643559681e+01    0.1262269     0.104683 -27.77 9.092171e-05    1.030    0.029
       297 -10.5283    129.8246     32.6589   6.7843740183e+01   4.8974818587e+01    0.2422256    0.1882175 -13.33 0.0008002876    1.306    0.234
       298 -10.4736    181.3253    248.1404   1.0541340556e+02   1.2311612578e+00    0.1853332    0.1026613 -32.55  0.001101434    2.676    0.626
       299 -10.2268    179.5238     32.4335   5.7652647157e+01   3.6598870566e+01    0.2533332     0.182514  56.70 0.0006111562    1.331    0.249
       300 -10.3183    177.0000     29.9898   5.7298101600e+01   3.7575321738e+01    0.3306581    0.1875032 -30.51  0.001425985    1.773    0.436
       301  -9.8670    145.0400     32.0416   6.4148344982e+01   4.5447517920e+01    0.2146699    0.2068211  18.60 0.0003499612    1.025    0.024
       302 -10.0490     56.1944     31.0637   8.9669201233e+01   6.2623154518e+01     0.273608    0.1367434 -33.79  0.001378222    1.795    0.443
       303 -10.7110     42.5324     31.8113   9.5097348627e+01   6.4092943033e+01    0.1808856    0.1615788   0.16 0.0004803976    1.244    0.196
       304 -10.2238     49.6955     31.3257   9.2189878692e+01   6.3376010490e+01    0.2044621    0.1663214  56.86 0.0008271257    1.871    0.466
       305 -10.9957     50.8678     27.9960   9.0474478367e+01   6.3809603123e+01    0.2339068    0.1734393 -23.77 0.0003392011    1.160    0.138
       306 -10.1394    139.9616     29.0784   6.4193485347e+01   4.7076888016e+01    0.3805496     0.199105 -10.51  0.001447833    2.609    0.617
       307 -10.0099    119.8026     28.4024   6.8720230843e+01   5.1823663404e+01    0.3369535    0.2068869  12.80  0.001059412    2.190    0.543
       308 -10.2109    153.6224     28.6819   6.1180428875e+01   4.3763142796e+01    0.2466779    0.2316771 -57.39 0.0005878565    1.163    0.140
       309 -11.3919    214.1569     26.8706   5.0816868492e+01   2.8198092401e+01    0.4239145    0.2669842 -62.14  0.001125412    1.814    0.449
       310 -11.0785     70.1218     26.3033   8.2783560703e+01   6.1455277106e+01    0.3760682    0.2839107  38.42  0.001869134    1.497    0.332
       311 -10.0291    247.9340     27.2844   4.7004750165e+01   1.9660555451e+01    0.1863139    0.1689081 -86.43 0.0003498103    1.089    0.082
       312 -10.1752    135.2805     22.2324   6.2706305520e+01   4.9073798835e+01    0.3503293    0.2405144  39.43  0.001520477    1.411    0.291
       313 -10.3373    147.7582    245.2796   1.1051258016e+02   6.9690299647e+00    0.1404655   0.09102719 -37.82 0.0008911295    2.377    0.579
       314 -10.3386    129.3010     19.3156   6.2943132557e+01   5.0838179535e+01    0.2271321    0.1659255  -5.81 0.0006702298    1.435    0.303
       315  -9.9900     24.8996     26.9991   1.0039484534e+02   6.6615923190e+01    0.1734426    0.1316808 -38.77 0.0005130059    1.020    0.019
       316  -9.9323    146.0182     26.0089   6.1786445632e+01   4.5998550747e+01    0.2113158    0.2016245  27.37            0    1.019    0.018
       317 -10.7279     86.6965     24.3448   7.6483174822e+01   5.9013114678e+01    0.4667206    0.3106095  75.02  0.002026887    3.367    0.703
       318 -11.3478     84.8541     20.5178   7.5463540743e+01   5.9885622250e+01    0.5702423     0.322101  28.13  0.002789713    1.980    0.495
       319 -12.0481     74.3888    238.3345   1.2157852427e+02   1.8756268885e+01    0.4094836    0.2748897  87.20  0.002802361    1.353    0.261
       320 -10.6766     65.4287     21.2244   8.2322864919e+01   6.2942400979e+01    0.2421055    0.1951988  27.00  0.000755437    1.324    0.245
       321  -9.5445     21.2626     28.2958   1.0232570534e+02   6.6667525499e+01    0.1502224    0.1224336 -39.11  0.001113567    1.100    0.091
       322  -9.7972    237.4699     25.4722   4.7656644877e+01   2.2437785458e+01    0.1393493    0.1291123 -64.70 8.118359e-05    1.001    0.001
       323 -10.5591    197.1642     25.1391   5.2624002214e+01   3.2862204854e+01    0.2170915    0.1931572  32.21 0.0004441667    1.198    0.165
       324  -9.4826    112.2040     24.9843   6.9360824409e+01   5.3932827683e+01    0.1819516    0.1052787 -27.71 0.0004926905    1.675    0.403
       325 -10.0489    165.5804     36.3892   6.1463156987e+01   3.9695213106e+01    0.2973918    0.1453268  77.48 0.0009543732    3.422    0.708
       326 -10.1905    173.5506     24.2533   5.6017505487e+01   3.9189962463e+01    0.2728923    0.1896268  60.61 0.0006227877    1.371    0.271
       327  -9.3663     97.2114     23.7490   7.3043001586e+01   5.7144855741e+01    0.1899795    0.1429763   6.23  0.000606072    1.350    0.259
       328  -9.7382     93.5347     24.0010   7.4237685869e+01   5.7810480477e+01    0.2057143    0.1216973 -29.62  0.001026161    1.578    0.366
       329  -9.9829     54.1883     23.9117   8.7586469095e+01   6.4073061026e+01    0.1971979    0.1643047   3.01 0.0007479779    1.194    0.162
       330  -9.5959     35.9023     22.8587   9.4360065648e+01   6.6341178316e+01    0.2151464    0.1323453   5.09  0.001265072    2.002    0.500
       331  -9.8496    120.3200     21.4405   6.5892924469e+01   5.2627105316e+01    0.2700148    0.1617658  -9.33 0.0008718709    1.924    0.480
       332 -10.8231     18.5088     31.3767   1.0443805807e+02   6.6300371231e+01    0.3093333    0.2271326  32.24  0.002199282    1.790    0.441
       333 -10.2208     45.6666     20.6442   8.9541197474e+01   6.5648618328e+01    0.1983224    0.1438823  27.00 0.0007204006    1.555    0.357
       334 -10.0980    161.8727     20.1305   5.6662029345e+01   4.2709315035e+01    0.2002598    0.1601237  31.23 0.0002556267    1.278    0.218
       335 -10.2841    226.8031     19.0172   4.7119408324e+01   2.5878545820e+01    0.2423547    0.1891866  76.31 0.0006141876    1.253    0.202
       336  -9.4724    115.5126    244.5241   1.1562160008e+02   1.2038287733e+01    0.1102187   0.08191507  58.07 0.0002035438    1.029    0.028
       337 -10.0906    217.8736     16.3803   4.7410667746e+01   2.8465755992e+01    0.3618816    0.1379665  57.29  0.001385777    2.429    0.588
       338  -9.9057    108.1666     17.5321   6.7432178011e+01   5.5749987269e+01    0.2012485    0.1294177  50.32  0.001019877    1.558    0.358
       339  -9.3460     63.3735    243.7838   1.2364104374e+02   1.9311687291e+01    0.1189892   0.08280069 -73.12 0.0004494597    1.625    0.385
       340 -12.0690     31.5099    237.4502   1.2796434714e+02   2.4033372942e+01    0.4450063     0.160289  83.85  0.002383804    3.116    0.679
       341 -10.3977     29.1749    232.9047   1.2806766907e+02   2.5019661600e+01    0.2524793    0.1123171  65.85  0.001694592    1.722    0.419
       342 -11.1764     37.4873    242.9877   1.2739321026e+02   2.2497072061e+01    0.2743706    0.1686416  55.90  0.002197514    1.281    0.219
       343  -9.7094     35.6806    239.6733   1.2747737952e+02   2.3221689519e+01     0.151079    0.1240334 -72.46 0.0009870128    1.733    0.423
       344 -10.0818    109.5008    242.8024   1.1642026280e+02   1.3179241360e+01    0.2205601    0.1020469  57.32  0.000839701    1.810    0.447
       345 -10.1075     88.8744    241.2284   1.1954438361e+02   1.6355752116e+01    0.1639052    0.1356731 -43.20   0.00122806    2.122    0.529
       346 -10.7236    156.3284    240.8334   1.0861150623e+02   6.1925519267e+00    0.1886219    0.1360859 -81.95  0.001249715    1.926    0.481
       347  -9.6923     46.9557    241.4842   1.2593380504e+02   2.1654188241e+01    0.1371393   0.07583711  50.08 0.0003223072    1.488    0.328
       348  -9.3019     50.3302    240.3025   1.2536513969e+02   2.1444940348e+01   0.08108719   0.07493436  75.79  0.000501539    1.650    0.394
       349 -10.4275    195.7119    238.3279   1.0180030588e+02   4.5529862656e-02    0.2294436    0.1596943  32.80  0.001542193    1.235    0.190
       350  -9.3614    243.5033    237.4991   9.3954286778e+01  -7.5374980406e+00    0.1127961   0.08478078  28.10 0.0001285339    1.047    0.045
       351 -10.2937    159.9100    235.8867   1.0742942591e+02   6.2740099135e+00    0.1762704    0.1344012  36.52 0.0006391003    1.271    0.213
       352 -11.8770    224.7726    247.0850   9.8317658717e+01  -5.5735175502e+00    0.3970277    0.1964865 -22.70  0.002277341    2.793    0.642
       353 -10.3168     30.7028     12.9889   9.2515765172e+01   6.8486863155e+01    0.1769387    0.1506399  -7.78 0.0004160645    1.216    0.177
       354  -9.9594    168.4859     13.4734   5.3284087512e+01   4.1737196286e+01    0.2582858    0.1112235  53.37 0.0007122155    2.074    0.518
       355  -9.9996    177.5389    234.9682   1.0436743655e+02   3.4739622650e+00    0.2231052    0.1336571  35.26 0.0009068049    1.522    0.343
       356 -11.0943    153.5100    234.1713   1.0829371990e+02   7.5604220268e+00    0.2047218    0.1872478  -6.58  0.001019414    1.514    0.339
       357  -9.2101     90.0316     13.0189   7.0635902136e+01   5.9926643554e+01    0.1532339    0.1316094   8.69 0.0003596488    1.030    0.029
       358  -9.4814     84.9826     14.0000   7.2610546388e+01   6.0735756653e+01    0.2056138   0.07119538  48.84 0.0008109362    3.002    0.667
       359  -9.9063     85.9759    232.9620   1.1932425233e+02   1.8052663599e+01    0.1787275   0.09791481  68.29 0.0006688245    1.648    0.393
       360  -9.1320     38.5017    232.5434   1.2666813071e+02   2.4057814220e+01    0.1007043   0.06974383  71.56  0.000372561    1.034    0.032
       361  -9.8975     79.9160    231.4896   1.2017532839e+02   1.9116278200e+01    0.1590191   0.08278362  49.66  0.000478897    1.530    0.346
       362  -9.5565     77.5563    218.9431   1.1951204320e+02   2.1523713274e+01    0.1351004   0.08528503 -47.72 0.0008079658    2.609    0.617
       363 -11.0820      5.5380    227.1895   1.3121334773e+02   2.8328022280e+01    0.3993043    0.1271693  73.78  0.002182998    2.948    0.661
       364  -9.4063    249.3291    227.2943   9.1437225877e+01  -7.4390963853e+00    0.1193067   0.06940822  20.01 0.0005338655    1.630    0.387
       365  -9.9572    190.5142    226.4208   1.0101475195e+02   2.3789484021e+00    0.1899404    0.1199713 -38.89 0.0006778926    1.992    0.498
       366  -9.2980    140.2145    227.3788   1.0973853897e+02   1.0716348810e+01     0.173186   0.08609325  52.67  0.000942823    1.668    0.401
       367 -10.0245    129.7728    226.8371   1.1145749600e+02   1.2483716346e+01    0.2449284    0.1182985  61.29  0.001244935    2.227    0.551
       368 -11.0481    120.0526    226.6296   1.1308703039e+02   1.4049068248e+01    0.1658073     0.116856  53.41 0.0004970673    1.124    0.110
       369  -9.9228     87.5298    227.4827   1.1860321003e+02   1.8723918340e+01    0.1110739   0.08300294  66.31 0.0008096467    1.013    0.013
       370 -10.2419     66.7598    226.9395   1.2192500629e+02   2.1594374862e+01    0.2838112    0.1254929  59.37  0.001084763    1.860    0.462
       371  -9.2150    156.4387    224.4838   1.0659610982e+02   8.4499083991e+00     0.118949   0.09586442  46.50 0.0001714562    1.073    0.068
       372 -10.9140    123.4840    222.0341   1.1199720973e+02   1.4235113864e+01     0.371413    0.2260145  68.00  0.002207522    1.687    0.407
       373  -9.8335     24.0287    232.4334   1.2879432100e+02   2.5639496299e+01    0.1469517   0.09466323  83.52 0.0006491672    1.181    0.153
       374  -9.6714     13.3811    221.7657   1.2983508768e+02   2.8480326777e+01      0.12211   0.06993366 -78.31 0.0005772447    1.576    0.365
       375  -9.6796    141.9473    220.7172   1.0863752241e+02   1.1439601981e+01     0.180486    0.1261256  49.49  0.001153654    1.154    0.134
       376  -9.4301    250.4810    219.4652   8.9975417672e+01  -6.8257677804e+00     0.119026   0.08898631  22.04 0.0008090764    1.036    0.035
       377 -11.5388    235.9128    214.8681   9.1583348318e+01  -3.9536502020e+00    0.4841734    0.2931946   3.73  0.002480223    2.074    0.518
