#   1 NUMBER                 Running object number                                     
#   2 MAG_AUTO               Kron-like elliptical aperture magnitude                    [mag]
#   3 X_IMAGE                Object position along x                                    [pixel]
#   4 Y_IMAGE                Object position along y                                    [pixel]
#   5 X_WORLD                Barycenter position along world x axis                     [deg]
#   6 Y_WORLD                Barycenter position along world y axis                     [deg]
#   7 A_WORLD                Profile RMS along major axis (world units)                 [deg]
#   8 B_WORLD                Profile RMS along minor axis (world units)                 [deg]
#   9 THETA_WORLD            Position angle (CCW/world-x)                               [deg]
#  10 FWHM_WORLD             FWHM assuming a gaussian core                              [deg]
#  11 ELONGATION             A_IMAGE/B_IMAGE                                           
#  12 ELLIPTICITY            1 - B_IMAGE/A_IMAGE                                       
         1 -16.4290    203.5767     60.7213   2.8975659433e+02   5.9022771543e+00    0.4970128    0.3206427  56.82   0.04912518    1.853    0.460
         2 -15.9093    230.8524     18.2059   2.8918345979e+02   6.2363664469e+00    0.1522323   0.06787477 -42.74   0.01250659    2.510    0.602
         3 -16.6267    248.6127     23.4957   2.8900873771e+02   6.0715761858e+00    0.1836514    0.1005258 -50.62  0.006853168    1.779    0.438
         4 -15.2489    248.3905      6.0317   2.8890615976e+02   6.2751494397e+00   0.05352126   0.03382311 -38.62  0.003516731    1.722    0.419
         5 -12.2252    112.6879     57.1699   2.9079423914e+02   6.4710570345e+00   0.04352933   0.02673679   0.47  0.004019498    2.196    0.545
         6  -9.1076    180.9290      1.7106   2.8966542355e+02   6.7181246795e+00   0.01655524  0.008400832  35.23  0.001516975    1.916    0.478
         7 -11.3660    179.1378      9.6574   2.8973411431e+02   6.6364534069e+00   0.04298841   0.01162782 -58.86  0.003000189    3.285    0.696
         8  -9.3063    184.8524      6.0577   2.8964587558e+02   6.6449315936e+00   0.02184043   0.01418764   0.52  0.002113624    1.972    0.493
         9  -9.3458    128.5500      5.0782   2.9029635239e+02   6.9833601436e+00   0.01011895   0.00643503 -62.10 0.0007692554    1.559    0.359
        10  -8.7214    172.1672      3.2010   2.8977649107e+02   6.7518048301e+00   0.01286673  0.009267317 -80.73 0.0008611521    1.586    0.370
        11 -10.4389    224.8662    171.8498   2.9017589005e+02   4.4887835240e+00   0.04777962   0.01165705  40.39  0.003028634    4.108    0.757
        12 -11.6927     70.2176    146.7994   2.9182603392e+02   5.6755619594e+00   0.05976658     0.041078  72.83  0.004812288    1.886    0.470
        13 -11.7660     62.4338    157.3244   2.9197960097e+02   5.5981569986e+00   0.03578955    0.0269296  84.42  0.001773473    1.595    0.373
        14 -11.0691     49.3325    167.2760   2.9219166036e+02   5.5580555708e+00   0.02146132   0.01578256 -24.64  0.001019236    1.558    0.358
        15 -11.8822     56.4659    162.2574   2.9207859163e+02   5.5752505681e+00   0.03846642   0.03513192 -68.42   0.00281788    1.105    0.095
        16  -8.5525    154.1173    158.8118   2.9092066004e+02   5.0506038857e+00   0.01034295  0.008739346  64.09 0.0005366447    1.296    0.229
        17  -9.0268     59.0085    249.0320   2.9256599057e+02   4.5516799152e+00  0.009762337  0.009252505 -30.32  0.001202886    1.059    0.056
        18 -10.7905    190.1469    114.8403   2.9023785074e+02   5.3522926245e+00     0.018428   0.01222294  48.97  0.001294169    1.636    0.389
        19  -9.7545    133.5694    147.2298   2.9109056061e+02   5.3041969855e+00   0.02218561  0.007039255 -65.98   0.00150628    3.556    0.719
        20 -10.3926    134.6196    113.0916   2.9087390098e+02   5.6946916065e+00   0.02582384  0.008761575 -65.21  0.001857158    3.170    0.685
        21 -10.3429    134.3228    102.7764   2.9081554241e+02   5.8162111887e+00   0.02408746   0.01261748 -73.39  0.002101194    2.284    0.562
        22  -9.4568    133.0300     97.4749   2.9079882741e+02   5.8852690229e+00   0.01339319   0.01068948  82.28 0.0006677979    1.450    0.310
        23  -7.9649    143.2846    108.6297   2.9074622235e+02   5.6962947019e+00  0.006971556  0.005014418  68.26 0.0007017789    1.703    0.413
        24  -8.4269     37.0409    227.3031   2.9269239792e+02   4.9309430991e+00  0.009182199  0.008249819  23.21 0.0001501748    1.122    0.109
        25  -9.2505    140.2957    104.6060   2.9075692197e+02   5.7603473281e+00   0.01245526  0.008242335 -76.62  0.001246136    1.719    0.418
        26 -11.7509      3.7462    199.5249   2.9291488068e+02   5.4456398878e+00   0.03777723   0.02227055 -68.76  0.003656559    1.797    0.443
        27  -9.0879    126.2888    143.8751   2.9115527250e+02   5.3853318524e+00   0.01103961  0.009446219  14.76 0.0002579034    1.205    0.170
        28 -11.6921      3.2722    184.5773   2.9283147215e+02   5.6221905831e+00   0.03697835   0.02242287 -74.72  0.003559316    1.887    0.470
        29 -10.7486    155.2366     95.0427   2.9052553380e+02   5.7847564397e+00   0.01968874   0.01318395  -1.88  0.001903515    1.888    0.470
        30 -11.6835    210.0023    135.2885   2.9012951679e+02   4.9995887539e+00   0.02651822   0.01886186  66.76  0.002645664    1.723    0.420
        31 -10.4993    167.4190     88.2025   2.9034260993e+02   5.7934741522e+00   0.01949821   0.01482064  67.83   0.00203487    1.548    0.354
        32  -9.8663    170.0825     84.8565   2.9029151011e+02   5.8168521104e+00   0.01543035   0.01457372 -12.96 0.0006770878    1.079    0.073
        33  -9.8612    139.1999     91.1771   2.9068917530e+02   5.9226353421e+00   0.01729981   0.01367787  79.27  0.001213654    1.477    0.323
        34  -9.1960    145.9394    101.3117   2.9067142670e+02   5.7658841095e+00   0.01275056  0.009329677 -48.69 0.0008230628    1.350    0.259
        35 -11.3405    153.5948     84.7193   2.9048272799e+02   5.9141282706e+00   0.03354711   0.02046576  12.79  0.001552466    1.912    0.477
        36 -11.6018    210.3487    128.3388   2.9008380554e+02   5.0782578242e+00   0.03034237   0.01726742 -84.89  0.002609673    2.527    0.604
        37  -7.5991      9.3123    153.6846   2.9257708582e+02   5.9466424424e+00  0.006910818  0.004983183  62.57 0.0006479322    1.639    0.390
        38 -11.2703    216.9877    130.5039   2.9001958773e+02   5.0145554943e+00     0.022582   0.01298785  37.56   0.00219682    1.723    0.420
        39 -10.6503    128.6127     68.4081   2.9067598801e+02   6.2483395510e+00   0.02206808   0.01335313   1.43  0.001422973    2.244    0.554
        40  -9.8988    180.9851    197.7108   2.9084083649e+02   4.4429817879e+00   0.01134892  0.009446876 -63.37 0.0003256087    1.199    0.166
        41 -11.8162    198.7733    133.6545   2.9025032371e+02   5.0837677930e+00    0.0300651   0.02079004  57.36  0.003105432    1.679    0.404
        42  -8.4695    136.6457    135.6817   2.9098560779e+02   5.4205455005e+00  0.007186216  0.004897197 -26.20 0.0007046365    1.748    0.428
        43 -10.9982    191.1345    133.5018   2.9033827326e+02   5.1298883238e+00   0.01579523   0.01282621  73.69 0.0005027491    1.408    0.290
        44  -7.8355     97.7123    133.6887   2.9142724065e+02   5.6690457601e+00  0.006867752  0.004893881 -30.08 0.0003054067    1.580    0.367
        45  -9.4139    159.6675     19.4834   2.9002011696e+02   6.6357169302e+00   0.01662308  0.008866581 -46.17 0.0005191089    1.906    0.475
        46 -10.1872    160.6602    128.4902   2.9066290362e+02   5.3648957162e+00   0.01450368   0.01134986  71.66  0.001594703    1.492    0.330
        47  -9.7518    136.2377    128.9757   2.9095020306e+02   5.5008125413e+00   0.01050531   0.01024278  23.05 0.0006412218    1.032    0.031
        48  -8.5429    223.4002    192.1809   2.9031471133e+02   4.2612219347e+00   0.00888074  0.006411402 -79.18 0.0004141644    1.559    0.359
        49 -12.8466     21.6921    185.0941   2.9261992764e+02   5.5101693000e+00   0.04586074   0.04327389 -55.47  0.003725051    1.048    0.046
        50 -10.0840    216.5107    182.8508   2.9033889837e+02   4.4095447270e+00   0.01123709  0.009183203 -15.27   0.00118047    1.353    0.261
        51  -9.0452    123.9276    128.8949   2.9109311057e+02   5.5730465801e+00  0.009607323  0.009442455 -24.10 0.0003389128    1.011    0.011
        52 -12.0041    192.4673    124.5215   2.9026891751e+02   5.2264216833e+00   0.03037946   0.01792457  29.44  0.002998898    1.676    0.403
        53 -12.4705    185.5160    120.6108   2.9032635175e+02   5.3121830045e+00   0.03529619     0.023473  22.73  0.003668747    1.547    0.354
        54 -10.1300    134.9913    121.1325   2.9091774393e+02   5.5991408407e+00   0.02154396   0.00806226 -59.37  0.001713477    2.508    0.601
        55 -10.5840    220.9795    176.6669   2.9024992149e+02   4.4554153036e+00   0.01890878   0.01501046  84.93  0.002105378    1.457    0.314
        56 -11.3175    167.8789    114.3616   2.9049417148e+02   5.4871011708e+00   0.02240692   0.01961938 -62.29 0.0009500902    1.137    0.120
