#   1 NUMBER                 Running object number                                     
#   2 MAG_AUTO               Kron-like elliptical aperture magnitude                    [mag]
#   3 X_IMAGE                Object position along x                                    [pixel]
#   4 Y_IMAGE                Object position along y                                    [pixel]
#   5 X_WORLD                Barycenter position along world x axis                     [deg]
#   6 Y_WORLD                Barycenter position along world y axis                     [deg]
#   7 A_WORLD                Profile RMS along major axis (world units)                 [deg]
#   8 B_WORLD                Profile RMS along minor axis (world units)                 [deg]
#   9 THETA_WORLD            Position angle (CCW/world-x)                               [deg]
#  10 FWHM_WORLD             FWHM assuming a gaussian core                              [deg]
#  11 ELONGATION             A_IMAGE/B_IMAGE                                           
#  12 ELLIPTICITY            1 - B_IMAGE/A_IMAGE                                       
         1 -11.8982    107.5414     29.0410   6.5936961842e+01   5.4857062763e+01    0.4668678    0.2920982 -22.33 0.0004026831    1.609    0.378
         2 -12.3537     17.9322     24.6869   9.9655938906e+01   7.0182302124e+01    0.5734865    0.3389691 -61.92  0.002249771    1.837    0.456
         3 -12.1248      2.0572     25.0248   1.0829677066e+02   7.1199714486e+01    0.4029438     0.185692 -58.75  0.002231959    1.655    0.396
         4 -11.5506      5.3225     16.8442   1.0338179778e+02   7.2634773432e+01    0.4868171    0.3034329 -54.01  0.003108718    1.327    0.246
         5 -11.3826    182.1599     19.1257   4.8083906600e+01   3.7004976626e+01    0.3748581    0.3081757  27.95 0.0009977502    1.383    0.277
         6 -10.5252     31.8405     13.1029   8.6810277350e+01   7.0855420683e+01    0.2769333    0.1735783 -30.57  0.001283753    1.320    0.242
         7 -10.2744     90.9175     19.3976   6.6334015098e+01   5.9854441983e+01    0.4213338     0.280522  19.37  0.002070989    1.673    0.402
         8 -11.4385    200.7038     13.1869   4.4138852791e+01   3.2822960870e+01    0.4669902    0.2308431  29.80  0.001441179    3.476    0.712
         9 -10.9735    116.7124     14.9943   5.7626459452e+01   5.4439487260e+01    0.3229602    0.2043432  27.69  0.001152371    1.739    0.425
        10  -9.7384     21.7558     12.0870   9.1703755925e+01   7.2148277397e+01    0.2408039    0.1806602  57.70  0.001424269    2.487    0.598
        11 -10.8899    132.9285     12.9357   5.3455393798e+01   5.0599278885e+01    0.2896871    0.2159968 -30.64 0.0003722553    1.369    0.270
        12 -11.5880    210.2870     12.0528   4.2873765295e+01   3.0512200935e+01    0.4631216    0.2667798  -5.63  0.002038073    2.330    0.571
        13 -11.7209    173.2441     14.0031   4.7561406373e+01   3.9909648705e+01     0.331444     0.218667 -25.35  0.001467476    1.538    0.350
        14 -10.6366    150.7230     12.0410   5.0077994923e+01   4.6065997196e+01    0.2325841    0.2102225  81.92 0.0003156672    1.110    0.099
        15 -10.2082     97.6076     12.2988   6.1081157113e+01   5.9235985004e+01    0.2668073    0.1945043 -26.17 0.0008947735    1.359    0.264
        16 -10.4422     75.3891     12.7077   6.7992102767e+01   6.3902778384e+01    0.2406746    0.2107849 -87.59  0.001413363    1.663    0.399
        17 -10.1866     67.2402     12.2681   7.0652055083e+01   6.5516570858e+01    0.2410169    0.1827586   3.92 0.0009736231    1.251    0.200
        18  -9.6777     51.4822     13.0142   7.7392751507e+01   6.8122555129e+01    0.2036294    0.1109544 -31.57  0.001044132    1.625    0.385
        19 -11.3154     13.4684     11.0619   9.5940486955e+01   7.3102159651e+01    0.2580375    0.1973851   4.29 0.0005708384    1.394    0.283
        20 -10.3943      9.0136     11.0000   9.8567742913e+01   7.3472882910e+01    0.2201573    0.1154766  33.49   0.00126181    2.460    0.594
        21  -9.6032    229.2890     10.9982   4.0941739163e+01   2.5972316611e+01    0.1862239    0.1547082 -44.42 0.0001699056    1.088    0.081
        22 -11.4145    128.1892      9.3342   5.2885325955e+01   5.2167460628e+01    0.4103723    0.1710336 -26.19  0.001632763    2.345    0.574
        23 -10.5271    218.5159     12.0030   4.2113893600e+01   2.8473681594e+01    0.2628165    0.1984061  76.63 0.0007005319    1.331    0.248
        24 -11.5906    193.6751      8.1838   4.3365188307e+01   3.5143486153e+01    0.4068222    0.2223536  85.34  0.001807313    1.940    0.485
        25 -10.7566    185.2728      8.9287   4.4484137656e+01   3.7256265947e+01    0.2473854    0.1938841  67.62 0.0002389723    1.240    0.194
        26 -10.8672    164.7553      8.6173   4.6851515785e+01   4.2695966465e+01    0.2964126    0.1983352 -65.90 0.0008997538    1.675    0.403
        27 -11.0786    166.0059      3.3816   4.4903037848e+01   4.2850113425e+01    0.3550129    0.2551833  19.42  0.001457472    1.645    0.392
        28 -11.7821    160.9822      3.0119   4.5398954262e+01   4.4209046690e+01    0.5641201    0.3773857  65.14  0.002353229    1.395    0.283
        29  -9.6762     73.7099      8.6918   6.6461337990e+01   6.4720035436e+01    0.2516468    0.1370336  37.09  0.001220554    1.812    0.448
        30 -10.0309     47.0456      8.7490   7.6985441335e+01   6.9421872995e+01    0.2685827    0.1538589  30.43  0.001376454    1.828    0.453
        31  -9.8937     51.7213      6.4212   7.3587846614e+01   6.8989867216e+01    0.3035478    0.1755846  -0.93 0.0007759678    2.120    0.528
        32 -11.2115    146.4673      7.8592   4.9185441488e+01   4.7589882510e+01    0.3310734    0.1805295  37.09  0.001415203    2.032    0.508
        33 -10.4078    111.8585      5.1158   5.4354851644e+01   5.6620599721e+01    0.3282326    0.2347222  -8.97  0.001256302    1.432    0.302
        34 -10.9564    108.3452      7.8954   5.6383867409e+01   5.7200461145e+01    0.4966408    0.2300553  61.23  0.001933329    2.109    0.526
        35 -10.5641    106.6865      3.9970   5.4978094373e+01   5.7966187184e+01     0.534736     0.233062  28.98  0.001973356    3.007    0.667
        36 -10.6087     87.3170      6.3020   6.0990490104e+01   6.2160409306e+01    0.2249937    0.2209338  -0.25  0.000380655    1.194    0.163
        37 -10.6825     61.5532      6.3387   6.9554199616e+01   6.7300635023e+01    0.2958804    0.2363886 -50.71  0.001747728    1.730    0.422
        38 -10.3162     31.4582      4.6084   8.2188437194e+01   7.2222919402e+01    0.3752462    0.1992606 -52.07   0.00171229    3.227    0.690
        39 -10.1165     24.6785      6.7631   8.7147762837e+01   7.2715131396e+01    0.2188555    0.1552935 -45.55  0.001381359    1.535    0.349
        40 -10.1164     20.2321      6.7679   8.9682149608e+01   7.3196428183e+01     0.237989    0.1234218 -34.63 0.0008724188    1.556    0.358
        41 -10.9692    170.9077      6.2005   4.5258654107e+01   4.1298238062e+01     0.214951    0.1816134 -69.32 0.0004119243    1.189    0.159
        42 -11.2470    134.0518      5.5925   5.0321435265e+01   5.1021738631e+01    0.3425139    0.2442648  49.05  0.001190021    1.315    0.240
        43 -10.0382     38.1252      2.1727   7.7295150574e+01   7.1651235411e+01     0.178827    0.1459999 -12.56 0.0002633923    1.082    0.076
        44 -11.6113    208.8601      4.5082   4.0874229245e+01   3.1633588995e+01    0.3712699    0.2367916 -67.19 0.0004490193    1.571    0.364
        45 -12.2232    195.8006      3.3699   4.1716878463e+01   3.5059968438e+01    0.6172179    0.2795353  65.13  0.002664364    2.064    0.515
        46  -9.8654     46.5538      4.5317   7.4750642187e+01   7.0067474015e+01    0.2059967    0.1529092  -8.50 0.0001191437    1.156    0.135
        47  -9.8990     49.5407      2.5342   7.2235085800e+01   6.9838880249e+01    0.2131678    0.1549176  31.55 0.0006317348    1.359    0.264
        48  -9.9860     12.7260      2.9901   9.2033557639e+01   7.4549863709e+01    0.2739909    0.2085238  88.18  0.001437716    3.727    0.732
        49 -10.1630    248.9098      2.9410   3.7532322299e+01   2.2285004800e+01    0.1913473    0.1597293 -52.61 0.0003438316    1.021    0.020
        50 -10.5133    217.9897      2.5346   3.9584540868e+01   2.9562266099e+01    0.2542327    0.1885935 -32.57  0.000587014    1.298    0.230
        51 -11.0246     74.1613      1.9619   6.2685444190e+01   6.5364450715e+01    0.2769751    0.1989746  37.22 0.0009644104    1.291    0.226
        52 -11.3467    180.1153      2.1002   4.2885509410e+01   3.9250637250e+01    0.3475625    0.1914892  69.21  0.001063233    1.698    0.411
        53 -10.4903    115.7319      2.0198   5.2185605152e+01   5.5949736050e+01    0.2190873    0.1845731  57.41 0.0004336431    1.143    0.125
        54 -10.1526     39.6973      5.3287   7.8439031624e+01   7.0994318653e+01    0.2436764    0.2034668 -31.75  0.001262106    1.330    0.248
        55 -10.0131    147.8436      1.3790   4.6564288100e+01   4.7805943812e+01    0.2145519    0.1112572  57.20 0.0004508742    1.740    0.425
        56 -10.5628     90.3555      1.6266   5.7798460548e+01   6.1949333011e+01    0.3219776    0.1572132  54.45 0.0009966833    1.900    0.474
        57  -9.9952     43.6507      1.3420   7.4143810155e+01   7.0929471705e+01    0.1851667    0.1116064  43.42 0.0002015945    1.843    0.457
        58 -10.3710    149.5817    225.6858   1.0430647635e+02   8.6989845358e+00    0.2334404    0.1619045 -72.45  0.001405516    2.128    0.530
        59  -8.9354    207.2573    237.3316   9.5787508860e+01  -1.6698960708e+00    0.1510783    0.1268034   3.71 0.0005892072    1.211    0.174
        60 -10.3860    200.7982    249.1436   9.8481667781e+01  -2.0359968870e+00     0.179022    0.1457094  -2.74 0.0008002457    1.324    0.244
        61 -11.6259    201.6165    244.6854   9.7749426024e+01  -1.6665533466e+00    0.2803447    0.1780678  29.75 0.0009071701    1.224    0.183
        62 -10.0818    186.9077    250.4875   1.0095261731e+02  -1.8651790625e-01    0.1570081    0.1005905  35.22 0.0003669444    1.176    0.149
        63 -11.5346    127.4329    248.1387   1.1078437366e+02   8.7948392697e+00    0.2870033    0.2409787 -76.37  0.001848071    1.487    0.327
        64 -11.5758    115.3986    249.1879   1.1294668845e+02   1.0358763336e+01    0.4670576    0.2056177  47.89  0.002685952    1.743    0.426
        65 -11.3741     38.6795    249.5534   1.2569879929e+02   2.0044931561e+01    0.2141598    0.1571398  66.54 0.0007149295    1.101    0.092
        66 -11.3808      2.1808    224.1086   1.3049145682e+02   2.8022679358e+01    0.3229278    0.1399791  83.53  0.001794758    1.872    0.466
        67 -10.0505     30.9449    250.6090   1.2696436386e+02   2.0718460470e+01    0.1385516   0.06989045  46.52            0    1.502    0.334
        68 -11.6563      3.0716    233.2027   1.3065890660e+02   2.6370978677e+01    0.3611662     0.203448 -83.02  0.002746152    1.628    0.386
        69 -11.9392     30.8771    244.9047   1.2671693182e+02   2.1642059816e+01    0.3809371    0.3466626 -70.32  0.001230809    1.718    0.418
        70 -11.9110     10.6072    225.9683   1.2918249963e+02   2.6908108583e+01    0.6615964    0.2062877  63.75  0.003539901    2.596    0.615
        71 -10.8212     22.7590    238.5498   1.2773046435e+02   2.3543166579e+01    0.2679813    0.1041041  40.21  0.001315373    2.140    0.533
        72 -11.9109     22.3340    243.3344   1.2800147333e+02   2.2795208917e+01    0.4824693    0.1916658  53.80  0.003139827    1.727    0.421
        73 -12.9010     11.4431    236.0704   1.2943654556e+02   2.5091858850e+01     0.773524    0.4223708 -80.28  0.005729709    1.742    0.426
        74 -11.4655     10.6014    249.2940   1.3003735594e+02   2.3005707952e+01    0.4224487    0.1346875  53.55  0.002652668    2.000    0.500
        75 -12.1176      3.6727    246.2427   1.3098399941e+02   2.4157720041e+01    0.3284661    0.2065626  66.47 0.0007453883    1.033    0.032
        76  -9.4404    112.4357    223.8016   1.1093668684e+02   1.4695988296e+01    0.1480053    0.1149616 -69.49 0.0004354872    1.492    0.330
        77 -10.2903    111.4614    227.5726   1.1151574733e+02   1.4224833392e+01    0.2029414    0.1608314  75.41  0.000629211    1.279    0.218
        78 -10.5210    108.7400    225.0400   1.1175198739e+02   1.5037825709e+01    0.2059648      0.13728  51.81 0.0002843151    1.213    0.175
        79 -10.0369     93.7896    227.5148   1.1473902280e+02   1.6770210932e+01    0.1944939    0.1496713 -78.54 0.0009818088    1.427    0.299
        80  -9.5942     55.4301    228.5121   1.2168824467e+02   2.1606936894e+01    0.1085349   0.08171931  65.11  5.48014e-05    1.037    0.036
        81  -9.0054    175.2986    227.6811   9.9936156668e+01   4.3765513263e+00    0.1099311   0.08513712  61.57 0.0004358996    1.617    0.382
        82  -9.6928     20.0052    225.9550   1.2762265240e+02   2.5984612570e+01    0.1619788    0.1093664  70.33 0.0007700854    1.048    0.046
        83 -10.2063    233.8371    225.2595   8.9584316591e+01  -4.2127623121e+00     0.153191    0.1281316  79.68 0.0009506119    2.776    0.640
        84  -9.7390    164.4220    225.2936   1.0155841305e+02   6.4163985923e+00    0.1408072    0.1159337 -65.82 0.0009499011    1.647    0.393
        85  -9.0582    123.3005    225.3163   1.0909281050e+02   1.2819684725e+01    0.1072465   0.08834823  13.39 0.0007020613    1.616    0.381
        86 -10.0311     98.7127    224.6575   1.1356356991e+02   1.6553615568e+01    0.1872012    0.1011846 -67.35  0.001081993    2.147    0.534
        87 -10.0893     36.3637    223.6440   1.2471344855e+02   2.4665502228e+01    0.2382024     0.110204  60.55  0.001161369    1.706    0.414
        88  -9.9781     54.8700    221.3105   1.2129048298e+02   2.2943454251e+01     0.205332    0.1176544  70.94  0.001306456    1.533    0.348
        89  -9.8732     63.8107    220.8666   1.1963866445e+02   2.1918747369e+01    0.2755966    0.1250252  70.46  0.001263666    2.507    0.601
        90 -10.6892    228.7334    220.1362   8.9600643386e+01  -2.9077751535e+00    0.1917657    0.1514919  29.74 0.0003260811    1.221    0.181
        91  -9.4967    110.0149    220.9839   1.1108411033e+02   1.5523394179e+01     0.154062    0.1356567  15.19 0.0003535995    1.517    0.341
        92 -11.7717     84.0993    220.7815   1.1589950860e+02   1.9264529869e+01    0.1881461    0.1501418  67.63 0.0002896372    1.064    0.060
        93  -8.8971    157.7281    220.2530   1.0209612073e+02   8.2092788534e+00    0.1108118   0.08267555  58.79 -0.000275831    1.452    0.311
        94 -10.5604    135.5236    218.5522   1.0600817292e+02   1.2007587941e+01    0.2364189    0.2027715 -51.08 0.0009685427    1.415    0.293
        95 -10.6906     39.5185    217.8546   1.2381453972e+02   2.5357756058e+01    0.2171789    0.1764809  66.32  0.001250719    1.181    0.153
        96 -11.3408     24.5431    249.2496   1.2790158471e+02   2.1609830209e+01    0.4911601    0.1022426  46.11  0.002405581    2.717    0.632
        97  -9.7316     78.8565    223.1160   1.1707268016e+02   1.9566371145e+01    0.2301008    0.1138063  76.04   0.00116169    2.616    0.618
        98  -9.9488     47.0830    217.9805   1.2246481768e+02   2.4469766301e+01    0.2371945    0.1451289  26.21  0.001036519    2.359    0.576
        99  -9.3711    175.5114    217.4599   9.8443447180e+01   5.7452591953e+00    0.1227183   0.09926099  29.12 5.210186e-05    1.063    0.059
       100  -9.3879    100.6509    217.1759   1.1244249179e+02   1.7552443032e+01    0.1480663    0.1047954 -53.70 0.0009381546    1.746    0.427
       101 -10.8564     68.2693    215.0873   1.1835176542e+02   2.2392483170e+01    0.1866086    0.1462321  56.94 0.0003023542    1.113    0.101
       102 -10.7660     72.9593    216.2931   1.1757678885e+02   2.1561034344e+01    0.2057326    0.1806681 -78.37 0.0002037594    1.345    0.257
       103 -12.5224     74.4891    211.0687   1.1682614825e+02   2.2312959308e+01    0.2289097    0.1880577  71.78 0.0003457197    1.075    0.070
       104 -11.3016     24.1583    208.3819   1.2602213204e+02   2.8764858368e+01    0.3310833    0.2431168  42.04   0.00247552    1.490    0.329
       105  -9.7075     31.8884    216.1149   1.2506997785e+02   2.6513990526e+01    0.1616321    0.1211621  69.91 0.0004374513    1.060    0.057
       106 -11.4294     29.7046    211.9516   1.2522223408e+02   2.7517335881e+01     0.311518    0.2612248 -41.78  0.002329405    2.020    0.505
       107 -10.4619    111.6599    213.6755   1.0995845202e+02   1.6520356681e+01    0.2526652    0.2175402 -10.57  0.001345028    1.723    0.420
       108 -10.6522    125.5264    212.4289   1.0714332437e+02   1.4587962306e+01     0.260966     0.211337  21.80  4.46333e-05    1.480    0.325
       109 -11.8683    129.4734    207.4881   1.0574701007e+02   1.4798371905e+01    0.3746294    0.2549837  22.61 -0.0002030521    1.883    0.469
       110 -10.3544     84.3159    214.4279   1.1526667554e+02   2.0363002528e+01    0.2126806    0.1026689  36.37  0.000647692    2.044    0.511
       111 -11.6752      8.2834    210.5678   1.2894176895e+02   2.9904597320e+01    0.4150352    0.1801026 -84.01   0.00256828    1.958    0.489
       112 -11.0423      4.9152    205.8587   1.2933110905e+02   3.1092218202e+01     0.263856     0.150048  85.18  0.001074451    1.363    0.266
       113 -10.2731      1.3113    204.6813   1.2991540408e+02   3.1634388547e+01    0.1544468    0.0802106  86.26 0.0003598295    1.500    0.334
       114  -9.1338    164.9556    213.4870   9.9806253938e+01   8.0413122210e+00    0.1714741   0.09296643  57.59 0.0008082554    2.436    0.590
       115  -9.4926      1.3547    212.8273   1.3022132794e+02   3.0119130133e+01    0.1312495   0.07411283 -79.46 0.0003339764    1.619    0.382
       116 -10.1439    117.9075    212.0376   1.0856348287e+02   1.5844669580e+01    0.2101385    0.1497642  45.26 0.0004747121    1.187    0.157
       117  -8.9288     52.6559    212.7496   1.2107803171e+02   2.4772176483e+01   0.09134296   0.08759969  26.45 0.0003167318    1.578    0.366
       118 -10.8120     13.8511    212.4547   1.2805656676e+02   2.9028271050e+01    0.2000274    0.1458591 -84.17 0.0004539851    1.350    0.259
       119  -9.8441     39.1643    210.6604   1.2342422731e+02   2.6728471542e+01    0.1856414    0.1209525  80.60  0.001003763    1.267    0.211
       120 -10.7969    155.0389    209.9637   1.0116195333e+02   1.0213220884e+01    0.1827346    0.1564639  41.22 0.0003226461    1.019    0.019
       121 -10.7373    144.6360    209.0938   1.0302680267e+02   1.2065362957e+01    0.2939294    0.1881194 -64.29  0.001303959    2.070    0.517
       122  -9.4689     97.1615    208.8873   1.1222940677e+02   1.9534361797e+01    0.1479415     0.135534  42.05 0.0005325443    1.281    0.219
       123  -9.4533     80.0009    209.4914   1.1562102358e+02   2.1858862712e+01    0.1745628    0.1323888  58.20  0.001176487    1.070    0.065
       124  -9.4117     82.5612    207.4811   1.1492905826e+02   2.1878695928e+01    0.1198443   0.09580545  64.94 4.387339e-05    1.010    0.010
       125 -10.9982     67.1268    207.4567   1.1791635736e+02   2.3956648510e+01    0.2165412     0.167474  84.24 2.127794e-05    1.167    0.143
       126 -10.7964     59.6071    208.0411   1.1940611407e+02   2.4803125758e+01    0.3061688     0.175888  53.42  0.001214907    1.413    0.292
       127 -11.6648     17.7832    207.7689   1.2713648444e+02   2.9520018672e+01    0.1912077    0.1349305  72.46 0.0002986009    1.013    0.013
       128 -10.4456    196.7200    207.6372   9.3084700302e+01   3.6440069536e+00     0.213681    0.1418903 -18.13  0.001115691    1.760    0.432
       129 -10.5025     58.7874    215.8209   1.2017313210e+02   2.3457958633e+01     0.190703     0.137822  58.56 0.0003170128    1.094    0.086
       130 -11.7362     34.8802    204.7991   1.2383900449e+02   2.8314459497e+01    0.2715446     0.206549 -87.83  0.001248044    1.235    0.190
       131 -10.7189    121.6457    200.8597   1.0642067081e+02   1.7218618703e+01    0.5234841    0.2917827 -84.77  0.002226058    3.436    0.709
       132  -9.2860    165.5225    202.4229   9.8037220724e+01   9.6382901820e+00    0.1267549    0.1077877  40.75 0.0002843734    1.054    0.051
       133 -11.3097     98.1423    200.3919   1.1108168970e+02   2.0958740437e+01    0.3515728    0.3167859  41.80  0.001205953    1.255    0.203
       134 -10.4177     95.6247    194.8736   1.1094474631e+02   2.2387644491e+01    0.2226385    0.1613111  47.55 0.0003907875    1.228    0.186
       135  -9.4906     70.4715    201.0290   1.1667909162e+02   2.4746366647e+01    0.1622644    0.1065479 -77.71 0.0004603878    1.505    0.336
       136  -9.5906     19.1531    201.1100   1.2654010178e+02   3.0656426456e+01     0.158421   0.09278146  71.45 0.0006440718    1.314    0.239
       137 -11.2925      5.5059    200.1300   1.2897985907e+02   3.2127447748e+01     0.175836     0.124583  67.99 0.0002564929    1.073    0.068
       138 -10.0122     89.0872    200.1350   1.1287281614e+02   2.2338664113e+01    0.3865114    0.1660921  31.71  0.001682422    2.927    0.658
       139  -9.2746    223.9697    198.9847   8.6831615931e+01   3.4932193343e-01     0.151815    0.1159531  24.86 0.0003924364    1.112    0.101
       140  -9.1441    149.8195    199.3522   1.0061156639e+02   1.2807527569e+01    0.1735974    0.1060751  34.58 0.0001401874    1.551    0.355
       141 -11.4460    108.4988    194.4638   1.0825047727e+02   2.0490663221e+01    0.6069314    0.2790383 -72.46  0.002527977    3.291    0.696
       142  -9.2998     55.6479    199.2573   1.1944673695e+02   2.6985595747e+01    0.1236725   0.06754038  62.28 0.0001216933    1.606    0.377
       143  -9.4611     32.2864    198.6549   1.2392969710e+02   2.9787369185e+01    0.1209097   0.06238643  67.93 0.0007020597    1.649    0.393
       144  -9.5750     14.0468    197.6334   1.2730034628e+02   3.1824248414e+01    0.1855234    0.0929625  57.80  0.001174229    1.558    0.358
       145 -11.1267    128.1906    196.9290   1.0457046261e+02   1.6858359761e+01    0.2307333    0.1780962  52.67  0.001405329    1.145    0.127
       146 -10.0332     82.5219    195.5454   1.1370190311e+02   2.4163979065e+01    0.2140199    0.1136578 -66.66 0.0006127189    1.949    0.487
       147 -10.3753     37.7405    194.9314   1.2262122125e+02   2.9931610875e+01    0.3244573    0.1599892 -65.56   0.00187127    2.036    0.509
       148  -9.6904    140.3514    195.1775   1.0186743861e+02   1.5132228446e+01    0.1713727    0.1200856 -67.66 0.0009434797    1.784    0.439
       149 -11.0915     52.4941    192.1076   1.1946783304e+02   2.8792670734e+01    0.4150713    0.2321478  82.49 0.0009863509    1.745    0.427
       150  -9.1643     44.5479    194.4833   1.2124948813e+02   2.9253240084e+01    0.1165045   0.09028796  73.80 4.952997e-05    1.019    0.018
       151  -9.3224    100.3530    192.5171   1.0968324550e+02   2.2127752706e+01    0.1220272    0.1071456  71.09 6.528306e-05    1.053    0.050
       152  -9.6537     58.6339    191.3161   1.1815257315e+02   2.8196677657e+01    0.2273301    0.1030109 -77.80  0.001083176    2.250    0.556
       153  -9.9674    188.2334    191.3230   9.1890846584e+01   7.4260868121e+00    0.2026503    0.1441698  24.09 0.0005599891    1.364    0.267
       154 -11.6875     91.6447    189.0213   1.1106796501e+02   2.4129351919e+01    0.2654586    0.2063736 -85.93 0.0004703333    1.269    0.212
       155 -10.2129    127.1678    189.3573   1.0369401594e+02   1.8413776245e+01     0.188186    0.1758427 -48.28 0.0004133201    1.240    0.194
       156  -9.7549    165.7117    188.4048   9.5727946360e+01   1.1872097268e+01    0.2813216    0.1908202 -88.71   0.00124721    3.041    0.671
       157  -9.7958    120.4737    189.4678   1.0509828190e+02   1.9507810072e+01    0.1305784    0.1124618  59.53 0.0001761542    1.035    0.033
       158  -9.1869    149.0152    186.9701   9.8837163464e+01   1.5079226883e+01    0.1520268    0.1351856  43.85            0    1.005    0.005
       159 -10.2233    130.7550    185.6003   1.0238542778e+02   1.8506819795e+01    0.3158509    0.2077859 -87.41  0.001527277    2.288    0.563
       160 -11.1474    104.8418    185.5520   1.0783942049e+02   2.2793353096e+01    0.3303742    0.2425832 -89.05  0.001109751    1.478    0.324
       161 -10.0510     85.4313    187.0424   1.1213846950e+02   2.5438820425e+01    0.1968878    0.1629082  38.72 0.0006059672    1.333    0.250
       162 -10.0936     74.5405    185.4446   1.1425704004e+02   2.7303221266e+01    0.2570378    0.1551138 -84.80  0.001066803    1.721    0.419
       163 -10.3817     43.6470    185.2350   1.2068847881e+02   3.1237457912e+01    0.3382553    0.1634392 -66.25  0.001408167    1.983    0.496
       164 -10.4265    177.8669    184.1684   9.2609067764e+01   1.0390401101e+01    0.1869407    0.1704449  46.57 0.0004474207    1.155    0.135
       165 -10.2174     33.8320    184.2929   1.2262057171e+02   3.2516871007e+01    0.3158154    0.1332895  37.79  0.001405568    2.263    0.558
       166 -10.8764     15.8127    183.1054   1.2615774584e+02   3.4563853385e+01    0.2296906    0.1690153  73.39  0.000698756    1.039    0.037
       167  -9.4525      2.5339    183.9488   1.2878965730e+02   3.5571378866e+01    0.1515276   0.08274008 -85.33 0.0004203235    1.460    0.315
       168  -9.5473     88.2824    182.5229   1.1098414388e+02   2.5940425679e+01     0.210643     0.107399 -63.68  0.001043533    2.004    0.501
       169  -9.3476    213.0109    182.4570   8.5727643610e+01   4.3980352962e+00    0.1861248    0.1139539  36.88 0.0003333511    1.492    0.330
       170 -10.8134     56.2832    181.1132   1.1767726121e+02   3.0592045323e+01    0.2920038    0.1922988  39.47  0.001170337    1.564    0.360
       171  -9.3651    155.0151    181.0092   9.6617109845e+01   1.5065676857e+01    0.1589871    0.1388469  41.01 0.0009522978    1.037    0.036
       172  -9.1330    143.5468    181.5376   9.9072526556e+01   1.7027767849e+01    0.1335304     0.119748  53.04 0.0002190175    1.045    0.043
       173  -9.5706    182.3473    180.0968   9.1001499002e+01   1.0237890618e+01    0.1948178    0.1556676  -8.53 0.0007419077    1.379    0.275
       174  -9.6500    131.3882    179.2335   1.0125502827e+02   1.9604031330e+01    0.1837222    0.1262105 -68.72 0.0009524226    1.738    0.424
       175 -12.6404     32.2248    176.4050   1.2234919051e+02   3.4338182606e+01    0.2610861    0.2074195 -78.55 0.0005329188    1.255    0.203
       176 -10.3094      4.0743    178.8509   1.2823889145e+02   3.6478520133e+01    0.1783593    0.1182292  84.34  0.000389429    1.126    0.112
       177 -10.0705     92.0667    177.3663   1.0949983793e+02   2.6436960647e+01    0.2008807     0.164903 -63.09 0.0005618321    1.301    0.231
       178 -10.1106    108.8238    176.6418   1.0572650578e+02   2.3940128375e+01    0.2134584     0.187346  61.44 0.0007437502    1.025    0.024
       179 -11.7321     78.8233    174.1984   1.1201360600e+02   2.9054897673e+01     0.380159    0.2320073  78.67 0.0002658666    1.829    0.453
       180  -9.9397     74.2045    177.1634   1.1338883681e+02   2.9074512246e+01    0.1727441    0.1561699  82.66 0.0004213754    1.141    0.123
       181  -9.8513     46.5365    177.1853   1.1938229047e+02   3.2592534308e+01    0.2126673     0.142956  47.79 0.0007159989    1.399    0.285
       182 -10.0332     23.2953    176.4210   1.2421208485e+02   3.5238315839e+01    0.2624792    0.1202472  64.38  0.001239593    1.968    0.492
       183  -9.5559      8.7044    177.5624   1.2725195287e+02   3.6347549771e+01    0.1456075   0.08100767  52.54   0.00093239    1.539    0.350
       184  -9.7126    136.5794    176.1972   9.9652981784e+01   1.9270042612e+01    0.1808087    0.1276705 -38.70 0.0007763216    1.668    0.400
       185  -9.5176     17.5237    174.9500   1.2530412577e+02   3.6098689233e+01    0.1488478   0.07246963 -57.73 0.0008067561    2.365    0.577
       186  -9.5939    156.9615    173.5562   9.4901861922e+01   1.6049593068e+01     0.210896    0.1246788  42.34  0.001015878    1.559    0.359
       187  -9.8166     87.6183    172.1851   1.0979337882e+02   2.8197782318e+01    0.2184133    0.1526696 -60.80  0.000780739    1.469    0.319
       188  -9.7839     63.1599    170.9370   1.1511291273e+02   3.1891528740e+01    0.1918049    0.1415455  70.76 0.0004226106    1.194    0.162
       189  -9.3192     41.2328    171.4050   1.2000008295e+02   3.4435851249e+01    0.1540221   0.09549387  52.80 0.0002824995    1.450    0.310
       190  -9.6498     54.0191    168.0006   1.1683701157e+02   3.3684362941e+01    0.1818773    0.1449747 -44.73  0.001127548    1.693    0.409
       191 -10.2174      2.6232    166.8761   1.2789580770e+02   3.9094537708e+01    0.3545052    0.1078275 -66.33  0.001703988    2.833    0.647
       192  -9.7943     47.1847    166.4547   1.1821068270e+02   3.4838221696e+01    0.2143717    0.1195791  32.20  0.001150806    2.061    0.515
       193 -11.5350     24.2976    163.2481   1.2301694010e+02   3.7971824129e+01    0.2432051    0.1889935  73.02 0.0004940002    1.086    0.079
       194 -10.5847     75.6612    161.8337   1.1113433226e+02   3.2193361223e+01    0.2489523    0.1921104 -86.59 0.0005550621    1.195    0.163
       195  -9.6724    126.0582    161.4926   9.9428407978e+01   2.4083288344e+01    0.1989747     0.180304 -71.11 0.0003162828    1.131    0.116
       196 -10.8809    140.3524    160.9952   9.6143344427e+01   2.1549768496e+01    0.2602794    0.1931825  44.80   0.00056359    1.276    0.216
       197 -10.8579     37.0925    159.3142   1.1979553852e+02   3.7546353182e+01    0.5890509    0.1575716  48.34  0.002353456    3.401    0.706
       198 -10.6562     30.1621    154.7220   1.2095980093e+02   3.9291023529e+01    0.3554583    0.1842744  52.63  0.001877919    1.806    0.446
       199  -9.5149     61.3049    166.0730   1.1497595731e+02   3.3194696342e+01    0.1712206    0.1389917  84.55 0.0004241199    1.042    0.040
       200  -9.5952     65.9357    158.4593   1.1297429046e+02   3.4284250313e+01    0.1882538    0.1187174  43.15 0.0005086225    1.571    0.364
       201  -9.1384     96.3976    157.4633   1.0561352548e+02   3.0024908254e+01    0.1363235    0.1201872  82.36 8.807528e-05    1.037    0.036
       202 -10.2799    112.9728    153.7905   1.0107572017e+02   2.8042234528e+01    0.2273403    0.1992139 -76.99 0.0008086516    1.129    0.114
       203  -9.4879    207.2096    151.8267   8.0579817224e+01   1.0120210182e+01    0.1870098    0.1490673   6.79 0.0002977048    1.273    0.214
       204  -9.7487     72.4275    151.1905   1.1042618999e+02   3.5047158620e+01    0.1823499    0.1159514 -82.02 0.0005425644    1.589    0.371
       205  -9.3649     45.5722    151.5674   1.1699515732e+02   3.8365041417e+01    0.1274748    0.1021471  84.46 6.270934e-05    1.031    0.030
       206  -9.2593     38.7089    148.3333   1.1829267111e+02   3.9862639434e+01    0.1320395   0.07869107  72.83 0.0003534807    1.632    0.387
       207  -8.8121      1.2928    152.6812   1.2735485057e+02   4.2255155908e+01    0.1199199    0.0633503  69.26 0.0002791119    1.605    0.377
       208 -10.5625     13.5789    143.2107   1.2385493882e+02   4.3404530966e+01    0.2547603    0.1897491  69.20  0.001656691    1.195    0.163
       209  -9.5176      4.7402    143.0267   1.2593090174e+02   4.4138168312e+01    0.1658036    0.1096745 -85.58  0.000478205    1.154    0.133
       210  -8.8426     21.3211    142.2904   1.2190855627e+02   4.2952168540e+01    0.1135644   0.08215167 -52.86 0.0006199814    1.605    0.377
       211 -11.4703     35.4411    139.3905   1.1810732919e+02   4.2275756665e+01    0.2752227    0.1997234  78.98  0.001692264    1.221    0.181
       212  -9.7333     83.2323    138.8694   1.0577184945e+02   3.6313295968e+01    0.2655198      0.16767  28.95  0.001272386    1.961    0.490
       213 -10.5983    236.1352    137.8082   7.2430624690e+01   6.7156230212e+00    0.2004956    0.1837793 -35.24 0.0008307382    1.251    0.201
       214  -9.8713     49.8423    136.0584   1.1399590549e+02   4.1483237184e+01    0.2312985    0.1677078 -26.76  0.001240207    2.135    0.532
       215  -9.1998     82.7644    134.6520   1.0515284719e+02   3.7370614975e+01    0.1350297    0.1011452 -41.65    0.0002742    1.563    0.360
       216 -10.7358      9.1142    132.0864   1.2401376086e+02   4.6299247162e+01    0.3823821    0.1600809 -53.99 0.0008122263    2.511    0.602
       217  -9.6105      3.0364    134.4900   1.2571174033e+02   4.6190162783e+01    0.1450895    0.1148851  33.57 0.0007063165    1.582    0.368
       218  -9.3140    105.0099    132.9587   9.9066382695e+01   3.4090796841e+01    0.2038767    0.1629284  78.03 0.0004980154    1.355    0.262
       219  -9.3916    101.5095    132.0048   9.9772866813e+01   3.4922392687e+01    0.1929523    0.1842051   8.49 0.0005145202    1.244    0.196
       220 -10.8348     40.0674    131.7598   1.1598689424e+02   4.3590800530e+01    0.3433933    0.2584463  37.13  0.001175757    1.524    0.344
       221 -11.9227     28.1252    131.9529   1.1914005689e+02   4.4734507340e+01    0.3332723    0.2213476  61.38  0.001990062    1.475    0.322
       222  -9.5800     69.2035    131.8416   1.0824717339e+02   4.0013407292e+01    0.1927945    0.1513396 -47.79   0.00107542    1.404    0.288
       223  -9.9744     57.1095    132.1225   1.1151526038e+02   4.1539110511e+01    0.1901847    0.1616163 -65.39  0.000273205    1.162    0.140
       224  -9.0965     61.9815    131.0405   1.1004592611e+02   4.1175205475e+01    0.1620382    0.1350458 -79.43 0.0003110484    1.041    0.040
       225  -9.5864     17.8474    131.1225   1.2170811745e+02   4.5834103650e+01    0.1738744    0.1260605 -83.50 0.0002916614    1.080    0.074
       226 -11.0087     20.6448    126.6893   1.2052235046e+02   4.6638088156e+01    0.2560444    0.2190103 -42.59 0.0004782965    1.485    0.327
       227 -10.9207     78.0497    129.3414   1.0544427199e+02   3.9335469173e+01    0.3581145    0.2132573  49.44  0.001390488    1.742    0.426
       228 -10.0858     91.9533    126.3255   1.0113715634e+02   3.7862318608e+01    0.2282035    0.1843527 -74.95 0.0002133745    1.200    0.167
       229  -9.4136     30.1747    125.7968   1.1787475048e+02   4.5997466245e+01    0.1629157    0.1263074 -60.22 0.0003402771    1.290    0.225
       230 -10.7366      3.7076    124.9571   1.2478290738e+02   4.8328041500e+01    0.2930801    0.2029847 -36.18 0.0002482243    1.997    0.499
       231 -11.8668     13.2787    109.9348   1.2068119321e+02   5.1178135520e+01    0.2833363    0.1827409  81.82 0.0003063861    1.436    0.303
       232 -11.3190     19.2626    110.3301   1.1900080722e+02   5.0630878125e+01    0.5492114      0.28009 -43.53  0.001934364    2.356    0.576
       233 -11.7922      9.1741    118.3539   1.2273224358e+02   4.9486274581e+01    0.4772714    0.2068024 -48.48  0.001534175    2.642    0.621
       234 -11.2759      5.8840    114.9399   1.2329463331e+02   5.0511259612e+01    0.3104772    0.2606042  67.25  0.001532383    1.252    0.201
       235 -11.8378      1.3719    115.9692   1.2462037248e+02   5.0561509781e+01    0.3273848    0.0874918 -75.71            0    2.773    0.639
       236 -11.4214      5.6911    109.8885   1.2284217113e+02   5.1708466828e+01    0.3178797    0.2321041 -38.87  0.001047258    1.709    0.415
       237 -10.4213    237.9742    121.4960   6.8374033034e+01   8.7949985600e+00    0.2026139     0.137454  47.44 0.0007578681    1.615    0.381
       238  -9.2755    123.2171    121.1474   9.1815973313e+01   3.3342722235e+01    0.1982791    0.1695966 -87.06 0.0003088133    1.283    0.221
       239  -9.6259     22.1107    120.8377   1.1947227607e+02   4.7896659040e+01    0.2841276    0.1470335 -56.52 0.0008468314    1.796    0.443
       240 -11.2851     18.4084    117.8566   1.2014730476e+02   4.8908382206e+01    0.5545866    0.1787093  24.50  0.002356753    3.852    0.740
       241  -9.1115     97.9448    118.7823   9.7922328951e+01   3.8610910079e+01    0.1764246     0.120079  40.39 0.0003979951    1.561    0.359
       242 -10.7050     55.2168    118.1022   1.0977698193e+02   4.5138954843e+01    0.2306753    0.1830453  47.80 0.0004813175    1.363    0.266
       243 -10.3623     92.1150    118.7861   9.9517639595e+01   3.9607615450e+01    0.3592794     0.276187  76.52  0.001124467    1.473    0.321
       244  -9.1993    108.4871    115.4223   9.4302417657e+01   3.7481778883e+01    0.1477555    0.1401883 -76.84 0.0001194624    1.014    0.014
       245  -9.3238     61.0000    114.9693   1.0755541611e+02   4.5165310214e+01    0.2307018   0.06974038 -62.16 0.0007979635    2.912    0.657
       246 -10.4060     34.4315    115.0199   1.1525296524e+02   4.8168800676e+01    0.2399345    0.1519471  55.78  0.001092981    1.694    0.410
       247  -9.8139     47.9647    111.5214   1.1075166903e+02   4.7588664941e+01    0.1747137    0.1331183  35.98 0.0004365575    1.517    0.341
       248  -9.6552     92.7738    109.5926   9.7262239963e+01   4.1659276306e+01    0.1965905    0.1364984  53.03   0.00043184    1.561    0.359
       249 -10.2077     36.7920    108.6656   1.1359771774e+02   4.9470034821e+01    0.2383911    0.1761768 -41.02  0.001233966    1.561    0.360
       250  -9.1257     84.3456    108.7117   9.9475768628e+01   4.3270206199e+01    0.1474622    0.1084312  78.24 0.0002848283    1.654    0.395
       251 -11.1515     64.0443    106.6684   1.0503352162e+02   4.6768392237e+01    0.4050634    0.2548849  84.13  0.001105677    2.142    0.533
       252 -10.6280     69.2407    123.2972   1.0674827955e+02   4.2048178750e+01    0.2370889    0.2026727 -86.80 0.0002536993    1.076    0.070
       253 -10.6325     47.5096    104.5437   1.0964389599e+02   4.9331496796e+01    0.3353877   0.08016124 -56.15   0.00115272    3.169    0.684
       254  -9.5380    123.9574    104.3930   8.7409807131e+01   3.6903287584e+01    0.2015074    0.1908171  48.75 0.0004250384    1.096    0.088
       255 -10.6495     36.4569    103.5686   1.1286712778e+02   5.0735913035e+01    0.3624403    0.2372341 -40.28  0.001309751    1.767    0.434
       256  -9.2917     33.6010    101.4955   1.1340349949e+02   5.1512942707e+01    0.1860612    0.1589255  76.67 0.0001661416    1.205    0.170
       257 -10.3950     43.5003    102.9120   1.1057985486e+02   5.0169064984e+01    0.2142668    0.1913711 -45.88 -0.0007019581    1.241    0.194
       258 -11.1127     41.9121     99.0860   1.1037304853e+02   5.1264505212e+01    0.4026908    0.2855533  22.07 0.0006338015    1.790    0.441
       259  -9.4271     29.3869    103.7338   1.1506139742e+02   5.1361127939e+01    0.1912432   0.09468067 -61.65 0.0009524371    1.624    0.384
       260  -9.3785    100.5453    103.4892   9.3561314462e+01   4.1702054483e+01    0.1497874    0.1390062 -63.54 6.984104e-05    1.011    0.011
       261 -10.3577     53.5166    102.4619   1.0739365039e+02   4.9133195945e+01    0.1373625    0.1174283 -68.08 -3.950422e-06    1.015    0.015
       262  -9.0160     19.2442    102.6083   1.1798907136e+02   5.2477964244e+01    0.1295094    0.0792746  81.53 0.0006936485    1.665    0.399
       263  -9.1739    141.7641    100.9259   8.1961589753e+01   3.3792721454e+01    0.1920732    0.1283353 -39.96 0.0002500044    1.467    0.318
       264 -10.2392      8.9837     99.3894   1.2069252420e+02   5.3973869464e+01    0.2386543    0.1594362  66.78  0.001043277    1.564    0.361
       265  -9.3109      3.8229     98.0907   1.2210859829e+02   5.4600079793e+01    0.2059839    0.1437164  59.36 0.0009377698    1.542    0.351
       266 -10.9766     54.7569     96.8747   1.0585259246e+02   5.0331626751e+01     0.255524    0.1747064 -82.21  0.001025294    1.569    0.363
       267 -10.1293     23.0046     95.8190   1.1582000110e+02   5.3808701629e+01    0.2114995    0.1543274 -84.65 0.0003349012    1.219    0.179
       268 -10.8972     50.0717     94.7190   1.0689794953e+02   5.1413444888e+01    0.2521289    0.1995926  24.24 0.0009277727    1.546    0.353
       269 -10.0469     46.6629     93.6892   1.0778823947e+02   5.2051593848e+01    0.2775817     0.224632 -11.28  0.001611934    1.621    0.383
       270  -9.4173     38.8716     95.1234   1.1060035256e+02   5.2536214922e+01    0.1717872    0.1415284 -41.64 0.0007956651    1.316    0.240
       271 -10.4872      1.5135     92.7924   1.2220581566e+02   5.5977696191e+01    0.2915512    0.1115819 -82.21 0.0009148845    2.277    0.561
       272 -10.3646      2.7822     87.4722   1.2114645297e+02   5.7158317253e+01    0.2175207    0.1288641 -75.27 0.0005381943    1.285    0.222
       273 -10.0653    104.4312     91.1711   8.9126806464e+01   4.3772108434e+01    0.2471825    0.2092237  48.43 0.0002446786    1.259    0.206
       274  -9.8707     17.1725     91.5022   1.1702843955e+02   5.5288560846e+01    0.1479861    0.1273712  22.43 0.0007786518    1.491    0.329
       275 -10.8118      7.0613     90.2190   1.2012017391e+02   5.6264870993e+01    0.2706728    0.1620446 -78.47 0.0008133613    1.328    0.247
       276  -9.6017    117.8261     90.3669   8.5127306704e+01   4.1247219902e+01    0.2135719    0.1447328  33.83 0.0006868286    1.695    0.410
       277 -12.2435     21.3331     87.7841   1.1505585006e+02   5.5864456991e+01    0.2928122    0.2209483 -52.25 0.0002377703    1.249    0.199
       278 -10.8888     27.1509     87.4154   1.1303500117e+02   5.5480684593e+01    0.3850859    0.2504623 -74.64  0.001209679    1.325    0.245
       279 -10.2524     20.1650     81.8572   1.1441921022e+02   5.7364830365e+01    0.2233903    0.1720755  76.29 0.0005086936    1.415    0.293
       280  -9.5121     98.0123     89.5040   9.0531841340e+01   4.5365693695e+01    0.2015608    0.1503606  43.28 -0.0001679152    1.441    0.306
       281 -10.6666     88.0950     88.6210   9.3283258828e+01   4.7348767966e+01    0.2852224    0.1985041 -45.15 0.0004367876    1.343    0.255
       282 -10.9131     66.6791     87.9747   9.9919691321e+01   5.0877830595e+01    0.5348678    0.2273706  44.82  0.001582706    2.727    0.633
       283 -10.0554     10.5259     85.4736   1.1830937994e+02   5.7173198846e+01    0.3409091     0.200704  85.74  0.001879037    1.748    0.428
       284 -10.7501     14.5868     83.6834   1.1665548296e+02   5.7330584869e+01    0.2210649    0.1760372 -74.45 0.0002952602    1.047    0.045
       285 -11.1469    155.1700     85.3774   7.4296908869e+01   3.3794531266e+01    0.2712421    0.2463194 -39.05  0.000307666    1.066    0.062
       286  -8.9533    129.0293     86.0000   8.0833240472e+01   3.9749475011e+01    0.2539223   0.08999699  48.22 0.0008018407    2.938    0.660
       287 -12.0267     50.3067     83.2699   1.0424359813e+02   5.4124706954e+01    0.3808604    0.2859741   5.70 0.0006091757    1.776    0.437
       288  -9.3140     94.8840     81.8754   8.9242981766e+01   4.7653710336e+01    0.1985001    0.1736655  89.31 0.0004825986    1.323    0.244
       289 -10.1623     44.0242     80.7348   1.0582086917e+02   5.5440587626e+01    0.2916161    0.1796457 -43.47  0.001358972    1.572    0.364
       290 -11.0261     73.1662     80.8669   9.5875619225e+01   5.1574070547e+01    0.4912025    0.2147384 -41.12  0.001877258    2.426    0.588
       291  -9.1369    120.7727     80.3671   8.1288648720e+01   4.2737516802e+01    0.1555562    0.1158071 -64.41 0.0004731511    1.588    0.370
       292 -10.5166     55.1332     78.1073   1.0126857756e+02   5.4747764878e+01     0.207994    0.1763093 -54.29 0.0003119912    1.014    0.014
       293 -10.1371     52.5114     75.5052   1.0150417449e+02   5.5681653144e+01    0.2100233    0.1867779   4.05  0.001037188    1.329    0.248
       294 -10.3826     17.7439     76.3294   1.1426072208e+02   5.8849624166e+01    0.3645695    0.1890229 -87.86  0.001727395    2.288    0.563
       295  -9.8902     19.7866     73.1539   1.1289847164e+02   5.9447925603e+01    0.2269282    0.1801024 -35.68 0.0006272068    1.360    0.264
       296 -11.0464     62.9648     75.5512   9.7831943820e+01   5.4294990987e+01    0.3951013    0.2602267  48.03  0.001312899    1.799    0.444
       297 -10.0477     28.5744     74.9268   1.1003936480e+02   5.8325616098e+01    0.3749962     0.122625 -48.50   0.00127922    2.641    0.621
       298  -9.5590     93.2757     74.9183   8.7587119747e+01   4.9477219896e+01    0.2149329    0.1751311 -45.31 0.0003986412    1.132    0.117
       299 -10.4596     69.5489     74.3041   9.5192120666e+01   5.3622116361e+01    0.2427874    0.2148123 -67.02 0.0005209597    1.156    0.135
       300  -8.9352    169.2572     72.6043   6.7382628983e+01   3.2670926207e+01    0.1662498    0.1149903 -58.75 0.0006963158    1.701    0.412
       301  -8.8918    143.2946     72.3074   7.2965398672e+01   3.9139097069e+01    0.1574862    0.1235746   9.45 0.0003322598    1.585    0.369
       302 -11.2182     88.8917     70.5614   8.7570631287e+01   5.1223669739e+01    0.5076594    0.2251388 -47.96  0.001968304    2.099    0.524
       303  -9.3814     95.0567     71.5550   8.5943815748e+01   4.9862105861e+01    0.2068155    0.1486841  44.41 0.0005915222    1.505    0.336
       304 -10.8973     42.0728     71.0103   1.0411664366e+02   5.7931369083e+01    0.2075765    0.1838771 -27.74  0.001306094    1.223    0.182
       305 -10.3075     45.2047     68.9992   1.0241176985e+02   5.8049309207e+01    0.2734212    0.1395966 -52.93            0    1.605    0.377
       306 -10.8388     79.7286     70.0059   9.0400826296e+01   5.2951669872e+01    0.2194196     0.209315  49.83 0.0003422633    1.175    0.149
       307 -10.8722     52.5585     69.6772   9.9876541024e+01   5.7018128292e+01    0.2474753     0.211239 -77.24 0.0007334838    1.271    0.213
       308 -10.5897      1.3754     68.8120   1.1894205218e+02   6.1587494378e+01    0.4226655   0.09691292 -73.44  0.001507425    3.664    0.727
       309 -10.2107     15.3112     65.7941   1.1307935472e+02   6.1479619251e+01    0.3868689    0.2153119  48.63  0.002063256    2.341    0.573
       310 -10.1139      1.4882     62.0553   1.1774694694e+02   6.3137312517e+01    0.2661175     0.116965 -52.79 0.0008718229    1.756    0.431
       311 -10.5953      9.8025     62.5390   1.1456358864e+02   6.2579872123e+01    0.2401245    0.1961583 -63.52  0.001060922    1.061    0.058
       312 -11.5532      5.6267     58.5156   1.1541914135e+02   6.3736217017e+01    0.4734191    0.3239555  78.67  0.001866433    1.742    0.426
       313  -9.4705     64.2070     69.6043   9.5642450985e+01   5.5467915289e+01    0.1785714    0.1357697  15.19 0.0007801136    1.618    0.382
       314 -10.4645    105.7616     67.0867   8.1186532103e+01   4.8654237980e+01    0.2578407    0.2182501  35.92 0.0004561345    1.255    0.203
       315 -10.8521     56.1786     66.3800   9.7571204513e+01   5.7299070756e+01    0.2505282    0.1714045 -50.20 0.0005722361    1.250    0.200
       316  -9.8389     75.4581     66.2382   9.0625540958e+01   5.4478810726e+01    0.2334663    0.1988899  34.02 0.0006557424    1.303    0.233
       317 -10.9357     31.0784     64.4005   1.0659637945e+02   6.0551307497e+01    0.3183602    0.2574236 -59.31  0.002008731    1.046    0.044
       318 -10.4008     31.7552     58.9847   1.0487643588e+02   6.1720468508e+01    0.2473095    0.1731432  38.77  0.001442032    1.745    0.427
       319 -13.1490     24.0971     57.6367   1.0763928187e+02   6.2695419135e+01    0.3853822    0.2570162 -54.96  0.000566712    1.179    0.152
       320  -9.6179     28.5187     53.4341   1.0463052426e+02   6.3258165916e+01    0.1941694    0.1644507 -50.78 0.0008287241    1.056    0.053
       321 -10.1657     98.3267     60.9588   8.1290076956e+01   5.1397010815e+01    0.2090922    0.1809216 -33.41  0.000340478    1.078    0.072
       322  -9.6847     73.4883     61.4342   8.9695109697e+01   5.5827737059e+01    0.2229303    0.1668895   6.27 0.0008832548    1.702    0.413
       323 -10.7580     68.7069     60.1331   9.0956087055e+01   5.6864640773e+01    0.4686218    0.2170831  41.26  0.001497173    2.435    0.589
       324  -9.5606     38.7960     60.6248   1.0252020794e+02   6.0652075726e+01     0.162195    0.1207598  42.63 0.0003918083    1.639    0.390
       325  -9.5859     16.4136     60.3046   1.1143396842e+02   6.2667160240e+01    0.1666869    0.1014399 -73.52 0.0004558882    1.514    0.339
       326  -9.1348    238.4588     58.5535   5.2516396877e+01   1.7972435492e+01      0.14102    0.1251259 -37.26 9.132968e-05    1.013    0.013
       327  -9.3807     45.0877     58.3795   9.9349065348e+01   6.0457039676e+01    0.1701067    0.1202635  46.53 0.0009283631    1.766    0.434
       328  -9.7436    209.9125     57.3662   5.5892133515e+01   2.4892367609e+01    0.1934052    0.1855003  83.50 0.0004150156    1.101    0.092
       329 -10.1435     53.2658     55.9483   9.5338657995e+01   5.9975090247e+01    0.3296528    0.2179684  82.67  0.001379931    3.223    0.690
       330  -8.8993    225.7150     55.6829   5.3309538877e+01   2.1316068778e+01    0.1406346    0.1100921  14.65 0.0002345003    1.586    0.370
       331  -9.7749    118.6150     55.2093   7.3313488646e+01   4.8108059652e+01    0.2172678    0.1416412 -24.00 0.0004798909    1.655    0.396
       332 -11.1972     94.7073     49.4801   7.8135499841e+01   5.4316940056e+01    0.4373875    0.3346204  -7.95  0.001134961    1.483    0.326
       333 -10.5281     33.7406     54.7356   1.0283208117e+02   6.2479306873e+01    0.2051701    0.1643783   9.73  0.001274095    1.488    0.328
       334 -10.2490    151.1440     53.3236   6.4837719694e+01   4.0509023399e+01    0.2370366    0.2111913  -8.24 0.0003906952    1.171    0.146
       335 -11.7694     43.1734     50.6095   9.7590475147e+01   6.2367610936e+01    0.7162668    0.3478139 -26.12  0.002780306    3.316    0.698
       336 -11.5919      7.1887     51.0775   1.1314553879e+02   6.5330987182e+01      0.51941    0.3535473  35.46  0.003202171    1.875    0.467
       337 -10.9381      4.5055     39.1219   1.1134558517e+02   6.8106501460e+01    0.3548864    0.2763296 -33.59   0.00211848    1.260    0.206
       338 -10.1629      3.9153     33.1591   1.0992604097e+02   6.9411194154e+01    0.4213873     0.206082 -38.54  0.001772829    1.788    0.441
       339 -11.9338     17.1999     46.9734   1.0767839192e+02   6.5600589815e+01    0.5206215    0.3247995 -41.58  0.003097194    1.386    0.278
       340 -12.8968     12.4070     44.0658   1.0902300699e+02   6.6566170221e+01    0.4435888     0.242936 -61.88 0.0005877885    1.464    0.317
       341 -12.6702     13.5483     36.5634   1.0622406086e+02   6.8099776121e+01    0.3587126    0.2480347 -63.52  0.002251563    1.329    0.247
       342 -10.2622     60.6409     52.0374   9.1102668116e+01   5.9777615304e+01    0.2266783    0.1968005  11.07  0.001345971    1.263    0.208
       343 -10.8198     65.3046     49.6997   8.8452704112e+01   5.9551383139e+01     0.267952    0.2098909 -24.27 0.0007891632    1.246    0.197
       344 -11.1649     62.0530     44.9893   8.7881316286e+01   6.0986582647e+01    0.4265232    0.2125776 -43.38 0.0007758024    1.763    0.433
       345 -10.1297    114.6052     47.1257   7.1363714515e+01   5.0432618254e+01    0.2490229    0.1771716 -25.91 0.0003195943    1.400    0.286
       346  -9.4131     31.4618     47.9546   1.0168256365e+02   6.4182822542e+01    0.1790794    0.1047006 -53.38 -6.748049e-06    1.388    0.280
       347  -8.9425    165.2685     46.2956   5.9663058750e+01   3.7951467385e+01    0.1507112    0.1171422  20.81 0.0001917146    1.515    0.340
       348  -9.3335    123.4735     45.4785   6.8402148985e+01   4.8630920008e+01    0.1503996    0.1444921 -10.96 6.608619e-05    1.009    0.008
       349 -10.0656    199.8897     43.6744   5.3306809895e+01   2.9340453932e+01    0.2334808    0.1999508 -13.71 0.0003241512    1.241    0.194
       350  -8.9610    192.5041     44.4985   5.4609721862e+01   3.1120272451e+01    0.1490108    0.1423436 -49.22 0.0008106767    1.006    0.006
       351  -9.8594     33.0398     43.7194   9.9564827501e+01   6.4929112116e+01    0.1764956    0.1544352 -55.20            0    1.178    0.151
       352 -11.8053    103.5602     39.1830   7.1310865206e+01   5.4222159474e+01    0.3530559    0.2384522 -31.29 0.0004124007    1.415    0.293
       353 -10.9328     19.9516     40.9000   1.0457776120e+02   6.6705347865e+01    0.3974437    0.3531594 -87.78  0.002737486    1.405    0.288
       354  -9.3186    141.5304     42.4367   6.3035476994e+01   4.4649637531e+01    0.1497788    0.1470279   5.28 9.177882e-05    1.006    0.006
       355  -9.7227     70.1140     41.6694   8.3456160002e+01   6.0326635691e+01    0.1858084    0.1669404 -12.81 0.0005855869    1.057    0.054
       356  -9.4583     57.7688     42.2379   8.8482376871e+01   6.2164541692e+01    0.1828946     0.137249 -23.33 0.0002996835    1.293    0.226
       357  -9.4194    152.3016     40.8096   6.0231278535e+01   4.2125056008e+01    0.2166748    0.1391061 -18.00 0.0006555949    1.716    0.417
       358 -10.2847     90.8053     40.7895   7.5884506089e+01   5.6646210951e+01    0.2849272    0.1985977 -45.08   0.00140542    1.483    0.326
       359 -10.8424     40.8868     38.1068   9.3980670322e+01   6.5217652024e+01    0.5292438    0.2909276 -32.41   0.00124854    1.793    0.442
       360 -10.2786     82.2101     39.1581   7.8060879451e+01   5.8609974476e+01    0.2308441       0.2035 -15.93 0.0004348535    1.031    0.030
       361 -10.0910     85.9786     37.1199   7.5916828354e+01   5.8229385344e+01    0.2367951    0.1859452 -28.86 0.0005526441    1.177    0.150
       362 -10.0236    118.1238     38.8483   6.7189690042e+01   5.0947469952e+01    0.2972926    0.1898886  58.08 0.0009731583    1.663    0.399
       363 -10.6615     70.7836     37.0167   8.1237850635e+01   6.1057138391e+01    0.3349126    0.2163265 -51.77  0.001207904    1.797    0.444
       364 -11.3173     75.9235     33.3831   7.7759327911e+01   6.0767664132e+01    0.3925823     0.291705   4.98  0.001644109    1.503    0.335
       365  -9.7392    156.1669     36.8557   5.8098485397e+01   4.1675105627e+01    0.2198853    0.1996891 -62.54 0.0003473067    1.148    0.129
       366  -9.9913    208.8737     35.9556   4.9873541998e+01   2.8084215063e+01    0.3313903    0.1592775  39.78  0.001226534    2.893    0.654
       367 -12.2025    194.0938     35.2446   5.1556500922e+01   3.1948333561e+01    0.3584463    0.2681278  72.44 0.0003850987    1.374    0.272
       368  -9.4316    142.3526     36.2624   6.0589271764e+01   4.5335381282e+01    0.1948398    0.1465663  70.15 0.0003120739    1.432    0.302
       369 -11.3426    142.3912     30.7889   5.8542068797e+01   4.6068677909e+01    0.4726576    0.2636553 -28.33 0.0008854487    1.774    0.436
       370  -9.9433    131.5533     36.2711   6.2933064684e+01   4.8064336161e+01    0.3239229    0.1800178  62.60 0.0008943572    1.928    0.481
       371  -9.2112     55.5417     29.4880   8.3910395626e+01   6.4854002556e+01    0.1934786    0.1120632 -30.24 0.0007461234    1.601    0.376
       372 -10.9318     59.8932     33.6327   8.3989132156e+01   6.3451385307e+01    0.4304622    0.2706603  -2.80  0.001997897    2.264    0.558
       373 -10.6543     54.9981     33.4763   8.5932657099e+01   6.4223338996e+01    0.2422488     0.188645 -35.26 0.0001176052    1.124    0.110
       374 -10.8479    118.7962     33.4591   6.4857522006e+01   5.1587865555e+01    0.3540476    0.2657987  84.86 0.0008406509    1.776    0.437
       375  -9.5711     47.6959     34.4588   8.9477616305e+01   6.5067585441e+01    0.1573897    0.1198011   5.70 0.0005504718    1.446    0.309
       376 -10.1174     87.0665     33.1143   7.3816364560e+01   5.8668205158e+01    0.2391852    0.1975964  50.00 0.0008368916    1.347    0.258
       377  -8.7894     66.3279     33.2888   8.1292229738e+01   6.2469697213e+01    0.1382891   0.09857746  -2.60 0.0002955954    1.616    0.381
       378  -9.4789    233.1537     32.1556   4.6162990067e+01   2.2642190060e+01    0.1929873    0.1426806 -56.93 0.0003469051    1.278    0.218
       379 -10.5629    137.3674    248.2305   1.0908796770e+02   7.3441452644e+00    0.2259698    0.1544226  63.65  0.000941984    1.609    0.379
       380  -9.3129    206.3339     31.3037   4.8828826104e+01   2.9310231530e+01    0.1462054    0.1078247  31.66  0.000505578    1.661    0.398
       381 -10.3320    158.9819     30.1973   5.5253909493e+01   4.1817173170e+01    0.2464195    0.2102215 -23.10 0.0002666366    1.188    0.158
       382 -10.0437     24.3325     30.9180   9.8902322765e+01   6.8392329968e+01    0.1751807    0.1686782  -3.76 0.0006367392    1.288    0.223
       383 -10.7550     14.8764     18.2430   9.8542288270e+01   7.1669680721e+01    0.2149193    0.1343602 -42.90 0.0004325979    1.228    0.186
       384 -10.8734    140.0000    246.9803   1.0850246369e+02   7.1301326732e+00    0.1722504    0.1512525  84.63 0.0008558414    1.390    0.281
       385  -9.7262     10.4182     22.5092   1.0280929541e+02   7.1187838673e+01    0.1929286    0.1138047  18.16 0.0005694181    2.017    0.504
       386 -10.6862    221.2998     28.4787   4.6369157785e+01   2.5929342937e+01    0.2744967    0.1404504 -47.34  0.001207557    1.830    0.454
       387  -8.9632    163.6777     29.7042   5.4292246282e+01   4.0641230740e+01    0.1550916    0.1098317  31.75 0.0002691711    1.619    0.382
       388 -10.5887     70.6530     28.8817   7.7641271635e+01   6.2462552967e+01    0.2965686    0.1943359  48.22  0.001524687    1.754    0.430
       389 -11.3775     49.1955     27.1728   8.5564085660e+01   6.6190052897e+01    0.2951172    0.2520857  85.98  0.001046085    1.936    0.483
       390  -9.9661     45.6594     24.3219   8.5796106929e+01   6.7180480041e+01    0.1941944     0.175288  34.11 0.0007895071    1.382    0.277
       391  -9.4313    211.5817     28.5057   4.7418714218e+01   2.8330034534e+01    0.1407769    0.1308693 -49.61 7.834755e-05    1.031    0.030
       392 -10.0805    181.4910     28.1173   5.1057451807e+01   3.6134039319e+01    0.2279564    0.1428644 -26.68  0.001032361    1.588    0.370
       393 -10.2824    204.6661     26.2074   4.7534470727e+01   3.0351496770e+01    0.3197291    0.1355574 -21.99  0.001203974    2.525    0.604
       394  -9.9117     33.5633     30.6029   9.4288180417e+01   6.7523561589e+01    0.3576301    0.1682445 -57.82  0.001597461    2.506    0.601
       395  -9.8921     23.3120     27.0025   9.7830296738e+01   6.9257562207e+01    0.1751676    0.1227875 -44.54 0.0002886038    1.148    0.129
       396  -9.6882     77.9056    248.0390   1.1920353827e+02   1.5591266090e+01    0.2074368    0.1217718 -88.31 0.0009787973    1.911    0.477
       397  -9.8912    249.0469    246.6449   9.0449767059e+01  -8.3828680155e+00    0.1470201   0.09869992  22.45  0.000637533    1.090    0.083
       398 -10.5513    169.8621     23.4825   5.1203968005e+01   3.9759336621e+01    0.2770544    0.2043946 -36.27 0.0003834922    1.336    0.251
       399 -11.3166    176.4469     21.9042   4.9740455438e+01   3.8199170568e+01    0.3902058    0.2613246  30.38  0.001421018    1.813    0.449
       400 -10.2721    210.4873    246.5346   9.6542635885e+01  -3.1366488392e+00    0.1542147    0.1383355  15.21  0.001068364    1.310    0.237
       401 -10.1431    153.4871     23.0438   5.3642618953e+01   4.4139027583e+01    0.2201922    0.1944341  60.27 0.0004124365    1.109    0.098
       402 -12.1186    116.9349     22.4941   6.0773150407e+01   5.3506103084e+01    0.2724015    0.2273566 -16.98  0.001469483    1.184    0.155
       403  -9.9903     62.4871     22.9953   7.7975111782e+01   6.4818297994e+01    0.2517167    0.1721251  20.27  0.001349052    1.592    0.372
       404 -10.7143    226.0856     21.7111   4.4059770146e+01   2.5561747794e+01    0.1918942    0.1746317 -78.38 0.0008800589    1.089    0.081
       405 -10.0513    132.5395     21.8811   5.7094075373e+01   4.9705520132e+01    0.2341557    0.2027453 -68.23 0.0009663304    1.311    0.237
       406  -9.6080     40.7095     21.6955   8.6818909874e+01   6.8296798337e+01    0.1550355    0.1441345 -43.01 0.0002433713    1.349    0.259
       407 -10.0314     36.6928     21.4275   8.8617751075e+01   6.8851725979e+01    0.2997374    0.1755293  18.55 0.0008881688    2.033    0.508
       408 -10.7918     27.4659     21.0375   9.3063155782e+01   6.9973004182e+01     0.341452    0.1574589 -30.99  0.001372417    2.205    0.546
       409 -10.5865    204.1014    240.4921   9.6759724841e+01  -1.5619306292e+00    0.2670045    0.1421053  37.34  0.001021959    1.473    0.321
       410 -10.2053    163.5884    246.1952   1.0436059195e+02   3.7509078914e+00    0.1378542    0.1038202 -23.06 0.0009660982    1.767    0.434
       411 -11.1378    219.6358     19.7812   4.4143412984e+01   2.7349456309e+01    0.2632915    0.1573776 -38.56  0.001286709    1.495    0.331
       412 -10.0951    190.0445     20.3097   4.7478448037e+01   3.4805797699e+01    0.2097401    0.1883649  50.01 0.0002757141    1.179    0.152
       413 -10.2583    193.0175     17.4303   4.6243373294e+01   3.4351026125e+01    0.2039028    0.1758672  84.78  0.000492315    1.137    0.120
       414 -10.3601    199.0564     18.3712   4.5849690856e+01   3.2686427253e+01    0.2944373    0.2077601  -3.88    0.0014411    1.724    0.420
       415 -10.1690     46.1303    245.6416   1.2430015806e+02   1.9833368941e+01    0.2051964    0.1041031  73.99 0.0005379551    1.783    0.439
       416  -9.5466    101.7196     19.0569   6.3107833158e+01   5.7508064602e+01    0.1899416    0.1663747  -6.01 0.0003342504    1.084    0.078
       417  -8.8272     65.3309     19.2924   7.5015264119e+01   6.4889363403e+01    0.1371717    0.0938454   6.89 0.0001963464    1.630    0.387
       418 -10.1647     60.5564     18.1965   7.6336457161e+01   6.5876933348e+01    0.3390449    0.1666623  36.69  0.001458582    2.158    0.537
       419 -10.0477     46.0542     17.5834   8.2251669043e+01   6.8246533450e+01    0.2672301    0.2209508  75.38   0.00154788    2.194    0.544
       420  -9.3617    157.5519     17.4708   5.0982195676e+01   4.3696660633e+01    0.1429803    0.1393588 -86.53 0.0001014549    1.024    0.024
       421 -10.2696    230.0242     16.3081   4.2273718281e+01   2.5224649352e+01    0.1862954    0.1604767 -67.83 0.0003615307    1.077    0.071
       422 -10.5235    106.3131    244.4599   1.1407396423e+02   1.2327866593e+01      0.19602    0.1417323  57.55 0.0004148847    1.128    0.114
       423  -9.3117    112.5028     15.5057   5.8812836830e+01   5.5401744522e+01    0.2226269    0.1186997  47.60 0.0009793715    1.767    0.434
       424  -9.5964     23.2633     16.3546   9.3037148748e+01   7.1249118832e+01     0.168459     0.122833 -27.79  0.001002661    1.112    0.101
       425 -10.5055     97.2920    245.1769   1.1569071501e+02   1.3464571582e+01    0.2314322    0.1311419 -66.57  0.001506203    2.124    0.529
       426 -10.3963     96.4888    238.9316   1.1529037355e+02   1.4542210678e+01     0.291094     0.132969  56.23  0.001218208    1.988    0.497
       427 -10.0260     93.7603    234.2534   1.1535807330e+02   1.5665510299e+01    0.1819289    0.1395959 -82.92 0.0005166185    1.425    0.298
       428 -10.8775    179.8533     13.8252   4.6669932596e+01   3.8182795413e+01    0.2204852    0.1904147  43.09 0.0006890598    1.230    0.187
       429 -10.5193     73.4297    244.4698   1.1970012097e+02   1.6722305682e+01    0.1953927    0.1420152  60.49 0.0006281323    1.023    0.022
       430 -11.0135    169.1837     14.0710   4.8121011164e+01   4.0977555879e+01     0.311062    0.1898062  56.44  0.000324967    1.575    0.365
       431  -9.7201     89.0278     13.7695   6.4198758483e+01   6.0960093136e+01    0.1868466    0.1607512  30.00 0.0002154773    1.102    0.093
       432 -11.0826    147.3204     13.3122   5.1091104867e+01   4.6830126296e+01    0.3082519    0.1849045  46.08  0.000808968    1.650    0.394
       433 -11.6112     76.1925    241.6715   1.1902744060e+02   1.6814661644e+01    0.2842221    0.1640596  62.02 0.0007004256    1.448    0.310
       434 -11.0735    145.7475    242.8559   1.0705272460e+02   6.8443336991e+00    0.1963572    0.1523762  33.86 0.0004542168    1.169    0.145
       435 -10.8140     91.7899    242.3603   1.1640117241e+02   1.4646041955e+01    0.2124209     0.144408  57.55 0.0004424044    1.150    0.130
       436  -9.4491     62.3667    243.1461   1.2147045966e+02   1.8314209408e+01    0.1386708   0.08006574  82.47  0.000543226    1.719    0.418
       437  -9.9660     38.6287    241.7462   1.2531422754e+02   2.1313914417e+01    0.1729055    0.1010818  80.65  0.001247121    1.478    0.324
       438  -8.7885     26.2906     12.3293   8.9336685014e+01   7.1626198903e+01    0.1263496   0.07658149 -20.13 0.0004380882    1.623    0.384
       439 -10.2166    110.5495    241.3521   1.1304942543e+02   1.2200025724e+01    0.2185766    0.1595296  74.73 0.0008270388    1.445    0.308
       440  -9.6561     55.2412    241.4647   1.2255599249e+02   1.9447954530e+01     0.258586    0.1004879 -86.98  0.001312809    3.322    0.699
       441 -10.1951    197.6920    240.5847   9.7844913731e+01  -6.3218266313e-01    0.2036454    0.1247639  41.16 0.0005638676    1.381    0.276
       442  -9.3519    199.5275    237.5239   9.7111670762e+01  -5.5117740415e-01    0.1919767    0.1336329  -7.79 0.0006167602    1.668    0.401
       443  -9.9845    190.7868    239.8476   9.8910434482e+01   4.7680116278e-01    0.2373723    0.1589392 -51.70  0.001530711    2.252    0.556
       444 -10.7626    133.9134    240.8503   1.0890038768e+02   8.8818912347e+00    0.1631603    0.1326213  30.90  0.000488169    1.269    0.212
       445 -10.7418    119.4935    240.5980   1.1140772832e+02   1.1030637522e+01    0.2146777    0.1401932  57.08 0.0006491263    1.357    0.263
       446 -10.2308    120.2634    237.6568   1.1097310661e+02   1.1359150513e+01    0.1640023    0.1215812  45.31 0.0004462361    1.086    0.079
       447 -10.3315    246.4967    239.9477   8.9845996965e+01  -7.4340512465e+00    0.1461537   0.09326978 -18.66  0.001035205    1.596    0.374
       448  -9.3452    225.9941    240.0089   9.3100120701e+01  -4.6446359715e+00    0.1321526   0.09895352  18.79 0.0003717813    1.028    0.027
       449 -10.4079    137.8236    240.3658   1.0816043644e+02   8.3707221222e+00     0.147912    0.1217491  56.60 0.0005461976    1.165    0.142
       450 -10.1356    167.9040    238.4088   1.0265770348e+02   4.1022230641e+00    0.1767582    0.1576049  85.36 0.0007869606    1.530    0.347
       451  -9.9031     63.8680    238.8189   1.2092852782e+02   1.8834447198e+01    0.2038137    0.1131128  41.66  0.001333581    1.559    0.359
       452 -10.8884    144.4531    238.0927   1.0673518986e+02   7.6989485287e+00    0.2695839    0.1343295  36.99 0.0005089917    1.688    0.408
       453  -9.5486     84.0734    238.0321   1.1738480343e+02   1.6367797702e+01    0.1865678   0.09810532  61.34  0.001123802    1.723    0.419
       454  -9.6277     46.6389    238.4988   1.2381568560e+02   2.0945828774e+01    0.1314872   0.07120345  54.37 0.0008887323    1.348    0.258
       455  -9.9673     43.8947    235.8649   1.2412408820e+02   2.1701768744e+01    0.1686546    0.1204237  67.78  0.001307903    1.045    0.043
       456  -9.6809    106.0806    235.1704   1.1324880872e+02   1.3790203927e+01    0.1992174    0.1256997  41.66 0.0003783676    1.332    0.249
       457 -10.1861    100.6046    237.1957   1.1441048834e+02   1.4244148598e+01     0.161965    0.1488695  24.37  0.001253294    1.462    0.316
       458  -9.3256    102.6647    233.7942   1.1372753955e+02   1.4493818005e+01     0.151207    0.1269606  77.30 0.0006995976    1.206    0.171
       459 -10.3632    187.1477    235.8258   9.8985134140e+01   1.5075957156e+00    0.1650693    0.1352206  41.79 0.0006307389    1.225    0.184
       460  -9.4991     30.7798    236.4043   1.2632970973e+02   2.3060703546e+01    0.1261946     0.085345  39.70 0.0006813515    1.585    0.369
       461  -9.8925    249.9561    235.0025   8.8554063686e+01  -7.4253918681e+00    0.1382608    0.1261131  23.06 0.0005539533    1.625    0.385
       462  -9.6887    156.6884    233.4673   1.0400887496e+02   6.4807811014e+00    0.1612505    0.1086876 -48.80 0.0006550941    1.879    0.468
       463  -9.7965    230.1036    233.2001   9.1421374537e+01  -4.5194962341e+00    0.1701331    0.1149901  17.63 0.0003530169    1.201    0.167
       464  -9.1401    197.3087    233.6427   9.6940398216e+01   2.3613294271e-01    0.1042312   0.08563571  61.31 0.0007042112    1.730    0.422
       465 -10.3824    174.3162    232.8363   1.0081047251e+02   3.8475528675e+00    0.3025174    0.1340794  28.41  0.001401866    2.669    0.625
       466  -9.4629     74.7922    231.9784   1.1853186157e+02   1.8586044714e+01    0.2842053    0.1461229  64.00  0.001505944    1.818    0.450
       467 -11.0341     72.7677    226.1052   1.1842761940e+02   1.9850571162e+01    0.3403717    0.1413646  52.90  0.001469128    1.962    0.490
       468 -10.3162    144.1346    232.3093   1.0611163250e+02   8.5739513046e+00    0.4243491     0.111241  43.55  0.001729823    3.004    0.667
       469 -11.5347     47.5616    231.1138   1.2322085559e+02   2.2089136267e+01    0.3321009    0.1518919  69.73    0.0019325    2.068    0.516
       470  -9.2920     41.6170    232.1481   1.2429659336e+02   2.2592526513e+01    0.1419792   0.08837056 -86.32 0.0003974872    1.510    0.338
       471  -9.3680     39.5181    229.4478   1.2450022159e+02   2.3294581591e+01     0.153491   0.08838022 -83.48 0.0006292187    1.645    0.392
       472 -10.7482     29.5223    231.2508   1.2628401276e+02   2.4074001382e+01    0.2055366    0.1309311  87.67 0.0007666324    1.367    0.269
       473 -11.7124     16.2957    245.0370   1.2901334934e+02   2.3129643474e+01    0.4204764    0.2144176  77.18  0.002451664    1.560    0.359
       474  -9.2497    160.4883    236.4521   1.0370967470e+02   5.4903150427e+00    0.1162176    0.0908682  37.79 0.0001441882    1.015    0.014
       475  -9.4494    159.5853    230.5478   1.0312144594e+02   6.4385204363e+00    0.1163962   0.09374829  41.33 -5.119154e-05    1.043    0.041
       476 -10.8357    153.2711    226.8418   1.0378268825e+02   7.9511905476e+00    0.2863237    0.2328196 -49.40  0.001999884    1.526    0.345
