#   1 NUMBER                 Running object number                                     
#   2 MAG_AUTO               Kron-like elliptical aperture magnitude                    [mag]
#   3 X_IMAGE                Object position along x                                    [pixel]
#   4 Y_IMAGE                Object position along y                                    [pixel]
#   5 X_WORLD                Barycenter position along world x axis                     [deg]
#   6 Y_WORLD                Barycenter position along world y axis                     [deg]
#   7 A_WORLD                Profile RMS along major axis (world units)                 [deg]
#   8 B_WORLD                Profile RMS along minor axis (world units)                 [deg]
#   9 THETA_WORLD            Position angle (CCW/world-x)                               [deg]
#  10 FWHM_WORLD             FWHM assuming a gaussian core                              [deg]
#  11 ELONGATION             A_IMAGE/B_IMAGE                                           
#  12 ELLIPTICITY            1 - B_IMAGE/A_IMAGE                                       
         1 -11.6462    213.4868     31.0568   2.1421350765e+01   2.7096089578e+01    0.8039051    0.1940836 -39.45  0.002731762    3.234    0.691
         2  -9.7565    241.4658     32.1991   1.9110145240e+01   2.0540832913e+01     0.582697    0.4200473  50.54  0.003379841    1.648    0.393
         3 -11.8660    220.2175     27.2716   1.9764805799e+01   2.5925648274e+01    0.8185139    0.4930776 -75.35  0.003604483    1.832    0.454
         4 -11.5051    196.7232     23.0595   2.0979906317e+01   3.2184637108e+01     1.198501    0.7849028 -86.79  0.005910751    1.595    0.373
         5 -11.5437    149.1921     25.1104   2.8137221407e+01   4.4581157285e+01     0.767075     0.609444 -80.90  0.003899789    1.340    0.253
         6 -12.6211    154.7250     20.1487   2.5492240861e+01   4.3652392804e+01     1.054406    0.6192518 -34.82  0.004783864    1.723    0.419
         7 -10.8488    148.8764     15.3295   2.4698740748e+01   4.5763437488e+01    0.5911263    0.4119552 -70.13  0.002835299    1.598    0.374
         8 -12.0587    171.3341     21.3131   2.3498208195e+01   3.9035805960e+01    0.7581001    0.5598922 -44.82  0.003886618    1.346    0.257
         9 -10.7767    246.2898     17.9862   1.5386080100e+01   2.1070944622e+01    0.4156703    0.3939384 -81.39  0.002904806    1.186    0.157
        10 -11.3065    247.3978     13.0601   1.4173185473e+01   2.1349865525e+01      0.78186    0.3679451  76.81  0.003933506    2.231    0.552
        11 -12.3500    177.4526     11.7020   1.9716421316e+01   3.8420556168e+01     1.338177    0.7073373 -61.97  0.005706259    2.112    0.526
        12 -10.6947    210.8479     15.4180   1.7489563642e+01   2.9484060020e+01    0.5163321    0.3430224 -71.17  0.002715937    1.482    0.325
        13 -10.9989    201.2919     10.1991   1.6906764069e+01   3.2392949023e+01    0.6817243    0.3214906 -11.60  0.002727773    2.951    0.661
        14 -10.2845      2.5459     12.9628   8.2851573589e+01   7.5023371104e+01    0.2302405    0.1483761 -82.93   0.00131025    2.128    0.530
        15 -10.1220     20.8350     10.4115   6.8307890397e+01   7.4090746943e+01    0.3171089    0.1759377 -12.92  0.001571419    2.290    0.563
        16 -10.9323    149.3981      2.1072   1.9893487751e+01   4.6880849288e+01    0.4508955    0.2715039  87.89  0.002081944    1.686    0.407
        17 -11.3391    154.4111      4.7572   2.0183130954e+01   4.5286351744e+01    0.4946149    0.2771077  82.34  0.002149217    1.765    0.433
        18 -10.9877    159.1362      2.6163   1.8870678697e+01   4.4194764812e+01    0.5401974    0.2667081  78.32  0.002299867    1.926    0.481
        19 -11.5963    215.7582      3.7987   1.4043829003e+01   2.9459748872e+01    0.8146497    0.3484576  62.55  0.003663338    2.318    0.569
        20 -10.8764    139.8698      3.0397   2.1541810905e+01   4.9389228585e+01    0.5093406    0.3709837 -67.95  0.002599069    1.480    0.324
        21 -10.4030    185.4663      3.7191   1.6476905769e+01   3.7077164739e+01    0.4016634    0.3070215 -15.82   0.00220585    1.497    0.332
        22 -11.0107    161.7169      8.8502   2.0657117934e+01   4.2924746921e+01    0.2565339    0.1783465  61.62 0.0008668392    1.342    0.255
        23 -10.2412    192.6831      1.5367   1.5207137400e+01   3.5409721045e+01    0.4243389    0.1153797  73.08  0.001463187    3.262    0.693
        24 -11.0466    197.9402    108.2614   4.4085445010e+01   1.9557122476e+01    0.8715965     0.288717 -41.58  0.002941039    3.035    0.671
        25 -10.0583     34.3880    249.2144   1.0051219271e+02   2.0856056528e+01    0.2223121    0.1016861  58.80  0.001422299    1.672    0.402
        26 -10.6243     22.5009    111.4857   9.3823651327e+01   5.0844775082e+01    0.1288726    0.1107968 -86.16 0.0008105111    1.008    0.008
        27 -12.0304    238.8909     95.4228   3.4517443064e+01   1.2904174073e+01     1.434299    0.6456028 -41.18  0.006340373    2.091    0.522
        28 -11.5826    216.6904     96.6622   3.8045977037e+01   1.7307987113e+01    0.8296916     0.340654 -40.80  0.003271225    2.334    0.572
        29 -11.9088    248.2851     86.7157   3.1290768678e+01   1.2252936069e+01    0.9879128    0.3419165 -29.37  0.003920093    2.597    0.615
        30 -10.3238    244.8877     75.9963   2.9206130689e+01   1.4352127438e+01     0.649991    0.5425545  46.04  0.004007095    1.354    0.262
        31 -11.3615    241.4462     63.5469   2.6644434318e+01   1.6694592557e+01    0.6066289    0.2955405  83.56  0.002361786    3.611    0.723
        32 -10.9551    218.6072     75.2305   3.2387141610e+01   2.0055125562e+01    0.6562384    0.3794882 -54.61  0.002802188    2.023    0.506
        33 -10.0173    153.3190     77.6634   4.4745617514e+01   3.5471860233e+01    0.1627263     0.122596 -74.06            0    1.704    0.413
        34 -10.7129     54.5274     67.0023   7.2852701428e+01   5.8303038768e+01    0.2202258    0.1936562  24.92  0.001265471    1.213    0.175
        35 -10.0923    203.5324     65.0396   3.1864486579e+01   2.5030473742e+01    0.3673462    0.2563865 -51.89  0.001214835    1.467    0.318
        36 -10.6985    201.4204     60.1505   3.0835457926e+01   2.6244258671e+01    0.6126596    0.4028994 -56.16  0.002883043    1.646    0.393
        37  -9.6274    215.0661     64.1380   3.0007517893e+01   2.2436574503e+01    0.2194378    0.1924575  14.27   0.00123614    1.304    0.233
        38 -11.2495    247.3957     55.9564   2.4212669184e+01   1.6427184187e+01    0.9308422    0.3125187 -41.05  0.003809593    2.473    0.596
        39 -11.5148    166.3280     48.8891   3.3124187100e+01   3.6820336404e+01    0.6389977    0.4817708  49.25  0.003112601    1.337    0.252
        40 -10.9819    231.5845     46.4238   2.3515908334e+01   2.1013487579e+01    0.4916729    0.3471124  34.24   0.00260134    1.831    0.454
        41 -10.9242     16.8368     46.0152   8.4656656772e+01   6.7041499249e+01    0.3450232    0.2626217  66.02  0.002063823    1.670    0.401
        42 -10.0482    225.5827     44.2332   2.3593760404e+01   2.2644061298e+01    0.2596936    0.2395557 -23.88  0.001134904    1.147    0.128
        43 -10.0447    208.1197     45.2123   2.5846266729e+01   2.6646568373e+01    0.3354966     0.185207 -35.07  0.001536915    1.668    0.400
        44 -10.7579    201.5968     43.6782   2.6238475346e+01   2.8449999828e+01    0.4046391    0.2445597 -68.62  0.001785106    2.007    0.502
        45 -10.2649     61.9562    248.5854   9.5446500463e+01   1.7840163421e+01    0.2812345    0.1183409  42.90  0.001656701    1.636    0.389
        46 -10.5589    130.2006     37.8856   3.6628228886e+01   4.7977510508e+01    0.4871262      0.30814 -57.60  0.002056018    1.978    0.494
        47 -11.6965    225.4589    237.5377   6.4046065649e+01  -3.1550138183e+00    0.9128489    0.6700149 -58.52   0.00528986    3.809    0.737
        48 -10.4229    190.3348    242.0546   7.0724404225e+01   1.1284913501e+00    0.4128117    0.2139056  39.04  0.002479763    1.579    0.367
        49 -10.6728      6.5313    230.4149   1.0488498718e+02   2.6777190713e+01     0.231753    0.1580958  49.37  0.001664646    1.159    0.137
        50 -11.7921     13.2920    228.5329   1.0357927508e+02   2.6478412770e+01    0.4262314    0.1881354  47.57  0.002719897    1.561    0.360
        51 -11.1913    247.7485    222.8542   5.8211978316e+01  -4.5518486504e+00    0.5421442    0.3375989  11.09  0.003645327    1.294    0.227
        52  -9.2713    156.5433    225.5153   7.4833912595e+01   8.2211649058e+00    0.1231551   0.09544984  30.57 0.0001309367    1.029    0.028
        53 -11.6090    225.7550    218.1034   6.1056461801e+01  -1.1128592549e+00    0.7427058    0.5110651 -41.94  0.004793545    2.142    0.533
        54  -9.0298     18.3049    215.6653   1.0213925655e+02   2.8324114236e+01    0.1203739   0.05527055  59.09 0.0007038992    1.666    0.400
        55 -11.5664    249.9158    203.1961   5.4666244090e+01  -2.7894579055e+00    0.5494968    0.1357497 -30.85  0.002268431    4.005    0.750
        56 -11.4576     16.6009    190.8254   1.0139322024e+02   3.3315621613e+01    0.3820702    0.2382328 -46.73  0.002267783    2.431    0.589
        57  -9.6476    232.1624    189.8225   5.5228494995e+01   1.2770448797e+00    0.1758314    0.1195354   6.74   0.00108035    1.338    0.253
        58 -10.7028     35.7771    188.1580   9.6960793247e+01   3.1951701407e+01    0.3640514    0.1813662  40.31  0.002020536    1.677    0.404
        59 -10.2224    247.7615    180.2826   5.0967947100e+01   1.1137703660e-01    0.1868016   0.08402722 -19.80 0.0008962903    2.378    0.580
        60 -10.3722    222.7097    177.0118   5.4502528272e+01   4.3913167080e+00    0.4472035    0.1484372  39.64  0.001856518    2.792    0.642
        61 -11.3481    212.3316    171.1013   5.5219878212e+01   6.9334566049e+00    0.5259984    0.3454673 -54.60  0.002614075    2.536    0.606
        62 -12.7322    231.2934    142.9672   4.6268808552e+01   7.6131083698e+00     1.440065     1.046205 -75.18  0.006801545    3.048    0.672
        63 -10.0947    191.9470    139.1938   5.2488023498e+01   1.5663474790e+01    0.4436829    0.2082627  59.94    0.0014812    3.825    0.739
        64 -12.5414    246.9104    125.7744   4.0201818259e+01   7.2255939078e+00     1.471797    0.4048961 -38.90  0.005334188    3.467    0.712
        65 -10.5790    239.5648    128.9452   4.1972412154e+01   8.0951496145e+00    0.6109717    0.3459875 -51.81  0.002783051    2.637    0.621
        66 -11.1031    224.3334    113.7099   4.0915492865e+01   1.3165321619e+01    0.6614446    0.3703697  54.23  0.003131234    2.007    0.502
        67 -12.0145     70.3978    111.3533   7.7843959427e+01   4.5387450317e+01     0.491024    0.4089352  -5.53  0.002604733    1.533    0.348
