#   1 NUMBER                 Running object number                                     
#   2 MAG_AUTO               Kron-like elliptical aperture magnitude                    [mag]
#   3 X_IMAGE                Object position along x                                    [pixel]
#   4 Y_IMAGE                Object position along y                                    [pixel]
#   5 X_WORLD                Barycenter position along world x axis                     [deg]
#   6 Y_WORLD                Barycenter position along world y axis                     [deg]
#   7 A_WORLD                Profile RMS along major axis (world units)                 [deg]
#   8 B_WORLD                Profile RMS along minor axis (world units)                 [deg]
#   9 THETA_WORLD            Position angle (CCW/world-x)                               [deg]
#  10 FWHM_WORLD             FWHM assuming a gaussian core                              [deg]
#  11 ELONGATION             A_IMAGE/B_IMAGE                                           
#  12 ELLIPTICITY            1 - B_IMAGE/A_IMAGE                                       
         1 -14.1016    222.6831      3.6114   3.9631128688e+01   2.8754247098e+01     2.381391     1.017717  56.39  0.007359788    2.414    0.586
         2 -14.0195    192.0103     37.8068   5.2309207313e+01   3.2430477810e+01      1.24744      1.08864 -39.68   0.00327008    1.162    0.140
         3 -14.6158    199.9231     28.6600   4.8618102083e+01   3.1579903448e+01      1.69655     1.306916  32.11  0.001292455    1.593    0.372
         4 -10.4781     78.3920     14.5075   6.9117001676e+01   6.2396941555e+01    0.2306035    0.1867691 -84.91  0.000803275    2.158    0.537
         5  -9.8387     61.6263    219.9592   1.2060468092e+02   2.1917266868e+01     0.156838    0.1148256  89.00 0.0005520959    1.236    0.191
         6 -19.4467     14.1637    148.2927   1.2426665270e+02   4.2260339017e+01      18.3914     5.315345 -80.00   0.07261675    3.282    0.695
         7 -10.8319     44.1451    210.2202   1.2310471291e+02   2.5971292956e+01    0.3407346    0.1850776 -85.31  0.001388295    1.690    0.408
         8 -10.8450     42.2545    206.1694   1.2315337824e+02   2.6997519288e+01    0.2601633     0.225103 -50.12  0.001872038    1.698    0.411
         9 -11.1020     37.9872    211.6913   1.2436051195e+02   2.6394027747e+01    0.1620329    0.1190158  74.80 0.0003706275    1.027    0.027
        10  -9.3477     72.6737    230.7570   1.1947420411e+02   1.8446493647e+01   0.09707551   0.08672224  33.69 0.0003896223    1.532    0.347
        11 -13.1925     32.2765    206.6103   1.2506574276e+02   2.8033006323e+01    0.3530856    0.1509285  56.10  0.001451116    1.964    0.491
        12 -12.3168    194.1214    196.4018   9.0959991970e+01   4.3769668290e+00     1.260261    0.6991397 -59.65  0.005122043    3.432    0.709
        13 -12.1320    204.2525    199.9933   8.9654830342e+01   1.9958650508e+00     0.512215    0.2650081  38.11  0.002483886    1.725    0.420
        14 -16.0514     70.7656    147.0836   1.1026259517e+02   3.6381812950e+01     11.90079     5.473137  82.06    0.0274393    8.876    0.887
        15 -11.9081    130.8650    199.5087   1.0438545106e+02   1.5303721466e+01     0.240878    0.2266699  10.35 0.0009246855    1.276    0.216
        16  -9.7674     30.5010    218.0042   1.2613627010e+02   2.6006436704e+01    0.2324368    0.1810979 -22.84  0.001494779    2.780    0.640
        17  -9.6381     58.0854    226.9022   1.2181007376e+02   2.1067398515e+01     0.125789   0.09181058  82.79  0.000492111    1.184    0.156
        18 -10.0559    159.8921    197.1402   9.7969911170e+01   1.0536897214e+01    0.1972882    0.1716506  61.41 0.0003557962    1.200    0.166
        19 -12.4678     28.4959    196.5865   1.2507960733e+02   3.0461187898e+01      0.20028    0.1508323  75.44 0.0007758632    1.023    0.022
        20 -11.1736     96.8093    201.0161   1.1171529851e+02   2.0632885213e+01    0.4015576    0.2932334 -35.92  0.001577837    2.077    0.519
        21 -10.1435     82.1622    194.9554   1.1405583366e+02   2.4075672981e+01    0.2255562    0.1675148  53.79  0.001244201    1.193    0.162
        22 -13.4737     64.0372    189.2940   1.1724936334e+02   2.7787100466e+01    0.7225771    0.6648601 -53.79  0.004484468    1.439    0.305
        23 -11.1903     97.0126    191.5838   1.1047750214e+02   2.2525513532e+01    0.2746308    0.2487991  34.81 0.0009666339    1.311    0.237
        24  -9.6208     49.9151    216.8459   1.2253304779e+02   2.3986678013e+01    0.3607136    0.2653279   3.05  0.002053192    3.055    0.673
        25 -10.4978     72.8997    204.7819   1.1702717842e+02   2.3381549796e+01    0.3790137     0.259536 -88.27   0.00230548    1.392    0.282
        26 -13.0037    114.5702    184.8286   1.0569607586e+02   2.1048241163e+01    0.7406449    0.5004641 -35.11  0.003658959    2.110    0.526
        27 -10.4206    154.1217    185.6105   9.7213636946e+01   1.3736534984e+01    0.2584678     0.190665 -83.01  0.001121361    1.904    0.475
        28 -11.8057    148.0915    185.5897   9.8501206875e+01   1.4871137842e+01    0.4727456    0.2624318  62.40  0.001888873    2.523    0.604
        29 -10.9363     99.4710    180.7236   1.0844844916e+02   2.4426752957e+01    0.2476361    0.2179994  63.35 0.0005787855    1.051    0.049
        30  -9.7814    204.5052    176.5327   8.5151676907e+01   5.6937573566e+00    0.2872961    0.1347521 -39.41  0.001225442    2.225    0.551
        31 -12.2815     76.4914    174.8043   1.1282182474e+02   2.9225075014e+01    0.3975168    0.2922132 -38.30  0.002175749    1.918    0.479
        32 -12.2516     80.1259    170.0887   1.1135835089e+02   2.9750010024e+01    0.3159122    0.2688005 -52.96  0.001747935    1.357    0.263
        33 -10.6798     58.7743    176.5090   1.1699781611e+02   3.1241847754e+01    0.2222276    0.1826053  82.14 0.0003781832    1.007    0.007
        34 -11.9099     66.9577    206.6189   1.1839184631e+02   2.3820620913e+01    0.5212247    0.3899648  32.76  0.003306267    1.631    0.387
        35 -10.6675     64.9524    173.4292   1.1526084378e+02   3.1122011787e+01    0.4005293    0.1723962  64.85    0.0015096    3.317    0.699
        36  -9.6259    185.4593    168.9901   8.7449200485e+01   1.0731935966e+01    0.2170343    0.1414061 -40.79 0.0007735733    1.614    0.380
        37 -10.4181    230.4804    166.9676   7.8321736269e+01   2.3536047092e+00     0.188214    0.1133076 -54.68 0.0008102182    2.635    0.620
        38  -9.9117    162.0409    167.0446   9.2039840453e+01   1.5796900596e+01      0.21645    0.2051428  54.13    0.0004259    1.055    0.052
        39 -10.8385     46.2143    173.1420   1.1940956413e+02   3.3513316582e+01     0.353294    0.2079216  38.28  0.001730754    1.785    0.440
        40 -10.0560    156.7701    160.5422   9.1901800169e+01   1.8159239720e+01    0.2053432    0.1352101  54.93 0.0007962208    1.599    0.375
        41 -12.5390     93.8780    154.1032   1.0561424061e+02   3.1269849106e+01    0.6497973    0.4626469 -27.54  0.003106769    2.133    0.531
        42 -10.4728    189.2208    154.4032   8.3597278189e+01   1.2654416147e+01    0.2126212    0.1377167  54.39 0.0009556208    1.701    0.412
        43 -11.4968    133.8638    145.2096   9.4060229578e+01   2.6033114458e+01      1.16813    0.3169755 -55.44  0.002919303    5.417    0.815
        44 -10.6863    174.3950    148.5884   8.5459679288e+01   1.6893386313e+01    0.3494618    0.2617605 -78.06  0.001443312    1.930    0.482
        45 -10.5272    143.6087    145.8227   9.1854497632e+01   2.3929665657e+01    0.2181494    0.1425257 -59.95 0.0009535056    1.729    0.422
        46 -11.3743    106.3816    139.2562   9.9709204377e+01   3.2585269768e+01    0.5738225    0.3323882 -36.14  0.002355622    2.319    0.569
        47 -12.4457     93.8375    139.5154   1.0301181637e+02   3.4672463600e+01    0.2810168    0.2489371 -56.31 0.0003977728    1.143    0.125
        48  -9.4638    110.5364    140.5254   9.8899386989e+01   3.1545388117e+01    0.1484616    0.1363571  86.15 0.0001102027    1.055    0.053
        49 -11.3675    135.6773    127.8690   8.9736516047e+01   2.9501416129e+01      0.86008    0.2051548 -50.91  0.002159805    4.863    0.794
        50 -10.9186    105.9552    130.8200   9.8074715146e+01   3.4622527273e+01       0.3587    0.3078112 -76.22  0.001201779    1.167    0.143
        51 -11.1253    114.0375    130.1032   9.5791787282e+01   3.3300446438e+01    0.3429817    0.3054259 -11.48  0.001062984    1.355    0.262
        52  -9.9554    160.8605    127.7566   8.3650854963e+01   2.4080214083e+01    0.3075089    0.2085022 -70.28  0.001248237    2.116    0.527
        53 -11.0743    101.3770    126.1306   9.8291051423e+01   3.6531979346e+01    0.3006254    0.2355435 -33.10 0.0008273832    1.485    0.327
        54 -11.0987    119.8370    123.4960   9.2766921933e+01   3.3698199202e+01     0.592715    0.3457558 -21.10  0.001915296    3.775    0.735
        55 -10.1421    109.4653    119.1160   9.4510727408e+01   3.6694857312e+01    0.2348854    0.2064143  46.85 0.0001276461    1.173    0.147
        56 -10.1305    167.6323    112.5379   7.8263502870e+01   2.5667613247e+01    0.3883423    0.2573976 -70.43  0.001509849    2.292    0.564
        57  -9.9776    135.0000    112.9615   8.6228244855e+01   3.2931964424e+01    0.2613019    0.0877118 -45.51 0.0008027889    2.945    0.660
        58 -11.5405    118.6835    110.0606   8.9781953694e+01   3.6971653944e+01    0.6150653    0.4120569  55.18  0.002749959    1.647    0.393
        59 -10.1465    205.6051    110.1181   6.9816706550e+01   1.7271078373e+01     0.278509    0.2197203  42.88  0.000635113    1.312    0.238
        60  -9.9141    134.6579    105.4985   8.4351643510e+01   3.4628753032e+01    0.2818727    0.1443972 -44.61  0.001079846    1.924    0.480
        61 -10.2733     65.0113     99.9550   1.0303656031e+02   4.8351360824e+01    0.2691294    0.1959669  32.98  0.001122401    1.551    0.355
        62 -11.6027     52.8805     90.7770   1.0482310975e+02   5.1996301594e+01    0.3382629    0.1938588 -52.84  0.001700582    1.483    0.326
        63 -11.4021     41.9737     91.7258   1.0859891297e+02   5.2959343415e+01    0.2528279    0.2261593 -72.71 0.0008033162    1.107    0.097
        64  -9.6513     37.1455    225.0576   1.2540919332e+02   2.3933737013e+01    0.1473308    0.1198239  81.25 0.0005058328    1.207    0.172
        65  -8.9745    155.6718     80.7075   7.2090779016e+01   3.4791193811e+01     0.159928    0.1232059  16.93 0.0003946146    1.624    0.384
        66  -8.9180    184.3507     77.2993   6.5038400370e+01   2.8282448163e+01    0.1604659     0.120206  22.31 0.0007036857    1.691    0.409
        67 -10.0904     65.7280     70.7008   9.5176569387e+01   5.4833823485e+01    0.2573584    0.1807433  44.34  0.001361723    1.665    0.399
        68 -11.1890    157.8685     59.8691   6.5182005391e+01   3.7935755035e+01     0.361044    0.2730239 -82.02 0.0004474998    1.698    0.411
        69 -11.6311     61.8714    235.3107   1.2177338720e+02   1.9053147933e+01    0.1952221     0.138744  85.86 0.0003398994    1.274    0.215
        70 -13.8761    180.7494     47.3191   5.6903895943e+01   3.4013050927e+01     1.272967     1.024278  33.26 0.0008914749    1.399    0.285
        71 -10.2058     55.0866    210.1920   1.2102462870e+02   2.4647160070e+01    0.6832871    0.2506271  53.10  0.003275756    2.366    0.577
        72 -11.4490     49.9680    234.2758   1.2378122765e+02   2.0730405581e+01    0.2137048    0.1242067  66.70 0.0004098158    1.383    0.277
        73 -10.6240    189.7319     15.0048   4.6055516728e+01   3.5778764418e+01    0.2434701    0.1927141  76.12 0.0006594643    1.165    0.142
        74 -10.6537     53.8584    231.3887   1.2289864225e+02   2.0774354315e+01    0.2071174    0.1291345  85.56 0.0009682607    1.447    0.309
        75 -10.6166    160.1700     53.8069   6.2776995232e+01   3.8328421739e+01    0.2463238    0.2343571  89.76 0.0004153552    1.078    0.072
        76 -13.5868     54.8192    202.1063   1.2037762497e+02   2.6303597466e+01    0.4999151    0.4244559  66.93  0.001807991    1.161    0.139
