#   1 NUMBER                 Running object number                                     
#   2 MAG_AUTO               Kron-like elliptical aperture magnitude                    [mag]
#   3 X_IMAGE                Object position along x                                    [pixel]
#   4 Y_IMAGE                Object position along y                                    [pixel]
#   5 X_WORLD                Barycenter position along world x axis                     [deg]
#   6 Y_WORLD                Barycenter position along world y axis                     [deg]
#   7 A_WORLD                Profile RMS along major axis (world units)                 [deg]
#   8 B_WORLD                Profile RMS along minor axis (world units)                 [deg]
#   9 THETA_WORLD            Position angle (CCW/world-x)                               [deg]
#  10 FWHM_WORLD             FWHM assuming a gaussian core                              [deg]
#  11 ELONGATION             A_IMAGE/B_IMAGE                                           
#  12 ELLIPTICITY            1 - B_IMAGE/A_IMAGE                                       
         1 -13.6773    231.8108     28.1221   3.5459087494e+02   2.7449067435e+01     0.932341    0.5302282 -34.02  0.005007358    1.879    0.468
         2 -12.8654    225.8419     27.6208   3.5486971259e+02   2.8537030102e+01    0.6663945    0.2786187 -39.88  0.003394436    1.981    0.495
         3 -12.4677     35.0746     15.5236   2.8558686098e+01   7.1487336089e+01    0.5565538    0.2508023  45.40  0.002620495    1.921    0.479
         4 -11.9622    243.8388     11.6074   3.5100595420e+02   2.7281727697e+01    0.2209495    0.1346493 -45.92  0.001655507    1.327    0.246
         5 -11.6527    235.6086      4.2279   3.5006998836e+02   2.9422312652e+01    0.3862685    0.1470326 -38.61  0.002307518    2.133    0.531
         6 -10.4154     60.0476      2.4826   1.0684069168e+01   6.7880992232e+01    0.2051072    0.1046815  60.96  0.001035177    1.599    0.374
         7 -10.8160     39.9268      2.1920   1.8571623982e+01   7.2233326267e+01    0.3795683    0.1005099  46.70  0.001434727    3.067    0.674
         8  -9.7943     46.5552    229.4672   6.8340346341e+01   1.9314495087e+01    0.3237687    0.2014243   8.54  0.001466128    1.779    0.438
         9 -14.2791    122.1437    233.7007   5.0082439863e+01   9.7121644159e+00     4.889891     4.185285 -70.91   0.03146976    1.531    0.347
        10 -15.4106     65.4728    149.0083   5.3800868104e+01   3.6741968475e+01     4.525397     3.049181 -86.08   0.01664462    1.767    0.434
        11 -10.4019    175.2350    179.7813   3.0716212275e+01   1.2860103307e+01    0.3016806    0.2219014  28.15   0.00139172    1.403    0.287
        12 -11.2944    179.6305    168.5912   2.7962686166e+01   1.4270296089e+01    0.6538031    0.4810279 -39.67  0.003920152    1.242    0.195
        13 -10.9241    171.8013    175.4561   3.0647021174e+01   1.4133006698e+01    0.3491291     0.280026 -50.39 0.0007435363    1.292    0.226
        14 -10.3089    173.9381    172.0738   2.9648506540e+01   1.4451294194e+01    0.3892905    0.2577741 -72.92  0.001723812    2.649    0.623
        15 -18.7561     12.7562    195.0180   7.5383958721e+01   3.0633048232e+01     13.60827     3.616133 -81.76   0.04481224    4.039    0.752
        16 -12.8201    112.9194    170.5940   4.3277857390e+01   2.4120608185e+01    0.9719053    0.6152671  59.25  0.004278104    2.055    0.513
        17 -11.5324    104.9143    171.9261   4.5643917641e+01   2.5063010337e+01    0.4699559    0.3338275  42.88  0.001846169    1.368    0.269
        18  -9.7478    229.7038    166.3410   1.9479553733e+01   8.0931607893e+00    0.1045015   0.08029845 -60.51 0.0002992537    1.661    0.398
        19  -9.1520     45.8033    158.8913   6.1823121362e+01   3.6711660677e+01    0.2185571    0.1933381 -51.80 0.0007231281    1.213    0.176
        20 -11.6007    133.6824    145.1219   3.3323921338e+01   2.6328901287e+01     1.141178    0.3157733 -56.64  0.002968532    5.471    0.817
        21 -11.2690     12.4477    250.7779   7.7940359028e+01   1.8068673782e+01    0.1998983   0.08440077  22.62 0.0006630544    2.008    0.502
        22 -10.8139     84.4430    149.6302   4.7792365050e+01   3.3699835812e+01    0.2695276    0.2625568  12.95 0.0004250242    1.072    0.067
        23  -8.8824    234.4219    191.1959   2.2732065112e+01   3.8925155126e+00    0.1418925    0.0862064 -45.72 0.0004665642    1.592    0.372
        24 -12.2914     90.9673    144.2194   4.4797680253e+01   3.3980493583e+01    0.7481163    0.5759228 -42.33  0.003654481    1.410    0.291
        25  -9.7735    165.0250    227.0215   3.9998557996e+01   5.8793693430e+00    0.1842948    0.1528356   2.40 0.0005062049    1.027    0.026
        26  -9.1355    167.3149    134.6684   2.3966432313e+01   2.2555615293e+01     0.205617    0.1537039 -80.44  0.001072981    1.779    0.438
        27 -11.3589    104.0920    133.0086   3.8671213485e+01   3.4399635952e+01    0.5729437    0.3838324 -16.42  0.002301432    2.465    0.594
        28 -11.7093     91.8644    131.5215   4.2026198941e+01   3.6946281910e+01    0.3089193    0.2843775  34.28 0.0003291247    1.084    0.078
        29 -10.3092    136.0000    130.3829   2.9756013240e+01   2.9068133954e+01     0.472387   0.08005905 -49.06  0.001144911    5.821    0.828
        30 -11.1466    112.6751    125.7205   3.4695987357e+01   3.4497300257e+01    0.3961156    0.2967762 -35.74  0.001278138    1.525    0.344
        31  -9.4470    161.1872    126.6088   2.3522961046e+01   2.5187377401e+01    0.1902858    0.1287565  34.79 0.0009589654    1.729    0.422
        32 -10.4805    135.0000    121.4034   2.8054687932e+01   3.1153503847e+01    0.4836915   0.08033855 -48.24  0.001157329    5.945    0.832
        33 -10.5701    100.1538    120.8621   3.7213042608e+01   3.7988704848e+01    0.3753164    0.2789217  10.48 0.0007720388    1.846    0.458
        34  -9.0860    104.5794    121.5097   3.6053966581e+01   3.7000812877e+01    0.2274592    0.1840095  53.99  8.95961e-05    1.222    0.182
        35 -10.9034     76.4966    120.5832   4.4763989119e+01   4.2322415308e+01    0.3206549    0.2448193  45.63  0.001126792    1.258    0.205
        36 -10.1849    108.5075    115.9842   3.3675399648e+01   3.7509506633e+01    0.2768463    0.2174688  44.48 0.0002434942    1.243    0.196
        37 -11.8387    115.4372    108.7973   3.0078579102e+01   3.7725156380e+01    0.4366425    0.3424877 -75.07  0.002177017    1.418    0.295
        38  -9.5375    102.1673    107.8232   3.3585388874e+01   4.0601562038e+01    0.2287147    0.1953754  75.63 0.0004291412    1.226    0.184
        39 -10.6064    134.3396    105.0791   2.4487854178e+01   3.4650807364e+01    0.4506896    0.1267508 -50.44  0.001365644    3.800    0.737
        40 -11.6578    119.4945    104.6819   2.8019702540e+01   3.7780082977e+01    0.3020993     0.279486  68.27  0.001676728    1.038    0.036
        41 -11.6180    116.2808    100.7534   2.7896908391e+01   3.9273008304e+01    0.2959141    0.2539341  46.54  0.001574342    1.175    0.149
        42  -9.7763     66.4285     96.5340   4.2898971964e+01   4.9966912433e+01    0.2506276    0.1761101 -36.34 0.0001002646    1.680    0.405
        43  -9.5444     67.7496     93.6177   4.1653373563e+01   5.0430744453e+01    0.2782182    0.1837315  60.97 0.0004336781    1.792    0.442
        44  -8.9964     64.2674     91.6255   4.2496492037e+01   5.1510672091e+01     0.200175    0.1404995  27.10 0.0003911461    1.486    0.327
        45 -10.4061     89.0171    221.4407   5.6631156770e+01   1.6172228387e+01     0.313907    0.2272301  16.40  0.001016164    1.301    0.231
        46  -9.1388     37.3022    224.2861   7.0392934673e+01   2.1412417929e+01    0.1242912   0.09879823 -19.88 0.0004352931    1.559    0.358
        47  -9.8246    210.9780    198.8113   2.7469828043e+01   5.2512328936e+00    0.1848408    0.1365472 -30.20 0.0004633954    1.133    0.117
        48 -12.0351     36.3707     86.3550   5.3318305782e+01   5.7005407969e+01    0.5360721    0.2547357 -58.85  0.002190047    2.087    0.521
        49  -9.0100     86.6030     79.8790   3.1098888917e+01   4.9869394230e+01    0.1989876    0.1395247 -67.05 0.0003889763    1.673    0.402
        50 -10.2866    184.6777     77.0316   8.9529035984e+00   2.9477507346e+01    0.1854497    0.1448176 -53.83  0.000546605    1.127    0.113
        51  -9.1132     36.7062    198.3985   6.8653335120e+01   2.7557404056e+01    0.3010297    0.1761144  69.01  0.001394431    1.868    0.465
        52 -12.6369    182.9200     65.1175   6.5697109097e+00   3.1652539515e+01    0.4503598    0.3847982 -60.99 0.0007729345    1.097    0.088
        53  -9.1549    194.0726    222.5174   3.3881611263e+01   3.4253582650e+00    0.1650618    0.1258189 -25.84 0.0003037289    1.150    0.131
        54 -12.7347    205.8767     47.9949   4.1070918830e-01   2.9619069160e+01    0.4790121    0.4021987 -79.91  0.001716165    1.154    0.133
        55 -13.9017    199.7265     53.0713   2.0543235547e+00   3.0096473246e+01    0.9713475    0.8477814  57.30  0.003916867    1.508    0.337
        56  -8.6567     71.5690    222.7500   6.1258417926e+01   1.7993404649e+01    0.2044111    0.1213446 -53.52  0.001018081    1.902    0.474
        57  -8.9965     51.6137    245.5977   6.8216373454e+01   1.5393738787e+01    0.1231599    0.1062755  11.57 0.0007839341    1.206    0.171
        58  -9.9369     97.3923    182.2151   4.9314257573e+01   2.3796968414e+01    0.1949612    0.1421428 -77.09 0.0009485948    1.659    0.397
        59 -11.4262     39.4519    193.7999   6.7466185058e+01   2.8405106771e+01    0.5531083    0.3958876  32.99  0.001686258    1.240    0.193
        60  -9.5340     46.0178    189.9647   6.5166828252e+01   2.8644079881e+01    0.3054775    0.1581717  68.58  0.001192223    2.414    0.586
        61 -11.1254     61.1499     22.2909   1.9632657504e+01   6.5347070343e+01    0.3635704    0.2728314 -70.74  0.001523731    1.756    0.431
        62 -11.6984     47.0102     19.1557   2.4197378112e+01   6.8710545650e+01    0.5703194    0.2369869  56.17  0.002334764    2.579    0.612
        63 -11.0393    152.4432    237.5743   4.3978728654e+01   5.5365176086e+00    0.2336772     0.178645  -4.60 0.0006925262    1.174    0.148
        64  -8.9626    189.4727     15.4575   3.5489970989e+02   3.6799595016e+01     0.118436   0.08803861 -70.80 0.0001167848    1.014    0.014
        65 -10.0953     46.4713    236.6844   6.8875905148e+01   1.7772457794e+01    0.1348997    0.1253753 -47.37 0.0004412986    1.301    0.232
        66 -10.9459     56.2625    235.7160   6.6329778157e+01   1.6943017553e+01    0.1914279    0.1576876  48.09 0.0005421544    1.135    0.119
        67  -7.2912     52.6544    233.7678   6.7095134829e+01   1.7742178652e+01    0.2154286     0.110827  13.72 0.0006676505    2.072    0.517
