#   1 NUMBER                 Running object number                                     
#   2 MAG_AUTO               Kron-like elliptical aperture magnitude                    [mag]
#   3 X_IMAGE                Object position along x                                    [pixel]
#   4 Y_IMAGE                Object position along y                                    [pixel]
#   5 X_WORLD                Barycenter position along world x axis                     [deg]
#   6 Y_WORLD                Barycenter position along world y axis                     [deg]
#   7 A_WORLD                Profile RMS along major axis (world units)                 [deg]
#   8 B_WORLD                Profile RMS along minor axis (world units)                 [deg]
#   9 THETA_WORLD            Position angle (CCW/world-x)                               [deg]
#  10 FWHM_WORLD             FWHM assuming a gaussian core                              [deg]
#  11 ELONGATION             A_IMAGE/B_IMAGE                                           
#  12 ELLIPTICITY            1 - B_IMAGE/A_IMAGE                                       
         1  99.0000    191.5051     54.2561   8.2515633038e+01   3.0308792714e+01      3.32015      1.73513 -72.11  0.009696869    4.472    0.776
         2 -16.4288    160.9712     49.1906   8.6544025784e+01   3.8926158795e+01     17.02425     5.775632 -49.09   0.04426723    5.035    0.801
         3 -17.3327    215.1423     11.0044   6.6747363218e+01   2.9586028064e+01     11.63083          nan  64.10   0.02854657    6.325    0.842
         4 -14.5978    228.5514     35.0314   7.1796763231e+01   2.3467142719e+01     3.126354    0.8820831 -40.53   0.01059241    3.095    0.677
         5 -18.0096    248.7758     91.0541   8.3669969929e+01   1.0944229427e+01     14.93087     1.938037 -31.72   0.03471205    6.381    0.843
         6 -13.6210    111.4927     15.5064   8.5096343009e+01   5.5315507101e+01    0.5615078    0.3462128  50.34  0.002810059    1.536    0.349
         7 -12.6380    113.6393      6.2405   8.0712885292e+01   5.5790696906e+01    0.3925633    0.2315276 -35.29  0.001930507    1.837    0.456
         8 -12.6792    106.1446      5.1993   8.2020031406e+01   5.7574913282e+01    0.6069495    0.1965877 -24.12  0.002317283    2.979    0.664
         9  -9.7448    183.3196      5.2708   6.8647214241e+01   3.8383766940e+01    0.1441409   0.09670936  42.04 0.0006969667    1.565    0.361
        10 -14.5659     64.8564    172.3027   1.3856480544e+02   3.2140359724e+01     1.018876    0.8129819  43.34   0.00263266    1.401    0.286
        11 -12.6939    160.4348    128.3546   1.0935440412e+02   2.4644292156e+01    0.3985187    0.3709427 -60.13  0.001539159    1.117    0.105
        12 -11.3978    134.9532    120.7518   1.1340171446e+02   3.1589953096e+01    0.5281891    0.1749732 -46.50   0.00172305    2.997    0.666
        13  -9.8054     31.1960    121.0768   1.3993390475e+02   4.7046933303e+01    0.1528672    0.1130129  86.15 0.0002728045    1.240    0.194
        14 -13.4099    167.2588    113.8309   1.0427770993e+02   2.5953385074e+01    0.5114418    0.4706665 -40.91  0.001846889    1.091    0.083
        15 -12.2565    134.5731    107.9965   1.1033270415e+02   3.4334867985e+01     1.058628    0.2337523 -45.19  0.002809203    4.447    0.775
        16 -13.9899    160.9736     64.3787   9.1453989464e+01   3.6523153466e+01     1.053408    0.5462383  40.62   0.00177807    2.144    0.534
        17 -14.0930    179.3831     65.9534   8.8230282988e+01   3.1620364944e+01     1.839085    0.9020823  26.49   0.00507135    4.709    0.788
        18 -10.5848    138.8535    103.1565   1.0801803837e+02   3.4420364852e+01    0.2086369    0.1825087   4.59 0.0005460232    1.323    0.244
        19 -11.7269    120.5564    102.7485   1.1249167659e+02   3.8306445640e+01    0.2967015    0.1389948 -41.93  0.001142299    2.137    0.532
        20 -11.7774    143.9783     98.4352   1.0550114846e+02   3.4250948058e+01    0.3708191     0.307319 -15.96 0.0006398411    1.371    0.270
        21 -10.2466    111.6697    103.6960   1.1505071226e+02   3.9823175338e+01    0.1453242    0.1161613  -8.68 0.0005161255    1.654    0.395
        22 -12.0952    160.6242     97.4879   1.0138511784e+02   3.0630533308e+01    0.4751352    0.2772348 -24.40  0.001459897    2.164    0.538
        23 -12.3304    216.4536     94.9633   8.9716085763e+01   1.7709196533e+01    0.5665517     0.295787  30.77   0.00204031    2.819    0.645
        24 -10.7393    212.5106     92.5116   8.9745139782e+01   1.9043727037e+01    0.3222512    0.2042717 -42.54 0.0007822906    1.571    0.363
        25 -12.9067    152.6616     91.0760   1.0138793618e+02   3.3717697912e+01    0.7122107     0.477735  33.89  0.003112313    1.696    0.411
        26 -14.3615    162.7046     81.2497   9.6258117314e+01   3.3161450511e+01     1.296271    0.9747979 -36.92  0.006136273    1.311    0.237
        27 -10.9404    131.1437     95.2442   1.0776863385e+02   3.7692873946e+01    0.2733562     0.208938 -49.14  0.000251106    1.293    0.227
        28  -9.8331    113.3435     95.2599   1.1239376519e+02   4.1308561174e+01     0.143483    0.1159613   1.70 0.0002796058    1.593    0.372
        29 -11.2561    172.7907    150.3753   1.1165348699e+02   1.7810319788e+01    0.2096283     0.128649  37.99 0.0006009624    1.637    0.389
        30 -11.8831    136.7366     87.7233   1.0422837922e+02   3.7990439974e+01    0.3390644    0.3027542 -77.88 0.0007380947    1.262    0.208
        31 -11.4629    219.7291     89.2887   8.7671382448e+01   1.7843287115e+01    0.3099082    0.2829669 -74.12  0.001567925    1.225    0.184
        32 -12.8383    148.7966     80.5843   9.9201794707e+01   3.6608627241e+01    0.3784909     0.287147 -37.42  0.001045638    1.295    0.228
        33 -10.6013    207.9446     77.4942   8.6445460359e+01   2.2573341547e+01     0.458841    0.2141241 -16.94   0.00145019    3.415    0.707
        34  -9.7090    142.5693     79.5090   1.0035393202e+02   3.8258513622e+01    0.1524429    0.1471744 -21.26 3.488474e-05    1.014    0.013
        35 -12.0795    130.9891     65.0631   9.8638912425e+01   4.3563803740e+01    0.4209315    0.2275942 -36.57  0.001433475    1.799    0.444
        36 -14.9698     11.6640    207.9628   1.5128904078e+02   3.1080580869e+01      1.53928     0.780426  62.30   0.01074307    1.511    0.338
        37 -10.4565    225.8419     62.0978   7.9444812386e+01   2.0494028706e+01    0.2283809    0.1990447  72.31 0.0005137312    1.213    0.176
        38  -9.9561    221.6047     60.2582   7.9549749088e+01   2.1798483076e+01    0.1529371     0.108994 -70.73 0.0006965208    1.702    0.412
        39 -10.0062    169.0153    227.5339   1.2563965887e+02   5.9416426521e+00    0.1715679   0.08721198  58.87  0.000809073    2.524    0.604
        40 -11.4657    123.7528     53.9313   9.6712435012e+01   4.7125333945e+01    0.3292301    0.2145858  72.50  0.001323694    2.295    0.564
        41 -12.9369     76.8600     51.6116   1.0976731498e+02   5.6574715261e+01    0.4242483     0.286929  -3.13  0.002082961    1.991    0.498
        42 -11.9915    203.2867     50.1185   7.9402753619e+01   2.7864368037e+01    0.4474195    0.2581951  49.55 0.0008058869    1.769    0.435
        43 -13.2532    205.1239     43.7189   7.7269725375e+01   2.8270551800e+01     0.755244    0.4490045  66.55  0.002962099    1.717    0.418
        44 -12.1650    177.2811     45.3544   8.2225228071e+01   3.5281788287e+01    0.6201516    0.3316177 -30.00   0.00190384    1.864    0.464
        45 -11.7011    178.6395     41.3671   8.0725968215e+01   3.5479929309e+01    0.4551347    0.2830377 -69.24  0.001821753    2.273    0.560
        46 -10.5759    222.0755     52.6502   7.7399546504e+01   2.2755661639e+01    0.2194601    0.1673602 -84.48 0.0005976636    1.501    0.334
        47 -12.2317    189.6776     42.3277   7.9202167640e+01   3.2467239950e+01    0.6539937    0.2817771 -37.18  0.002481711    2.221    0.550
        48 -10.5827    187.3340     37.7543   7.8169003654e+01   3.3688100657e+01    0.1924721    0.1447373  -9.10 0.0002105284    1.511    0.338
        49 -11.2920    215.2531     41.2173   7.5149378006e+01   2.6011029856e+01    0.2150059    0.1878261 -15.95 0.0003652234    1.214    0.176
        50 -12.5207     67.8885    144.3802   1.3426489399e+02   3.7727768285e+01    0.6178603    0.3374057  67.14  0.002635696    2.257    0.557
        51 -10.9121    214.8367     35.3994   7.3570070932e+01   2.6863361113e+01    0.4572546    0.1367096 -40.78  0.001518636    3.074    0.675
        52 -10.7729    196.2953     35.0049   7.5979582384e+01   3.1699227714e+01    0.2595205    0.2094628  57.81 0.0005221085    1.222    0.181
        53 -13.1791    201.0525     32.6161   7.4598089219e+01   3.0760007757e+01    0.5519328    0.3475889 -34.15  0.002154455    1.551    0.355
        54 -10.9120    206.5625     33.3728   7.4072655578e+01   2.9238635672e+01     0.252125    0.1894244 -57.51  0.001195167    1.378    0.274
        55 -10.1792    217.6300     31.8454   7.2228749223e+01   2.6595207571e+01    0.1925491    0.1204731 -40.98 0.0004292788    1.523    0.343
        56 -10.8052    167.7658     28.8950   7.8538632242e+01   3.9930737123e+01    0.3406651    0.1753334 -34.67  0.001292551    1.930    0.482
        57 -11.8164    211.8871     27.5894   7.1738656320e+01   2.8572673954e+01    0.4951819    0.2508029 -45.18  0.001457324    1.960    0.490
        58 -10.2593    178.9097     26.7081   7.6015537810e+01   3.7276565345e+01    0.1856931    0.1738011  69.69 0.0002117578    1.038    0.037
        59 -12.7637    101.5598     22.1172   9.0464818301e+01   5.6674602587e+01    0.3535666    0.2425346  -4.68  0.001390442    1.539    0.350
        60 -14.0313     58.3178    178.5124   1.4057558957e+02   3.1695679396e+01    0.5406795    0.5230083 -58.91  0.001228853    1.461    0.316
        61 -15.2904     33.3459    200.1336   1.4713438714e+02   3.0341965703e+01     0.829209    0.6117143  72.26  0.003662864    1.052    0.049
        62 -11.5976    193.8049    197.0050   1.1647796410e+02   5.9615371040e+00    0.4324253    0.2325961 -62.01  0.001591932    4.736    0.789
        63 -10.8353    159.8786    138.5255   1.1181201986e+02   2.2771448298e+01      0.33029     0.227045  71.16  0.000972876    1.954    0.488
        64  -9.8248    101.4685    138.4304   1.2526209339e+02   3.4016980949e+01    0.1356444    0.1265239 -85.95 0.0001430024    1.039    0.037
        65 -11.1621    135.7790    129.9258   1.1532680479e+02   2.9502239160e+01    0.3565008     0.118781 -49.12  0.001173926    3.069    0.674
        66 -14.8296     69.0430    166.0782   1.3694026291e+02   3.2890120986e+01     1.513692     1.212846 -11.91  0.001896207    2.206    0.547
