#   1 NUMBER                 Running object number                                     
#   2 MAG_AUTO               Kron-like elliptical aperture magnitude                    [mag]
#   3 X_IMAGE                Object position along x                                    [pixel]
#   4 Y_IMAGE                Object position along y                                    [pixel]
#   5 X_WORLD                Barycenter position along world x axis                     [deg]
#   6 Y_WORLD                Barycenter position along world y axis                     [deg]
#   7 A_WORLD                Profile RMS along major axis (world units)                 [deg]
#   8 B_WORLD                Profile RMS along minor axis (world units)                 [deg]
#   9 THETA_WORLD            Position angle (CCW/world-x)                               [deg]
#  10 FWHM_WORLD             FWHM assuming a gaussian core                              [deg]
#  11 ELONGATION             A_IMAGE/B_IMAGE                                           
#  12 ELLIPTICITY            1 - B_IMAGE/A_IMAGE                                       
         1 -15.2093    137.3172     73.8456   9.2850939468e+01   4.0471290598e+01     2.504127     1.760687  26.33   0.01147249    1.714    0.417
         2 -16.3127    140.3142    102.8559   1.0040584681e+02   3.4139117774e+01     3.993917     2.987626  74.24   0.01804716    1.685    0.407
         3 -14.2903    186.0540    112.7445   9.2598335734e+01   2.1403973456e+01      1.48568     1.218319  32.84  0.007209911    1.361    0.265
         4 -15.0302     25.7242     88.7321   1.3034600002e+02   5.5031194365e+01     3.704781     2.024491 -70.85   0.01956903    1.914    0.478
         5 -13.6810    102.6841     69.0309   1.0063334037e+02   4.8643368661e+01     1.534385    0.8313434  33.73   0.00668395    2.041    0.510
         6 -15.5887     67.3052     47.2887   1.0454958239e+02   5.8365609529e+01      2.42041     1.879905  31.33   0.01499064    1.343    0.255
         7 -12.4331    249.6915     47.4750   6.6686250007e+01   1.7567525559e+01    0.7445291    0.2319458 -38.12  0.002873769    2.856    0.650
         8 -12.5371    123.5056     41.2375   8.5925192588e+01   4.8751376576e+01    0.4430731    0.3491344  11.01  0.002422485    1.389    0.280
         9 -14.0118     83.0833     49.8178   1.0023404196e+02   5.5456334129e+01     1.062476    0.7310426 -32.18  0.005891792    1.386    0.279
        10 -13.5652    177.6240     12.6997   6.7103247380e+01   3.9184632094e+01     3.324226    0.4813814  57.03   0.01008362    4.281    0.766
        11 -13.1478    161.4012      6.3490   6.7646235228e+01   4.3756689146e+01     1.146482    0.5875587  81.75  0.005159106    2.213    0.548
        12 -13.4451     14.3364      7.7952   1.1014077043e+02   7.0270944989e+01    0.9682544    0.4738501  -7.29  0.005426665    2.462    0.594
        13 -10.6853    123.7180      4.9832   7.3658962228e+01   5.2693717662e+01    0.1802775    0.1603882  37.85  0.001184212    1.069    0.065
        14 -11.9005     88.3982      3.2778   8.1160761390e+01   6.0200279491e+01    0.5176738    0.2727228  48.27  0.002851509    1.615    0.381
        15 -13.9682     58.1824      7.3943   9.2132179307e+01   6.5038006072e+01    0.9358487    0.6740404  14.32   0.00636436    1.154    0.133
        16 -12.6449     79.1842    222.5868   1.3716704271e+02   1.8582645862e+01    0.3427546    0.2759452 -82.86  0.002236876    1.197    0.164
        17 -12.1002     94.2517    247.8284   1.3701914324e+02   1.1452322353e+01    0.4116659    0.2651322  74.39  0.002478973    1.496    0.331
        18 -11.4669     60.8882    248.7540   1.4292289568e+02   1.6129672926e+01    0.3821688    0.1659925  54.42  0.002092297    1.851    0.460
        19 -12.4489     55.4423    226.7011   1.4199857384e+02   2.1094176375e+01    0.4430891    0.2464179  60.44  0.002482128    1.531    0.347
        20 -11.2093    130.0742    219.9321   1.2676162123e+02   1.0738236587e+01    0.3079971    0.1889271 -50.70   0.00157916    1.859    0.462
        21  -9.9384    165.6825    219.6598   1.1951936219e+02   4.2804539735e+00    0.1349054    0.1043973   7.68 0.0007048944    1.709    0.415
        22 -12.3714    110.0106    215.8241   1.3025776129e+02   1.5043191809e+01    0.4134145    0.3576156  66.78  0.002575956    1.039    0.037
        23 -11.7182    117.9469    216.0390   1.2867362948e+02   1.3638308634e+01    0.2824022    0.2251555 -52.17  0.001299428    1.463    0.316
        24 -12.6789    121.7491    210.2898   1.2707110209e+02   1.4132691056e+01     0.586286    0.3438473 -45.97  0.002827534    2.071    0.517
        25 -16.1815     73.0795    193.6783   1.3502729294e+02   2.5623147903e+01     2.883708     1.946343  68.50   0.01581153    1.405    0.288
        26 -12.8075    143.8087    208.3198   1.2216775446e+02   1.0502024346e+01    0.6766423    0.2877611 -49.36  0.002775939    2.587    0.613
        27 -10.4688     30.1199    213.8932   1.4548922071e+02   2.6807055351e+01    0.1885502    0.1209428  74.52  0.001115927    1.253    0.202
        28 -14.7042     96.3423    192.6252   1.2989619464e+02   2.2255446413e+01     1.619512    0.8791507 -72.83  0.007382183    2.043    0.510
        29 -11.7646    109.7169    209.1393   1.2940387131e+02   1.6464509939e+01    0.3036601    0.1986546  53.28  0.001117476    1.373    0.272
        30 -11.1600    191.7645    208.1169   1.1228572777e+02   1.4255836987e+00    0.2965702    0.2596538 -50.33   0.00174513    1.305    0.234
        31 -11.0482    157.9305    212.5481   1.1993136367e+02   7.0341466408e+00    0.4274253    0.2776444 -83.97   0.00187057    2.620    0.618
        32 -11.1362    218.2586    205.4175   1.0660055098e+02  -3.0236322256e+00    0.3307033    0.2692076  43.71  0.001932606    1.266    0.210
        33 -11.1546    180.9179    203.8033   1.1369449913e+02   4.2664481214e+00    0.2873201    0.2058681  14.59  0.001407775    1.785    0.440
        34 -11.1802    130.4547    203.2132   1.2416531041e+02   1.4010954819e+01    0.3218952    0.1383368 -57.69  0.001288905    2.587    0.613
        35 -11.2994    175.3703    202.8972   1.1466948845e+02   5.5065110274e+00    0.3325443    0.2006034  43.58  0.001583186    1.518    0.341
        36 -11.8361    170.4705    201.2734   1.1539185302e+02   6.7640843806e+00    0.4344249    0.3262631  28.45  0.002261247    1.408    0.290
        37 -11.9319    189.0851    198.4837   1.1104316574e+02   3.6563214850e+00    0.3695077    0.2862984 -48.79  0.001984632    1.427    0.299
        38 -10.8434    153.1279    199.0622   1.1864965122e+02   1.0567594145e+01    0.2710487    0.1953051  42.37  0.001387156    1.296    0.229
        39 -11.0223    118.8935    198.8088   1.2594654896e+02   1.7031786667e+01    0.2716511    0.1734156  88.63  0.001233277    2.091    0.522
        40 -10.1205     38.5995    198.2455   1.4254556995e+02   2.9126589160e+01    0.1656953   0.09379969 -66.41  0.000834027    1.606    0.378
        41 -10.7301    204.3494    195.6370   1.0743037775e+02   1.2173825599e+00    0.2789324    0.2384141   4.87  0.001086859    1.201    0.167
        42 -10.8480    140.0727    200.8457   1.2173452706e+02   1.2704516561e+01    0.2278254    0.1828734  73.50 0.0009838488    1.302    0.232
        43 -11.8629    192.5727    191.9087   1.0907260406e+02   4.1800510479e+00    0.4597722    0.3333665 -34.48  0.002356356    1.473    0.321
        44 -12.5294    140.0413    189.7011   1.1983532684e+02   1.5027668970e+01    0.6028973    0.3371378 -49.42  0.002690866    1.900    0.474
        45 -12.7354    145.9081    189.9005   1.1858614610e+02   1.3846225656e+01    0.5997075    0.3249888 -67.37  0.002343595    2.661    0.624
        46 -10.7659    248.1088    191.8684   9.8456791670e+01  -6.1126098183e+00    0.1896801    0.1829025 -23.42 0.0009382145    1.262    0.208
        47  -9.8318    173.3122    192.3195   1.1314548838e+02   7.9273235957e+00    0.1443708    0.1131863   5.04  0.000703679    1.648    0.393
        48 -12.5843    204.7416    186.1490   1.0547635690e+02   2.8368871481e+00    0.6469945    0.4984005 -32.91   0.00343764    1.335    0.251
        49 -10.4819    154.5008    190.0720   1.1674775529e+02   1.2120396900e+01    0.2096322    0.1447375 -50.07 0.0005369967    1.542    0.351
        50 -11.3981     42.4741    187.4995   1.4069707927e+02   3.1021330619e+01    0.2417305    0.1723816  85.45  0.001089031    1.175    0.149
        51 -10.6480     38.2278    186.3972   1.4145247267e+02   3.1757524885e+01    0.2306923     0.173366  30.36  0.001460787    1.770    0.435
        52 -11.6443      9.9939    186.8690   1.4707251036e+02   3.4547038036e+01    0.3432724     0.230234  79.19  0.002346925    1.200    0.167
        53 -11.3718    129.5879    184.3665   1.2121343055e+02   1.8176364515e+01    0.5223238    0.2457038  51.83   0.00207666    2.169    0.539
        54 -11.1230    196.6722    183.5381   1.0657600130e+02   4.9218319260e+00    0.2790093    0.1825883 -44.51  0.001310986    1.602    0.376
        55 -12.6773    166.7043    178.3608   1.1185315082e+02   1.2064863642e+01    0.6144496    0.4554989 -59.41  0.002607164    1.498    0.333
        56 -11.9783    147.6044    178.7714   1.1615104254e+02   1.5868681167e+01    0.3495299    0.2648433 -81.75  0.001687202    1.607    0.378
        57 -10.5230    108.6831    198.5252   1.2809636593e+02   1.8887234897e+01      0.23383    0.2009442  29.86  0.001055434    1.423    0.297
        58 -11.6706    131.4332    178.6294   1.1977005335e+02   1.9083401268e+01    0.4046132    0.3294261  -0.05  0.001713603    1.778    0.437
        59 -12.9490    150.0748    209.9987   1.2113535787e+02   8.9987627954e+00    0.6320226    0.4973233  53.24  0.003095638    1.157    0.136
        60 -11.5213    120.8579    181.0923   1.2260806740e+02   2.0534655576e+01    0.3368543    0.2982322  -3.09  0.001500288    1.521    0.342
        61 -10.4134    102.8334    177.1459   1.2605277030e+02   2.4646504403e+01    0.2648753    0.2042675  -4.62  0.001266074    2.216    0.549
        62 -10.9304    181.7823    173.5837   1.0763462958e+02   9.9060333751e+00    0.3497787     0.238037 -68.20  0.001519586    2.052    0.513
        63 -11.9714     97.2532    173.6834   1.2676999437e+02   2.6387564324e+01    0.3947136    0.3080862 -83.39  0.001631699    1.252    0.201
        64 -12.1370    144.4784    170.2935   1.1520787143e+02   1.8340397232e+01    0.4471342    0.3684247 -61.31  0.002300983    1.248    0.198
        65 -12.6741    151.2954    167.4846   1.1308848053e+02   1.7558483870e+01    0.6207275    0.4301724  54.33  0.002587913    1.455    0.313
        66 -11.1445    109.3694    173.3536   1.2390061668e+02   2.4370481407e+01    0.2981172    0.1882516  53.06  0.001014161    1.569    0.363
        67 -11.1436    106.0228    170.5105   1.2418678895e+02   2.5615446207e+01     0.308536    0.1870196  36.94  0.001413814    1.795    0.443
        68 -11.2356    171.1573    170.9770   1.0938138964e+02   1.2664341682e+01    0.4121567    0.2653218 -24.09  0.001706759    2.198    0.545
        69 -11.9655    116.9835    171.2333   1.2175012294e+02   2.3474236329e+01    0.3972678    0.2720281 -33.10  0.001805479    2.015    0.504
        70 -11.5110    215.1416    168.2864   9.9710477334e+01   4.0354576298e+00    0.3989543    0.3291655 -83.37  0.002000058    1.669    0.401
        71  -9.8861    134.5232    169.4844   1.1733949389e+02   2.0513315050e+01    0.1484241    0.1417497  74.80 0.0002077552    1.031    0.030
        72 -11.2163    124.6970    169.1103   1.1955474905e+02   2.2507922346e+01    0.2438757    0.1843958 -80.15 0.0008682331    1.470    0.320
        73 -11.3740     49.0948    167.7029   1.3696891524e+02   3.4713684335e+01    0.3828588    0.2173859  80.95  0.001881179    2.014    0.504
        74 -12.4730    178.9885    160.9792   1.0555252767e+02   1.3067336008e+01    0.7581577    0.5341001  21.87   0.00335058    1.826    0.452
        75 -11.6708    163.2542    164.5572   1.0978267816e+02   1.5683517807e+01    0.4644759    0.2707919  63.67  0.001784654    2.337    0.572
        76 -11.8481    198.0025    163.0044   1.0199055509e+02   8.5898824993e+00    0.4736313     0.224087 -48.89  0.001806019    2.306    0.566
        77 -11.9571    200.2011    159.1952   1.0070648743e+02   8.8693545345e+00    0.4405853    0.2645626  24.15  0.001729687    2.391    0.582
        78 -10.8873    151.4214    161.6942   1.1186053198e+02   1.8799109354e+01    0.3363152    0.1795969  56.52  0.001288372    2.158    0.537
        79 -11.8077    118.9758    161.2075   1.1939673067e+02   2.5403793721e+01    0.2711256    0.2124261 -58.18  0.000863998    1.257    0.204
        80 -11.0920    221.1853    160.0006   9.6756594669e+01   4.3382993199e+00    0.3140703    0.2428831 -54.63  0.001598421    1.457    0.313
        81 -11.6648    204.7801    160.1197   9.9985112088e+01   7.7186085425e+00    0.3689683    0.2031436 -28.71  0.001466388    2.201    0.546
        82 -11.0213     59.6818    159.6615   1.3341454234e+02   3.5262206681e+01    0.3365856    0.2240445 -84.67  0.001802411    1.469    0.319
        83 -11.1234    157.7362    158.5798   1.0975294310e+02   1.8145639450e+01    0.2945881    0.2131734 -47.41  0.001374301    1.407    0.289
        84 -11.8013     91.8172    158.2334   1.2542477692e+02   3.0892766195e+01    0.3501222    0.2633101  40.35  0.001842282    1.428    0.300
        85 -10.0405     50.9893    156.6713   1.3504747861e+02   3.7045839636e+01    0.1806211    0.1542498  81.26 0.0007775284    1.111    0.100
        86 -12.0685     19.7761    154.5879   1.4201463134e+02   4.0778096100e+01    0.5250762    0.3604903  89.33  0.003343761    1.259    0.206
        87 -12.8907    126.8449    150.8335   1.1539092392e+02   2.6276252680e+01    0.6530079    0.4787174 -34.64  0.003053878    1.614    0.380
        88 -12.3135    118.4873    153.5463   1.1799491958e+02   2.7270652247e+01    0.4252783    0.2689544 -55.20  0.001926645    1.552    0.355
        89 -10.6986    157.6919    153.4249   1.0863927717e+02   1.9279935942e+01    0.2597771    0.1940772 -23.86  0.001162068    1.698    0.411
        90 -13.3337    106.4086    147.7991   1.1982676797e+02   3.0849608850e+01    0.9952479    0.5640069  23.94  0.003804669    2.823    0.646
        91 -13.6096    105.5140    141.2294   1.1870194137e+02   3.2554719284e+01     0.788795    0.7394226 -23.80  0.004360689    1.229    0.186
        92 -11.2925     82.7057    141.6540   1.2466423470e+02   3.6264270512e+01    0.3286132    0.2209537 -37.29  0.001579068    1.802    0.445
        93 -11.1952    174.9981    148.3161   1.0359712914e+02   1.6588801301e+01    0.3210768    0.1848303  60.96  0.001192386    2.179    0.541
        94 -11.0281     84.3140    150.1244   1.2582782518e+02   3.4007181143e+01    0.3299985    0.2417085 -82.35  0.001433354    1.420    0.296
        95 -11.9909    167.0089    145.5060   1.0473255119e+02   1.8960607388e+01    0.5850841    0.3373796 -73.85   0.00180768    3.796    0.737
        96 -11.7764    137.3785    145.1051   1.1158511683e+02   2.5449409550e+01    0.4535544    0.3535131  25.92  0.002143011    1.535    0.349
        97 -10.9854     81.4915    145.9920   1.2578723148e+02   3.5421841005e+01    0.3260937    0.2131028 -88.99   0.00108928    1.907    0.476
        98 -10.8259    118.6745    142.9732   1.1573492113e+02   2.9693508387e+01    0.2232361    0.1887464 -60.82 0.0006661798    1.147    0.128
        99 -11.0536    177.2960    138.9399   1.0091216454e+02   1.8050745109e+01    0.3530916    0.2882658 -52.27  0.001298174    1.242    0.195
       100 -12.5489     73.8770    244.1596   1.4028636816e+02   1.5164956446e+01     0.543658    0.2390487  53.78   0.00285332    1.879    0.468
       101 -12.5269    123.3429    228.5047   1.2928627217e+02   1.0277710181e+01    0.3813804    0.3263262 -73.55  0.002416345    1.266    0.210
       102 -13.4157    122.4211    238.4150   1.3073855325e+02   8.6019793416e+00    0.6640732    0.5830344 -37.27  0.004315366    1.563    0.360
       103 -10.0091     97.7742    121.3962   1.1637167055e+02   3.8552176361e+01    0.1962298    0.1433984  26.48 0.0009438746    1.631    0.387
       104 -11.9236    131.5100    138.0036   1.1142194523e+02   2.8281349895e+01      0.40192    0.2708954 -79.92  0.001639282    2.119    0.528
       105 -10.9665    104.9125    116.6771   1.1330264792e+02   3.8358301426e+01    0.2685537    0.1981428 -40.66   0.00104662    1.360    0.265
       106 -11.8719    130.7629    240.7253   1.2944239683e+02   6.7720218030e+00      0.31466    0.2451759  84.60  0.001526994    1.394    0.283
       107 -13.5426     48.6508     83.7193   1.2185141613e+02   5.3912126441e+01     1.039037    0.7045826 -57.25  0.004747214    1.368    0.269
       108 -10.5968    230.3822    115.8067   8.5034169235e+01   1.0575677286e+01    0.2182392    0.1350172 -29.24 0.0009577238    1.746    0.427
       109 -10.0713     81.3237    114.3125   1.1930915308e+02   4.2873063202e+01    0.1434258    0.1065008 -24.22 0.0005320453    1.658    0.397
       110 -10.4829    218.1276    117.5657   8.7588723103e+01   1.2982288360e+01    0.2921353    0.2033713   2.45  0.001202261    2.359    0.576
       111 -11.4019    242.1518    108.5228   8.1436820940e+01   9.3291622617e+00    0.3063909    0.2390235 -45.78  0.001568336    1.169    0.144
       112 -11.8910    101.8488    106.3613   1.1156504319e+02   4.1228374163e+01    0.3898188    0.3114622 -72.20  0.001977136    1.436    0.303
       113 -10.1387     60.3231    106.0886   1.2352816307e+02   4.7670710034e+01     0.196289    0.1578088 -57.92  0.000970584    1.106    0.096
       114 -11.8996    211.0860     93.8090   8.3036237996e+01   1.9019594870e+01    0.4732674    0.3735593  71.88  0.002370941    1.337    0.252
       115 -10.5857    116.0985    138.2923   1.1536503096e+02   3.1276921445e+01    0.2578305    0.2002237 -43.73 0.0005772905    1.321    0.243
       116 -11.5787    197.0495     94.3601   8.5715116310e+01   2.2298212949e+01    0.4780777    0.3421393 -59.26  0.002200193    1.506    0.336
       117 -10.4162    246.0082     91.4957   7.6972063230e+01   1.1442704229e+01    0.2077788    0.1390148  60.01  0.001039555    1.611    0.379
       118 -13.1952    104.2962     86.0510   1.0531281832e+02   4.5076307539e+01    0.7248812    0.5755144  35.29  0.003813302    1.305    0.234
       119 -10.9187    125.8015    129.3881   1.1085273744e+02   3.1415521637e+01     0.289028    0.2245908  21.56  0.001078569    1.603    0.376
       120 -12.0415    112.5561    130.5285   1.1453488412e+02   3.3753610763e+01     0.519443    0.3896419 -64.12  0.002232088    1.364    0.267
       121 -10.4168    233.1514     79.1117   7.5955139150e+01   1.6397275548e+01    0.2137047    0.2064076   6.47  0.001252945    1.252    0.201
       122 -13.2125    104.2152     75.5182   1.0220223637e+02   4.7149710957e+01    0.9976814    0.5042739  37.16  0.004188986    2.115    0.527
       123 -12.4496     84.8680    236.8968   1.3760683539e+02   1.4916012876e+01     0.327192    0.2366457 -78.86  0.001928077    1.366    0.268
       124 -12.5359    151.8819     88.2603   9.3557044926e+01   3.4405721537e+01    0.9369552      0.36598 -42.70  0.003221865    2.562    0.610
       125 -10.2839     75.6785     74.0473   1.1043334578e+02   5.2335441225e+01    0.2025483    0.1620227 -32.84  0.001162493    1.135    0.119
       126 -10.9420    232.6130    127.4807   8.7359155293e+01   7.9579875473e+00    0.4093778    0.2938942  82.31  0.001895978    1.980    0.495
       127 -11.2905    235.4921     70.0604   7.3507958504e+01   1.7339487056e+01    0.4434586    0.2414464 -86.99  0.001689468    2.971    0.663
       128 -10.5285    116.9696     69.6546   9.6821133151e+01   4.5674707181e+01    0.2131833    0.1833063  42.29  0.001154242    1.160    0.138
       129 -13.3516     87.5853    232.8423   1.3667907241e+02   1.5282278405e+01     0.530766    0.3295345 -86.44  0.003009262    1.689    0.408
       130 -12.9555    249.6160     56.5134   6.8665137125e+01   1.6256525953e+01     1.135816    0.1931087 -39.18  0.003425198    4.416    0.774
       131 -11.3840    101.0804    238.8085   1.3481013975e+02   1.2037272595e+01    0.2476107    0.1744663 -65.12  0.001469762    1.557    0.358
       132 -15.2371    149.8699    131.2310   1.0534477792e+02   2.5882321706e+01      2.27984     1.368127  51.70  0.009466268    1.714    0.417
       133 -10.4502    246.9974     77.9610   7.3768640768e+01   1.3476358927e+01    0.2083535    0.1758426  13.87  0.001141743    1.667    0.400
       134 -10.7817    226.4138     52.3775   7.0573055595e+01   2.2193409989e+01    0.2751342   0.09245764  51.19 0.0009520748    3.360    0.702
       135 -13.7327     50.8709     98.6493   1.2470058089e+02   5.0454656381e+01     1.673846    0.7245443 -47.75  0.007601846    1.978    0.494
       136  -9.8660    103.2923    128.3319   1.1647428844e+02   3.5971472667e+01    0.1483016    0.1155572 -22.68  0.000380571    1.632    0.387
       137 -11.4555    166.5736     44.7014   7.7847179608e+01   3.8067969876e+01    0.3299815    0.1793908  72.68  0.001358071    2.133    0.531
       138 -10.4302     46.1143    239.8889   1.4472315103e+02   1.9731090736e+01    0.1894543    0.1188229  70.63  0.001243529    1.252    0.201
       139 -10.3467    221.4599    127.1734   8.9259748251e+01   1.0430050797e+01    0.2838495    0.1729771  29.01   0.00114689    2.314    0.568
       140 -11.7919    168.2172     61.5195   8.2371574593e+01   3.5146425689e+01    0.5311698    0.4092747 -76.74   0.00259895    1.531    0.347
       141 -10.4377    194.6955     35.9806   7.0855188986e+01   3.2231737130e+01    0.2003418     0.181786 -64.08   0.00118199    1.111    0.100
       142 -10.9095    160.2296     34.2064   7.5942269314e+01   4.1024325816e+01    0.3428757    0.2549809  71.07  0.001812197    1.307    0.235
       143 -11.2603    153.4629     34.2446   7.7212311625e+01   4.2672283921e+01    0.2853273    0.2266966  79.60   0.00147822    1.326    0.246
       144 -11.0442     99.4967     33.1459   8.9390247652e+01   5.4850769185e+01    0.2912279    0.2126975  -1.30  0.001627479    1.457    0.313
       145 -11.3899    113.4923     42.4726   8.8871408646e+01   5.0744072410e+01    0.3928383    0.2688971  35.92  0.001852942    1.409    0.290
       146 -11.0528    189.7424     30.7300   7.0195806689e+01   3.4134922401e+01     0.222001   0.09416734 -43.88 0.0009019791    2.416    0.586
       147 -11.2942    144.0105    235.0783   1.2614029156e+02   5.4675148467e+00    0.3099221      0.27505  79.40  0.002003603    1.180    0.153
       148 -12.2532    176.5526     64.7667   8.1672680097e+01   3.2550284833e+01    0.5233275    0.4202313  65.82  0.002678199    1.211    0.174
       149 -11.9782     73.3660    233.3966   1.3936381895e+02   1.7289556672e+01    0.3519194     0.221759 -79.51  0.002124358    1.528    0.346
       150 -12.0869    130.9733    231.9411   1.2825028117e+02   8.3161605679e+00    0.2991128    0.2564577  69.47  0.001899535    1.093    0.085
       151 -12.7289     13.3287    228.3737   1.4938079764e+02   2.5741007512e+01    0.6341071    0.3693754  61.59  0.004386499    1.373    0.271
       152 -11.5264    206.4535    229.3497   1.1315701209e+02  -4.6878334722e+00    0.4257616    0.2458876  21.39  0.002050313    2.084    0.520
       153 -10.1797     35.3473    231.2934   1.4590502839e+02   2.2713374420e+01   0.09565168   0.08515912 -62.24  0.000703044    1.669    0.401
