#   1 NUMBER                 Running object number                                     
#   2 MAG_AUTO               Kron-like elliptical aperture magnitude                    [mag]
#   3 X_IMAGE                Object position along x                                    [pixel]
#   4 Y_IMAGE                Object position along y                                    [pixel]
#   5 X_WORLD                Barycenter position along world x axis                     [deg]
#   6 Y_WORLD                Barycenter position along world y axis                     [deg]
#   7 A_WORLD                Profile RMS along major axis (world units)                 [deg]
#   8 B_WORLD                Profile RMS along minor axis (world units)                 [deg]
#   9 THETA_WORLD            Position angle (CCW/world-x)                               [deg]
#  10 FWHM_WORLD             FWHM assuming a gaussian core                              [deg]
#  11 ELONGATION             A_IMAGE/B_IMAGE                                           
#  12 ELLIPTICITY            1 - B_IMAGE/A_IMAGE                                       
         1 -15.2145    245.1026    168.1566   9.3846841249e+01  -1.6351761576e+00      5.38902     1.476826 -38.49    0.0180723    3.425    0.708
         2 -13.7265    196.8208      7.8243   6.3336268561e+01   3.5047689304e+01    0.6597852    0.5413655 -42.99  0.004130694    1.341    0.254
         3 -10.0716    107.8133    248.8002   1.3446431263e+02   9.1796288494e+00    0.1712414    0.1196741  67.47 0.0007767227    1.285    0.222
         4 -12.5893    156.7716    246.7504   1.2505494552e+02   1.3168932508e+00    0.7304951    0.4784833  12.20  0.003546912    2.671    0.626
         5 -13.4357    161.9538    235.5429   1.2245990988e+02   2.2563659402e+00     1.499792    0.9577961  18.14  0.007223838    2.339    0.572
         6 -11.8900    147.4446    244.1873   1.2647972770e+02   3.3500494638e+00     0.232933    0.1896715  22.17  0.001109468    1.460    0.315
         7 -10.6890    107.5775    237.2744   1.3321093054e+02   1.1312289313e+01    0.2818528    0.1522336  76.51  0.001273888    2.645    0.622
         8 -12.8423    163.7599    227.0572   1.2081671613e+02   3.3844406786e+00    0.8056428    0.4468433  29.03  0.003677445    2.150    0.535
         9 -11.9531    165.9845    248.5126   1.2355727210e+02  -5.5055621539e-01    0.5805973    0.3945451 -29.98  0.003309046    2.016    0.504
        10 -11.4368    144.7857    229.4731   1.2495035310e+02   6.3770596346e+00    0.2913007     0.219611 -33.82  0.001642819    1.766    0.434
        11 -10.2659    128.6809    231.6671   1.2843388975e+02   8.8083323017e+00    0.1215466    0.1029736   7.53 0.0004388724    1.695    0.410
        12 -10.4335    114.6892    228.5011   1.3077018796e+02   1.1794536737e+01    0.2164508    0.1165115 -60.05  0.001085798    2.044    0.511
        13 -11.5784    162.1934    245.5009   1.2385176960e+02   5.7984142488e-01    0.6600045    0.3084216 -35.98  0.002899019    3.306    0.698
        14 -10.0636    104.3145    225.3030   1.3241087180e+02   1.4139118742e+01    0.1140115    0.1042551   2.99 0.0003433553    1.617    0.382
        15 -10.6376    157.4556    222.5430   1.2137581358e+02   5.3363528260e+00    0.2911774    0.1943988 -29.36  0.001453368    2.111    0.526
        16 -12.2659    125.5913    221.0357   1.2760029761e+02   1.1362462176e+01    0.4002504    0.2864005  41.87  0.001310816    1.322    0.244
        17  -9.8970    182.9882    220.6810   1.1595549133e+02   9.6412592625e-01    0.2364122    0.1829069   1.07 0.0009884202    1.604    0.377
        18  -9.8926    177.5922    244.5343   1.2078441258e+02  -1.9359047026e+00    0.2732795    0.1794828  -1.55  0.001327517    2.643    0.622
        19 -10.2817    148.8037    220.2991   1.2277966709e+02   7.3335419536e+00    0.2499529    0.1863044 -39.63  0.000893653    1.633    0.388
        20 -10.5503    114.9915    221.0500   1.2974175478e+02   1.3193328218e+01    0.1896559     0.165988   1.97 0.0008151459    1.691    0.409
        21  -8.9396    193.3104    219.3879   1.1369265522e+02  -7.0708636412e-01    0.1396906   0.09940579   4.54 0.0007015636    1.819    0.450
        22  -9.9412     99.6592    219.3211   1.3259536752e+02   1.6091838900e+01    0.1407494   0.08647769  70.34 0.0007050266    1.720    0.419
        23  -9.4680    179.7057    216.4641   1.1589621042e+02   2.2971283499e+00    0.2232061    0.1245411 -44.32   0.00105925    2.011    0.503
        24 -10.2945    143.8370    216.4663   1.2320542176e+02   8.9671377505e+00    0.2122535    0.1665858 -49.11  0.001196721    1.453    0.312
        25 -11.2266    131.2143    215.7482   1.2569398526e+02   1.1398544571e+01    0.3077014    0.1888644 -59.71  0.001282375    1.802    0.445
        26 -11.3846    112.2801    214.5646   1.2941932491e+02   1.4955349411e+01    0.3132105    0.2320923 -35.94  0.001677639    1.962    0.490
        27 -10.6035    186.2178    212.6784   1.1393130672e+02   1.7416683666e+00     0.401566    0.2368278 -24.33  0.001783495    2.447    0.591
        28  -9.2057    154.6680    212.6388   1.2036602089e+02   7.6868344482e+00    0.1387952    0.1085119   3.56 0.0003059571    1.805    0.446
        29 -10.7918    218.1880    208.2283   1.0684162309e+02  -3.3837591113e+00     0.402101    0.2502938 -21.03  0.001992128    1.896    0.473
        30  -9.4609    199.4779    213.5242   1.1144513178e+02  -8.6023375321e-01    0.2227243    0.1254971 -28.20  0.001015524    2.217    0.549
        31 -13.0501    240.4683    133.7839   8.7190266981e+01   5.2739411936e+00    0.9075164    0.6365851  23.19  0.004365692    1.865    0.464
        32 -12.5649    249.1670    120.5676   8.2819725289e+01   5.8444350263e+00    0.9214064    0.3343518 -36.79  0.003398188    2.580    0.612
        33 -10.9160    140.9779    248.6641   1.2829009053e+02   3.7114330011e+00    0.2068045    0.1781339  -1.64  0.001211286    1.638    0.390
        34 -10.2334    206.1942    206.1829   1.0878233963e+02  -8.6755048338e-01    0.3101316    0.2032155 -14.75  0.001306179    2.001    0.500
        35 -10.4564    198.5641    202.1071   1.0953089916e+02   1.2607334737e+00     0.330343    0.2301039 -16.47   0.00136183    1.799    0.444
        36 -10.2161    185.7898    202.3543   1.1215909411e+02   3.6597871468e+00    0.2773007    0.1904756 -28.02  0.001374853    1.729    0.422
        37 -10.6370    164.1670    200.0584   1.1623514553e+02   8.2879330420e+00    0.4059867    0.2469743 -32.62  0.001818583    2.147    0.534
        38 -10.2592    211.5473    200.1702   1.0659826940e+02  -8.4474997409e-01    0.2895531    0.2148504 -21.27  0.001060626    1.451    0.311
        39 -10.7117    126.8929    197.0741   1.2372963742e+02   1.5998247247e+01     0.241003    0.1902972 -52.24  0.000987321    1.383    0.277
        40  -9.7661    203.0195    196.2019   1.0751660997e+02   1.4500073655e+00    0.2503247    0.1735646 -22.90  0.001245427    1.663    0.399
        41 -10.7968    172.8128    195.6183   1.1360503741e+02   7.4534284149e+00    0.2624381    0.2497671  53.57  0.000705978    1.053    0.050
        42  -9.9355    215.5284    193.1627   1.0446163008e+02  -3.9364476640e-01    0.3003173    0.1335166 -37.08  0.001191163    2.346    0.574
        43  -9.6008    209.5853    194.1537   1.0581784851e+02   5.5738881819e-01    0.1950854    0.1277734 -24.64 0.0009376436    1.737    0.424
        44  -9.3375    179.2164    189.9850   1.1119306501e+02   7.2694378358e+00    0.1869119    0.1189015 -45.15 0.0006413129    1.675    0.403
        45  -9.1584    205.5639    189.5173   1.0570072603e+02   2.1486898598e+00    0.1394001    0.1314326  17.55 0.0001534393    1.029    0.028
        46  -9.4596    217.4370    185.8200   1.0262662901e+02   5.1715679082e-01    0.1958161    0.1279708 -23.55  0.000932322    1.714    0.417
        47 -10.4877    211.1762    182.3107   1.0313739464e+02   2.3500032753e+00    0.4038771    0.2885411 -11.85  0.001971241    1.707    0.414
        48 -10.6767    225.3182    180.8481   1.0010415047e+02  -1.1573133630e-01    0.5058985    0.2480503 -22.80  0.001864721    3.083    0.676
        49 -10.0651    203.7808    182.3284   1.0461312782e+02   3.8052705144e+00    0.2875848    0.1866521 -30.43 0.0009337638    1.676    0.403
        50  -9.3492    165.3121    183.3246   1.1287930676e+02   1.1397093426e+01     0.147281    0.1172691   2.22 0.0005560994    1.659    0.397
        51 -10.6971    174.4391    180.3807   1.1032751248e+02   1.0131145740e+01    0.4370479    0.2815598 -21.99  0.001833837    2.272    0.560
        52  -9.2572    197.4580    181.4973   1.0572511991e+02   5.2243429647e+00    0.1454525    0.1348982  13.66 0.0002057476    1.054    0.051
        53 -11.0418    205.2319    176.2536   1.0307200394e+02   4.6411314096e+00    0.4133291    0.3093848  -1.06  0.001995301    1.670    0.401
        54 -10.2180    205.8094    168.9723   1.0142316475e+02   5.8925773563e+00    0.4916489    0.1987685 -47.42  0.001766455    2.717    0.632
        55 -10.1335     78.1113    176.6480   1.3146656058e+02   2.8768561233e+01    0.4591033    0.1474462  53.41  0.001460685    4.213    0.763
        56 -10.1376    218.3835    174.6423   1.0014482452e+02   2.3179247672e+00    0.2763163     0.200954 -19.39  0.001113467    1.511    0.338
        57 -10.0067    192.5768    174.3611   1.0526229226e+02   7.5843501853e+00    0.3297621    0.2219392   0.86  0.001355182    2.401    0.584
        58 -10.2743    183.2440    173.2545   1.0699360501e+02   9.7392693005e+00    0.3415063     0.233327 -18.48  0.001264471    2.015    0.504
        59  -9.7714    193.3939    208.8594   1.1181075701e+02   1.0602746937e+00    0.2510355    0.1622697 -25.77   0.00122078    1.899    0.473
        60  -9.2701     55.6538    170.3361   1.3570295317e+02   3.3319408454e+01    0.1409459   0.08625735  73.90 0.0007048653    1.774    0.436
        61  -9.6468    212.5137    168.5141   9.9994060548e+01   4.6107547489e+00    0.1453677    0.1362562   2.11 0.0001636586    1.031    0.030
        62  -9.3487    198.8032    167.7699   1.0258670287e+02   7.5722766040e+00     0.244816    0.1586982   4.48 0.0009370415    2.693    0.629
        63  -9.8190    100.6077    167.2009   1.2470935909e+02   2.7363752384e+01    0.3168017    0.1430951  63.40 0.0009562845    4.266    0.766
        64 -10.3025    229.3253    165.2608   9.6085339735e+01   1.8538302433e+00     0.264132      0.16149 -27.73  0.001213852    1.730    0.422
        65  -9.1163    222.3326    166.2953   9.7620679681e+01   3.0461438121e+00    0.1468416     0.109199   6.60 0.0005842351    1.640    0.390
        66  -9.8141    184.9966    165.0447   1.0488680741e+02   1.1021575888e+01    0.2422654    0.1866459  -0.91 0.0009286396    1.709    0.415
        67 -10.1868     80.5998    164.7824   1.2907967323e+02   3.1153300020e+01    0.3147948    0.1724714  80.89  0.001209952    2.944    0.660
        68 -10.3990    219.8150    163.5385   9.7508827639e+01   4.0538207180e+00    0.2377004    0.1672585 -42.98 0.0006135933    1.421    0.296
        69  -9.8911    192.0293    163.0249   1.0296645206e+02   9.9309049371e+00    0.3059128    0.2031377 -40.38 0.0009241479    1.530    0.347
        70 -10.8364    212.9389    161.9143   9.8488954223e+01   5.7582419342e+00    0.3086965    0.2490764 -24.35  0.001049577    1.272    0.214
        71 -11.8485    213.2023    156.0429   9.7150001375e+01   6.8128588061e+00    0.4574158    0.4065324 -21.97  0.002493033    1.120    0.107
        72  -9.7174    204.9101    160.7861   9.9836347502e+01   7.6444935322e+00    0.2336135    0.1974465   1.89 0.0008219374    1.320    0.243
        73 -10.3938     94.0914    161.3534   1.2525652259e+02   2.9824752808e+01    0.2884078    0.1639111  54.99  0.001281577    1.895    0.472
        74 -10.3307    107.4954    159.2165   1.2160450497e+02   2.8022242484e+01    0.4216069    0.1660806  52.66  0.001424574    3.096    0.677
        75 -10.4867     82.8947    155.6805   1.2701235067e+02   3.2946440518e+01    0.3787591    0.2026586  63.51  0.001539411    2.537    0.606
        76 -10.1671     50.3216    155.7904   1.3496919036e+02   3.7350696844e+01    0.3095334    0.1558507  62.38  0.001377041    2.526    0.604
        77 -10.1874     68.2736    154.1340   1.3036088560e+02   3.5441098230e+01    0.2721263    0.1559082  63.66  0.001241349    2.134    0.531
        78 -10.4710    222.6046    151.3525   9.4309960755e+01   5.7376133761e+00    0.2968862    0.2361833  84.89  0.001397095    1.737    0.424
        79  -9.4985    205.4613    152.4920   9.7889037447e+01   9.1352773431e+00    0.1495908    0.1427502  -4.28 0.0001488573    1.047    0.045
        80 -10.3288     40.5136    148.6130   1.3633101433e+02   4.0128138583e+01    0.3775861    0.1574862  59.11  0.001467263    3.590    0.721
        81 -11.3892    109.4986    146.8626   1.1868274738e+02   3.0553691960e+01    0.7158756    0.3466239  60.16  0.002447509    3.162    0.684
        82 -11.2336     57.0574    146.5469   1.3193882719e+02   3.8699570419e+01      0.55561    0.2599988  64.08  0.002061898    3.605    0.723
        83  -9.5679     78.8133    147.5925   1.2661582511e+02   3.5478809313e+01    0.1982819    0.1225309  51.93 0.0009484313    1.732    0.423
        84  -9.8611    199.9052    145.4264   9.7407454274e+01   1.1732788546e+01    0.3107426    0.2024436 -22.09  0.001299251    1.975    0.494
        85  -9.7103     13.7442    146.6196   1.4243077508e+02   4.3086246818e+01     0.151613   0.09862816  49.68 0.0009406315    1.696    0.410
        86 -10.1509    223.6998    144.7381   9.2626591931e+01   6.7410294469e+00    0.3019905    0.2299162   2.41 0.0009226702    1.673    0.402
        87 -10.6148    127.2492    144.8634   1.1381426396e+02   2.7621889631e+01    0.4548437    0.2294936  57.68  0.001642572    2.546    0.607
        88 -10.9920     89.1936    144.7297   1.2343403520e+02   3.4548645486e+01    0.4391221    0.2200205  53.82   0.00173936    2.367    0.578
        89 -10.2897    230.8533    141.2681   9.0542730883e+01   5.8927626681e+00    0.2671908    0.1855352  -9.04 0.0008855083    1.955    0.489
        90 -11.2693     70.0808    141.4157   1.2775371078e+02   3.8198768070e+01    0.3512312    0.2121691 -87.10  0.001568442    2.164    0.538
        91  -9.9635    194.7407    139.7995   9.7162257159e+01   1.4006857511e+01    0.2499363     0.197847 -19.25 0.0009402134    1.461    0.316
        92 -10.4861     23.7716    138.6957   1.3908839385e+02   4.4039176705e+01    0.3133821    0.1544742  65.19  0.001463926    2.757    0.637
        93 -11.7969    231.0409    134.8012   8.9049587853e+01   7.0401269975e+00    0.5674978    0.2928659 -21.35  0.001976244    3.189    0.686
        94 -10.1401     39.5489    136.6800   1.3484865760e+02   4.3000348150e+01    0.2144594    0.1359947  58.20 0.0008062187    1.807    0.447
        95 -10.8087    114.5493    134.5961   1.1476432866e+02   3.2476241114e+01    0.4751502    0.2351392  56.45   0.00172435    2.631    0.620
        96 -11.2802     84.4261    132.4979   1.2226544756e+02   3.8194457511e+01    0.5138646    0.3069861  61.72  0.001801231    2.206    0.547
        97 -10.7274    135.4343    132.9978   1.0908800607e+02   2.8654944416e+01    0.4802012    0.2206121  40.43  0.001746995    2.299    0.565
        98  -9.1788    162.4700    208.4829   1.1805732207e+02   6.9995346952e+00     0.139933    0.1263628  34.20 0.0008078949    1.096    0.087
        99 -11.4112    100.8723    129.3401   1.1718788725e+02   3.6205533075e+01    0.6260605     0.379803  66.52  0.002530416    2.417    0.586
       100 -10.9355     73.5450    129.7995   1.2465497082e+02   4.0452722944e+01    0.3410431    0.2231431  67.34   0.00151958    1.990    0.498
       101 -10.3995     13.0838    129.8743   1.4060227772e+02   4.6901672427e+01    0.2637376    0.1419964  71.90  0.001364659    2.359    0.576
       102 -11.4222    120.4558    126.9851   1.1147880710e+02   3.3082434664e+01    0.6076462    0.3099495  56.74  0.002230872    2.517    0.603
       103 -11.4646     60.2577    125.0711   1.2736433588e+02   4.3341830430e+01    0.5935018     0.339808  76.32  0.002399323    3.094    0.677
       104 -11.5376     44.7367    123.7154   1.3137322829e+02   4.5459649456e+01    0.6312838    0.3421011  74.55  0.002595216    3.271    0.694
       105 -11.5329     28.9034    122.9810   1.3553573805e+02   4.7173586268e+01    0.6444747    0.3086608  75.16  0.002348456    4.533    0.779
       106 -11.3678    144.4887    120.3849   1.0376970205e+02   2.9509376509e+01    0.6832471    0.2909283  43.73  0.002392425    2.398    0.583
       107 -10.8805    133.4656    120.2800   1.0649756051e+02   3.1921851714e+01    0.4844487    0.2380527  54.60  0.001757635    2.382    0.580
       108 -10.2494     71.8736    120.6786   1.2325828561e+02   4.2819318067e+01    0.3557334    0.2112687  63.61  0.001543091    2.473    0.596
       109 -10.4561      3.0286    117.5006   1.4158467880e+02   5.0333869152e+01      0.30426    0.1524916  85.90  0.001545193    2.432    0.589
       110 -11.5244    111.0360    115.7868   1.1126649859e+02   3.7454483449e+01    0.5539846    0.3698541  69.92  0.002242674    2.148    0.534
       111 -11.3456     80.0522    113.5525   1.1937878244e+02   4.3268175440e+01    0.6007267    0.3887474  78.00  0.002547803    2.604    0.616
       112 -11.6852     94.2698    113.5131   1.1533790301e+02   4.0992172389e+01    0.6817207    0.3638693  51.06  0.002724746    2.216    0.549
       113 -11.1075    124.1464    113.6669   1.0723356830e+02   3.5332415610e+01    0.4687575    0.2657183  50.13  0.001931936    1.864    0.464
       114 -11.2298     67.2031    111.3730   1.2259183389e+02   4.5600085427e+01    0.4249088    0.2651714  65.11  0.001928554    2.409    0.585
       115 -11.1574     14.2722    110.5000   1.3759416247e+02   5.1138498452e+01    0.3390294    0.2270996 -89.69  0.001745105    1.583    0.368
       116 -10.3115    134.9661    110.5176   1.0361817124e+02   3.3736875402e+01    0.3525816    0.1497561  51.84  0.001201132    2.605    0.616
       117 -11.0279    142.1494    106.0519   1.0063002564e+02   3.3106342092e+01    0.5093802    0.2312511  54.62  0.001774532    2.519    0.603
       118 -11.9648     46.2325    102.9896   1.2698171699e+02   5.0012346284e+01    0.7253147    0.4100218  71.52  0.002892461    3.771    0.735
       119 -11.6609     23.0308    102.6806   1.3381381867e+02   5.2215304466e+01    0.6513464    0.3518484  76.99   0.00284765    3.474    0.712
       120 -11.0987    152.6313    104.9471   9.7785430688e+01   3.0949920383e+01     0.505499    0.2209408  50.54  0.001787995    2.318    0.569
       121 -11.7539    130.8447    103.3609   1.0277572856e+02   3.6154118331e+01    0.5306686    0.2957066  50.43  0.002164079    1.869    0.465
       122 -12.4831    111.9159    100.7067   1.0712906691e+02   4.0600860204e+01    0.9518152     0.489505  61.09  0.003253076    3.303    0.697
       123 -13.0614    228.7937    188.3509   1.0097135252e+02  -2.0407835858e+00     1.561238    0.7917683 -23.04  0.006326021    2.660    0.624
       124 -10.4753     82.7856    100.9082   1.1553982793e+02   4.5682526542e+01    0.3955674    0.2626045  76.78  0.001673703    2.687    0.628
       125 -10.8905     95.6824     97.6345   1.1090570997e+02   4.4259631655e+01    0.3410559    0.2691065  65.05   0.00115235    1.571    0.364
       126 -11.6572     64.6466     96.7548   1.1997438469e+02   4.9202983738e+01    0.5326049    0.3336788  68.70  0.002306576    2.912    0.657
       127 -11.2488    141.2529     93.5282   9.7428632262e+01   3.5878713499e+01    0.4522928    0.2939187  55.23  0.001979615    1.612    0.380
       128 -12.0240    127.2722     92.2216   1.0063269018e+02   3.9225481380e+01    0.7189915    0.3511359  52.19  0.002750912    2.225    0.551
       129 -11.3115     34.9328     89.6225   1.2760529258e+02   5.4049935109e+01    0.4365902    0.2392491 -73.96  0.002110774    2.306    0.566
       130 -10.5517      5.0744     91.8738   1.3727426886e+02   5.5761279113e+01    0.2392686    0.1471239  73.02  0.001368942    2.324    0.570
       131 -11.8598     87.9323     87.7735   1.1050816081e+02   4.7658031359e+01    0.5570158    0.3500983  63.81  0.002366541    2.630    0.620
       132 -11.2547     49.2731     85.1588   1.2196735879e+02   5.3550528101e+01    0.4679128    0.3047604  70.06  0.002204901    2.870    0.652
       133 -11.6602    106.4441     84.4494   1.0411156546e+02   4.5020409315e+01    0.6076697    0.4058532  71.44  0.002553611    2.492    0.599
       134  -9.9965    160.9726     84.1798   9.0162307587e+01   3.3053411285e+01    0.2629253    0.1737667  29.12  0.001088424    1.972    0.493
       135 -11.1715    142.8378     84.1182   9.4366862712e+01   3.7350106717e+01     0.394542    0.2291372  53.55   0.00165286    1.752    0.429
       136 -10.6725    120.5821     81.4662   9.9304353413e+01   4.2764686773e+01    0.3589013    0.2532976  67.49   0.00162831    1.870    0.465
       137 -10.6999     75.0371     81.1235   1.1262109622e+02   5.1047286318e+01    0.2909259    0.2222612 -79.48  0.001504502    1.916    0.478
       138 -11.2756     24.3862     80.0482   1.2890618018e+02   5.6958794191e+01    0.4850416     0.229964 -71.00  0.002249649    2.625    0.619
       139 -10.8092    152.2570     81.1892   9.1289451546e+01   3.5693958388e+01    0.2818703    0.2034939  41.44  0.001310366    1.417    0.294
       140 -10.1839      9.6247     81.2522   1.3395885089e+02   5.7725121350e+01    0.2730274    0.0967614  40.83  0.001212125    4.108    0.757
       141 -12.1835    130.0035     76.7188   9.5407385483e+01   4.1630202448e+01    0.6014026    0.3931269  66.38  0.002602126    1.988    0.497
       142 -10.8387     62.1607     76.8927   1.1557710041e+02   5.3697692602e+01     0.357695    0.1651358 -54.56  0.001573198    2.206    0.547
       143 -10.1670    159.0221     77.4747   8.8699431961e+01   3.4746831546e+01     0.242433     0.146411  52.19  0.001035552    1.608    0.378
       144 -11.2306    142.4644     76.2466   9.2164246245e+01   3.8895263915e+01    0.4420798    0.2023755  55.96  0.001629801    2.340    0.573
       145 -11.3511     83.0769     73.4169   1.0783122820e+02   5.1318874392e+01    0.4635217    0.3300794 -81.89   0.00209293    2.666    0.625
       146 -10.7101    116.3443     73.3364   9.8008956767e+01   4.5172616256e+01    0.2878072    0.2177624 -83.73  0.001332015    2.035    0.509
       147 -10.8529    138.1232     72.3445   9.2058963328e+01   4.0593708668e+01    0.2754246     0.213105 -42.75 0.0005035201    1.329    0.247
       148 -10.4809    106.7805     72.3459   1.0038236042e+02   4.7276983030e+01    0.3243426    0.2506825  74.36  0.001599415    1.836    0.455
       149 -10.7767     95.5175     71.6645   1.0347412511e+02   4.9518953212e+01    0.4201289    0.2712089 -62.08  0.001881455    2.256    0.557
       150 -10.4603    165.4903     72.4869   8.5888980611e+01   3.4046195922e+01    0.2807843    0.1289986  45.26  0.001034213    2.260    0.558
       151 -10.7807     51.4571     69.6330   1.1711249303e+02   5.6454868228e+01    0.4431521    0.2287513 -63.60  0.001925421    2.840    0.648
       152 -10.3378     16.7538     70.3207   1.2928331126e+02   5.9498440897e+01    0.2668332    0.1464363 -73.55  0.001350877    2.306    0.566
       153 -12.1652    148.6301     69.0864   8.8599184985e+01   3.8707810195e+01    0.5274062    0.2570798  49.68  0.002099246    1.963    0.490
       154 -11.4587    139.9891     67.3640   9.0107438727e+01   4.1029069718e+01    0.3467111    0.2862984  67.96  0.001430021    1.313    0.238
       155 -10.9137    122.6442     66.9221   9.4332484413e+01   4.4986456114e+01    0.3310743      0.24724  75.07  0.001576382    1.824    0.452
       156 -10.6385    110.8787     64.2188   9.6672157973e+01   4.7912224464e+01    0.3577462    0.2688253  86.06  0.001636419    2.151    0.535
       157 -10.4426     37.4719     64.4819   1.2053298559e+02   5.8943555783e+01    0.2409584    0.1820659  81.70  0.001150528    2.343    0.573
       158 -10.9620    160.1661     62.1751   8.4042687441e+01   3.7070321705e+01    0.2129141    0.1778673 -81.90  0.001086228    1.354    0.262
       159 -10.8771    101.3002     61.2383   9.8450177840e+01   5.0308321787e+01    0.3418282     0.235627 -72.42  0.001476639    2.732    0.634
       160 -10.7239     73.4895     59.5518   1.0657357149e+02   5.5382156463e+01    0.3982088    0.2497287 -56.41  0.001594295    2.110    0.526
       161 -11.1712    148.4588     59.9818   8.5919642868e+01   4.0253835366e+01    0.2519436    0.1926844  53.97  0.001268119    1.248    0.199
       162 -10.0092     42.8111     73.0136   1.2099746798e+02   5.6734240348e+01    0.1918905    0.1407237 -80.42 0.0008287015    2.002    0.501
       163 -10.9647    131.6369     58.4460   8.9386537546e+01   4.4413623032e+01    0.2651976    0.2165827  76.32  0.001373505    1.464    0.317
       164 -10.1464     24.8257     59.0346   1.2358807106e+02   6.1103849680e+01    0.1762907    0.1325921 -81.87  0.001083551    2.011    0.503
       165 -11.4347      7.3361     56.8013   1.2943104934e+02   6.2728944719e+01     0.358687    0.1734584 -68.24  0.001889001    2.400    0.583
       166 -11.2802    140.6899     57.1216   8.6813534158e+01   4.2541855672e+01    0.2652212    0.2009498  65.46   0.00132807    1.406    0.289
       167 -10.8242    120.0202     56.6556   9.1766754285e+01   4.7260593587e+01     0.392698    0.2621969  79.35  0.001655711    2.598    0.615
       168  -9.9806     44.0038     55.2932   1.1547531958e+02   5.9989556740e+01    0.2723172    0.1576392 -53.99  0.001418394    1.840    0.456
       169 -10.4399    100.4245     54.2111   9.6389522729e+01   5.1641838804e+01    0.2270606    0.1889116   6.68 0.0003425968    1.199    0.166
       170 -10.1017     62.9326     54.9499   1.0863743257e+02   5.7718674470e+01    0.2351252    0.1631262 -43.84 0.0009498659    1.412    0.292
       171 -10.2975     54.1437     54.0546   1.1142926146e+02   5.9027539668e+01    0.3178136     0.154026 -55.45  0.001406317    2.775    0.640
       172 -10.0876    106.4607     53.9566   9.4572166429e+01   5.0501180006e+01    0.2658653    0.1798986  88.78  0.001034951    3.466    0.711
       173 -10.6703     92.7070     50.7892   9.7528775668e+01   5.3632531505e+01    0.3788735    0.1995175 -48.63  0.001671204    2.382    0.580
       174 -10.3822     31.0844     51.4880   1.1909062130e+02   6.1965847546e+01    0.2623945     0.186881 -69.99  0.001362253    2.099    0.524
       175 -11.8669    165.8912     46.9140   7.8476500402e+01   3.7970293673e+01    0.3196364    0.2004808  27.18  0.001260486    2.265    0.558
       176 -10.1804    112.9839     47.4918   9.0617177594e+01   5.0160309529e+01    0.1871018    0.1249553  76.24 0.0008101732    2.518    0.603
       177  -9.9950     82.2787     47.0092   9.9469185123e+01   5.6060502361e+01    0.1885492    0.1588592 -19.91 0.0007841423    1.112    0.100
       178 -10.5056    123.2203     46.2225   8.7547177513e+01   4.8149400824e+01    0.2248542    0.1636374 -75.22  0.001056927    2.154    0.536
       179 -10.6389     16.7426     44.2982   1.2245109335e+02   6.4417813337e+01    0.2702675    0.1232182 -57.06  0.001431282    2.217    0.549
       180 -11.0511    149.6131     43.7850   8.0758943053e+01   4.2387708395e+01    0.1968418    0.1295702 -43.63 0.0003839933    1.651    0.394
       181  -9.8524     44.8443     44.8194   1.1175772977e+02   6.1720536453e+01    0.1530588     0.138859 -40.18 0.0007474076    1.345    0.257
       182 -10.0983     58.1421     42.2796   1.0598798529e+02   6.0479589110e+01    0.2248216    0.1615722 -59.83  0.001241709    2.208    0.547
       183 -11.6001      5.1076     40.9481   1.2610305833e+02   6.5762965007e+01    0.4267641    0.1780243 -63.41  0.002080096    3.004    0.667
       184  -9.9789    106.4756     41.9721   9.0505682047e+01   5.2296680935e+01    0.1861005    0.1110717 -54.19 0.0008099794    2.547    0.607
       185 -11.6398    175.5584     40.8555   7.5027174254e+01   3.6404881974e+01    0.3474849    0.1232597  49.32  0.001233139    2.782    0.641
       186 -11.2360    162.2199     41.4039   7.7564944209e+01   3.9639534328e+01    0.2091925    0.1311526  72.07 0.0009571103    1.695    0.410
       187  -9.8323     37.0014     41.0082   1.1344510557e+02   6.3205927024e+01    0.1598468    0.1477838 -74.61 0.0009212942    1.684    0.406
       188  -9.7479     95.6615     38.3426   9.2298222833e+01   5.4928387169e+01    0.1260185    0.1069583 -75.41 0.0007049466    1.771    0.435
       189 -10.1418     26.3949     36.2381   1.1600605941e+02   6.5012420633e+01    0.1564675   0.09606785 -50.51 0.0007759468    1.699    0.411
       190  -9.9621     69.2657     41.4521   1.0179431800e+02   5.9009484804e+01     0.205294    0.1531373 -52.05  0.001145132    1.793    0.442
       191 -11.7917    182.7488     33.7279   7.1903965363e+01   3.5546322416e+01    0.2678383    0.1618664  61.27   0.00129627    1.490    0.329
       192  -9.5839     49.6055     32.8250   1.0567180490e+02   6.3045485983e+01    0.1618121    0.1026737 -43.68 0.0009453279    1.719    0.418
       193  -9.4329     60.4862     32.5143   1.0155744595e+02   6.1625235620e+01     0.122554    0.1021764  -4.62 1.260185e-05    1.031    0.030
       194 -10.5618     12.8109     29.9188   1.1947442356e+02   6.7134719186e+01    0.3297922    0.1371856 -52.84  0.001752938    2.391    0.582
       195 -11.9362    177.0141     29.9951   7.1781055972e+01   3.7438344852e+01    0.3615744     0.142177  70.70  0.001314333    2.786    0.641
       196 -11.2059      3.3281     26.5805   1.2243254945e+02   6.8297804832e+01    0.3099982    0.1107264 -49.33   0.00169871    2.151    0.535
       197 -13.2168    189.1067     20.6134   6.7515576254e+01   3.5550021677e+01    0.5069689    0.3171937  85.35  0.002543079    1.627    0.385
       198  -9.2818     48.3344     21.6684   1.0180729426e+02   6.4774065140e+01   0.09965242   0.09505109 -56.20 0.0004719858    1.730    0.422
       199 -10.1496     12.7123     21.4251   1.1650235971e+02   6.8472721101e+01    0.1761862   0.09355186  24.01  0.001130961    2.057    0.514
