#   1 NUMBER                 Running object number                                     
#   2 MAG_AUTO               Kron-like elliptical aperture magnitude                    [mag]
#   3 X_IMAGE                Object position along x                                    [pixel]
#   4 Y_IMAGE                Object position along y                                    [pixel]
#   5 X_WORLD                Barycenter position along world x axis                     [deg]
#   6 Y_WORLD                Barycenter position along world y axis                     [deg]
#   7 A_WORLD                Profile RMS along major axis (world units)                 [deg]
#   8 B_WORLD                Profile RMS along minor axis (world units)                 [deg]
#   9 THETA_WORLD            Position angle (CCW/world-x)                               [deg]
#  10 FWHM_WORLD             FWHM assuming a gaussian core                              [deg]
#  11 ELONGATION             A_IMAGE/B_IMAGE                                           
#  12 ELLIPTICITY            1 - B_IMAGE/A_IMAGE                                       
         1 -11.7183     47.7273     30.6793   2.9152466671e+02   7.1397807534e+00   0.03984553    0.0197286  16.74  0.003172944    2.436    0.590
         2 -11.0688     57.9011     30.7113   2.9140447818e+02   7.0773654333e+00   0.05630942   0.01926272 -47.88  0.004151882    3.028    0.670
         3 -12.4753     60.4518     44.4414   2.9145805410e+02   6.9044865993e+00   0.05509533   0.02769859 -62.86  0.004955401    2.052    0.513
         4 -12.2804    130.9389     13.8089   2.9043749248e+02   6.8243733936e+00   0.09033019   0.03001162  31.95  0.006834958    2.727    0.633
         5 -11.1923    110.4107      2.0419   2.9060822372e+02   7.0847830135e+00   0.08729557   0.01422304  26.90  0.004309391    6.526    0.847
         6 -12.5690    105.0154     13.1851   2.9074014671e+02   6.9902369882e+00   0.03784122   0.02276239 -64.22  0.003347236    1.733    0.423
         7 -12.6269    124.1165     27.1901   2.9059992967e+02   6.7129510935e+00   0.04678274   0.04277948 -51.62  0.003006079    1.109    0.098
         8 -12.9969    112.6911     24.9010   2.9072099251e+02   6.8091114178e+00   0.06845947   0.03583297  15.06   0.00587544    2.334    0.572
         9 -12.0618    145.4096     47.6519   2.9047339628e+02   6.3481531680e+00   0.05465914   0.02284103 -57.00  0.004120441    2.313    0.568
        10 -10.6125    140.0613     30.4985   2.9043173831e+02   6.5773872451e+00   0.02856358    0.0141715 -54.96  0.002584165    1.973    0.493
        11 -11.5912    163.1836     28.9944   2.9014943073e+02   6.4528286452e+00   0.03681733   0.02667624 -55.66  0.003993542    1.386    0.279
        12  99.0000    148.1672     16.1949   2.9024850790e+02   6.6914605400e+00   0.07252339   0.02882906  45.00   0.00558151    2.782    0.641
        13 -11.4263    140.8312     20.3699   2.9036071487e+02   6.6886410995e+00   0.05428616    0.0274195   2.19  0.003804525    3.814    0.738
        14 -11.6656     26.5381     27.9526   2.9175882406e+02   7.3001244070e+00    0.0440195   0.03286452  61.46  0.004175882    1.541    0.351
        15 -11.3423     19.7573     22.5968   2.9180644578e+02   7.4027590699e+00    0.0267642   0.01813171 -53.19  0.001560898    1.475    0.322
        16 -11.9692     14.9029     21.5081   2.9185728284e+02   7.4447702716e+00    0.0497761   0.03515839  70.72  0.003719473    1.794    0.443
        17 -11.5725     22.9434     10.8100   2.9169684718e+02   7.5183712480e+00   0.02836174   0.01917581  -0.34  0.002699465    1.846    0.458
        18 -11.8677     16.8023     13.4288   2.9178553470e+02   7.5257564958e+00   0.02097673   0.01527416 -51.27 0.0008316809    1.380    0.276
        19 -11.2311     14.7471      9.2297   2.9178426555e+02   7.5863524377e+00   0.02381413   0.01312847  25.22  0.001863996    1.813    0.448
        20 -11.7234    178.2176     21.2200   2.8992436770e+02   6.4495530313e+00   0.02732913   0.01777772 -21.27  0.002299749    2.013    0.503
        21  -9.6975     87.2548      6.9992   2.9091240824e+02   7.1696758392e+00   0.03383467   0.01493387  29.89  0.002797869    2.153    0.535
        22 -11.4140     90.5483     20.7075   2.9095720137e+02   6.9925764995e+00   0.02915659   0.02226444 -56.33  0.002357412    1.320    0.242
        23 -11.2826     86.0250     14.5994   2.9097339122e+02   7.0901720319e+00   0.03114142   0.01427837 -49.03  0.002074385    2.199    0.545
        24 -10.7829     42.1371      4.1824   2.9142915425e+02   7.4773420580e+00   0.03680635   0.01536115 -44.85  0.002932141    2.632    0.620
        25 -11.0802     47.5957     18.9450   2.9145463668e+02   7.2750028619e+00   0.02168616   0.01941822  75.79  0.002285854    1.213    0.175
        26 -12.4620     37.6120     19.1908   2.9157430764e+02   7.3330429471e+00   0.02718274   0.02629817  39.88  0.001222504    1.032    0.031
        27 -12.1961     49.4842     13.0047   2.9139603192e+02   7.3315211232e+00   0.03962282   0.01641555  29.21  0.003274614    2.300    0.565
        28 -11.1997     40.8142     14.2304   2.9150613773e+02   7.3703412579e+00   0.03322674    0.0069825  32.30  0.002101595    3.871    0.742
        29 -10.5197     71.6251      3.2514   2.9107443629e+02   7.3080794554e+00   0.02344507   0.02120588 -36.99  0.002658983    1.130    0.115
        30 -10.7361     65.9198     10.5926   2.9118679153e+02   7.2588612115e+00   0.03526669   0.01721591  21.16  0.003026331    2.230    0.552
        31 -10.2742     63.1936      6.2991   2.9119283356e+02   7.3246655062e+00   0.01991585   0.01142166 -46.45     0.001826    1.799    0.444
        32 -10.4838     76.8318      6.5975   2.9103326795e+02   7.2379674649e+00   0.01689231   0.01008201  42.56  0.001605397    1.686    0.407
        33 -10.6096     77.2364      2.7982   2.9100526907e+02   7.2789933424e+00   0.01564065   0.01295283 -33.45  0.000945344    1.274    0.215
        34 -12.0956     68.2063     17.5356   2.9120213053e+02   7.1653931091e+00   0.03625384   0.02090954  34.17  0.003390515    1.656    0.396
        35 -12.2658    239.1479     15.9318   2.8917328318e+02   6.1354753475e+00   0.04804703   0.03018935  23.82  0.003499343    1.605    0.377
        36 -11.4991    239.1905      7.3962   2.8912049460e+02   6.2328276319e+00   0.02610319    0.0148822  41.49  0.002030575    1.745    0.427
        37 -11.6317    245.5961      8.3972   2.8905113909e+02   6.1819432637e+00   0.02372844   0.01851158 -50.33  0.001685251    1.295    0.228
        38 -11.1339    241.7356      4.4290   2.8907232046e+02   6.2510869939e+00   0.01988844   0.01157056  35.37  0.001310287    1.645    0.392
        39 -11.1561    165.4193     17.3263   2.9005165481e+02   6.5726795557e+00   0.02447398     0.015996   8.03  0.001167204    1.826    0.452
        40  -9.9363    225.1434     16.0091   2.8933884117e+02   6.2207674692e+00   0.01537338  0.009773334 -60.10  0.001042907    1.591    0.372
        41 -10.1354    191.8121     16.8101   2.8973692075e+02   6.4165256287e+00   0.01462181   0.01452525  79.88  0.001250721    1.034    0.033
        42 -10.3031    198.7946      5.6151   2.8958598176e+02   6.5016997476e+00   0.03139203  0.009549587  33.12  0.002221146    2.916    0.657
        43  -9.5707    194.4241      1.4808   2.8961224060e+02   6.5758559310e+00   0.01075458  0.009261688   9.36 0.0008170749    1.199    0.166
        44 -10.9384    187.2223     14.4336   2.8977654296e+02   6.4719173300e+00   0.02850335   0.01691826 -14.71   0.00202724    2.606    0.616
        45 -11.3388    192.1623      7.4902   2.8967573217e+02   6.5210104835e+00   0.02208904   0.01592998 -37.59  0.001231547    1.494    0.331
        46 -11.6860    211.5669      9.9365   2.8946176046e+02   6.3737393227e+00   0.02566579   0.01550747 -39.47  0.001370951    1.840    0.457
        47  -9.3103     95.0438     11.9435   2.9085048675e+02   7.0654468114e+00   0.01354382  0.008624179 -15.44  0.001241292    2.173    0.540
        48  -9.8800     31.5871     11.9748   2.9160161039e+02   7.4523960993e+00   0.01254708  0.008319555  45.86 0.0006286304    1.559    0.359
        49  -9.8596      3.9528     10.7871   2.9192159710e+02   7.6341675525e+00    0.0186551   0.01140717 -25.33  0.001276031    2.178    0.541
        50 -10.0552    157.6224      2.3839   2.9005230494e+02   6.7915279239e+00   0.01541314   0.01295556   3.34  0.001595584    1.266    0.210
        51  -9.3928    162.5157     10.4971   2.9004415780e+02   6.6686577637e+00   0.01080517   0.00855057   8.80 0.0009248371    1.353    0.261
        52 -10.9144    162.9315      4.3078   2.9000136876e+02   6.7369337496e+00   0.02786068   0.01383412 -62.92  0.002482393    2.084    0.520
        53  -9.3019    157.6379     10.7803   2.9010350422e+02   6.6953471608e+00  0.009423122  0.006456037 -76.53 0.0005963147    1.689    0.408
        54 -10.4230    169.4420      9.6387   2.8995710701e+02   6.6359712585e+00   0.01799059   0.01134499   2.53    0.0012021    2.075    0.518
        55 -10.1237    206.5185     19.1472   2.8957770795e+02   6.2994025117e+00   0.02124858   0.01508897  80.66  0.002153124    1.820    0.451
        56 -10.3913    151.1203      7.2993   2.9015919906e+02   6.7751672920e+00   0.02069216   0.01383122  24.26  0.001191175    1.493    0.330
        57  -9.9901      1.2962      7.2518   2.9193151035e+02   7.6908052604e+00   0.01071403  0.005939066 -59.91 0.0002630571    1.811    0.448
        58 -11.3599    225.5103      2.6252   2.8925253723e+02   6.3715867578e+00   0.03338033    0.0148651  40.33  0.002835408    2.201    0.546
        59 -10.7374    218.5518      2.9477   2.8933657115e+02   6.4107130788e+00   0.01659849   0.01509433 -12.59  0.001121728    1.146    0.128
        60  -9.8205    174.9757      4.4844   2.8986021424e+02   6.6609740783e+00   0.02106825  0.006103764  29.43  0.001464908    3.197    0.687
        61  -9.6284    170.9827      4.1678   2.8990542628e+02   6.6891139898e+00   0.01662368  0.008157901  38.46  0.001043518    1.962    0.490
        62 -10.4480    141.5108      3.5405   2.9024974370e+02   6.8771117846e+00   0.01742776   0.01253453  29.11  0.001387869    1.352    0.260
        63 -11.9991    133.6756      2.7602   2.9033756903e+02   6.9340695329e+00   0.02055703   0.01454314  27.18 0.0007853377    1.384    0.277
        64  -9.2492     55.6269      4.1407   2.9126921038e+02   7.3955527445e+00   0.01146612  0.008354199  38.20  0.000805833    1.343    0.255
        65 -10.1023     22.9189      2.5375   2.9164667126e+02   7.6132509637e+00   0.01501562   0.01239067 -27.07  0.001233491    1.305    0.234
        66 -10.3761    206.2045      2.5385   2.8947971135e+02   6.4913356956e+00     0.022794  0.009680664  40.61   0.00188262    2.318    0.569
        67 -10.9229      2.8899      1.8067   2.9187943297e+02   7.7434693297e+00   0.02489291   0.01246935  16.16  0.002083409    2.423    0.587
        68  -8.5094     34.2468      1.3819   2.9150547900e+02   7.5574918842e+00  0.007019969  0.004789426 -34.22 0.0006945638    1.649    0.394
        69  -9.1491     16.3765      1.1553   2.9171572016e+02   7.6688972764e+00   0.01250819   0.00489662  24.45 0.0009509019    2.679    0.627
        70 -10.8177     93.3824    123.7475   2.9155201491e+02   5.7941215071e+00   0.01258157   0.01171875 -86.92 0.0003024929    1.135    0.119
        71 -10.8308     47.8533    134.8082   2.9215709848e+02   5.9449659729e+00   0.02076237   0.01166047 -48.65  0.001299906    1.803    0.445
        72 -10.5007     79.0941    128.0596   2.9174701570e+02   5.8318898389e+00   0.03896732   0.01776595 -26.12  0.002259149    5.578    0.821
        73 -10.7987     71.7042    134.1533   2.9187136532e+02   5.8070674666e+00   0.02436968   0.01653965 -19.38  0.002346255    1.868    0.465
        74  -8.9214    216.6626    134.6953   2.9016435362e+02   4.9137375560e+00  0.007043429  0.005037692 -22.79 0.0007039768    1.672    0.402
        75  -9.9181     62.3735    132.2218   2.9196983976e+02   5.8861383967e+00   0.02164851  0.008847972 -51.90  0.001777915    2.378    0.580
        76  -9.4794    174.6648    129.6732   2.9062878679e+02   5.2288404980e+00   0.00715786  0.005001565 -24.69 0.0007051656    1.720    0.419
        77 -11.0331     55.0014    123.0890   2.9200141220e+02   6.0358712737e+00   0.03506321   0.01904979  20.02  0.002695921    1.991    0.498
        78 -10.4687     45.7074    120.4242   2.9209503499e+02   6.1230851218e+00   0.01678826   0.01340235  54.51  0.001164515    1.338    0.253
        79 -10.0800      2.1956    124.1571   2.9263198161e+02   6.3450236669e+00   0.02157532   0.01046675 -59.10  0.001921294    2.040    0.510
        80 -10.0073      5.3433    122.6826   2.9258582347e+02   6.3428127896e+00   0.02005564   0.01403307 -42.97  0.002114641    1.490    0.329
        81  -9.8364     18.8134    124.1315   2.9243540402e+02   6.2442787179e+00   0.01421515  0.008909347 -56.86  0.001191218    1.590    0.371
        82 -11.9344    105.0529    120.6638   2.9139541531e+02   5.7581915509e+00   0.04158473   0.03046718  85.31  0.004345012    1.700    0.412
        83 -10.3993    108.2445    113.2131   2.9131234497e+02   5.8241414140e+00   0.01847044    0.0138965  76.88  0.001558281    1.626    0.385
        84 -11.0857    104.0906    109.6501   2.9133969921e+02   5.8903946402e+00   0.02327651   0.02164396  -9.36  0.002310846    1.104    0.094
        85 -10.8357     34.7457    119.9698   2.9222181972e+02   6.1950653985e+00   0.01512804   0.01308503 -64.67  0.001009664    1.190    0.159
        86  -9.3209    221.2271    120.4346   2.9002353196e+02   5.0491513936e+00   0.00958667  0.005912362  39.30 0.0004887554    1.586    0.369
        87  -9.6139    148.9512    119.5129   2.9087018346e+02   5.5028491560e+00   0.01321251  0.008924403 -42.51  0.001111579    1.557    0.358
        88  -9.0092     71.7543    120.4319   2.9178731516e+02   5.9641871280e+00  0.009201143   0.00646261  10.65 0.0009373605    1.585    0.369
        89  -9.4544     81.8834    117.7348   2.9165124169e+02   5.9333090862e+00  0.009981166  0.008797914 -12.53 0.0004793925    1.203    0.168
        90 -11.3695     45.4638     85.8443   2.9188757043e+02   6.5212334954e+00    0.1067898   0.05356584 -86.55  0.007407753    4.023    0.751
        91 -11.9793     33.9011     92.9494   2.9206752286e+02   6.5101826251e+00   0.08566796   0.04813179 -81.92  0.007347354    2.540    0.606
        92 -11.5065     38.0496     86.3942   2.9197858533e+02   6.5600998646e+00   0.02497398   0.01796674  62.90  0.002603247    1.649    0.394
        93 -12.1724     10.0018     97.6551   2.9237873925e+02   6.6016364668e+00    0.0486014    0.0318376  54.50  0.004853296    1.747    0.428
        94 -12.1581      7.3666     88.5546   2.9235459298e+02   6.7220467777e+00    0.0307979   0.02666058 -38.21  0.001129091    1.188    0.159
        95 -11.4016     23.9018     98.8935   2.9222190268e+02   6.5028741966e+00   0.02700355   0.01675525 -67.16  0.001781458    1.724    0.420
        96 -12.4852     19.2467     92.3567   2.9223720552e+02   6.6061817130e+00   0.06674071   0.03275278 -57.74  0.005256017    2.003    0.501
        97 -11.7701      3.0551    111.5349   2.9254519578e+02   6.4846316061e+00   0.02997386   0.02085959 -34.72  0.002075582    1.598    0.374
        98 -11.6561      3.3894    104.8959   2.9250092355e+02   6.5587697484e+00   0.02486665   0.01850423   6.23  0.001323173    1.501    0.334
        99 -12.0893     26.5048    113.4115   2.9227937109e+02   6.3204791281e+00   0.07248113   0.02781729  16.45  0.004723233    4.050    0.753
       100 -12.5276     25.7191    107.3137   2.9225160121e+02   6.3952205705e+00   0.05231449   0.03102885 -12.44  0.004458469    2.606    0.616
       101 -10.3942     88.4593    114.7535   2.9155541348e+02   5.9273573521e+00   0.01491244  0.009964471  36.33  0.000523071    1.449    0.310
       102 -10.5589     67.1630    112.3150   2.9179217690e+02   6.0853128708e+00   0.02214151   0.01577375 -78.56  0.002313516    1.622    0.384
       103  -9.4395    126.9497    113.9994   2.9109626847e+02   5.7007347602e+00   0.01020222  0.009988542   1.75 0.0006563342    1.016    0.016
       104  -9.8256     49.0592    112.2944   2.9200599270e+02   6.1959319609e+00   0.01418897   0.01215297  -1.02  0.001209128    1.243    0.195
       105  -9.0780     52.2383    109.9970   2.9195444798e+02   6.2029118544e+00   0.01937946   0.01038318 -80.19  0.001595754    2.700    0.630
       106 -11.1710    170.8201    110.1592   2.9055510805e+02   5.4761162158e+00    0.0233017   0.01887829  21.05  0.001806641    1.233    0.189
       107 -10.8407     80.4852    108.8164   2.9161347313e+02   6.0441460382e+00   0.03137566   0.01839273  46.33  0.003002555    1.801    0.445
       108 -10.9098     85.9262    105.4029   2.9152840463e+02   6.0500770441e+00   0.01806625   0.01463202   1.73  0.001628951    1.347    0.257
       109  -9.5145    119.7626    109.0053   2.9115069156e+02   5.8019701913e+00  0.008831228  0.005640154 -62.06 0.0008762493    1.600    0.375
       110 -10.0636     14.6463    108.8629   2.9239192361e+02   6.4448151681e+00   0.01617427  0.009650776  49.18   0.00153922    1.839    0.456
       111  -9.4640    150.2947    108.6458   2.9078806409e+02   5.6192218193e+00  0.007034067  0.005037546  65.07 0.0007032332    1.688    0.408
       112 -10.6939    157.9066    105.4558   2.9067877651e+02   5.6091663339e+00   0.01619128   0.01258419 -23.04 0.0009668876    1.453    0.312
       113  -9.2151    113.7107    115.9973   2.9126475586e+02   5.7587921106e+00  0.009351938  0.008687303 -52.89  0.000379951    1.092    0.085
       114 -10.2504    143.3307    105.5914   2.9085163152e+02   5.6968857168e+00   0.01667039   0.01364491 -56.22  0.001464074    1.235    0.190
       115 -11.6816    145.8962    100.8410   2.9079237497e+02   5.7356378477e+00   0.02712652   0.01834184 -50.11  0.002835322    1.489    0.328
       116 -10.4704     57.8240     97.3801   2.9181166061e+02   6.3135821250e+00   0.01857812   0.01441874 -68.62   0.00171973    1.358    0.263
       117  -9.9530    137.4112     99.9949   2.9088738041e+02   5.7972911591e+00   0.01512016   0.01007238  -3.48 0.0004310578    1.945    0.486
       118  -9.6049    140.5627     96.2171   2.9082713065e+02   5.8213068807e+00   0.01479022   0.01027639 -37.88  0.001129978    1.562    0.360
       119  -9.8054    138.3839     93.2452   2.9083472624e+02   5.8687166510e+00   0.01678389   0.01159392  -4.58  0.001577865    1.819    0.450
       120 -11.1911     67.4174     97.1753   2.9169702355e+02   6.2574163284e+00    0.0277349   0.01731391 -53.36  0.001223971    1.594    0.373
       121 -10.2676    211.1520     97.3988   2.9000159363e+02   5.3749434503e+00   0.01987173    0.0143122 -24.74  0.002067832    1.635    0.388
       122 -12.4703     74.9418     50.1347   2.9132139842e+02   6.7508009257e+00   0.04962776   0.04128192  80.31  0.005677719    1.370    0.270
       123 -11.2367     89.6667     89.5375   2.9138756027e+02   6.2091752140e+00   0.03419827   0.01723211 -41.45   0.00281591    2.252    0.556
       124 -10.7978     93.8708     76.1505   2.9125627848e+02   6.3369760579e+00   0.02405966   0.01997376  -7.35  0.001578562    1.322    0.243
       125  -9.8173     77.9764     96.7583   2.9156969428e+02   6.1977591181e+00   0.01103537  0.009360059 -57.48 0.0003281769    1.195    0.163
       126 -11.1767     82.1950     93.0417   2.9149720394e+02   6.2146255109e+00   0.02715001   0.01647571  39.11  0.001851176    1.610    0.379
       127 -10.1488     76.8693     92.9658   2.9155968070e+02   6.2480112298e+00   0.01226384    0.0091667  35.09 0.0005575697    1.299    0.230
       128 -11.4523     80.0555     82.3736   2.9145749262e+02   6.3500185622e+00   0.03258712   0.02663802 -78.02  0.003250017    1.336    0.252
       129 -12.1960     70.5657     79.5005   2.9155216116e+02   6.4408926613e+00   0.05931058   0.03895303  -2.27  0.005700649    1.983    0.496
       130 -12.0430     85.2408     72.8242   2.9133799798e+02   6.4278350924e+00   0.03318673   0.02812451  74.06   0.00384056    1.322    0.243
       131 -11.7160     78.8166     67.0145   2.9137852084e+02   6.5336707120e+00   0.03509194   0.02236798  66.65   0.00328906    2.123    0.529
       132  -9.8095     42.7179     94.9638   2.9197553237e+02   6.4333729698e+00   0.01646259   0.01171681  11.10  0.001719103    1.548    0.354
       133 -10.8176    124.7862     93.7298   2.9099824438e+02   5.9463893789e+00   0.02719581   0.01527535  16.21  0.002470934    2.043    0.511
       134 -10.8244    120.5810     79.9808   2.9096405092e+02   6.1297390306e+00   0.05243444   0.01207259  28.01  0.003236215    4.136    0.758
       135 -10.6686    118.6775     91.8923   2.9105918425e+02   6.0048302167e+00   0.03870538   0.02081876 -10.47  0.002799705    3.662    0.727
       136 -10.9260    120.0482     85.2472   2.9100246842e+02   6.0726271169e+00   0.03914632   0.01405687  25.06   0.00210054    2.918    0.657
       137 -10.3964    127.4340     83.4646   2.9090436082e+02   6.0478668232e+00   0.01849746   0.01297966  24.47  0.001423665    1.416    0.294
       138 -10.0203    104.7391     75.3692   2.9112308153e+02   6.2795000685e+00   0.02096781   0.01597184 -47.29   0.00195112    1.334    0.250
       139 -11.0290    108.7751     80.6795   2.9110778088e+02   6.1939453368e+00   0.02309209   0.01946963  41.64  0.001552978    1.178    0.151
       140 -10.7473    113.6322     87.2147   2.9109025426e+02   6.0893189461e+00     0.017744   0.01354688  14.99 0.0008040466    1.368    0.269
       141 -10.0012    113.5115     83.4921   2.9106897934e+02   6.1327348927e+00   0.01197929   0.01190833  88.22 0.0008396164    1.034    0.032
       142  -9.6695    160.6139     93.3174   2.9057275984e+02   5.7317181992e+00   0.01591433   0.00854263  49.81  0.001408456    2.134    0.531
       143 -10.6628    152.9724     91.8044   2.9065371612e+02   5.7958831006e+00   0.01894761   0.01623501   0.71  0.002056099    1.238    0.193
       144 -10.4840    100.4975     91.1212   2.9126923903e+02   6.1248357315e+00   0.03538413   0.01611667  30.77  0.002899796    2.077    0.518
       145 -10.0459    104.3256     88.3253   2.9120696918e+02   6.1334935579e+00   0.01446724    0.0136197 -83.34  0.001773367    1.115    0.103
       146  -9.9132    212.0734     87.1239   2.8992795894e+02   5.4869964193e+00   0.01172279  0.009533726 -39.21 0.0006333329    1.278    0.218
       147 -10.3440    183.6945     85.4514   2.9025240273e+02   5.6803405660e+00   0.02949687   0.01305926 -72.74  0.002225513    3.109    0.678
       148  -9.3001     67.5589     88.0398   2.9163972234e+02   6.3613221313e+00   0.01015605     0.006431 -57.96  0.001014056    1.580    0.367
       149  -9.0519    135.2982     86.3400   2.9082903297e+02   5.9667652845e+00  0.007063682  0.004967134 -27.96 0.0007033995    1.663    0.399
       150 -10.7510    164.3573     83.0881   2.9046613601e+02   5.8260086227e+00    0.0218517   0.01786884  51.92  0.001676435    1.278    0.218
       151 -11.2918    143.1377     84.1814   2.9072329550e+02   5.9435020289e+00   0.01697974   0.01393847  25.81 0.0008443501    1.196    0.164
       152 -11.1379    143.7977     80.1305   2.9069077896e+02   5.9858897563e+00   0.01636255   0.01293207  51.71 0.0007518322    1.331    0.249
       153 -11.1914     58.5915     78.3809   2.9168690699e+02   6.5267848417e+00   0.02487533   0.02001394  76.87  0.001248099    1.446    0.309
       154 -10.1210     53.6976     80.3633   2.9175684423e+02   6.5338969105e+00   0.01206364   0.01034619  88.70 0.0006997209    1.295    0.228
       155 -11.4099     52.8316     76.1550   2.9174145693e+02   6.5874323671e+00   0.03682956   0.01651378 -54.40  0.003184148    2.161    0.537
       156 -10.0706    134.6312     77.5692   2.9078338843e+02   6.0713820721e+00   0.01514602   0.01300879  54.39  0.001323731    1.218    0.179
       157  -9.6809      2.4108     56.1491   2.9221613796e+02   7.1237640278e+00   0.02650281    0.0133972  21.19  0.002323231    2.129    0.530
       158  -9.9938     22.5340     72.0186   2.9207461077e+02   6.8194227492e+00   0.02309521   0.01021401  37.67  0.001613626    2.151    0.535
       159 -10.3155      5.8357     75.6457   2.9229421659e+02   6.8794024062e+00   0.03066805   0.01181943 -41.96  0.001552478    3.240    0.691
       160 -10.2979     13.8841     54.0418   2.9206753204e+02   7.0781543861e+00   0.02182547   0.01504923 -17.56 0.0003673474    1.823    0.451
       161 -11.9374     13.6426     74.7762   2.9219657079e+02   6.8418992479e+00   0.02501964   0.02333879  -2.80   0.00157065    1.091    0.084
       162 -10.8234     14.4290     67.5039   2.9214302200e+02   6.9205046292e+00   0.01896768   0.01739026 -81.71  0.001470804    1.155    0.134
       163 -12.2589      2.2519     70.4579   2.9230506691e+02   6.9606762140e+00   0.04148464   0.01252234 -57.74  0.003013561    3.066    0.674
       164 -12.1431      6.6466     62.0942   2.9220218815e+02   7.0298571085e+00   0.04774937    0.0176136 -45.35  0.003554327    3.011    0.668
       165 -10.8592     11.2089     62.5425   2.9215093057e+02   6.9969743181e+00   0.02324616   0.01159706  18.53  0.001978396    2.297    0.565
       166  -8.8801    156.6877     78.3172   2.9052753162e+02   5.9276931616e+00  0.006994852  0.005007044  61.42 0.0007035038    1.643    0.391
       167  -9.7050    242.0229     76.2736   2.8950869825e+02   5.4272417537e+00  0.009931217  0.008817891  28.79  0.001174998    1.100    0.091
       168 -12.2841    186.2787     70.3978   2.9012995149e+02   5.8369516957e+00   0.04100723   0.03190204 -62.98  0.003476089    1.320    0.242
       169  -9.6515    192.1633     65.6735   2.9003165888e+02   5.8549468789e+00   0.01327877  0.009315118  58.58  0.001040219    1.652    0.395
       170  -9.5181    126.7968     76.6081   2.9087005175e+02   6.1303587685e+00  0.009540587  0.005851505  38.46 0.0003393875    1.586    0.370
       171  -9.3373    230.6722     73.5477   2.8962576398e+02   5.5282265042e+00   0.01548967  0.009170682  68.28  0.001322236    2.559    0.609
       172  -9.9805     46.4502     72.7602   2.9179624531e+02   6.6652571913e+00   0.01555603   0.01005873 -83.67   0.00148841    1.991    0.498
       173 -11.3984     40.5212     71.3186   2.9185758769e+02   6.7179173205e+00   0.03169302   0.02147492 -31.16  0.003209667    1.714    0.417
       174 -11.1482     33.2557     71.9811   2.9194755593e+02   6.7545790879e+00   0.02664137   0.01484461  28.63  0.002532294    1.739    0.425
       175  -8.9384    151.3006     73.3643   2.9056088654e+02   6.0174650809e+00  0.007193382  0.004919101 -28.86 0.0007034757    1.727    0.421
       176  -9.7200     61.5089     73.0058   2.9161966921e+02   6.5706202665e+00   0.01330405  0.008131491  41.70 0.0006587023    1.632    0.387
       177 -10.1656    162.0332     70.3336   2.9041567684e+02   5.9864073871e+00    0.0179638   0.01212259  47.34  0.001848357    1.549    0.354
       178 -11.5663    122.7847     67.9326   2.9086450153e+02   6.2543473757e+00   0.03068188   0.01857651  18.94  0.002141774    1.768    0.434
       179 -11.6882    219.4227     66.1142   2.8971289909e+02   5.6824784871e+00    0.0322127   0.01976245  25.63  0.002285989    1.619    0.382
       180 -10.3703    207.0395     68.5600   2.8987385078e+02   5.7305425412e+00   0.02069347   0.01125173  13.16  0.001790891    2.297    0.565
       181 -10.6797    172.1792     67.8069   2.9028049009e+02   5.9531373546e+00    0.0193253   0.01652574 -89.37  0.001580521    1.297    0.229
       182 -10.3904    129.5484     65.6899   2.9077091211e+02   6.2386452272e+00   0.02618426   0.01615972  74.50  0.002316854    2.445    0.591
       183 -10.5018     22.5557     36.2008   2.9185623523e+02   7.2298623662e+00   0.03322116   0.01603466  47.93  0.002802383    2.363    0.577
       184 -10.4085     23.2346     47.9676   2.9191988860e+02   7.0908812595e+00   0.04535456   0.01818011  24.01  0.003548788    2.640    0.621
       185 -11.1890     25.7625     56.2047   2.9194014455e+02   6.9810767049e+00   0.06284334   0.03922024  16.74  0.006160983    1.747    0.427
       186 -11.4065     32.5134     42.0494   2.9177402656e+02   7.1022111776e+00   0.03997881   0.02401712  38.94  0.002722356    1.625    0.385
       187  -9.9535    142.9563    249.4995   2.9173150442e+02   4.0484435376e+00   0.01049194  0.006500369  26.76  0.001031572    1.586    0.369
       188 -10.9592     58.0296     61.8000   2.9159253119e+02   6.7203091404e+00     0.041691   0.02411147 -86.53  0.003563371    2.603    0.616
       189 -11.5352     51.7295     61.5405   2.9166546066e+02   6.7617050625e+00   0.02380668   0.01747879  82.22   0.00101696    1.704    0.413
       190  -9.5240    174.4249    246.8901   2.9134500032e+02   3.8860156136e+00   0.01420533  0.009209156   0.75  0.001343702    1.992    0.498
       191 -11.4008     46.0228     58.1813   2.9171249307e+02   6.8350017544e+00   0.02871411   0.02297864 -65.23  0.002921656    1.293    0.227
       192 -11.4390     40.3570     55.9564   2.9176596237e+02   6.8950344730e+00   0.02958063   0.02121568  61.48  0.002152523    1.640    0.390
       193 -11.0938     51.2233     45.7031   2.9157491900e+02   6.9463164067e+00   0.02316331    0.0180856  77.32 0.0006130117    1.524    0.344
       194 -10.4556    128.5300    244.5183   2.9187126009e+02   4.1937140982e+00   0.01233148  0.008973893 -63.73 0.0008522728    1.416    0.294
       195 -11.7329     46.0661     48.9683   2.9165583594e+02   6.9403373419e+00   0.02299598    0.0186877 -23.92   0.00139532    1.349    0.259
       196 -12.3543     41.8249     45.5250   2.9168502676e+02   7.0056497612e+00   0.01909113   0.01544316  29.56 0.0003287963    1.204    0.170
       197 -10.7295     20.9878     65.1180   2.9205090366e+02   6.9079540566e+00   0.01302195   0.01026292  27.31 0.0006790868    1.241    0.194
       198  -9.6932    204.9503     63.6024   2.8986817827e+02   5.8001505014e+00   0.01525268   0.01018367  -8.84  0.001083574    1.978    0.494
       199 -10.3549     98.5618     62.3859   2.9111688603e+02   6.4660835677e+00   0.02196626    0.0158309   4.36  0.001701631    1.601    0.376
       200  -9.7733     84.8739     62.1563   2.9127728619e+02   6.5523614464e+00     0.020643   0.01337573 -37.42  0.001443477    1.717    0.418
       201 -10.9859     87.4985     56.9465   2.9121448004e+02   6.5960392417e+00   0.02184944   0.01271482 -61.31  0.001382953    1.746    0.427
       202 -11.1970     91.9379     62.3982   2.9119525552e+02   6.5064284069e+00   0.01853741   0.01725975  38.95  0.001058219    1.063    0.059
       203 -10.9266     91.2941     57.9906   2.9117597877e+02   6.5608801817e+00   0.01777536   0.01539282  30.18  0.001230074    1.127    0.112
       204  -9.5860    167.7548     63.0168   2.9030344251e+02   6.0351496319e+00   0.01132298  0.009216741  29.84  0.001285972    1.197    0.164
       205 -10.8677    159.5072     61.6910   2.9039270274e+02   6.1009125927e+00   0.02114396   0.01507161  -1.49  0.001832157    1.693    0.409
       206 -11.5628    156.7055     53.5166   2.9037583538e+02   6.2117332698e+00   0.04355974   0.02362818 -63.64  0.004057337    1.919    0.479
       207 -12.0747    156.2404     41.7383   2.9030934300e+02   6.3494895876e+00   0.03334348   0.01717255  37.30 0.0007041629    1.859    0.462
       208 -11.0917    153.3060     36.1089   2.9030958364e+02   6.4319507000e+00   0.01508395   0.01469728  43.90 0.0006550833    1.032    0.031
       209 -10.7710    127.6372    241.6949   2.9186465162e+02   4.2315611225e+00   0.02703079   0.01195038  10.58  0.001785306    4.068    0.754
       210  -9.6744    198.9804    244.5119   2.9104142428e+02   3.7630685866e+00   0.01058026  0.006403296  29.49  0.001032091    1.597    0.374
       211 -10.1433    150.4853    237.5048   2.9156999501e+02   4.1400329192e+00  0.006650427  0.006455124  -4.19  3.01926e-05    1.032    0.031
       212  -9.3699     15.4502    233.3026   2.9313658143e+02   5.0115629626e+00   0.01273878  0.006124766 -56.39  0.001122661    2.030    0.507
       213 -11.7683    105.8191     32.6962   2.9084985723e+02   6.7618816070e+00   0.02691843    0.0143962 -36.18  0.002170327    2.312    0.567
       214  -9.5171    205.3301    233.7099   2.9090100112e+02   3.8480575141e+00  0.006989243  0.004949127  58.18 0.0007017826    1.623    0.384
       215 -12.6533    117.2618     42.9402   2.9077717000e+02   6.5745187608e+00   0.04869007   0.02277963  47.63   0.00337186    2.441    0.590
       216 -13.0016    120.6006     38.8289   2.9071259851e+02   6.6011764880e+00    0.0395119   0.02538045  57.95  0.003006945    1.882    0.469
       217 -10.3571    105.7526     61.4451   2.9102615891e+02   6.4328990806e+00   0.02621445   0.01393013 -65.44  0.002394199    2.007    0.502
       218 -10.9190     60.9155     36.3561   2.9140325314e+02   6.9943018877e+00   0.01815291    0.0106157 -64.32  0.001083766    1.785    0.440
       219  -9.8185    147.8564     60.5885   2.9052353188e+02   6.1849586568e+00   0.02001719   0.00557756  31.14  0.001387457    3.190    0.687
       220  -9.2683    229.5485     59.5451   2.8955337136e+02   5.6954566802e+00  0.006614794  0.006429763  39.05 -2.067032e-05    1.026    0.025
       221 -10.3496    138.9140     43.8368   2.9052681026e+02   6.4316566471e+00    0.0189246   0.01173528  -4.29  0.001383943    2.285    0.562
       222 -10.3189    242.4249    231.2420   2.9044943568e+02   3.6491689417e+00   0.01884655   0.01120547  63.35  0.001665678    2.349    0.574
       223  -9.3141    219.7130     57.1349   2.8965456348e+02   5.7835060339e+00   0.01218768  0.008544661  40.33  0.001097395    1.407    0.289
       224  -9.4798    187.4665     55.1647   2.9002282992e+02   6.0041370703e+00    0.0137974  0.008830788   7.14  0.001314876    1.913    0.477
       225  -9.7195     67.0264     54.9574   2.9144441758e+02   6.7438496611e+00   0.01015179  0.009762325  44.64 0.0005602016    1.044    0.042
       226  -9.8267    249.1874     52.9267   2.8928148386e+02   5.6504356072e+00   0.01440133  0.009534872  36.45 0.0008035936    1.461    0.316
       227 -10.4268    233.5930     45.0717   2.8941715394e+02   5.8362582515e+00   0.02260559   0.01553494  28.56  0.002038891    1.417    0.294
       228 -10.5644    231.6418     39.8789   2.8940837011e+02   5.9076863846e+00   0.01753187   0.01084216  54.74  0.001358694    1.905    0.475
       229 -11.1569    239.8907     50.3537   2.8937526393e+02   5.7370708054e+00   0.02084622   0.01687275  32.65  0.001109132    1.202    0.168
       230  -9.9801    211.3366     53.0769   2.8972850358e+02   5.8814415591e+00    0.0139561  0.009745217  35.87   0.00147503    1.387    0.279
       231  -9.6645    216.1252     52.0973   2.8966604892e+02   5.8632308124e+00   0.01045051  0.008993507 -21.35 0.0006471137    1.244    0.196
       232 -11.2956    201.6298     48.9540   2.8981776584e+02   5.9882809644e+00   0.03808661   0.02418664  71.19  0.003509081    2.235    0.553
       233 -10.9520    176.8248     37.7190   2.9004174044e+02   6.2692296943e+00   0.02032507   0.01375866 -54.21  0.001214295    1.477    0.323
       234 -11.3249    173.8287     48.2147   2.9014128262e+02   6.1674323644e+00   0.02722606    0.0167904  35.15  0.001580355    1.557    0.358
       235 -11.1833    171.9107     33.9347   2.9007660454e+02   6.3427176053e+00    0.0232391   0.01379668  21.99   0.00203906    1.742    0.426
       236 -10.4543    175.6784     29.4896   2.9000493706e+02   6.3704822906e+00   0.01532037   0.01401725 -38.70 0.0009922627    1.114    0.103
       237 -10.2547    244.4911     50.5080   2.8932200576e+02   5.7070071836e+00   0.01255906   0.01164652 -84.14 0.0008989267    1.139    0.122
       238  -9.8767     90.7078     48.1547   2.9112289422e+02   6.6771795684e+00    0.0126686   0.01082771  60.85  0.001297085    1.258    0.205
       239  -9.5874      3.9490     48.9838   2.9215432257e+02   7.1965493152e+00   0.01177507   0.00917629  27.31  0.000821629    1.255    0.203
       240  -9.2721     14.5459     46.2965   2.9201253884e+02   7.1629063040e+00   0.01815493  0.009447429 -39.46  0.001580555    2.243    0.554
       241  -9.5552     18.3129     41.8054   2.9194060001e+02   7.1914580915e+00   0.01569149  0.008824259   6.95  0.001156263    2.439    0.590
       242  -9.9965    193.3407     45.9462   2.8989715383e+02   6.0736311926e+00   0.01803839  0.008708558  46.10  0.001535026    2.255    0.557
       243 -11.4158    136.3393     55.9554   2.9063125591e+02   6.3086007755e+00   0.02968645   0.01905481 -55.58  0.002087389    1.554    0.356
       244  -8.2330     94.1269     36.1823   2.9100938613e+02   6.7934509263e+00   0.01325987  0.009048267 -88.52 0.0009782198    1.888    0.470
       245 -10.2421    100.7429     43.7603   2.9097743197e+02   6.6661818586e+00   0.02180263   0.01245974  56.19  0.001946968    2.217    0.549
       246 -11.3135     93.7695     41.2185   2.9104435882e+02   6.7379396006e+00   0.02634225   0.01576472  26.74  0.001752389    1.643    0.391
       247 -10.8770    177.6012     44.1466   2.9007188132e+02   6.1908672728e+00   0.02786473   0.01869479  85.86  0.002697725    2.017    0.504
       248 -10.0523      4.4850     44.2149   2.9211894642e+02   7.2479490816e+00    0.0207204   0.01104019  14.10  0.001253344    2.306    0.566
       249 -10.8387      5.0748     36.4539   2.9206470466e+02   7.3333067057e+00   0.02145601   0.01976967 -71.57   0.00193664    1.128    0.114
       250  -8.2606      7.2844     30.8570   2.9200445358e+02   7.3840040643e+00   0.03045957   0.00982397  31.85  0.002271282    2.796    0.642
       251 -10.6557    189.0991     40.4264   2.8991343930e+02   6.1628756700e+00   0.02489974   0.01008793 -59.48   0.00203446    2.428    0.588
       252  -8.9057     11.6463     42.6649   2.9202474266e+02   7.2221662975e+00  0.007275562  0.004958638 -24.49 0.0007044437    1.793    0.442
       253 -11.6154     70.0032     32.6759   2.9127329078e+02   6.9809997089e+00   0.02734288   0.01584696  19.08  0.002575532    1.863    0.463
       254 -11.2703     81.6832     39.4418   2.9117643317e+02   6.8321537618e+00   0.02505237   0.01499247  50.64  0.001255632    1.874    0.466
       255 -10.6835     77.7664     34.4453   2.9119226186e+02   6.9133227245e+00   0.02143534   0.01230482  20.01  0.001121104    1.859    0.462
       256 -10.4439     82.0273     31.7216   2.9112524091e+02   6.9184966132e+00   0.02508057   0.01803974  36.20    0.0027067    1.350    0.259
       257  -9.5287    218.0541     38.9562   2.8956290530e+02   6.0017980670e+00   0.01033294   0.01008191   8.40 0.0007168442    1.015    0.015
       258 -11.2243    112.9293     50.7903   2.9087630899e+02   6.5110941909e+00   0.05352287   0.03235275 -69.66  0.005184989    1.835    0.455
       259 -10.4136    197.9768    231.8165   2.9097605992e+02   3.9147799856e+00   0.01146086  0.007610133 -12.44  0.001086571    1.998    0.500
       260  -9.5435    133.4482     37.2386   2.9055106552e+02   6.5407167493e+00   0.02170344   0.01398086  61.15  0.001991818    1.952    0.488
       261 -10.3408    206.8065     37.1638   2.8968457977e+02   6.0914476857e+00   0.01477376   0.01321057  61.40 0.0007899357    1.182    0.154
       262  -8.1461     88.2640     37.2645   2.9108532026e+02   6.8168887676e+00  0.006467284  0.004998535 -24.59 0.0002338166    1.456    0.313
       263  -8.7960     13.2854     37.6659   2.9197489244e+02   7.2694844379e+00  0.006886099  0.005046106  64.69 0.0004109473    1.622    0.384
       264 -10.5882    189.4817     32.5173   2.8986054205e+02   6.2510700857e+00   0.01932718   0.01431765  38.86  0.001178002    1.323    0.244
       265 -10.4314    189.1648     27.9274   2.8983619930e+02   6.3055549588e+00    0.0192565   0.01476906 -44.68  0.001795848    1.337    0.252
       266  -9.9640    247.5858    231.2421   2.9038872620e+02   3.6175472087e+00   0.01435572   0.00531763 -53.83  0.001123645    2.564    0.610
       267  -9.1013     23.4870    231.5287   2.9303106159e+02   4.9830640709e+00  0.006624281  0.006460242  31.45 0.0008098083    1.014    0.014
       268 -10.7890    143.9833     24.9798   2.9035166230e+02   6.6165395087e+00   0.03641924   0.01377787  41.15  0.002834713    2.634    0.620
       269  -9.1375    189.8399    229.8487   2.9105990979e+02   3.9871455573e+00  0.009124699  0.007704056  58.23  0.000435702    1.266    0.210
       270 -10.6903    153.3862     25.8041   2.9024562752e+02   6.5494505771e+00   0.02568249   0.01399578 -45.90  0.001948979    1.913    0.477
       271  -9.9969    156.5319     25.4098   2.9020606117e+02   6.5346721530e+00   0.01264976   0.01116677 -25.98 0.0005484713    1.188    0.159
       272 -10.7373    240.7100     30.9122   2.8924661085e+02   5.9544995497e+00   0.02687005   0.01688077 -52.23   0.00222923    1.590    0.371
       273 -10.5558    217.0559     32.0390   2.8953234218e+02   6.0871001904e+00   0.01262911   0.01051334  -4.58 0.0004721078    1.313    0.238
       274 -10.3471    199.5355     24.9453   2.8969557902e+02   6.2759727228e+00   0.01443775   0.01203076 -50.06 0.0007134794    1.214    0.176
       275  -8.9973    182.5054     32.0607   2.8994008041e+02   6.2991376470e+00   0.00973066  0.006648863 -62.99 0.0004089288    1.506    0.336
       276  -9.6371      9.0701    227.2967   2.9317553244e+02   5.1192913503e+00  0.009585623  0.008359898  24.98 0.0004059927    1.126    0.112
       277  -9.9787      9.9773    217.7740   2.9310725156e+02   5.2231074793e+00   0.01172295  0.009795393 -59.73 0.0006064234    1.216    0.178
       278  -9.5178    166.9410    213.7808   2.9123196209e+02   4.3115441613e+00   0.01556251  0.008915085  77.87  0.001227488    3.071    0.674
       279  -9.3790    152.7772    207.8013   2.9136252890e+02   4.4667725578e+00  0.009545818  0.007750363  58.89  0.001065402    1.340    0.254
       280 -10.9515      4.5125    203.4740   2.9308524054e+02   5.4204908985e+00   0.03721907  0.009209922 -52.93  0.002490116    3.595    0.722
       281 -12.3299      5.4957    185.4825   2.9296474317e+02   5.6210690302e+00   0.04318413   0.03609212  83.14  0.004958303    1.355    0.262
       282 -10.6000    230.6010     29.8332   2.8935914653e+02   6.0290402760e+00   0.02093984   0.01500174 -73.11  0.001561742    1.542    0.352
       283 -11.0949    198.0781     28.8139   2.8973644956e+02   6.2406525372e+00    0.0221235   0.01801909 -44.75  0.001621071    1.254    0.203
       284  -9.8431    250.4609     25.3725   2.8909780085e+02   5.9578556738e+00   0.01223571  0.007676997 -56.70 0.0004661605    1.591    0.371
       285 -11.2076    183.6319     24.5687   2.8988094685e+02   6.3779792612e+00    0.0239486   0.01683864  18.37  0.002061214    1.480    0.324
       286 -10.4122    234.2870    196.9188   2.9033618797e+02   4.0924404669e+00   0.01851274   0.01582768 -30.99  0.001449574    1.231    0.187
       287 -10.4411     16.8841    192.6772   2.9287386385e+02   5.4692458901e+00   0.01146236   0.01132273 -30.76 0.0004300429    1.025    0.025
       288  -9.8631    169.9665    191.1574   2.9105870727e+02   4.5525230818e+00   0.01795256  0.009333993   9.52  0.001437703    2.739    0.635
       289  -9.8706     80.7713     19.3922   2.9106481340e+02   7.0673907175e+00   0.01552537   0.01093448   9.90   0.00105801    1.589    0.371
       290 -10.0312    213.2231    181.1804   2.9048830938e+02   4.4019772775e+00   0.01130026  0.008063016 -25.28  0.001157652    1.654    0.395
       291  -9.4945    222.9805     22.4787   2.8940395877e+02   6.1600610858e+00   0.01274554   0.01033824  16.04 0.0008296967    1.262    0.207
       292 -10.2835    220.9920     19.0652   2.8940650466e+02   6.2113441060e+00   0.01146316   0.01124687 -87.26  0.001432076    1.052    0.050
       293  -9.0642    169.4845     23.5313   2.9004161295e+02   6.4767063273e+00  0.006633554  0.006451177   1.91 0.0001139399    1.024    0.024
       294  -9.6350    250.5022    179.9683   2.9004203915e+02   4.1872647860e+00   0.01637032  0.005422388 -54.75  0.001225734    2.812    0.644
       295  -9.5448     28.3179    176.3239   2.9263979475e+02   5.5874284654e+00  0.007066529  0.004997572 -25.77 0.0007044389    1.671    0.402
       296  -9.0989     57.3066    175.0876   2.9229004352e+02   5.4250934998e+00  0.009128261  0.008595939 -62.73 0.0004905206    1.087    0.080
       297  -9.9702     51.7082    174.2983   2.9235134619e+02   5.4682656566e+00   0.01279104  0.009612178  55.89  0.001068972    1.462    0.316
       298 -10.6107    245.4650    200.9513   2.9022920464e+02   3.9776917905e+00   0.01070925    0.0088884  27.52 0.0006355162    1.178    0.151
       299 -10.1075    214.8787     21.5490   2.8949380416e+02   6.2205220101e+00   0.01699322   0.01110388 -16.72  0.001606104    2.052    0.513
       300  -9.8739    247.7898    173.6953   2.9003570931e+02   4.2757910527e+00   0.01598569  0.009457015  -2.07    0.0013627    2.521    0.603
       301  -9.6630     39.5026    173.0433   2.9248784087e+02   5.5570091316e+00  0.009686169  0.009163557 -60.95 0.0008713645    1.080    0.074
       302 -11.2160     34.9877    170.4543   2.9252544866e+02   5.6142130467e+00   0.01553056   0.01384469   5.93   0.00155879    1.152    0.132
       303 -11.6791      9.1270    166.9182   2.9280941188e+02   5.8121117537e+00   0.02657393   0.02464008  66.79  0.002397795    1.134    0.118
       304 -12.0082     13.2788    159.6130   2.9271609237e+02   5.8707267333e+00   0.03551973   0.02622348  87.94  0.002387953    1.660    0.398
       305  -9.6083     66.4586     22.4285   2.9125268040e+02   7.1200233508e+00   0.01182779   0.01008059  27.45 0.0006726903    1.147    0.128
       306 -10.1053     74.4765     19.5296   2.9114011994e+02   7.1042692624e+00    0.0120457   0.01004978 -48.30 0.0006871268    1.214    0.176
       307  -8.8834    149.3192    168.3216   2.9116316142e+02   4.9408152671e+00  0.007061749  0.005010291 -25.34 0.0007043834    1.668    0.401
       308  -9.5826     39.9852    166.3435   2.9244150087e+02   5.6309716916e+00   0.01453502   0.00688637 -38.50  0.001162262    2.650    0.623
       309  -9.7361    188.9511    164.1836   2.9067071472e+02   4.7456029111e+00    0.0120265  0.009752059 -58.90 0.0008034061    1.251    0.201
       310  -9.7810    205.1146    163.1123   2.9047371847e+02   4.6588228252e+00   0.01297916  0.009859291   9.24 0.0006065531    1.432    0.301
       311  -9.8640     28.1248    163.1254   2.9256204364e+02   5.7401049162e+00   0.01074181  0.009102229 -26.01 0.0007491233    1.261    0.207
       312  -9.4894      1.6461     20.3957   2.9200747722e+02   7.5381335611e+00  0.008956471  0.006398599  13.45 0.0006003152    1.507    0.337
       313 -10.7963    246.5858    159.1152   2.8996095186e+02   4.4502569485e+00   0.01955239  0.007878869 -59.47  0.001588368    2.438    0.590
       314 -10.2304     81.1357    160.0272   2.9191727121e+02   5.4526283762e+00   0.02135397   0.01300352  23.33  0.002094008    1.665    0.399
       315  -9.1971    224.3203    156.6831   2.9020827937e+02   4.6147469961e+00  0.007042191  0.004993867  60.93 0.0007041435    1.660    0.398
       316 -10.5782    104.4994    153.6969   2.9160298708e+02   5.3826204570e+00    0.0206592   0.01251932 -69.74  0.001995283    1.829    0.453
       317 -11.3905     13.4055    139.5517   2.9259291773e+02   6.1002110635e+00   0.03374749   0.02240193  61.60  0.003327815    1.860    0.462
       318 -10.7003     14.1247    132.5407   2.9254187144e+02   6.1762983560e+00   0.01490411    0.0128961  78.85  0.001738877    1.282    0.220
       319 -10.8173     10.5495    128.0141   2.9255664920e+02   6.2499830876e+00   0.04132365   0.01183949 -52.86  0.002931715    3.204    0.688
       320  -9.0491     27.7628     15.5226   2.9166852959e+02   7.4350544066e+00  0.009336259  0.005921168  40.48 0.0009269272    1.558    0.358
       321  -9.8512    219.5265     12.9135   2.8938611558e+02   6.2907316087e+00   0.01363282  0.009983866  25.40 0.0009956862    1.348    0.258
       322 -11.9990     22.4332    149.7494   2.9254813004e+02   5.9282629825e+00   0.03295034   0.02281369 -27.06  0.003358047    1.715    0.417
       323 -10.3376     15.5923    147.8000   2.9261712191e+02   5.9922474201e+00   0.01915103   0.01333044  41.03  0.001172762    1.424    0.298
       324 -12.1908     23.2838    136.3581   2.9245680882e+02   6.0767762447e+00   0.06323837   0.04275397  71.47  0.006199017    1.955    0.488
       325 -11.5328     29.8326    132.8667   2.9235822717e+02   6.0769890288e+00    0.0292638   0.02136315 -83.99  0.002056188    1.626    0.385
       326 -11.4147     30.4972    148.8980   2.9244770105e+02   5.8889641725e+00   0.04309023   0.01570376 -64.94  0.002833234    3.026    0.669
       327 -10.7719     33.3159    144.3291   2.9238666888e+02   5.9242431439e+00   0.01947875   0.01583812 -63.55  0.001424232    1.263    0.208
       328 -12.0315      5.1261    147.3393   2.9273798415e+02   6.0611637815e+00   0.03686132   0.02495407 -46.74   0.00284835    1.509    0.337
       329 -10.9073      1.8664    141.2719   2.9273970565e+02   6.1506121484e+00   0.01897207   0.01608108 -55.99  0.002217018    1.193    0.162
       330 -11.8590      3.5560    136.4610   2.9269055875e+02   6.1955582420e+00   0.01470298   0.01378974  39.93 0.0004945244    1.058    0.055
       331 -11.1167    116.3988     57.6581   2.9087723666e+02   6.4111699949e+00   0.05428584   0.02708493 -34.05  0.004364616    2.765    0.638
       332  -9.9188    214.1682    151.6211   2.9029699339e+02   4.7350395252e+00   0.01279926  0.009034976  78.55  0.001164867    1.839    0.456
       333 -11.3803     63.1572    150.5014   2.9207167624e+02   5.6716029068e+00   0.02677819   0.01785787  -3.44   0.00224213    1.936    0.483
       334  -9.9129     47.1868    151.7203   2.9226769537e+02   5.7549468141e+00   0.03441047    0.0155309  52.98  0.002582581    3.113    0.679
       335 -10.4679     48.0810    147.9572   2.9223428150e+02   5.7926856492e+00   0.01928592   0.01219846  14.94  0.001620541    1.757    0.431
       336 -10.1247     46.3884    144.7754   2.9223495136e+02   5.8395120253e+00   0.01906221   0.01032504 -35.59  0.001296468    2.292    0.564
       337 -10.1493     71.2952    151.1345   2.9197942051e+02   5.6147099026e+00   0.01420356  0.009723992  33.62  0.001487283    1.410    0.291
       338  -9.9280     60.5432    147.4888   2.9208424499e+02   5.7221115517e+00   0.01212033   0.01130798  30.14 0.0007136471    1.049    0.047
       339 -10.8596    249.4739    142.5201   2.8982568592e+02   4.6226762350e+00   0.02806871   0.01256608 -61.42  0.002387427    2.263    0.558
       340  -9.4681    239.7640    146.6098   2.8996496171e+02   4.6354253414e+00  0.009603987   0.00587931  37.89 0.0009241496    1.584    0.369
       341 -10.3139    133.5661    139.8027   2.9117537190e+02   5.3643216889e+00   0.01728403   0.01519866  21.08  0.001486296    1.125    0.111
       342  -9.5867     69.4826    140.4938   2.9193615337e+02   5.7478678249e+00  0.006688918  0.006410925 -12.32 6.896042e-06    1.055    0.052
       343  -8.6069    186.6823    139.3345   2.9054599562e+02   5.0444209378e+00  0.007097743  0.005002179  62.23 0.0005361044    1.696    0.410
       344 -11.0749     81.5413    135.1528   2.9176125848e+02   5.7355739101e+00   0.03188831   0.01997597  -7.86  0.002893429    2.263    0.558
       345 -11.3233     92.4147    130.3949   2.9160389987e+02   5.7237741659e+00   0.03306123   0.01585258 -63.39  0.002889284    2.169    0.539
