#   1 NUMBER                 Running object number                                     
#   2 MAG_AUTO               Kron-like elliptical aperture magnitude                    [mag]
#   3 X_IMAGE                Object position along x                                    [pixel]
#   4 Y_IMAGE                Object position along y                                    [pixel]
#   5 X_WORLD                Barycenter position along world x axis                     [deg]
#   6 Y_WORLD                Barycenter position along world y axis                     [deg]
#   7 A_WORLD                Profile RMS along major axis (world units)                 [deg]
#   8 B_WORLD                Profile RMS along minor axis (world units)                 [deg]
#   9 THETA_WORLD            Position angle (CCW/world-x)                               [deg]
#  10 FWHM_WORLD             FWHM assuming a gaussian core                              [deg]
#  11 ELONGATION             A_IMAGE/B_IMAGE                                           
#  12 ELLIPTICITY            1 - B_IMAGE/A_IMAGE                                       
         1 -10.8958    184.7166     31.8783   6.8591466550e+01   3.5237545324e+01    0.8736838    0.7316491  86.21  0.004914806    1.088    0.081
         2 -11.2265    191.7959     20.8263   6.4802409973e+01   3.4790526135e+01    0.6231967    0.6132421 -47.18  0.001359669    1.257    0.204
         3  -9.2072    202.9448     14.3067   6.1884357529e+01   3.2796442661e+01    0.2072399     0.178776 -66.60 0.0006163461    1.171    0.146
         4  -8.1689    203.7308      7.2660   6.0172194483e+01   3.3356824853e+01    0.2023324    0.1232073  43.40  0.001041301    2.124    0.529
         5  -7.4073    174.5286      6.5646   6.3437856585e+01   4.0516586476e+01    0.1323742    0.1077145  71.11 0.0001173274    1.038    0.037
         6  -8.2455    102.6070    236.8217   1.3253266238e+02   1.1865638160e+01     0.230098    0.1666697  65.11 0.0004824206    1.235    0.190
         7  -9.3901    132.8138    249.9780   1.2810936330e+02   4.3765751671e+00    0.4599012    0.1672504  35.15  0.001763429    2.980    0.664
         8  -9.3663    120.8511    249.2513   1.3037962984e+02   6.5237647079e+00    0.3035105    0.2865405  11.26 0.0007994117    1.398    0.285
         9  -8.5598    107.6890    249.6296   1.3299427794e+02   8.6233599611e+00    0.2388807    0.2108012  -1.20  0.001525936    1.733    0.423
        10  -9.5315     96.6763    249.5410   1.3510602594e+02   1.0398153672e+01    0.4450705    0.2176338  52.03  0.002285729    1.692    0.409
        11 -13.2442     63.2605    212.4605   1.3784282288e+02   2.2893607326e+01     5.200764     2.533505  70.26   0.02323446    2.463    0.594
        12 -10.6096    106.8654    230.2262   1.3086868779e+02   1.2462390780e+01    0.9086273    0.2480029  42.21  0.003281282    3.054    0.673
        13  -8.4427    110.2394    224.9142   1.2948694076e+02   1.2961706903e+01    0.2938581      0.22302 -58.42  0.001117622    1.485    0.326
        14 -11.3103     19.4468    215.0327   1.4666970194e+02   2.7653750598e+01    0.9719473    0.3515871  44.80  0.002792334    2.390    0.582
        15 -11.7089     11.4232    207.3628   1.4762178539e+02   3.0067858141e+01    0.6945448      0.45016  35.02  0.003365109    1.853    0.460
        16  -9.9769     95.2399    227.5767   1.3294068530e+02   1.4899100594e+01    0.3892905    0.2216447  46.15  0.001236033    1.519    0.341
        17 -12.8437     14.6071    242.7006   1.4927146824e+02   2.2638863841e+01     1.125752    0.6559766  28.99  0.006952484    2.561    0.609
        18  -7.1532      1.4111    220.4403   1.5023108223e+02   2.8329759235e+01    0.1122644   0.07592975  78.16 0.0001190132    1.064    0.060
        19  -7.8405      5.9231    218.4365   1.4933026189e+02   2.8307468099e+01    0.1672291    0.1477831  45.87  0.001322421    1.539    0.350
        20  -8.1790      3.6861    213.5089   1.4942736925e+02   2.9524236200e+01    0.3323337    0.1095295  63.47  0.001521132    3.074    0.675
        21 -12.4692     52.7387    234.2695   1.4197846394e+02   1.9755499015e+01     2.044286    0.7141967 -61.40  0.009493117    2.912    0.657
        22 -10.0600    164.8510    211.8196   1.1571146639e+02   5.5922767124e+00    0.2807844    0.2346637  29.58 0.0003608628    1.156    0.135
        23  -7.3010     92.5557    208.5605   1.3113539525e+02   1.9347506550e+01    0.1379851    0.1162053  70.15 0.0001189819    1.025    0.024
        24  -7.9533     30.9466    205.9938   1.4376986107e+02   2.8333240619e+01    0.1670403     0.134037 -53.86 0.0006561927    1.622    0.383
        25  -9.8901     63.9384    193.8781   1.3560043626e+02   2.6937655765e+01    0.5676435    0.2985534  47.33  0.002110431    1.789    0.441
        26 -10.8917     73.7045    199.5663   1.3413149556e+02   2.4257414378e+01    0.7246606    0.5601711 -70.27  0.003154741    1.264    0.209
        27  -9.6475     68.8407    199.1486   1.3515157685e+02   2.5054971395e+01    0.3566238     0.242546 -58.81  0.001344482    1.541    0.351
        28  -8.7376     24.7637    203.8861   1.4481221301e+02   2.9459617234e+01    0.3030989     0.173061  53.87  0.001818749    1.584    0.369
        29  -8.9445    198.8564    199.7208   1.0622865334e+02   1.3272227365e+00    0.3541311    0.2508785  35.77  0.001808903    1.313    0.239
        30  -7.4626    165.9615    197.2740   1.1285427391e+02   8.2351378966e+00    0.2041956     0.166849  42.75 0.0001690621    1.127    0.113
        31 -12.2463     47.5024    218.0389   1.4156310260e+02   2.3783193956e+01     1.591362    0.5717418  44.52  0.007474923    2.393    0.582
        32  -8.1252    189.7999    187.7580   1.0578733405e+02   5.3504251364e+00    0.4152385    0.2156225 -31.82  0.001638319    2.371    0.578
        33  -8.1182     90.6743    185.3506   1.2829222833e+02   2.4897952242e+01    0.2872865    0.1886592  67.62 0.0008093946    1.646    0.393
        34  -9.3391     82.2617    182.8836   1.2992035866e+02   2.6807818592e+01    0.3439348    0.2405131 -44.20  0.001254201    1.739    0.425
        35  -9.2123     85.8633    177.5085   1.2824607433e+02   2.7510533078e+01    0.3645039    0.2483253 -45.91  0.001074133    1.692    0.409
        36 -10.6184     22.6990    235.6866   1.4748392361e+02   2.3115682492e+01    0.2894966    0.1956899  68.78 0.0006206222    1.115    0.103
        37  -7.2807      7.0041    184.1940   1.4678840275e+02   3.5453421597e+01    0.1281448   0.08662845  37.91 0.0004508948    1.710    0.415
        38  -7.9321    198.9944    179.7706   1.0219864045e+02   5.0460162781e+00     0.260363    0.1934748 -57.37 0.0006140691    1.623    0.384
        39  -8.2415     93.3474    179.3681   1.2672337074e+02   2.5860513823e+01    0.2882534      0.17884  70.68  0.000777346    1.968    0.492
        40 -12.5654     16.7473    232.3598   1.4829959847e+02   2.4419197467e+01     1.179435    0.8152848  36.17  0.008199218    1.804    0.446
        41 -10.3097    101.0083    175.9971   1.2430075075e+02   2.5359232141e+01    0.2070354    0.1898962  79.65  0.001162334    1.005    0.005
        42  -8.6269     40.3851    170.8298   1.3821548875e+02   3.5221967159e+01    0.2430737     0.213842 -19.49  0.001430637    1.592    0.372
        43  -9.3132     92.3319    167.6431   1.2503667462e+02   2.8814462995e+01    0.2986785    0.2644623  71.58  0.000499106    1.074    0.069
        44 -10.9535     81.1044    162.9774   1.2709548640e+02   3.1727368543e+01    0.4768089    0.3712551 -56.65   0.00112991    1.265    0.209
        45  -9.4775     16.0285    164.1346   1.4309739081e+02   3.9168687849e+01    0.4125605    0.1141308  46.89  0.001674235    3.746    0.733
        46  -8.9107     96.6281    161.4015   1.2283911548e+02   2.9592184842e+01    0.2731097    0.2426841 -46.45 0.0008002094    1.222    0.182
        47  -8.6778      5.2231    162.0802   1.4532433741e+02   4.0509137450e+01    0.2239217    0.1677684  26.95 0.0009436229    1.736    0.424
        48  -7.1962    181.7510    161.6476   1.0205668507e+02   1.2317464197e+01    0.1537983    0.1207589  -8.73 0.0002214157    1.592    0.372
        49 -14.2561     25.9372    243.8318   1.4744874370e+02   2.1167885964e+01     2.358989     1.818608 -72.47  0.008257342    1.511    0.338
        50  -8.7029     12.3505    156.7737   1.4320371645e+02   4.1153872280e+01    0.2614971    0.1674624  -4.37  0.001463509    2.680    0.627
        51  -9.1762     53.2158    152.9550   1.3267350163e+02   3.7977110993e+01    0.2511625    0.2032358 -61.26  0.001485902    1.157    0.136
        52 -10.8282     68.1898    144.7733   1.2737321888e+02   3.8015840950e+01    0.6931561    0.4686152  69.64  0.002705903    1.780    0.438
        53  -7.8581    178.0998    149.1264   1.0005750192e+02   1.5769097342e+01    0.2198228      0.20544   7.64  0.001125941    1.135    0.119
        54  -7.6528    134.0000    146.0012   1.1000319832e+02   2.6138346147e+01    0.2576528   0.08973262 -49.34 0.0006327374    2.903    0.656
        55  -8.2588    107.9669    145.2071   1.1667001353e+02   3.1473469261e+01    0.2798254    0.1940325 -40.56 0.0009954845    1.575    0.365
        56  -8.5752     97.2193    144.1284   1.1934665673e+02   3.3657632328e+01    0.2345295    0.2315568 -60.52 0.0004608801    1.082    0.076
        57 -10.3380    224.3095    143.2366   8.9167349207e+01   6.8516828608e+00    0.2585148     0.252672  51.14 0.0002824816    1.090    0.083
        58  -9.1074      8.8831    139.4372   1.4219108447e+02   4.5372357811e+01    0.3886187    0.1252132 -52.90  0.001731244    2.708    0.631
        59  -7.5632     79.7963    135.6293   1.2244145312e+02   3.8543765987e+01    0.1950887    0.1299509  47.73 0.0006055845    1.604    0.376
        60  -7.6429    115.5856    133.1512   1.1193848580e+02   3.2886575202e+01    0.2256947    0.1414696 -39.92 0.0009451699    1.723    0.420
        61  -9.7521     68.2718    136.0391   1.2576053918e+02   4.0112649951e+01    0.5845684    0.2784303 -77.45  0.002006256    3.471    0.712
        62  -7.9528     36.2008    129.8575   1.3368061026e+02   4.5328448278e+01    0.1960616    0.1509061 -53.85 0.0004383039    1.183    0.154
        63  -8.7956     39.9706    130.7290   1.3276885153e+02   4.4750480422e+01    0.3068549    0.1808101  28.73 0.0006793405    1.981    0.495
        64  -7.6045    228.2315    124.2114   8.4143316288e+01   9.5957620453e+00    0.2003485    0.1631933 -66.72 0.0003589006    1.353    0.261
        65  -8.9716    242.7461    124.8163   8.1823915505e+01   6.4431687454e+00    0.2318217    0.2275694 -66.27 0.0002792115    1.081    0.075
        66  -7.0322    175.7347    122.3078   9.4150407361e+01   2.2001045177e+01    0.1567099     0.124778 -79.09 0.0002089004    1.533    0.348
        67  -7.7815     14.3501    114.9780   1.3757822674e+02   5.0558763562e+01    0.1730111    0.1265455 -65.11 0.0005142827    1.084    0.078
        68  -7.6030    196.8448    107.4898   8.5983796610e+01   1.9947104029e+01    0.2283299      0.15134  52.89 0.0008316856    1.512    0.339
        69  -7.6350     98.1424     96.8901   1.0780590150e+02   4.4408296730e+01    0.2147721    0.1923902  82.61 0.0004419761    1.343    0.256
        70  -7.9546     96.9418     90.2072   1.0630248844e+02   4.6035115385e+01    0.2032904     0.195227  88.24 0.0003785054    1.196    0.164
        71  -6.9544     56.7116     86.3150   1.1831902729e+02   5.2991576648e+01    0.1231924    0.1044674  87.13 0.0004318036    1.588    0.370
        72  -7.9526    182.2071     79.8502   8.1744911738e+01   2.8664387686e+01    0.2013274    0.1780546  19.51  0.001027703    1.348    0.258
        73  -9.7543    237.6685     69.0623   7.0121564265e+01   1.7117082085e+01     0.271834    0.2407336 -57.48   0.00047148    1.098    0.089
        74  -7.2105    239.6111     58.2635   6.7493176351e+01   1.8349567759e+01    0.1435997   0.09124267 -75.82 0.0001216277    1.699    0.411
        75  -8.1255    242.1567     64.8822   6.8624373196e+01   1.6768199098e+01    0.2190053    0.1909681  64.79 0.0003333313    1.261    0.207
        76  -7.5327    110.0157     57.3481   9.2215643629e+01   4.9546941537e+01    0.1972972    0.1708517  35.75 0.0004145294    1.084    0.077
        77  -7.7375    180.0314     52.9406   7.4932514886e+01   3.3563841730e+01    0.2141209    0.1692326  29.16 0.0002860679    1.566    0.362
        78  -8.8235    160.9069     52.7087   7.8456583753e+01   3.8399537696e+01    0.2511601    0.1725539  44.95  0.001208577    1.437    0.304
        79  -7.4525    223.2174     50.9918   6.7922945064e+01   2.3214545759e+01    0.2099918    0.1375252 -87.75 0.0007222726    1.611    0.379
        80  -9.9901    174.2599     40.9322   7.2672350276e+01   3.6697752608e+01     0.361923    0.2967989  71.50  0.001056708    1.100    0.091
        81 -11.1298    250.5498    232.9051   1.0235543438e+02  -1.2626229485e+01    0.2146126    0.1406264 -22.23  0.001292708    1.452    0.311
        82  -7.5755    150.5052    245.4943   1.2397814752e+02   2.0973946991e+00    0.1333599    0.1098931  44.62 0.0001727065    1.000    0.000
        83  -9.3027     65.0754    233.3777   1.3956233486e+02   1.8259063539e+01     0.241045    0.1686651 -78.72  0.001048694    1.377    0.274
        84  -9.2675    230.2442     20.4750   6.0378285487e+01   2.5638669282e+01     0.316039    0.2188081 -37.16 0.0008809734    1.603    0.376
        85  -8.6897     88.1557    243.6458   1.3612931171e+02   1.2834909233e+01    0.1979993    0.1474919  79.14 0.0005207543    1.243    0.196
