#   1 NUMBER                 Running object number                                     
#   2 MAG_AUTO               Kron-like elliptical aperture magnitude                    [mag]
#   3 X_IMAGE                Object position along x                                    [pixel]
#   4 Y_IMAGE                Object position along y                                    [pixel]
#   5 X_WORLD                Barycenter position along world x axis                     [deg]
#   6 Y_WORLD                Barycenter position along world y axis                     [deg]
#   7 A_WORLD                Profile RMS along major axis (world units)                 [deg]
#   8 B_WORLD                Profile RMS along minor axis (world units)                 [deg]
#   9 THETA_WORLD            Position angle (CCW/world-x)                               [deg]
#  10 FWHM_WORLD             FWHM assuming a gaussian core                              [deg]
#  11 ELONGATION             A_IMAGE/B_IMAGE                                           
#  12 ELLIPTICITY            1 - B_IMAGE/A_IMAGE                                       
         1 -11.9485     26.1394     55.5431   1.1833867891e+02   6.1943886894e+01     1.047722    0.6392428  -3.99  0.004767796    1.841    0.457
         2 -10.2055     60.6551     23.9832   9.3987679923e+01   6.2709392125e+01    0.5325363     0.238705 -25.28  0.002620093    2.338    0.572
         3 -12.4069     60.5468     44.6626   1.0177731970e+02   5.9840086030e+01     0.921959    0.4725793 -38.12  0.004749386    1.856    0.461
         4 -12.0946    123.9113     27.7068   7.7375127675e+01   5.0164330475e+01    0.8710827     0.430177  44.23  0.001635897    1.859    0.462
         5 -12.4078    129.7049     14.2880   7.1884727311e+01   5.0257619663e+01     1.702629    0.6445031  62.10  0.007208513    2.344    0.573
         6 -12.4028    104.9562     13.2800   7.6872846010e+01   5.5748028149e+01    0.4564728    0.3480513 -15.97  0.002861251    1.444    0.307
         7 -13.6201    118.1348     41.6572   8.3275774084e+01   4.9713268001e+01     1.251423    0.9762098  27.11  0.004922832    1.292    0.226
         8 -11.9161    182.3657     25.3568   6.6359039206e+01   3.6621062418e+01    0.7018031    0.3165101  47.77 0.0008790416    2.443    0.591
         9 -11.6260    178.1177     21.4791   6.5959792198e+01   3.8088191074e+01    0.7749631    0.4949453   5.20  0.003626287    2.794    0.642
        10 -11.2623    164.3090     27.5186   6.9642473820e+01   4.0728866221e+01    0.4098231    0.3020082 -81.28   0.00154403    1.493    0.330
        11 -10.8932    189.5776     29.1168   6.6311898163e+01   3.4433398467e+01    0.5783696     0.305957 -37.62  0.002813155    1.979    0.495
        12 -12.6562    113.0066     24.5581   7.8837649812e+01   5.2901156753e+01    0.9105102    0.3850826  55.73  0.003749069    2.131    0.531
        13 -11.8572     26.4998     27.6459   1.0883116418e+02   6.6531173705e+01    0.4468225    0.3765819  11.77  0.002877821    1.332    0.249
        14 -11.7171     22.7695     11.1836   1.0381873962e+02   6.9148406792e+01    0.5297539    0.3562092   6.89  0.003340674    1.257    0.205
        15 -11.8665     16.7523     13.7099   1.0761061623e+02   6.9409197313e+01    0.3253982    0.1901965 -22.61 0.0003097114    1.393    0.282
        16 -11.2840     14.0385      9.4970   1.0709183213e+02   7.0206618612e+01    0.3810522     0.259564  17.24  0.002850448    1.420    0.296
        17 -11.0598    153.1502     25.7867   7.1029641635e+01   4.3603326377e+01    0.5035142    0.3699834  16.15  0.002073632    1.790    0.441
        18  -9.4950    145.7626     16.5779   6.9638948878e+01   4.6328907094e+01    0.5676028    0.3167524 -81.69  0.002378252    2.995    0.666
        19  -9.6426    149.6545     14.6796   6.8429778922e+01   4.5602562136e+01    0.2914132    0.1758329  39.38  0.001171348    1.790    0.441
        20  -9.5950     86.7896      7.2450   7.9267296009e+01   5.9929252732e+01    0.5733883    0.2588057  51.08  0.002545186    1.886    0.470
        21 -11.4561     90.6196     20.0046   8.2991967530e+01   5.7957298697e+01    0.4926217    0.4164343   4.63  0.002849492    1.145    0.127
        22 -11.1160     86.0696     13.9847   8.2017641238e+01   5.9440820039e+01    0.7584563    0.3927765  16.37  0.003458341    2.655    0.623
        23  -9.9790     31.9315     12.1145   1.0023056055e+02   6.8026958362e+01    0.2249177    0.1770776  46.49  0.001172365    2.096    0.523
        24 -12.1826     49.2261     13.0033   9.3687638351e+01   6.5683008681e+01    0.7131315    0.4874368  10.36  0.004186388    1.272    0.214
        25 -11.2733     38.8365     21.6129   1.0132485998e+02   6.6010016111e+01    0.4165882    0.1823349 -35.80  0.001163407    2.135    0.532
        26 -11.5716     35.5634     19.1841   1.0167611394e+02   6.6718252296e+01    0.5487499    0.1868984 -30.82  0.002535488    2.905    0.656
        27 -12.1133     69.6764     18.1255   8.8599128993e+01   6.1943711204e+01    0.6668319    0.3771751  46.71  0.003752179    1.751    0.429
        28 -12.4061    237.1596     16.0770   5.8154892519e+01   2.5020140226e+01    0.5749339    0.4189977  66.00  0.002437836    1.433    0.302
        29 -11.1241    165.3750     17.2537   6.6682851472e+01   4.1605402664e+01    0.3658561    0.2347869  41.84  0.001085151    1.717    0.418
        30 -10.3665    199.9241      6.0236   5.9576645802e+01   3.4565413610e+01     0.431052    0.1717677  71.92  0.001097811    2.143    0.533
        31 -11.2736    205.3747      2.4312   5.8225141269e+01   3.3668548282e+01     0.396975    0.2251993  87.24  0.001089829    1.588    0.370
        32  -9.9969    191.6007     16.5746   6.2983387708e+01   3.5405730783e+01    0.2721001    0.2282654  16.11  0.001661091    1.676    0.403
        33 -10.5539    186.5335     15.0216   6.3228622369e+01   3.6779842253e+01    0.2960307    0.2056035  59.46 0.0008053405    1.342    0.255
        34 -11.7662    192.4260      7.4154   6.0706808053e+01   3.6177448070e+01    0.7317873    0.5266854  46.80  0.003305374    1.610    0.379
        35 -11.1285     42.4797     14.3021   9.6841781888e+01   6.6457471655e+01    0.4501009    0.1640386  37.90   0.00223214    2.631    0.620
        36 -10.0311    219.0897     12.5612   5.9094173892e+01   2.9451912901e+01    0.3366661    0.1500454  63.11  0.001654144    2.025    0.506
        37 -11.6304    211.5128      9.9310   5.9268087248e+01   3.1473443902e+01    0.3983569     0.336867  20.69  0.001352294    1.782    0.439
        38  -9.8612      4.7538     10.1938   1.1181493338e+02   7.0882725918e+01    0.3396373    0.1445657 -28.09  0.002000531    2.005    0.501
        39 -10.2959    168.8838     10.1164   6.4285025886e+01   4.1488396326e+01    0.3081947    0.1817173  51.80  0.001429013    1.604    0.376
        40 -10.1092    157.2445      9.5180   6.5784353047e+01   4.4307078553e+01    0.3426221    0.1465847 -37.34  0.001032433    2.534    0.605
        41 -10.0468    151.2611      7.3990   6.6098493517e+01   4.5910732581e+01    0.4484056    0.1825757  61.05  0.001402909    1.961    0.490
        42 -10.7743     66.9754     10.3035   8.6341931247e+01   6.3212216120e+01    0.4602621    0.1646294  42.13  0.002177454    2.374    0.579
        43 -11.7537    239.1236      7.1187   5.6217041315e+01   2.5634297945e+01    0.4503597     0.189099 -67.35  0.001607393    2.602    0.616
        44 -11.6880    245.8687      7.5578   5.5769899455e+01   2.4146608998e+01    0.3489237     0.280608 -32.42   0.00179267    1.638    0.389
        45 -11.0759    241.6758      4.1030   5.5433417394e+01   2.5425495727e+01    0.3853988     0.171664  82.66  0.001966622    2.062    0.515
        46  -9.6841    157.8394      2.8280   6.3867941416e+01   4.4770567138e+01    0.3631638    0.1578578  56.43  0.001742033    1.887    0.470
        47 -10.5133    163.0216      5.7399   6.3931944893e+01   4.3291110506e+01    0.3361311    0.2309798  -2.35  0.001433604    2.067    0.516
        48  -9.2239    162.5636      1.3898   6.2838026906e+01   4.3785184929e+01    0.1717087   0.09580535  62.63 3.711912e-05    1.463    0.317
        49 -10.0978      1.3006      7.2684   1.1229496530e+02   7.1530349463e+01     0.161035   0.07146847 -38.85 0.0002483046    1.820    0.451
        50 -11.0488     77.5211      4.7839   8.0894198571e+01   6.1875375618e+01    0.5188311    0.3290666   3.76  0.003133692    1.668    0.400
        51 -10.5616     71.7714      3.2245   8.1963214306e+01   6.3039365683e+01    0.3823248    0.2282294  22.08  0.002035022    1.591    0.372
        52 -10.3088     62.9880      6.0587   8.5899290926e+01   6.4281491481e+01    0.2604716    0.1662586  11.63 0.0008798343    1.501    0.334
        53 -10.5761     42.2657      3.6719   9.2314516359e+01   6.7644030298e+01    0.4435636    0.2190141   2.78  0.002223558    2.763    0.638
        54  -8.8111    115.6581      6.6790   7.2238192579e+01   5.4056718132e+01    0.1355228   0.07762975  35.45 0.0007050161    1.722    0.419
        55 -10.3317    228.2469      3.9789   5.6488004110e+01   2.8350292892e+01    0.2564186    0.2115354 -59.19  0.001193174    1.232    0.188
        56 -10.8456    218.9545      2.7781   5.7042242477e+01   3.0545813229e+01    0.2805848    0.2428842 -86.50  0.001779854    1.151    0.131
        57 -10.7969    223.9400      1.8517   5.6419763524e+01   2.9529729683e+01    0.3718484    0.1938376  72.20  0.001256661    1.639    0.390
        58 -10.6310    173.5839      4.3928   6.2194487305e+01   4.0917561383e+01    0.5459699    0.1959634  72.28  0.002258548    2.527    0.604
        59 -10.1061    141.8766      3.7257   6.6518362034e+01   4.8413711710e+01    0.4375558    0.2026886  63.95   0.00213822    1.778    0.438
        60 -12.2284    133.8722      2.6038   6.7511235848e+01   5.0339372852e+01    0.3648762    0.2292886  60.75 0.0005255767    1.308    0.236
        61 -10.9583    113.5940      2.1339   7.1144564987e+01   5.4872310282e+01    0.5277486    0.2210782  64.64  0.001871348    2.268    0.559
        62 -11.0835    105.9445      1.9317   7.2686513890e+01   5.6514361520e+01    0.6400877    0.2438764  65.33   0.00208037    2.848    0.649
        63 -12.8188     18.8565     22.9178   1.1034483169e+02   6.7940751031e+01    0.8754179    0.5763651  41.31  0.003964591    2.392    0.582
        64  -9.4003    183.9913      2.4390   6.0470517443e+01   3.8645802946e+01    0.2224341    0.1432478 -62.99   0.00111938    1.615    0.381
        65 -11.0920      2.8321      1.8562   1.0919558178e+02   7.2117493388e+01    0.3392118    0.1504004  13.22  0.002060259    2.311    0.567
        66  -9.4687    122.8298      1.1170   6.9015265042e+01   5.2934343983e+01    0.3243052   0.05452907  61.13  0.001043098    4.161    0.760
        67  -9.9072     26.3974    139.8373   1.3560652303e+02   4.3670850462e+01    0.2579454     0.153378 -49.43  0.001265815    1.622    0.383
        68 -11.7090     22.9168    135.5114   1.3591196732e+02   4.4994202526e+01    0.6128801    0.4299201  54.54  0.003704761    1.621    0.383
        69 -11.2045     79.2221    127.4807   1.1884997878e+02   4.0259880351e+01    0.5814019    0.3695568 -26.12 0.0006262882    2.256    0.557
        70 -10.7622     81.2136    135.5691   1.1998937255e+02   3.8014944183e+01    0.5656152    0.3935718 -10.36  0.002509745    2.315    0.568
        71 -10.7545     47.1864    135.1260   1.2931694458e+02   4.2676772790e+01    0.4084915     0.211435 -47.07  0.001425231    1.894    0.472
        72 -11.3077     92.7148    129.6298   1.1552296717e+02   3.7573435374e+01    0.5687327    0.2959519 -59.38  0.002320615    1.952    0.488
        73  -9.9669     62.3762    131.9602   1.2452546332e+02   4.1580387864e+01    0.4059287    0.1609151 -53.94  0.001633346    2.170    0.539
        74 -10.2428    241.8346    127.6377   8.1559045987e+01   6.4442662765e+00    0.1898003    0.1339874  66.89 0.0006719818    1.742    0.426
        75 -11.1738     71.2659    134.6738   1.2256880020e+02   3.9710208238e+01    0.6365693    0.4998606 -27.17  0.003378335    1.536    0.349
        76  -9.5832      1.9972    125.4296   1.4008063851e+02   4.8862262364e+01    0.2516764    0.1415732 -76.70  0.001459263    1.469    0.319
        77  -9.5721      4.2758    121.9501   1.3902908015e+02   4.9505939396e+01    0.2315992     0.181495  72.53  0.001576859    1.411    0.291
        78 -11.0946     55.7903    123.1218   1.2468525616e+02   4.4521062753e+01    0.5865588    0.3488018  25.74  0.002494772    2.019    0.505
        79 -10.5212     18.4087    124.9889   1.3561188096e+02   4.7811471237e+01    0.4322983     0.135833 -59.16  0.001382437    2.300    0.565
        80 -11.6783    104.8965    121.1247   1.1014720805e+02   3.7409666279e+01    0.5483362    0.5208724  73.80   0.00202753    1.099    0.090
        81 -10.3968     45.8549    120.4102   1.2705017058e+02   4.6311866702e+01    0.3248288    0.2513795 -86.63  0.001211316    1.411    0.291
        82  -9.3630    221.4695    120.5051   8.3373004634e+01   1.1986804134e+01    0.1483569    0.1353801 -57.06 0.0001527462    1.037    0.035
        83  -9.9611    148.2713    119.6235   9.8406650485e+01   2.8775160363e+01    0.2826111    0.2065268  37.34 0.0007480211    1.463    0.317
        84  -9.5232     72.5371    119.9885   1.1914771817e+02   4.3025602880e+01    0.2458872    0.1981585  -3.50 0.0006487644    1.548    0.354
        85 -10.6004     34.9147     93.0099   1.2480891793e+02   5.3626342872e+01     1.473783    0.8722058 -76.46  0.007247487    2.238    0.553
        86 -12.1014      9.9462     97.5429   1.3368395068e+02   5.4587040036e+01    0.9769928      0.69669  71.75   0.00607216    1.840    0.457
        87 -12.2385      7.1499     88.7180   1.3298488866e+02   5.6660759172e+01    0.4735946    0.4335828 -58.91 0.0009805736    1.183    0.155
        88 -11.7004     45.0564     85.7428   1.1972400607e+02   5.4157935267e+01    0.7686629    0.5583271  62.30  0.003909756    2.056    0.514
        89 -11.6213     37.5206     85.7760   1.2227229070e+02   5.4927518175e+01    0.7920387    0.2643208  29.66 0.0007829901    3.287    0.696
        90 -11.1300     21.5116    114.2106   1.3304883935e+02   5.0041054598e+01    0.3299954    0.2364093 -25.42  0.001163133    1.650    0.394
        91 -12.1025     28.7086    113.0272   1.3073246294e+02   4.9710951449e+01    0.9110216    0.6877139  60.42  0.004455332    1.619    0.382
        92 -12.3687     18.7637    106.2620   1.3251007805e+02   5.2049846056e+01    0.3532384    0.2184467 -49.99  0.000280461    1.344    0.256
        93 -12.6101     20.0790     95.5001   1.3012179297e+02   5.4333320461e+01    0.6569081    0.5416852  -9.76  0.002328828    1.391    0.281
        94 -12.5651     18.5515     90.2800   1.2958161153e+02   5.5576862945e+01     0.649106    0.2857404 -39.84 0.0004001359    2.143    0.533
        95  -9.3974     81.4339    117.2571   1.1592766660e+02   4.2325348456e+01    0.2001033    0.1337118 -63.75  0.000802433    1.554    0.356
        96  -9.9421    114.0290    116.0070   1.0635616107e+02   3.6835104153e+01    0.2263442    0.2201502 -32.63 0.0003644987    1.038    0.037
        97  -9.7817     88.1778    114.7377   1.1336220183e+02   4.1821759587e+01    0.3353624    0.2221835  60.22 0.0006700061    1.969    0.492
        98 -11.2889     79.2413    108.4968   1.1449045360e+02   4.4677536530e+01    0.6692001    0.4548968  52.50  0.002758921    1.754    0.430
        99 -11.3040     86.4638    104.8753   1.1141862940e+02   4.4337420685e+01    0.6884824    0.3673238  28.27  0.002634872    2.278    0.561
       100 -10.7333     67.0194    111.9292   1.1898299913e+02   4.5676990014e+01    0.5106322    0.2936775 -60.44  0.001991732    1.689    0.408
       101 -11.7202      2.4733    112.0942   1.3818122952e+02   5.1828401673e+01    0.4281638    0.3432537  76.20 0.0008457353    1.403    0.287
       102 -10.5457      5.8074    108.6152   1.3672103736e+02   5.2403120759e+01     0.229768    0.1535085  33.93 0.0009113412    1.854    0.461
       103 -11.7744      3.8656    104.8806   1.3671938309e+02   5.3346041681e+01    0.3584239    0.3094355  -3.32  0.001637077    1.447    0.309
       104  -9.8892    126.9038    113.9737   1.0237382322e+02   3.4668405980e+01    0.2292003    0.2254207 -54.14 0.0004033541    1.006    0.006
       105 -10.5013    107.8192    112.2710   1.0712559167e+02   3.8879471484e+01    0.4168929     0.313598  86.36  0.001794841    1.859    0.462
       106 -10.9871    102.4312    109.5177   1.0794248231e+02   4.0507571231e+01    0.5650118    0.4490269   1.92   0.00277503    1.583    0.368
       107  -9.9202     49.0570    112.3389   1.2450194718e+02   4.7831543532e+01    0.2584634    0.1997261 -47.75  0.001070731    1.150    0.131
       108 -11.1767    171.1318    109.8052   9.0610894879e+01   2.5591387589e+01    0.6662642    0.4603151  29.97  0.002855947    1.838    0.456
       109  -9.7147     93.8224    111.3858   1.1089601338e+02   4.1629712895e+01    0.3228663     0.238587 -82.13  0.001502124    1.831    0.454
       110 -10.1791    120.0401    109.0050   1.0290970716e+02   3.7185936545e+01    0.2364043    0.2285901 -46.62 0.0006589381    1.015    0.014
       111 -12.7341     25.8484    107.3154   1.3055756995e+02   5.1253177607e+01     1.193748    0.6336686 -29.08  0.005834338    2.424    0.587
       112 -10.4016    157.8111    105.9041   9.2591035055e+01   2.9506125610e+01    0.3459482    0.2851039   3.07  0.001004959    1.562    0.360
       113 -10.2038    143.6567    105.9163   9.5974887946e+01   3.2749826330e+01     0.386712    0.3200982 -43.85  0.001580278    1.207    0.171
       114 -11.1016    145.9979     99.4618   9.3667261329e+01   3.3550913867e+01     0.542076    0.4596222 -43.28  0.002271798    1.184    0.155
       115 -10.5713     48.1031    103.0902   1.2281941192e+02   5.0043744975e+01     0.221038    0.1887003 -32.36  0.000380819    1.154    0.133
       116 -10.4929     52.0370     98.8271   1.2060521602e+02   5.0543975748e+01    0.5859725    0.1582045 -49.17  0.002092713    3.009    0.668
       117  -9.9233     57.6579    102.5321   1.1969434003e+02   4.9038691120e+01     0.332376    0.1475917 -54.95  0.001171118    1.992    0.498
       118 -10.3045     57.6249     97.6588   1.1854470614e+02   5.0124262603e+01    0.2512197    0.2285533 -65.00 0.0009186853    1.166    0.142
       119 -10.5713     67.2299     99.4210   1.1593836458e+02   4.8468408267e+01    0.3870306    0.3193551  46.57  0.002210971    1.389    0.280
       120 -10.7599     68.5203     95.9320   1.1464896322e+02   4.9051310675e+01    0.7001804    0.4181691 -17.92  0.002967899    2.584    0.613
       121  -9.3650    136.5336    100.6451   9.6335842569e+01   3.5441937959e+01    0.2797811    0.1874888  27.34  0.001175673    1.889    0.471
       122  -9.3764     82.1647    102.7966   1.1218175377e+02   4.5495726308e+01    0.2224923    0.1890748 -16.44 0.0005253269    1.266    0.210
       123  -9.2235     96.0403    100.0316   1.0730284039e+02   4.3755204763e+01    0.2170384    0.1700978  -7.12 0.0003566803    1.558    0.358
       124  -9.7921     66.5614     73.4898   1.0907273437e+02   5.3943611898e+01    0.9761119    0.3268024 -38.02  0.003475224    3.254    0.693
       125 -10.5306     77.9561     97.0181   1.1197412741e+02   4.7421705505e+01    0.4057651    0.1916724 -53.86 0.0003064426    2.101    0.524
       126 -11.4123     81.8946     93.0007   1.0967822476e+02   4.7662338431e+01    0.6824585    0.4100387  46.38  0.002703253    1.892    0.472
       127 -11.1686     89.4000     90.0056   1.0654023346e+02   4.7041855905e+01    0.5067794    0.3060016 -38.92  0.001669002    1.616    0.381
       128  -9.7549     92.9521     85.6795   1.0422660107e+02   4.7304478469e+01    0.2928381    0.2355589  47.73 0.0004212274    1.357    0.263
       129 -11.1953     66.6724     81.7945   1.1144240449e+02   5.2283451109e+01    0.4477535    0.3520818  16.73  0.002571449    1.357    0.263
       130 -11.5101     79.3358     82.7167   1.0760002299e+02   5.0196176391e+01      0.58815    0.5261172  86.48  0.001978899    1.452    0.311
       131 -11.4496     73.2415     77.6479   1.0808904845e+02   5.2150828830e+01    0.6461569    0.4637879  -4.75  0.003369349    1.662    0.398
       132  -9.6471    210.2488     97.7575   7.9984397437e+01   1.8759310465e+01    0.2760463    0.1800888 -45.09  0.001285241    1.451    0.311
       133  -8.8624    190.6517     96.3221   8.3182548715e+01   2.3617011109e+01    0.1617102    0.1160107 -78.11 0.0007049156    1.742    0.426
       134  -9.6719    140.9432     96.1360   9.3996260786e+01   3.5373793254e+01    0.3624605    0.1971856  38.47  0.001416304    2.041    0.510
       135  -9.7738    138.2285     93.3238   9.3892379459e+01   3.6549372044e+01    0.3888177    0.2467553  25.39  0.001302918    2.212    0.548
       136 -10.0489     42.5775     94.8829   1.2273528114e+02   5.2459106326e+01    0.2999545    0.2394845 -40.53  0.001100795    1.105    0.095
       137 -10.6526    117.4780     92.9954   9.9240785988e+01   4.1101377149e+01    0.5707844    0.3534374  21.04  0.002262351    2.399    0.583
       138 -10.7971    126.3831     93.3392   9.6940108773e+01   3.9155425486e+01    0.4801568    0.3899694  75.54  0.002103204    1.495    0.331
       139 -10.9675    122.3432     93.6780   9.8111688307e+01   3.9947519962e+01    0.3406681     0.254511 -60.14  0.001002781    1.529    0.346
       140 -11.0651    102.2585     90.3582   1.0280165821e+02   4.4648905260e+01    0.5726279    0.5238361   8.44  0.001879203    1.117    0.104
       141  -9.4170    160.5380     93.5072   8.8669192850e+01   3.1341817910e+01    0.2752581    0.1489095  63.29  0.001029035    2.240    0.554
       142 -10.3568    152.6229     91.9717   9.0051856099e+01   3.3505049022e+01    0.3877936    0.3359355  48.92  0.001855666    1.145    0.127
       143 -10.2354    183.8133     86.3542   8.1947910603e+01   2.7100937109e+01    0.5599986    0.1883145 -44.04  0.001837451    2.931    0.659
       144 -11.1706    113.2105     84.8604   9.8086069061e+01   4.3599281376e+01    0.7131801    0.3324227 -36.42  0.002193765    2.298    0.565
       145 -10.8449    108.6607     80.9872   9.8227128955e+01   4.5264163566e+01    0.3963016    0.3073394 -19.80  0.001392728    1.417    0.294
       146  -9.3051     67.5027     88.0564   1.1289940098e+02   5.0875241232e+01    0.2130038    0.1217727 -46.42  0.001021532    1.579    0.367
       147  -9.4933    212.1980     87.1575   7.7120804779e+01   2.0219737510e+01    0.2096471    0.2018291 -16.43 0.0005841352    1.224    0.183
       148 -10.5545    165.5996     83.1362   8.4762297941e+01   3.2082037165e+01    0.4264249    0.3446559 -73.14  0.001608533    1.385    0.278
       149 -11.2469    143.5879     83.3361   8.9769739580e+01   3.7253144895e+01    0.4675046    0.3744018 -15.42  0.002028521    1.487    0.328
       150 -10.9064    120.4135     85.1299   9.6187176496e+01   4.2053583414e+01      0.45241    0.2163758  46.04  0.001784425    2.082    0.520
       151 -10.4143    127.5440     83.3759   9.3786624929e+01   4.0858158061e+01    0.4128337    0.2548506  42.81  0.001810996    1.616    0.381
       152  -9.8111     46.7838     75.4569   1.1643020898e+02   5.6080132430e+01     0.459751    0.1533719 -56.10   0.00171852    3.247    0.692
       153 -11.6775     52.8886     76.5231   1.1460950608e+02   5.5152859262e+01    0.7691106    0.3622138 -50.93  0.003262581    1.942    0.485
       154 -11.1386     58.4298     78.1983   1.1318611018e+02   5.4122630536e+01    0.3956349    0.3162669 -63.66 0.0008171186    1.479    0.324
       155  -9.5833    239.9851     82.5053   7.1915528243e+01   1.4800478362e+01    0.1862759    0.1121357  37.54 0.0008105401    2.580    0.612
       156 -10.0304    104.1140     76.9111   9.8311198278e+01   4.6931407900e+01    0.5361007    0.2815741 -30.01  0.002186206    2.247    0.555
       157  -9.7637    121.2874     79.3649   9.4259781899e+01   4.2965068113e+01    0.2082771    0.1376837  55.53  0.000682187    1.632    0.387
       158  -9.5039     37.5212     79.0564   1.2061003907e+02   5.6327033939e+01     0.183176    0.1585811 -21.21  0.001124854    1.120    0.107
       159 -10.3267     22.3537     72.2671   1.2426224859e+02   5.9041433999e+01    0.3753255    0.1913277  32.26  0.002048881    2.336    0.572
       160 -11.9095     14.0445     74.6516   1.2777853858e+02   5.9160646156e+01    0.4651741    0.3631125 -47.14  0.002126007    1.025    0.025
       161 -11.9209      2.0002     71.4354   1.3132392794e+02   6.0525042649e+01    0.6231878     0.143875 -60.49  0.002597464    3.054    0.673
       162 -11.2112     14.3147     66.5487   1.2577618001e+02   6.0762278647e+01    0.3045104    0.2244695 -59.22 0.0008195976    1.307    0.235
       163 -12.3152      9.6246     62.1605   1.2643828205e+02   6.1921086555e+01    0.6243087    0.4460586 -10.31  0.004309067    1.459    0.314
       164 -10.4735     94.1671     76.4948   1.0113724787e+02   4.8881512247e+01     0.594251     0.439315  38.92  0.001883315    1.372    0.271
       165 -11.6485     85.4171     73.5435   1.0294206711e+02   5.0979077303e+01    0.6362683    0.5716618 -26.25  0.003789444    1.059    0.056
       166 -12.1137     78.7546     67.1862   1.0309694999e+02   5.3262215027e+01     1.719015    0.9092871 -51.80  0.007688457    2.238    0.553
       167 -12.2321     74.5177     49.4643   9.8633226837e+01   5.6952757555e+01    0.7812698    0.5192692  39.93  0.001217719    1.537    0.349
       168 -11.0534     72.3770     46.1752   9.8203051100e+01   5.7808357991e+01    0.2742568    0.2207648 -48.46  0.001616647    1.553    0.356
       169  -9.2221    134.2116     77.2281   9.0294359305e+01   4.0518436851e+01    0.2007145    0.1754934 -86.54 0.0004855604    1.329    0.247
       170  -9.4067    126.9484     76.6876   9.1976831109e+01   4.2233022679e+01    0.2060499    0.1846394  47.01 0.0003758473    1.098    0.089
       171  -9.9924    242.1935     76.3933   7.0288528348e+01   1.5337055224e+01    0.1887579    0.1232569  80.66 0.0009496686    1.709    0.415
       172 -12.0252    186.3335     70.4188   7.7355838369e+01   2.9263461330e+01    0.8108264    0.6262431 -44.83  0.003247855    1.302    0.232
       173 -10.3025     38.4683     73.5020   1.1882533945e+02   5.7356851257e+01    0.2344126    0.1677159 -30.57 0.0006906224    1.256    0.204
       174 -11.3345     41.8767     70.8723   1.1689216198e+02   5.7524538886e+01    0.4170184    0.3028141 -51.00     0.001796    1.304    0.233
       175  -9.7291     60.7421     73.0276   1.1090907122e+02   5.4838429814e+01    0.1994588    0.1737894  35.57 0.0003955127    1.318    0.241
       176 -11.6809    122.5979     68.4456   9.0623955528e+01   4.4640545325e+01    0.6435421     0.416118  49.08  0.002200566    1.507    0.336
       177 -10.3911    129.1918     65.2233   8.7959324876e+01   4.3731999872e+01    0.5905387    0.2937579 -55.27  0.002135248    3.087    0.676
       178 -10.1364    161.8584     70.5373   8.2081452064e+01   3.5195612908e+01    0.3679844    0.2573238  81.27  0.001547267    1.764    0.433
       179 -10.5405    172.1196     67.7065   7.9259432813e+01   3.3175401562e+01    0.4113573    0.3087774 -54.70  0.001664791    1.389    0.280
       180 -11.5541    219.8426     66.3233   7.1047843742e+01   2.1949364756e+01    0.6035296    0.3487162  64.54   0.00228588    1.725    0.420
       181  -9.8689    208.0983     68.1273   7.3196433827e+01   2.4406071759e+01     0.376298     0.180321  48.83  0.001537768    2.323    0.570
       182  -9.5868    192.4113     65.7745   7.5119568312e+01   2.8547082886e+01    0.2853004    0.2097041 -78.59 0.0009533009    1.499    0.333
       183  -9.3417     34.7832     57.0577   1.1548155639e+02   6.0864549991e+01    0.1827238    0.1492031 -22.95  0.001137162    1.033    0.032
       184  -8.7120    242.6505    249.3163   1.0537617276e+02  -1.3659318061e+01    0.1035336   0.09373597  53.39 0.0003724662    1.730    0.422
       185 -10.0900     51.9918     47.6661   1.0594460746e+02   6.0527594791e+01    0.2890545     0.193463 -21.83  0.001136428    1.394    0.282
       186 -11.4188     33.6461     42.2438   1.1114202505e+02   6.3542542276e+01    0.6291574    0.4077817  33.26  0.003926176    1.794    0.443
       187 -11.2265     40.0640     55.8917   1.1312425539e+02   6.0529178959e+01    0.4312017    0.3497465 -68.73  0.002323142    1.791    0.442
       188 -11.8427     45.7495     49.0449   1.0875029016e+02   6.1073377390e+01    0.5016413    0.3361433 -16.04  0.001272099    1.452    0.312
       189 -11.9068     41.7752     45.4705   1.0905508625e+02   6.2130572567e+01    0.3191049    0.2326265   3.95 0.0003339807    1.316    0.240
       190 -10.1767    142.9250    249.5067   1.2446817216e+02   2.2709067667e+00    0.2070421    0.1093675  41.41   0.00103567    1.599    0.375
       191 -10.9057     58.2444     61.7441   1.0833135531e+02   5.7285927306e+01    0.5249282    0.3227684 -42.01  0.002729925    1.495    0.331
       192 -11.2640     56.6631     30.9426   9.8129984188e+01   6.2398892034e+01    0.3611138    0.2265054  31.81  0.001379079    1.516    0.340
       193 -11.9199     48.0052     30.3922   1.0116478376e+02   6.3664529131e+01    0.7743354    0.2901185  28.59    0.0034418    2.966    0.663
       194  -9.3033    213.3498    248.3195   1.1059961442e+02  -9.1936794960e+00    0.1304463   0.08485194   8.38  0.000704826    1.739    0.425
       195 -11.0855     60.7865     36.8732   9.8869646801e+01   6.0969695209e+01    0.3293455    0.1979399 -33.75  0.001170838    1.599    0.375
       196  -9.4655     25.8334     65.2175   1.2117944760e+02   6.0149327826e+01    0.1645825    0.1352699 -43.69 0.0003904309    1.119    0.106
       197 -10.2309     20.9828     65.0547   1.2293488016e+02   6.0571278399e+01    0.1821843    0.1399743 -36.30 0.0007873304    1.039    0.038
       198 -10.0222    204.4553     63.8662   7.2720472399e+01   2.5954191150e+01    0.2498045    0.2016395  50.80 0.0001138107    1.354    0.261
       199 -10.6111    105.5226     62.4265   9.3394934408e+01   4.9223725544e+01    0.4463194    0.3111645  86.17  0.001889513    2.848    0.649
       200 -10.6016     98.1729     62.7809   9.5643422865e+01   5.0599266702e+01     0.400582    0.2685477  10.32  0.001794573    1.967    0.492
       201 -11.0283     91.7096     62.4643   9.7489392974e+01   5.1858291186e+01    0.3423917    0.3306186   5.08  0.001176924    1.119    0.107
       202 -10.8820     91.3776     58.0246   9.6140541550e+01   5.2663204502e+01    0.3737883     0.289253  45.52  0.001125153    1.357    0.263
       203 -10.8053     87.6051     56.9315   9.6944569236e+01   5.3524348098e+01    0.4943194    0.2163592 -37.56  0.001394942    2.274    0.560
       204  -9.5228    198.1544     62.8598   7.3453378383e+01   2.7623764015e+01    0.2337016    0.1793255 -69.90 0.0008334157    1.321    0.243
       205  -9.2293    167.6528     63.0202   7.8841724198e+01   3.5022116764e+01    0.1929827    0.1850143 -86.78  0.001096479    1.041    0.039
       206 -10.6307    159.2640     61.7898   8.0162170737e+01   3.7252661469e+01    0.4945607    0.3369124  35.56  0.002318534    1.709    0.415
       207 -11.2741    157.2474     55.7844   7.8866137377e+01   3.8667961388e+01    0.5303478    0.3410348 -40.72  0.001169292    1.630    0.387
       208 -10.6774    155.2685     49.9772   7.7598405467e+01   3.9999654122e+01    0.4325685    0.3033631   6.78  0.001455229    2.140    0.533
       209  -9.7099    174.7087    246.6902   1.1780014507e+02  -2.6478889287e+00    0.2646249    0.1475311  27.09  0.001280524    1.953    0.488
       210 -10.3696     99.3741     28.3536   8.3606174259e+01   5.5304049649e+01     0.437074    0.3468517 -76.01  0.001798237    1.975    0.494
       211 -10.1039    199.0282    244.4957   1.1271093120e+02  -6.3488641205e+00    0.1995295     0.109455  38.32  0.001030629    1.585    0.369
       212 -11.1336    127.6921    242.4714   1.2655264619e+02   6.1087637230e+00    0.4057073    0.2160206 -66.83  0.001930877    2.426    0.588
       213 -11.7589    118.9894     58.3189   8.8416932606e+01   4.7092608869e+01     1.113472    0.5970725  50.27  0.004286996    1.794    0.443
       214 -10.9983    149.5430    237.9767   1.2152902404e+02   3.1739690496e+00    0.4019459    0.2242939  52.78  0.001948857    1.776    0.437
       215 -11.7076    106.0270     20.1739   7.9020836934e+01   5.4844333041e+01     0.274004    0.2147249 -21.48 0.0004453228    1.396    0.284
       216 -11.3404     33.3088     71.9421   1.2024956993e+02   5.8168154683e+01    0.5059432    0.2670831  27.98   0.00272997    2.128    0.530
       217  -9.6768    147.4746     60.6359   8.2315466606e+01   4.0256599621e+01    0.3580032    0.1379201  59.32   0.00124307    2.765    0.638
       218  -9.4911    228.6134     59.2866   6.8270210304e+01   2.1044912004e+01    0.2444808    0.1552189  80.40 0.0006662424    1.642    0.391
       219 -11.0000    139.5739     43.8372   7.9016141161e+01   4.4579606495e+01    0.4638433    0.3745438  34.28  0.002107561    1.269    0.212
       220 -10.7943    136.4214     56.5192   8.3574445365e+01   4.3479897079e+01    0.6881371    0.5770039  -4.44  0.003063303    1.369    0.269
       221 -11.5549    146.0559     46.2184   7.8365113628e+01   4.2729691560e+01    0.7808845    0.4159908 -25.99  0.003225631    2.245    0.555
       222  -9.2915      1.7880     56.3793   1.2799076146e+02   6.3474153404e+01    0.1381244     0.089577 -16.08  0.000410479    1.557    0.358
       223  -9.3689    187.4860     55.2673   7.3248009257e+01   3.1378933843e+01    0.3014104    0.1453231  51.33   0.00125736    2.068    0.516
       224  -9.9477     67.0419     54.8778   1.0301577181e+02   5.7237994100e+01    0.2175849    0.1740068 -32.32 0.0006623787    1.195    0.163
       225  -9.6516     13.8750     54.2785   1.2275028204e+02   6.3131817455e+01    0.1856596    0.1309008 -52.46 0.0003209863    1.309    0.236
       226 -10.0510    249.4012     52.9382   6.4464629331e+01   1.7444589771e+01    0.2861322    0.1952241 -88.56 0.0009162668    1.441    0.306
       227 -10.9761    239.9718     50.6429   6.5023662159e+01   1.9811512763e+01    0.3960187    0.3103465 -38.47  0.001895098    1.396    0.284
       228 -10.1152    244.6920     50.9672   6.4567643728e+01   1.8739694449e+01    0.2725698    0.1983824 -67.28   0.00107253    1.203    0.169
       229 -11.7070    105.6045     33.0395   8.3582658805e+01   5.3474398551e+01    0.5678819    0.3241651  10.08  0.001353423    2.786    0.641
       230 -11.0429    202.3443     47.9335   6.9158006592e+01   2.8862144867e+01    0.6327684    0.3151732 -38.68  0.002858189    2.019    0.505
       231  -9.5014     54.8941     51.1541   1.0606864414e+02   5.9571946692e+01    0.1664543    0.1242076  -6.60 0.0004083209    1.282    0.220
       232  -9.8419    220.6751     49.7537   6.7132930864e+01   2.4283764820e+01    0.3092525    0.2112152  33.49  0.001497515    2.329    0.571
       233 -11.0578    173.7341     48.0473   7.3652197737e+01   3.5789974735e+01    0.4942927    0.3475729  72.16  0.002175142    1.380    0.275
       234 -10.1121    176.6832     43.3427   7.1899209060e+01   3.5724080237e+01    0.3265471    0.2181109 -84.15  0.001391429    1.776    0.437
       235  -9.7988     90.5866     48.1643   9.3064363577e+01   5.4358629671e+01    0.2301023    0.2063785  73.50 0.0007773776    1.495    0.331
       236 -10.6450     26.0075     48.0342   1.1609979828e+02   6.3296068371e+01    0.4051633    0.2088505 -10.50 0.0003337226    2.566    0.610
       237 -10.4953     21.0126     47.6238   1.1797066694e+02   6.3793354873e+01    0.3345633    0.2391949 -30.42  0.001596408    1.101    0.092
       238  -9.4848      2.6636     48.8260   1.2571103781e+02   6.4827477619e+01    0.2217658     0.184583   9.56  0.001719056    1.426    0.299
       239  -9.9251      4.2284     44.3819   1.2384681077e+02   6.5536220816e+01    0.3756983    0.1830303 -13.02  0.001702399    2.358    0.576
       240 -10.0426     13.6634     46.7091   1.2066400022e+02   6.4514828334e+01    0.3823378    0.1270286 -34.74  0.001716427    2.891    0.654
       241  -9.6775     17.8126     41.9990   1.1750788994e+02   6.5020773417e+01    0.3192809    0.1847304 -15.64  0.001933084    1.738    0.425
       242  -9.6484    193.4733     45.9887   6.9963276116e+01   3.1273445169e+01    0.2716614    0.1792633  87.37 0.0008164404    1.626    0.385
       243 -10.2776    145.5003     51.9954   8.0196502297e+01   4.2037701707e+01    0.3169706    0.2872534 -15.62  0.001321412    1.218    0.179
       244  -9.4542    162.7380     43.9771   7.4479564828e+01   3.9033067947e+01    0.2538998    0.1806295  53.69  0.001068665    1.307    0.235
       245 -11.4988    156.0764     41.8437   7.5107884190e+01   4.0930230044e+01    0.4345426    0.3514246  72.52  0.001486767    1.191    0.160
       246 -10.6632    153.2952     36.1099   7.3978394044e+01   4.2339731490e+01    0.2708225    0.2494258 -62.75 0.0003760498    1.167    0.143
       247 -10.4284    100.8277     43.3866   8.8430748106e+01   5.3083393263e+01    0.3203219    0.2681593 -76.68  0.001184665    1.734    0.423
       248 -11.1112     93.8161     41.3552   8.9744566771e+01   5.4732945347e+01    0.5174489    0.2728642  43.41  0.001762218    1.762    0.433
       249  -9.6478    188.9819     42.0067   6.9629669866e+01   3.2912362019e+01    0.2058879    0.1846309 -88.58  0.000338775    1.026    0.026
       250 -10.9863     81.3820     39.3879   9.2840871189e+01   5.7286207321e+01    0.5254631    0.3554519  39.48  0.002476763    1.408    0.290
       251 -11.0913     77.7844     34.1198   9.2073517034e+01   5.8627409241e+01    0.3874614    0.2238091  36.57  0.001047701    1.604    0.376
       252 -10.7769     82.0523     31.6686   8.9823653368e+01   5.8194418293e+01    0.5690316    0.3443214  47.35  0.003092191    1.650    0.394
       253 -10.4973    231.5679     39.4023   6.3558384659e+01   2.3267375724e+01    0.3324539    0.2044983 -57.64  0.001386173    1.491    0.329
       254  -9.5153    218.3164     38.6157   6.4902356686e+01   2.6395176708e+01    0.2334114    0.1541897  62.24  0.001262696    1.482    0.325
       255 -11.1582    176.6969     37.0311   7.0225972703e+01   3.6558580229e+01    0.5230005    0.2838669 -34.36  0.002464606    1.993    0.498
       256 -10.8687    172.6033     33.2635   6.9871514440e+01   3.8030707852e+01    0.4541388    0.2460279  55.41  0.002161853    1.673    0.402
       257  -9.3830     15.2392    233.8109   1.4693222713e+02   2.3788179245e+01    0.1452718    0.1133139 -76.58  0.001068069    1.389    0.280
       258 -10.4575    242.6875    231.5085   1.0229381817e+02  -1.1247016862e+01    0.2374407    0.2051053  65.83  0.001501112    1.933    0.483
       259 -11.3029      4.4346     36.0008   1.2125931855e+02   6.6970209577e+01    0.3384256    0.1932773 -28.22 0.0006083659    1.428    0.300
       260  99.0000      6.4177     30.8316   1.1872197114e+02   6.7695045692e+01    0.4047508     0.188403  14.37  0.002188501    2.308    0.567
       261 -10.0648    206.6847     37.0838   6.5984449324e+01   2.9325877107e+01    0.2552013    0.1948985 -85.70 0.0007431417    1.206    0.171
       262 -10.0086    133.2482     37.1364   7.8319625168e+01   4.6920924656e+01    0.3886051    0.2714216 -75.14  0.001890522    2.088    0.521
       263 -10.8379     22.5847     36.6106   1.1372905944e+02   6.5514737644e+01    0.3370815     0.207908  37.50  0.001590097    2.182    0.542
       264 -10.0261    139.7614     32.3111   7.5470457282e+01   4.6007385406e+01    0.5448092    0.3332535  -7.03  0.002528701    2.373    0.579
       265 -12.2525     49.1254     60.0791   1.1107828507e+02   5.8743663604e+01    0.7335032    0.5614609  71.36  0.002270298    2.480    0.597
       266 -11.2811    159.6973     29.8275   7.1049010057e+01   4.1568774946e+01    0.6068301    0.3626926 -46.38  0.002552781    1.846    0.458
       267  -9.9885    247.3921    231.2596   1.0140437431e+02  -1.1896538687e+01    0.1570939    0.1079828 -38.32 0.0006857614    1.602    0.376
       268 -10.6605    240.6762     31.4468   6.0944856183e+01   2.2324610377e+01    0.3460185     0.328014 -12.27  0.002350148    1.531    0.347
       269 -11.1680    198.2120     28.7292   6.5081620408e+01   3.2411926240e+01    0.4050136    0.3634188  36.16  0.001414956    1.415    0.293
       270  -9.9080    199.6817     24.6882   6.3935816821e+01   3.2553887782e+01    0.2313316    0.1870755  52.98 0.0005396627    1.370    0.270
       271 -10.2284    197.5968    231.6108   1.1085432876e+02  -4.0827894646e+00    0.2659624    0.1052196  29.15 0.0009529155    3.308    0.698
       272  -9.0374    216.8171     32.1372   6.3621316001e+01   2.7601638543e+01    0.1645938    0.1479925  57.53 0.0003864671    1.330    0.248
       273  -9.3028    182.5070     32.0114   6.8038244181e+01   3.5783886982e+01    0.1845737    0.1340738 -35.73 0.0005607759    1.518    0.341
       274  -9.2043     23.4997    231.5417   1.4534601351e+02   2.3342079932e+01    0.1176505   0.08469626  76.85 0.0008090707    1.025    0.025
       275  -9.1361    190.1543    229.8281   1.1202946545e+02  -2.5117996126e+00    0.1840779    0.1450539  12.44 0.0005643429    1.314    0.239
       276  -8.9092    171.6594    229.6861   1.1574265914e+02   7.5955065168e-01    0.1367779    0.1012922   8.11 0.0007047196    1.701    0.412
       277  -9.5767      9.0821    227.4703   1.4758814816e+02   2.5707488358e+01    0.1457018   0.09627131  48.26 0.0003313322    1.511    0.338
       278  -8.5656    209.4621    223.4663   1.0710614179e+02  -4.7669064664e+00    0.1326861    0.1152084  13.21 0.0001105995    1.021    0.020
       279  -9.9373    230.2878     27.7439   6.1209309820e+01   2.5098357418e+01    0.2910537     0.155127 -40.51  0.001130416    1.836    0.455
       280  -9.0255    221.5309     29.4653   6.2501320551e+01   2.6860395872e+01    0.1314958    0.1082108 -81.69 0.0001714663    1.009    0.009
       281  -9.8555    158.0849     20.4623   6.8693380059e+01   4.3009658274e+01    0.5000801    0.1770883  66.12  0.001946549    2.594    0.615
       282  -9.8564    234.5018    222.5379   1.0217767450e+02  -8.6933054589e+00     0.128144    0.1079509   4.25  5.82941e-05    1.008    0.008
       283 -10.0684    156.6536     25.2536   7.0276859195e+01   4.2826743121e+01    0.2387878    0.1960508  77.85 0.0004437359    1.151    0.131
       284  -9.5677    250.5425     25.0529   5.8756191382e+01   2.1041274834e+01    0.1749018    0.1061444 -44.55 0.0003938194    1.541    0.351
       285 -11.1566    214.5343     23.6747   6.1986266582e+01   2.9193566242e+01    0.3881781    0.3601475  52.86  0.001698932    1.365    0.267
       286 -10.1674    144.0476     25.0554   7.2454536966e+01   4.5839253846e+01     0.517626    0.3523402  69.13  0.002789474    1.402    0.287
       287  -9.9959    133.2952     23.6657   7.4109989840e+01   4.8487404472e+01    0.3420116    0.2660271 -84.36  0.001937753    1.577    0.366
       288  -9.7139      9.8351    217.8153   1.4683067112e+02   2.7616039422e+01    0.1656408    0.1005633  74.64 0.0007408521    1.311    0.237
       289  -9.6190    166.4713    213.0068   1.1401900403e+02   4.7847549548e+00    0.1891571    0.1255072 -77.91 0.0004253732    2.535    0.605
       290 -10.4297    138.1949     21.5799   7.2509075530e+01   4.7580277406e+01    0.3716956    0.2004463  54.14  0.001415732    1.575    0.365
       291  -9.9088    141.8231     19.6251   7.1242156041e+01   4.6940606434e+01    0.3695529    0.1831767  63.08  0.001401903    1.785    0.440
       292 -11.1124     69.6504     32.5813   9.4182127775e+01   6.0192102381e+01    0.4214543    0.2711854  34.07 0.0008286624    1.443    0.307
       293  -9.4733    152.7945    207.8080   1.1605297983e+02   8.3737025466e+00    0.1998608    0.1631794  67.39 0.0007567665    1.326    0.246
       294 -10.7855      4.4436    204.3689   1.4689567686e+02   3.0971986224e+01    0.3949774    0.1045046 -64.80  0.001763391    3.036    0.671
       295  -9.9962    238.3434    204.5251   9.8104615213e+01  -6.4863936470e+00    0.2607872    0.1547363 -32.52  0.001349993    1.607    0.378
       296 -10.5958    245.4984    200.9506   9.6121950920e+01  -7.0612185175e+00    0.1966753    0.1653623  19.06 0.0006621426    1.161    0.138
       297 -10.0273    233.8583    197.4417   9.7560129975e+01  -4.5811308293e+00    0.2963392    0.1804666 -34.91   0.00123661    1.566    0.362
       298 -10.2676     16.9505    192.4715   1.4355570157e+02   3.2380087006e+01    0.2152232    0.1531356 -80.22 0.0003575598    1.143    0.125
       299  -9.7853    169.5719    191.3831   1.0939358971e+02   8.5000648807e+00    0.3530062    0.2181284  22.79  0.001023006    2.175    0.540
       300  -9.6566    223.4781     22.4405   6.0772937315e+01   2.7295059662e+01    0.2484895    0.1708801 -86.19 0.0007833088    1.291    0.225
       301  -9.5387    221.1138     19.1536   6.0306696748e+01   2.8228122725e+01    0.1764777    0.1510273  80.23            0    1.169    0.145
       302  -9.8234     66.2520     21.9957   9.1265411414e+01   6.2067981148e+01    0.1828815    0.1467013  12.50 0.0003240936    1.027    0.027
       303 -12.2837      5.2282    185.2180   1.4531591283e+02   3.5073875059e+01    0.7277846    0.4270415  82.60  0.004070702    1.449    0.310
       304  -9.4370    250.4623    180.0057   9.1119672673e+01  -4.4283606292e+00    0.2116345    0.1178916 -36.79  0.001039944    1.620    0.383
       305  -9.8224    206.7976     18.7988   6.1741037758e+01   3.1571280518e+01    0.3845517    0.1666758 -55.42  0.001693928    2.492    0.599
       306  -9.1011      1.4637     20.5569   1.1739465804e+02   6.9622438855e+01    0.1073322   0.07560016 -24.10  0.000197338    1.018    0.018
       307 -10.1183     51.9738    173.5038   1.3385136982e+02   3.2887415085e+01    0.3624718    0.1789887 -84.14  0.001538842    2.395    0.582
       308  -9.6889    225.7403     16.8011   5.9352644523e+01   2.7461240017e+01    0.2350916    0.1658642 -74.99  0.001428212    1.228    0.186
       309  -9.6048    248.0187    173.6510   9.0256221321e+01  -2.9368449953e+00    0.3344632    0.1571643  23.89  0.001132727    4.264    0.765
       310 -10.1280     39.5222    173.0755   1.3669801896e+02   3.4465968477e+01     0.202595    0.1087897 -70.05  0.001029039    1.582    0.368
       311 -10.4398     35.2882    169.7732   1.3728135968e+02   3.5710456356e+01    0.3012314    0.1574709 -76.29  0.001512627    1.691    0.409
       312 -11.6293      9.6702    166.0803   1.4269287630e+02   3.9009947485e+01    0.5394288    0.3527049 -63.11  0.002682359    1.364    0.267
       313 -11.7011     13.1263    157.4369   1.4102936925e+02   4.0709217077e+01    0.4722772     0.350653  74.58  0.001319475    1.296    0.228
       314  -9.3408    198.1193    167.8742   9.8490231213e+01   7.5510627367e+00    0.2181496    0.2024831 -69.06 0.0005753426    1.192    0.161
       315 -10.1350     18.9572    165.3388   1.4053313772e+02   3.8370519966e+01    0.2498357    0.2248256 -66.58  0.001338884    1.257    0.205
       316  -9.7006    188.7677    164.3008   9.9674982123e+01   1.0207217580e+01    0.2979501    0.2052912 -31.73 0.0009675854    1.570    0.363
       317  -8.6810     94.6641     12.3085   7.9077542147e+01   5.7933906329e+01    0.1130295    0.0968395 -81.25 0.0007042597    1.677    0.404
       318 -10.0452    205.5276    162.8942   9.5911082056e+01   7.0369459179e+00    0.3985274    0.2844992  10.56  0.001588649    1.916    0.478
       319 -10.1644     28.0684    163.3459   1.3820435734e+02   3.7969479226e+01    0.2593073     0.160512 -79.33 0.0009033951    1.374    0.272
       320 -10.1919     80.8290    160.1327   1.2472465779e+02   3.2106312773e+01    0.3829504    0.2879956  41.02  0.002012593    1.411    0.291
       321 -10.7784    104.8491    153.8673   1.1738502814e+02   2.9625218192e+01    0.5006692    0.3533045 -62.77  0.002383124    1.397    0.284
       322 -11.2995     30.9310    151.2607   1.3600486394e+02   4.0540970067e+01    0.6737563    0.2946778 -78.23    0.0016362    2.351    0.575
       323 -11.5393     12.5062    138.3715   1.3898035885e+02   4.5172844230e+01    0.8021281    0.3854533  82.15  0.003584904    2.835    0.647
       324 -10.1926     14.3058    133.3958   1.3788084443e+02   4.6186169023e+01    0.2945185     0.178198  89.92  0.001636779    1.694    0.410
       325 -10.7622     10.7373    127.1940   1.3799644069e+02   4.7877815094e+01    0.4495099    0.1525236 -54.57  0.001596024    2.288    0.563
       326 -12.0481     23.0832    149.1427   1.3767897373e+02   4.1780717964e+01     0.546886    0.3159353 -30.64   0.00271265    2.678    0.627
       327 -10.5906     16.2386    148.1006   1.3923397587e+02   4.2616843643e+01    0.3166571    0.2260189  50.40  0.001341811    1.556    0.357
       328  -9.8756     22.9889    155.1354   1.3843693405e+02   4.0382351563e+01    0.2337284    0.1815758   9.13  0.001300428    1.824    0.452
       329 -10.2866     72.3374    152.0515   1.2550737358e+02   3.5339666426e+01    0.4514564    0.2551359  57.49  0.001988086    2.119    0.528
       330 -11.9702      5.0818    147.3100   1.4183649095e+02   4.3667434248e+01    0.6251149    0.3342153 -59.36  0.002910673    1.562    0.360
       331 -11.2278      3.1576    141.9887   1.4172293797e+02   4.5020523318e+01    0.3535283    0.3376662 -87.01  0.001922968    1.269    0.212
       332 -11.4614      3.9075    136.5337   1.4092426523e+02   4.6214569180e+01    0.2575202    0.1886083 -64.74 0.0004144529    1.129    0.114
       333 -11.5306     62.5770    149.8075   1.2767595986e+02   3.7238565640e+01    0.5240459    0.4767765  64.31  0.002400948    1.157    0.136
       334  -9.7927     48.5260    151.5013   1.3158991292e+02   3.8586204405e+01    0.2651739    0.1915932  15.16  0.001061911    1.895    0.472
       335 -11.2311     47.0881    146.0994   1.3113195221e+02   4.0054036080e+01     0.649579    0.3292161 -64.04  0.002663029    1.682    0.406
       336  -9.3293    214.6670    151.7012   9.1667038412e+01   7.3763400164e+00    0.1488659    0.1152098   2.62 0.0004091069    1.648    0.393
       337  -9.6770     85.6950    150.0215   1.2163032248e+02   3.3805970285e+01    0.2157272    0.1860062 -66.03 0.0007357788    1.074    0.069
       338  -9.9410     42.3977    148.1900   1.3266822476e+02   4.0078857650e+01    0.3395778    0.2199117  83.19   0.00175984    1.734    0.423
       339  -9.5645    239.9346    146.6892   8.6000468562e+01   3.3255047704e+00    0.1852245     0.183752  33.96 0.0007046391    1.123    0.110
       340 -10.7230    249.7538    142.7750   8.3536073168e+01   2.1920517372e+00    0.6457887    0.2262339 -40.57  0.002445321    2.512    0.602
       341 -10.2301    108.3204    146.0134   1.1486638240e+02   3.0885660577e+01     0.264353    0.2149494  44.67 0.0004369244    1.265    0.209
       342  -9.3245     74.0561    145.5160   1.2387685679e+02   3.6681093941e+01    0.2005286    0.1417636  37.56 0.0007871756    1.541    0.351
       343 -10.7433     33.2007    144.3518   1.3448124101e+02   4.1956746692e+01    0.2687628    0.2231053 -86.82  0.000796691    1.111    0.100
       344  -9.8802    133.4423    140.8234   1.0723926760e+02   2.7183144126e+01    0.3479169    0.2460704 -43.92  0.001326355    1.430    0.301
       345 -11.9986     29.8493    132.9212   1.3368455628e+02   4.4982946395e+01    0.6265515    0.3583166 -78.51 0.0004248434    1.709    0.415
