#   1 NUMBER                 Running object number                                     
#   2 MAG_AUTO               Kron-like elliptical aperture magnitude                    [mag]
#   3 X_IMAGE                Object position along x                                    [pixel]
#   4 Y_IMAGE                Object position along y                                    [pixel]
#   5 X_WORLD                Barycenter position along world x axis                     [deg]
#   6 Y_WORLD                Barycenter position along world y axis                     [deg]
#   7 A_WORLD                Profile RMS along major axis (world units)                 [deg]
#   8 B_WORLD                Profile RMS along minor axis (world units)                 [deg]
#   9 THETA_WORLD            Position angle (CCW/world-x)                               [deg]
#  10 FWHM_WORLD             FWHM assuming a gaussian core                              [deg]
#  11 ELONGATION             A_IMAGE/B_IMAGE                                           
#  12 ELLIPTICITY            1 - B_IMAGE/A_IMAGE                                       
         1 -14.8447    163.3458     43.6973   7.7546638667e+01   3.9206900308e+01     1.356996     1.121325 -15.91  0.003971878    1.354    0.261
         2 -14.9096    177.5200     10.9169   6.5165571955e+01   3.9424265574e+01     1.484169     1.140404  77.62  0.005142243    1.181    0.153
         3  -9.8781    133.5949    248.6170   1.2874543047e+02   7.0533870759e+00    0.1182035   0.09010565  47.55  0.000160564    1.011    0.011
         4 -20.0196     75.1080    170.6539   1.3131164210e+02   3.1073627341e+01     17.41164     7.462884 -67.39   0.07568453    2.326    0.570
         5 -11.4246    167.2179    175.2072   1.1104326281e+02   1.3695323387e+01    0.1929706     0.168515  79.42 0.0005736091    1.341    0.254
         6 -12.2381    125.8606    171.8454   1.1962300437e+02   2.2381424885e+01    0.3720606    0.3109094  78.75  0.001660432    1.242    0.195
         7 -12.5058     22.5681    220.6097   1.4663915835e+02   2.7132349403e+01    0.2516209    0.1509363 -71.26  0.001570757    1.704    0.413
         8 -11.7537    164.0404    169.8475   1.1068837698e+02   1.5351580779e+01    0.2287674    0.1928118  65.42   0.00118616    1.290    0.225
         9 -10.8134     33.9674    169.8132   1.4068256749e+02   3.6389681845e+01    0.2022031    0.1464664 -81.67 0.0005501001    1.172    0.147
        10 -11.9931    230.6214    167.6963   9.7067888798e+01   2.6061347816e+00    0.4053449    0.1869137 -46.40    0.0016638    2.732    0.634
        11 -10.7090     25.1829    165.0664   1.4222276444e+02   3.8329301781e+01    0.1807397     0.155558  69.73 0.0008448088    1.181    0.153
        12 -11.4013     23.6069    215.2301   1.4614589797e+02   2.8050364310e+01    0.1404329    0.1001725 -89.70 0.0005807155    1.218    0.179
        13 -11.4859    188.7665    158.4967   1.0312904182e+02   1.2419015790e+01    0.5835124    0.3640641  16.29  0.002370984    2.440    0.590
        14 -10.6858    189.2308    154.5743   1.0218936641e+02   1.3042347201e+01       0.5439    0.2607737  31.92  0.001975323    2.707    0.631
        15 -10.4357    134.1775    244.4335   1.2816657930e+02   7.6006559328e+00    0.2045355    0.1540016 -34.53  0.001312934    1.917    0.478
        16 -13.6533    107.9598    208.4582   1.2897917835e+02   1.8068756424e+01    0.7284273     0.470111  78.95  0.003861012    1.846    0.458
        17 -10.0993    138.7628    242.7935   1.2712711432e+02   7.1213769229e+00    0.2500947    0.1892342 -88.65  0.001609611    1.717    0.418
        18 -11.2834     22.9346    156.0924   1.4192838788e+02   4.0546087002e+01    0.1963619    0.1735058  85.28 0.0004726085    1.170    0.145
        19 -12.9398    125.1162    241.3795   1.2950193732e+02   9.5157323097e+00    0.4551489    0.1605054 -55.27  0.002090028    3.482    0.713
        20 -10.2473    176.9335    154.9148   1.0483686721e+02   1.5568799554e+01    0.2166348    0.1794255  86.78 0.0004920783    1.553    0.356
        21 -10.1067      6.4710    155.5811   1.4566183918e+02   4.2056352708e+01    0.1142036   0.08859123 -88.04 8.602249e-05    1.063    0.059
        22 -13.1090    161.8357    153.0023   1.0772564589e+02   1.9132286935e+01    0.4161443    0.3610985  50.02  0.001457021    1.113    0.101
        23 -13.1850     11.3676    206.0603   1.4785799788e+02   3.1063349954e+01    0.3677223     0.240815  34.69  0.002124556    1.809    0.447
        24 -11.8025    174.3534    148.4336   1.0397574874e+02   1.7373157915e+01     0.367687    0.2906939 -63.77  0.001253373    1.505    0.336
        25 -12.0083     27.5180    145.1356   1.3973054416e+02   4.2611731048e+01    0.2617843    0.1898581 -75.34  0.001073417    1.156    0.135
        26 -10.8772    138.8468    250.4817   1.2799895488e+02   5.9489903628e+00    0.1709602    0.1158181  39.75   0.00109242    1.211    0.174
        27 -10.6627    139.3812    200.0326   1.2124846913e+02   1.4293262420e+01    0.3425956    0.2037479  39.49  0.001485028    1.525    0.344
        28 -11.4465      8.4672    137.9622   1.4374368320e+02   4.5837645403e+01    0.2720314     0.219362 -36.28   0.00132533    1.649    0.393
        29 -10.7504    171.0646    137.4925   1.0220730613e+02   2.0252772511e+01    0.2327312    0.1479413  48.57 0.0007142661    1.547    0.353
        30 -11.2688     12.6886    242.3101   1.4935939760e+02   2.4215645417e+01    0.1508788    0.1267501 -84.02  0.001149116    1.522    0.343
        31 -10.3711    112.7550    196.1621   1.2634456031e+02   1.9687416771e+01    0.4567593     0.313868   0.31  0.001954644    3.330    0.700
        32 -12.9618    160.4544    127.8995   1.0231232022e+02   2.4569178912e+01    0.4999899    0.4009169 -60.27  0.001693847    1.365    0.267
        33 -11.5394    153.4191    193.8499   1.1730959949e+02   1.2873656887e+01    0.3002978     0.250241  65.26 0.0007074928    1.267    0.211
        34 -10.2179    151.2479    241.7222   1.2467784017e+02   5.2666848647e+00     0.148656    0.1192419  27.38 0.0005110116    1.282    0.220
        35 -11.4416     28.6187    239.6739   1.4663061415e+02   2.2989090388e+01     0.138298   0.08585626  67.67 0.0005529473    1.163    0.140
        36 -10.9869    167.5346    112.5372   9.6836900684e+01   2.6057868635e+01    0.3499927    0.2389824 -80.80  0.001198252    2.361    0.576
        37 -12.3884    153.5337    186.1951   1.1598069317e+02   1.4280328182e+01    0.3153557    0.2682772 -73.62 0.0008148475    1.369    0.270
        38 -10.8188    205.4235    110.1526   8.8513793421e+01   1.7585872043e+01    0.3249193    0.2148982  43.05 0.0009896541    1.580    0.367
        39 -11.7997    151.1568    181.6598   1.1569440423e+02   1.5601575950e+01    0.2664855     0.211747  81.98 0.0009625147    1.546    0.353
        40 -11.6356     21.6197    238.2124   1.4771988556e+02   2.4006854439e+01    0.1292117   0.09428293  86.00 0.0008731034    1.239    0.193
        41 -10.9896    131.1477    235.3278   1.2767146909e+02   9.5289103779e+00    0.1639411    0.1473317 -63.76 0.0006246619    1.367    0.269
        42 -10.3145    163.0639    250.5484   1.2361760479e+02   2.1012717402e+00    0.1790385   0.09213626  40.99 0.0003292724    1.496    0.331
        43 -14.1890    137.0742    170.8748   1.1688284934e+02   2.0467810451e+01      1.13124     0.751967  71.41   0.00512845    1.981    0.495
        44 -14.3517    143.4770    167.6921   1.1483693642e+02   1.9880007884e+01     1.053648    0.6829079  88.26  0.004247011    2.696    0.629
        45 -10.9638     16.9388    224.9839   1.4785300841e+02   2.6896184325e+01    0.1324711   0.09066695 -80.02  0.000942064    1.431    0.301
        46 -14.4690    152.2038     58.2414   8.4452063596e+01   3.9873131006e+01     1.376087     1.170883  32.47  0.001027116    1.243    0.196
        47 -10.4921    160.9425    247.3526   1.2360150739e+02   2.8844318823e+00    0.3485839    0.1666422  25.65  0.001259211    3.145    0.682
        48 -13.0717    167.6039     35.3033   7.4133050940e+01   3.9229540831e+01    0.4320847    0.4064636 -25.78 0.0007803041    1.146    0.128
        49 -11.1367     13.4467     59.9239   1.3075717435e+02   6.3081344012e+01     0.178405    0.1606345  57.99 0.0004650945    1.411    0.291
        50 -11.8553    187.8966    174.5729   1.0661360846e+02   9.7057642088e+00    0.3323796    0.1939103 -57.01  0.001419596    2.439    0.590
        51 -10.5038    142.1793     32.9113   7.8107188698e+01   4.6102818233e+01     0.210984    0.1901216 -80.28 0.0003399827    1.209    0.173
