#   1 NUMBER                 Running object number                                     
#   2 MAG_AUTO               Kron-like elliptical aperture magnitude                    [mag]
#   3 X_IMAGE                Object position along x                                    [pixel]
#   4 Y_IMAGE                Object position along y                                    [pixel]
#   5 X_WORLD                Barycenter position along world x axis                     [deg]
#   6 Y_WORLD                Barycenter position along world y axis                     [deg]
#   7 A_WORLD                Profile RMS along major axis (world units)                 [deg]
#   8 B_WORLD                Profile RMS along minor axis (world units)                 [deg]
#   9 THETA_WORLD            Position angle (CCW/world-x)                               [deg]
#  10 FWHM_WORLD             FWHM assuming a gaussian core                              [deg]
#  11 ELONGATION             A_IMAGE/B_IMAGE                                           
#  12 ELLIPTICITY            1 - B_IMAGE/A_IMAGE                                       
         1 -15.2536     12.8653    158.4287   1.4473156174e+02   4.0918638315e+01     10.98467     3.991997  69.65   0.04572059    3.433    0.709
         2 -13.4801    194.4360     29.0378   6.8718889508e+01   3.3115238917e+01     1.531468     1.283578 -41.33  0.007290273    1.210    0.173
         3 -13.6586    208.6712     10.0911   6.1897247443e+01   3.1632432197e+01     1.345041     1.038468  38.64   0.00752727    1.601    0.375
         4 -11.4460      2.4339      3.2065   1.1745794766e+02   7.4467856583e+01    0.4029135    0.1995866 -57.96  0.002213674    2.692    0.628
         5  -9.9233     13.4906      2.4639   1.1054474083e+02   7.3711978216e+01    0.1114212   0.08280168 -19.26  0.000194143    1.005    0.005
         6  -8.6124     40.3232    245.6407   1.4531101144e+02   2.0625152375e+01    0.1191461   0.05470685  65.22  0.000704366    1.775    0.437
         7 -10.8233    249.4689    248.8923   1.0901805910e+02  -1.0740510986e+01    0.2434381    0.1749199  -0.50  0.001792611    1.246    0.197
         8  -9.4201    156.4867    250.4689   1.2530455587e+02   3.1679830374e+00    0.1196166   0.09213883  41.04 0.0008095067    1.032    0.031
         9 -11.2915    139.6195    249.7653   1.2825550075e+02   5.9427865982e+00    0.3501345    0.1694224  43.01  0.001926686    1.591    0.371
        10 -10.9110    126.6887    250.0060   1.3060758282e+02   7.9291648059e+00    0.2883224    0.1087104  40.92  0.001393791    2.116    0.527
        11 -10.6499    111.3371    250.6061   1.3341315905e+02   1.0181530760e+01    0.3116129    0.1107648  49.76 0.0006417761    2.247    0.555
        12 -10.5445     97.8341    248.7533   1.3563832462e+02   1.2479394306e+01    0.2229516    0.1975355 -41.63  0.001091509    1.728    0.421
        13 -10.7985    101.2805    246.3190   1.3480083810e+02   1.2370007117e+01    0.2197908    0.1885837 -52.41 0.0004986739    1.632    0.387
        14 -10.6854     29.8460    250.0154   1.4724967025e+02   2.1077870893e+01    0.2987641    0.1611623  51.89    0.0014367    1.376    0.273
        15 -11.2100     34.7546    244.8363   1.4618536300e+02   2.1410165997e+01    0.4433964    0.2898588 -76.64  0.003294654    1.603    0.376
        16 -10.5747      2.4556    249.1089   1.5147447200e+02   2.4092513245e+01    0.3208417    0.1476614 -79.72  0.002229697    1.974    0.493
        17 -10.5173      5.7335    240.9265   1.5066831689e+02   2.5172218234e+01     0.192369    0.1307358  35.64 0.0003158768    1.880    0.468
        18  -9.8416     22.9186    245.1299   1.4812272884e+02   2.2674854205e+01    0.2226012    0.0870513  55.94 0.0008585267    1.819    0.450
        19 -11.0859    198.6409    247.4325   1.1740164149e+02  -3.1112672013e+00    0.3100104    0.1858336 -44.77   0.00188318    2.231    0.552
        20 -10.0010     12.9749    240.2883   1.4949627324e+02   2.4559762451e+01     0.177016    0.1282707  66.11 0.0009998888    1.138    0.121
        21  -9.9301    183.1916    238.5943   1.1891288181e+02   4.9670014280e-01     0.176066   0.09365825  33.30 0.0005629527    1.645    0.392
        22 -10.9401    231.3424    233.1715   1.0957016210e+02  -6.4397975924e+00    0.5091414    0.3103155 -60.02  0.001997898    6.236    0.840
        23 -11.5071    239.3450    248.1835   1.1056586488e+02  -9.2645342011e+00    0.3628739    0.1722526  19.21  0.001881422    2.415    0.586
        24 -11.1751    147.2628    229.7502   1.2439864908e+02   7.7769855655e+00    0.4959615   0.09658061  38.11  0.001329076    6.143    0.837
        25  -8.6460    152.4984    212.9679   1.2104011354e+02   9.6467773639e+00    0.1608031    0.1316267 -52.97 0.0003294752    1.438    0.305
        26 -11.6093     62.7063    198.3848   1.3760711743e+02   2.6795298794e+01    0.3046529    0.2491692 -43.71  0.001290558    1.790    0.441
        27 -11.1044     19.0628    199.1220   1.4630782768e+02   3.1706425071e+01    0.2168145    0.1515763  63.51 0.0003892959    1.161    0.139
        28 -10.7644     15.5053    197.0540   1.4685605938e+02   3.2474158971e+01    0.1866231     0.151094  83.94 0.0003051748    1.188    0.158
        29  -9.9397    194.2981    197.8770   1.1033407364e+02   4.5762893413e+00    0.4923744     0.254056 -62.63   0.00150457    6.283    0.841
        30 -12.6923     36.3493    232.6334   1.4522334465e+02   2.3392884353e+01    0.2717357    0.2213203  82.47 0.0007234796    1.260    0.206
        31 -13.8883     42.1884    224.6047   1.4368811141e+02   2.4194148160e+01    0.7890596    0.5851831  69.81  0.002579722    1.029    0.029
        32 -11.8780     68.5680    190.3700   1.3555397598e+02   2.7680998513e+01    0.2628424    0.2380755 -69.96 0.0004987522    1.328    0.247
        33 -10.4482    172.9463    222.2802   1.1844578177e+02   4.5709719704e+00    0.3347359    0.1484064  43.39 0.0009834737    1.883    0.469
        34 -13.1631     65.3133    175.6835   1.3460134797e+02   3.1308906201e+01    0.4668429     0.272138 -47.85  0.001467848    2.222    0.550
        35 -10.6463     78.4590    177.6353   1.3186991236e+02   2.9025724692e+01    0.2243823    0.2053009  81.74 0.0004082373    1.143    0.125
        36  -9.0590    100.1026    176.7814   1.2682748244e+02   2.5833978281e+01    0.2089432    0.1574622  67.92 0.0005086525    1.268    0.212
        37 -11.7677     85.9247    168.2393   1.2885879677e+02   2.9988127072e+01    0.5828805    0.5451489  74.67  0.003665016    1.140    0.123
        38 -11.2336      1.7338    216.3339   1.5031673231e+02   3.0004936174e+01    0.4715101     0.131849 -81.69  0.002331223    3.027    0.670
        39 -12.9212      9.5213    206.7749   1.4850346670e+02   3.1112872104e+01    0.6916009     0.444809  40.44    0.0030966    1.664    0.399
        40  -9.9850     98.4170    152.1576   1.2324506167e+02   3.1621417616e+01    0.2994934    0.2563167 -59.46 0.0008681063    1.196    0.164
        41  -9.1098    101.0538    148.0065   1.2183516080e+02   3.2124235696e+01    0.2083584    0.1932592 -33.10 0.0004474915    1.292    0.226
        42 -11.9997     86.9167    151.5178   1.2601389198e+02   3.3650487380e+01    0.2865039    0.2477328 -51.19 0.0005778736    1.286    0.222
        43 -12.4106     67.6867    143.3155   1.2959851451e+02   3.8410585431e+01    0.7247533    0.4428466 -82.47  0.002280516    1.736    0.424
        44 -11.4903     64.6728    141.6814   1.3012773165e+02   3.9204407482e+01    0.4483981    0.2765797 -58.52 0.0009826367    1.514    0.340
        45  -9.0281     39.6287    146.7021   1.3723124491e+02   4.1033404114e+01     0.122273   0.08992164 -42.14 0.0007029244    1.739    0.425
        46  -8.5516     24.6478    235.7072   1.4737663533e+02   2.4144484790e+01   0.08580034    0.0799799 -75.19 0.0004379535    1.679    0.404
        47  -8.5316    180.9700    144.2626   1.0223740275e+02   1.6749361244e+01    0.1845424     0.127621  47.23  0.000360566    1.416    0.294
        48  -9.7172    109.7815    137.0786   1.1746494272e+02   3.3080684275e+01    0.3752897    0.2381835 -27.63  0.001512298    2.549    0.608
        49 -11.0005     57.8644    132.7520   1.3052836189e+02   4.2201927678e+01    0.4036196    0.2252071  89.64  0.001794196    2.269    0.559
        50 -10.8204     35.0926    133.5671   1.3675764248e+02   4.4565153358e+01    0.2560364    0.2047701  59.32 0.0007163478    1.283    0.221
        51  -9.6871     81.2384    132.9920   1.2422266600e+02   3.8882282382e+01    0.2411526    0.1898373  60.48 0.0003224392    1.294    0.227
        52  -8.6062     91.5407    131.6171   1.2117106975e+02   3.7558900865e+01    0.1414181    0.1311938  88.09 0.0001335141    1.025    0.025
        53 -10.4555     97.0845    134.4755   1.2026029554e+02   3.5951148784e+01    0.2626516    0.2287867 -36.80 0.0005457122    1.323    0.244
        54  -8.4529    191.9667    143.9955   9.9901802095e+01   1.4412179677e+01    0.1718328    0.1659672  -1.94 0.0003765857    1.021    0.021
        55  -9.0959    106.8597    123.8749   1.1537946386e+02   3.6669407117e+01    0.1988924    0.1943395 -31.81 0.0003022241    1.130    0.115
        56  -9.5151     53.3140    120.6530   1.2978406060e+02   4.5634619995e+01    0.1397249   0.09373459  77.19 0.0007047104    1.718    0.418
        57  -8.4208    182.6445    117.6833   9.5507602132e+01   2.1521387733e+01    0.1618957    0.1220487  13.19 0.0007045519    1.747    0.427
        58 -10.1628    167.6290    112.8075   9.7487408961e+01   2.6005440026e+01      0.34019    0.2691924 -68.74 0.0008272708    1.485    0.326
        59  -9.2920    203.0374    111.5041   8.9911377808e+01   1.7910954433e+01    0.2229405    0.1492009  50.59  0.000473212    1.526    0.345
        60  -8.8006     69.4595     83.9929   1.1671422462e+02   5.2050458535e+01    0.1770938    0.1184334 -80.45  0.000501827    2.167    0.538
        61  -8.6777    184.4953     77.4451   8.4274628329e+01   2.8499572666e+01    0.1520036    0.1498013  39.68 0.0001595186    1.061    0.058
        62  -9.0852    157.2800     76.3575   8.9543980710e+01   3.5557840800e+01    0.1586653    0.1237458   9.77 0.0005311169    1.663    0.399
        63  -9.5662     33.8456     62.8682   1.2378378208e+02   6.0893434765e+01    0.2364343    0.1706541  33.40   0.00127809    1.641    0.391
        64 -10.0167      2.2386     61.9871   1.3591183794e+02   6.3281935641e+01    0.1604651   0.07635491 -66.35  0.000628232    1.628    0.386
        65 -10.3033     25.5304     59.5037   1.2616092610e+02   6.2329291138e+01     0.417851    0.1614878  40.39  0.001825417    3.442    0.710
        66 -10.6345     17.7929     56.5448   1.2851571715e+02   6.3533397079e+01    0.3429431    0.1608578  37.84  0.001776938    2.712    0.631
        67 -10.0585    161.8439    249.1871   1.2418519123e+02   2.4926936393e+00    0.1655847    0.1233459  25.70 0.0007424697    1.367    0.269
        68  -9.9623     47.1038    249.1472   1.4439271856e+02   1.9215073223e+01    0.1491056    0.1185797  63.09 0.0003073223    1.223    0.183
        69  -9.8947      2.7902     38.1801   1.3016243493e+02   6.8169057223e+01    0.1761449    0.1106658  68.23  0.000965243    2.932    0.659
        70  -9.7939      2.4891     27.5128   1.2711666810e+02   7.0241517516e+01    0.1121805   0.08434934 -42.60 4.515241e-05    1.019    0.019
        71 -10.0036    217.6092    248.2004   1.1422410326e+02  -6.1028029070e+00    0.1469282   0.09882802 -12.71 0.0009529019    1.693    0.409
