#   1 NUMBER                 Running object number                                     
#   2 MAG_AUTO               Kron-like elliptical aperture magnitude                    [mag]
#   3 X_IMAGE                Object position along x                                    [pixel]
#   4 Y_IMAGE                Object position along y                                    [pixel]
#   5 X_WORLD                Barycenter position along world x axis                     [deg]
#   6 Y_WORLD                Barycenter position along world y axis                     [deg]
#   7 A_WORLD                Profile RMS along major axis (world units)                 [deg]
#   8 B_WORLD                Profile RMS along minor axis (world units)                 [deg]
#   9 THETA_WORLD            Position angle (CCW/world-x)                               [deg]
#  10 FWHM_WORLD             FWHM assuming a gaussian core                              [deg]
#  11 ELONGATION             A_IMAGE/B_IMAGE                                           
#  12 ELLIPTICITY            1 - B_IMAGE/A_IMAGE                                       
         1 -12.5419    248.4513    134.2409   8.6122760490e+01   4.7741437426e+00     1.055761    0.5622232 -35.23  0.005044559    1.672    0.402
         2 -14.1301    201.1247     17.2668   6.3552151965e+01   3.2614297511e+01      1.95733     1.420941  14.04  0.008261821    1.935    0.483
         3 -12.2332      2.1941     12.9753   1.1872321998e+02   7.2289991580e+01      1.17601    0.1470264 -52.85  0.003454398    7.281    0.863
         4 -12.5103      2.2690      3.3648   1.1429606769e+02   7.3821879022e+01    0.5068644     0.404603 -39.54  0.003939067    1.377    0.274
         5 -13.8639    207.4545     10.6228   6.1149486894e+01   3.1771760711e+01     2.851732     1.387964  29.71  0.001414769    4.562    0.781
         6 -10.1800    222.6449    244.7481   1.1156112084e+02  -6.4109884904e+00    0.2238502    0.1121343  28.65  0.001121758    1.729    0.421
         7  -9.5708    184.1834    250.5999   1.1911276411e+02  -1.3558318319e+00    0.1643989   0.08883215  31.39 0.0002564769    1.606    0.377
         8 -10.5723    169.5627    248.7268   1.2146893115e+02   1.1533348322e+00    0.2890414     0.189278  16.01 0.0008932113    1.891    0.471
         9 -11.8173    135.9168    228.6179   1.2509311001e+02   9.5734326768e+00    0.6037477    0.3691354 -28.32  0.002985136    2.874    0.652
        10 -11.5363    149.8023    248.7306   1.2503223776e+02   4.2319351870e+00      0.40422    0.2895834  53.13  0.002657327    1.298    0.230
        11 -11.4014    143.3203    248.9893   1.2623567005e+02   5.1997141745e+00    0.4567329    0.2985453  79.29  0.002500964    2.469    0.595
        12 -11.4757    135.5316    241.0447   1.2671315886e+02   7.6242877449e+00    0.2674566    0.2447211  34.30 0.0008280063    1.193    0.161
        13 -12.0078    135.2616    236.6874   1.2623451193e+02   8.3587033038e+00    0.4499154    0.3670255   4.10  0.001422664    1.678    0.404
        14 -10.6403    136.0009    250.5052   1.2773246759e+02   6.1011044151e+00    0.2360781     0.194655  38.51 0.0008879669    1.134    0.118
        15 -10.8618    132.0165    248.8472   1.2826346647e+02   6.9613839637e+00    0.3042719    0.1810543  58.86  0.001619642    1.728    0.421
        16  -9.8634    122.8701    250.0823   1.3004761650e+02   8.1601988903e+00    0.2468738    0.1604277  49.80  0.001582283    1.230    0.187
        17 -10.1724    126.5304    248.9967   1.2927100127e+02   7.7746426433e+00    0.2644899    0.2084099 -73.27  0.001298031    1.544    0.352
        18 -11.3992    115.5436    250.2410   1.3137800628e+02   9.2310498883e+00    0.6402848    0.2329978  40.64  0.003097764    2.225    0.551
        19 -12.0587    109.6948    246.9977   1.3209735948e+02   1.0613962367e+01    0.4669524    0.3739666 -73.85  0.003346178    1.448    0.309
        20 -11.5824    121.7617    244.8750   1.2968438181e+02   9.1452890283e+00     0.491137    0.2046064  45.57  0.001989203    1.909    0.476
        21 -11.5727    126.4027    240.3918   1.2832676639e+02   9.1508515205e+00    0.3893023    0.3343835  58.67  0.002085085    1.095    0.087
        22 -11.8695     96.4408    238.9639   1.3370386501e+02   1.3891841172e+01    0.4955637    0.2809276 -83.64  0.002758486    2.271    0.560
        23 -11.0004    104.4893    237.8233   1.3210540715e+02   1.2906298396e+01    0.2235559    0.1730274  42.20 0.0009426582    1.224    0.183
        24 -11.8201     98.9638    247.5901   1.3408062061e+02   1.2081124022e+01    0.5601559    0.2738323  48.83  0.003200684    1.612    0.380
        25 -10.2224     88.6904    250.5199   1.3616366990e+02   1.3051334610e+01    0.4501071    0.1405415  35.97  0.001886467    3.450    0.710
        26 -10.6790     88.8379    247.1333   1.3583956537e+02   1.3591309041e+01    0.2565405    0.1799798  40.60  0.001296174    1.364    0.267
        27  -9.6216     79.2620    243.5515   1.3722562335e+02   1.5517307971e+01     0.208239    0.1161676  76.71 0.0005327077    1.997    0.499
        28  -8.7041     74.5494    250.6560   1.3863119493e+02   1.4948334243e+01     0.204388   0.08312532  41.82  0.001103865    2.004    0.501
        29 -14.2497     15.5138    168.2572   1.4334879421e+02   3.8022667984e+01     1.593994     1.464253 -47.80     0.012045    1.487    0.327
        30 -14.4627     22.3270    153.8639   1.4052046992e+02   4.0617012389e+01     3.244491     1.657595  64.44   0.01704915    2.058    0.514
        31 -14.1494      6.1166    245.8248   1.4958217014e+02   2.3672523611e+01     1.021745    0.5405697  68.85  0.007439639    1.367    0.268
        32 -13.1817     13.7843    238.8161   1.4806071601e+02   2.4135354861e+01    0.5750011    0.4010551  54.46  0.004557929    1.263    0.208
        33 -12.7848     41.6705    228.5202   1.4274399634e+02   2.2980910686e+01    0.3116228    0.2933679 -89.29 0.0008072083    1.465    0.317
        34 -14.7336     47.6139    219.3240   1.4099528847e+02   2.4017831025e+01     1.721383     1.418483  40.71  0.009064772    1.451    0.311
        35 -10.5609     81.4422    247.2353   1.3715320959e+02   1.4594745502e+01    0.3079399    0.1927572 -80.98  0.002010059    1.739    0.425
        36 -11.8129    245.4411    241.1662   1.0717776697e+02  -9.2365840848e+00    0.2960795     0.176828  22.11  0.001901068    1.390    0.280
        37 -10.6178    165.2044    242.0990   1.2137970921e+02   2.7678713494e+00    0.2273395     0.167482  29.51 0.0006537025    1.226    0.184
        38  -8.9058     83.7684    242.1847   1.3630309040e+02   1.5133678767e+01    0.1403522    0.1222168  47.92 0.0006348953    1.287    0.223
        39 -10.9383    173.0177    239.9708   1.1965962289e+02   1.8275269266e+00    0.2804596    0.2008966 -59.42  0.001180792    1.973    0.493
        40 -10.8845    144.6148    240.3160   1.2494162167e+02   6.3056654162e+00     0.288585     0.146556  59.57  0.001350848    2.647    0.622
        41 -10.8382    115.7901    239.8212   1.3022744722e+02   1.0872806790e+01    0.2151163     0.172737  49.75 0.0006526252    1.048    0.046
        42  -9.3144    150.6802    239.3041   1.2368828776e+02   5.4956742731e+00     0.119843   0.08364368  62.29 0.0007028506    1.631    0.387
        43 -11.1836     89.8378    237.6784   1.3478939792e+02   1.5061402590e+01    0.3573232    0.2324201  62.92  0.002273105    1.352    0.260
        44  -9.0792     83.2926    238.3412   1.3604434707e+02   1.5865509694e+01    0.2673315    0.1151114  39.87  0.001343271    2.037    0.509
        45 -10.3162    152.7681    243.5683   1.2384944979e+02   4.5244368917e+00    0.1898862     0.171036 -52.24  0.001373544    1.381    0.276
        46 -11.5828    128.9145    234.1781   1.2712244830e+02   9.7708683305e+00    0.4409883    0.3218038  77.53  0.002229612    1.637    0.389
        47 -11.4468    122.3941    232.4972   1.2815496431e+02   1.1076652456e+01    0.3948799    0.3643239  24.89  0.002799633    1.295    0.228
        48  -9.0016    183.4137    236.5081   1.1726586195e+02   6.5284860897e-01    0.1208307   0.09893713  28.57 -5.439735e-06    1.026    0.025
        49 -10.3445    165.8351    235.0308   1.2029667233e+02   3.6984600094e+00    0.2504739    0.2037145  32.50 0.0009702268    1.066    0.062
        50 -10.1461    161.8116    232.5915   1.2070831359e+02   4.7194659953e+00    0.2025596     0.153086  58.58 0.0007766407    1.443    0.307
        51 -11.4525     98.5949    231.6523   1.3256189929e+02   1.4849509849e+01    0.3367476    0.2834769  89.78 0.0007290451    1.227    0.185
        52 -10.7763    112.7338    230.1232   1.2971522306e+02   1.2984191904e+01    0.3193426    0.1903414  49.25 0.0006836659    1.395    0.283
        53 -11.8395    106.4937    229.2723   1.3080875137e+02   1.4087367028e+01    0.5990062    0.3282562  57.83  0.002592105    1.753    0.430
        54  -9.6177     77.9103    233.1275   1.3655604139e+02   1.7532647855e+01     0.250291    0.1570314  88.18 0.0009745988    1.675    0.403
        55 -11.1973    156.6218    231.7075   1.2156275918e+02   5.7030201608e+00    0.2251616    0.2077797  -0.33  0.000616544    1.248    0.199
        56 -11.1508    141.9778    230.0649   1.2412187679e+02   8.3524417896e+00    0.3395108    0.2531987 -30.20  0.001703047    1.811    0.448
        57  -9.5057     56.9220    230.6333   1.4017060263e+02   2.0744495212e+01    0.2740054    0.1111722  49.12  0.001469049    1.959    0.490
        58 -10.5488     84.7250    229.5835   1.3495960646e+02   1.7224542366e+01    0.2796833     0.200202  31.11 0.0006858735    1.669    0.401
        59 -10.7912     77.6062    221.0415   1.3547937808e+02   1.9804737392e+01    0.3335684    0.1748075  62.18  0.001136959    1.862    0.463
        60 -10.9543     80.4833    227.4029   1.3554646231e+02   1.8217952675e+01    0.2944784    0.2556779 -12.00 0.0008614066    1.910    0.476
        61 -10.0634     78.6937    224.6952   1.3562537127e+02   1.8967892012e+01    0.2055694    0.1923684 -23.75 0.0006382419    1.611    0.379
        62 -10.6213    165.4950    226.5628   1.1915207659e+02   5.0380326605e+00    0.3522612    0.2354404 -68.40  0.001893175    2.366    0.577
        63 -11.3492    160.7021    223.2986   1.1959103491e+02   6.3508326012e+00    0.5756255    0.2978126  30.14  0.002070011    2.081    0.519
        64  -9.5820    190.7434    228.0477   1.1464915976e+02   6.5667163498e-01    0.1639332    0.1415211  20.76 0.0003023864    1.063    0.059
        65  -9.2445    179.6503    228.1113   1.1671562906e+02   2.4629153039e+00    0.1743066    0.1533132  82.50 0.0008383598    1.563    0.360
        66  -9.7016    197.5416    226.8213   1.1321026310e+02  -2.7450452350e-01    0.2372609    0.1857426  67.54  0.001417031    1.956    0.489
        67 -10.5388     92.5228    225.9278   1.3311557695e+02   1.6769960791e+01    0.2990769    0.1768248  45.68  0.001030343    1.428    0.300
        68 -11.6056     98.9629    223.6156   1.3162864250e+02   1.6239955826e+01    0.4760292     0.259545  42.13  0.001239374    1.597    0.374
        69  -9.6139    147.2138    225.0668   1.2244272369e+02   8.3121386232e+00    0.1769129    0.1481549  37.98 0.0003861719    1.073    0.068
        70  -9.4876    149.7086    222.6340   1.2161954880e+02   8.2984822217e+00    0.2404925    0.1583853  11.36 0.0007556442    2.420    0.587
        71 -10.7847    132.4511    224.3979   1.2521420460e+02   1.0848352472e+01    0.2533102    0.2164788  36.74 0.0009000216    1.155    0.134
        72  -9.7127    129.6241    220.8386   1.2529992125e+02   1.1925437895e+01    0.2401822    0.1579034 -71.16  0.001328447    1.931    0.482
        73 -10.9255    117.3380    224.2802   1.2813913302e+02   1.3291511187e+01    0.2262742    0.1953782  60.98 0.0002992853    1.054    0.051
        74 -11.6125    142.0827    221.7100   1.2297547573e+02   9.7229409621e+00    0.3702928    0.2725631  41.48 0.0002894607    1.166    0.142
        75 -11.2106    137.8386    214.2071   1.2276313238e+02   1.1731402571e+01    0.5376521    0.3198204  36.73  0.001263155    1.563    0.360
        76 -10.6148    105.4821    219.4833   1.2988499267e+02   1.6008487364e+01      0.39594    0.2181437  73.17 0.0006827134    2.592    0.614
        77 -10.9380     72.8161    210.0537   1.3532133161e+02   2.2594476033e+01     0.466084    0.2705281  35.28  0.001809948    1.840    0.457
        78  -9.5889     94.0327    217.3043   1.3189140113e+02   1.8150529792e+01     0.235818     0.146663  86.46 0.0009384048    1.912    0.477
        79 -10.6223    110.7494    221.4673   1.2908589909e+02   1.4828917606e+01    0.2887696    0.1842298 -64.10  0.001148585    1.765    0.433
        80  -9.9687     88.1835    212.8963   1.3256139225e+02   1.9857904842e+01    0.2276809    0.1649333 -78.79 0.0004727903    1.409    0.290
        81 -10.2425     68.1386    215.1070   1.3673599206e+02   2.2233991342e+01     0.256365    0.1687714  88.80 0.0007323725    1.471    0.320
        82 -10.3809    102.0058    211.9050   1.2967236758e+02   1.7969164052e+01    0.3781058    0.1933715  61.77  0.001770876    2.253    0.556
        83  -9.0144    152.4494    212.0056   1.1952264342e+02   9.6253178182e+00    0.1719268    0.1298445 -48.62 0.0004245043    1.520    0.342
        84  -9.6714     33.5690    211.3904   1.4301684996e+02   2.7184085194e+01    0.1788259    0.1170357  42.34 0.0005706563    1.535    0.349
        85 -10.5421    109.0970    207.7780   1.2771276364e+02   1.7648944068e+01    0.3163489    0.1840966 -70.23  0.001109355    2.014    0.503
        86  -9.4883    134.6890    208.3024   1.2255006706e+02   1.3326037763e+01    0.2463013    0.1851316   1.34  0.001077865    2.041    0.510
        87  -9.3506    119.9815    208.7301   1.2561153542e+02   1.5705866895e+01    0.1835943    0.1485324  48.97  0.001122474    1.087    0.080
        88 -12.4699     93.5539    202.6861   1.3027672514e+02   2.1070629989e+01    0.5019271    0.4286854 -72.40  0.003254468    1.236    0.191
        89 -10.6092    102.9701    202.7572   1.2832770071e+02   1.9600576460e+01    0.3917612    0.2482788  59.19  0.001924357    1.523    0.343
        90 -10.6676     98.6775    196.7211   1.2844137348e+02   2.1487019961e+01    0.4975355    0.2763965  48.57  0.001952727    1.623    0.384
        91 -11.2131    247.2888    205.6324   1.0080510803e+02  -5.3043518609e+00    0.4739155    0.2110909  23.88  0.002098861    2.786    0.641
        92 -10.5793    175.4058    205.4623   1.1392584812e+02   6.7161384250e+00    0.3217058    0.2403625  -5.42  0.001527388    1.678    0.404
        93  -9.6329    178.3025    204.7087   1.1323017679e+02   6.3284513927e+00    0.1792598    0.1641827 -70.59 0.0002496086    1.372    0.271
        94  -8.7368     32.6702    207.2355   1.4288591957e+02   2.8108293371e+01    0.1411776   0.08797927 -74.59 0.0004621756    1.485    0.327
        95  -9.3132    125.9038    205.7208   1.2397775988e+02   1.5289211912e+01    0.1890997    0.1483986  50.02 0.0004261469    1.121    0.108
        96  -9.0963    149.3184    204.8554   1.1905040595e+02   1.1422915388e+01     0.270359    0.1650101 -21.03  0.001157162    3.039    0.671
        97  -9.7895    166.8481    203.1520   1.1523684656e+02   8.6214225705e+00    0.1865607    0.1639584  51.44 0.0002516913    1.152    0.132
        98  -9.6111    133.0889    202.5831   1.2203519830e+02   1.4659016207e+01    0.2324626    0.2139321  -5.09 0.0008841529    1.321    0.243
        99 -10.4532    134.1106    197.8723   1.2110555851e+02   1.5373832244e+01    0.2694823    0.1938898 -66.92 0.0003332176    1.615    0.381
       100 -10.0143    138.0382    201.5559   1.2085423133e+02   1.3995604960e+01    0.2175635    0.1945215 -61.49 0.0002817988    1.239    0.193
       101 -11.0077     70.7219    220.3389   1.3673013297e+02   2.0879112805e+01    0.4487454    0.2665434 -63.41  0.002672861    1.803    0.446
       102  -9.7178     64.3784    202.0793   1.3620967983e+02   2.5336102732e+01    0.1881908    0.1567071  48.85 0.0004932003    1.256    0.204
       103 -10.3337     32.9325    201.9372   1.4244140222e+02   2.9148779519e+01    0.1680485    0.1298417  78.21   0.00030993    1.021    0.020
       104 -10.0096    197.3752    200.8254   1.0886693534e+02   3.5872766543e+00    0.2667281    0.1698571  33.78  0.001174327    1.428    0.300
       105 -10.9148    115.2290    200.2665   1.2542676964e+02   1.8115478008e+01    0.2259026    0.2172449  65.36 0.0002283847    1.136    0.120
       106 -10.4034    119.9990    199.2033   1.2427226720e+02   1.7530486524e+01    0.3193454    0.2076377  62.39  0.001301253    1.643    0.391
       107  -9.2126    169.7282    200.2411   1.1417029804e+02   8.6053121866e+00    0.1747238    0.1457924  12.77 0.0004131155    1.274    0.215
       108  -9.7359     44.0389    199.3539   1.4005015630e+02   2.8425425213e+01    0.2645612    0.2018871  49.55  0.001211511    1.297    0.229
       109 -11.1736    249.2741    194.6586   9.8439177836e+01  -4.1802168645e+00    0.3143149    0.2795497 -36.14  0.002122596    1.474    0.322
       110  -8.4819     86.2626    199.2798   1.3138294897e+02   2.2851690336e+01    0.1738561    0.1445204 -70.76 0.0001970179    1.255    0.203
       111  -9.5366     85.9546    195.7727   1.3102155243e+02   2.3618481426e+01    0.1948006     0.148158  68.32 0.0003523515    1.195    0.163
       112 -11.1603     53.3832    197.9965   1.3804502978e+02   2.7583049541e+01    0.5593474    0.1791204  43.38  0.002512661    2.647    0.622
       113 -10.2579     56.2561    194.0676   1.3707191941e+02   2.8045690938e+01    0.2827343    0.2098947 -86.70 0.0009363937    1.194    0.162
       114 -11.6460     66.8638    195.1237   1.3497111630e+02   2.6446147429e+01    0.3770857    0.2862712 -48.73  0.001516724    1.689    0.408
       115 -10.3829    112.9492    193.6648   1.2496891753e+02   1.9806797331e+01     0.439283    0.2413735 -61.45  0.001127844    1.978    0.494
       116  -9.3732     31.0987    195.1889   1.4227962623e+02   3.0733742052e+01    0.2324997    0.1178154  55.90  0.001120806    1.733    0.423
       117  -9.7061    159.5140    194.0023   1.1517969326e+02   1.1554516248e+01    0.2987019    0.1824267  56.64  0.001298642    1.869    0.465
       118 -10.9218    119.2140    191.4966   1.2329930557e+02   1.9191498875e+01     0.508117    0.3465979 -89.04 0.0007857363    1.906    0.475
       119  -8.7345     82.0212    194.2979   1.3167693229e+02   2.4501776102e+01    0.1743466    0.1216485  44.64 0.0002277577    1.360    0.265
       120  -8.8366     84.6655    192.3060   1.3086686372e+02   2.4531022199e+01    0.1320249     0.117883  73.82 0.0004243141    1.071    0.067
       121 -10.5737     38.6899    192.3499   1.4052179439e+02   3.0496766006e+01    0.2611066    0.1720093 -60.74 0.0001410394    1.641    0.391
       122  -8.8100     41.6519    188.3022   1.3955219485e+02   3.1018991244e+01    0.2895699    0.1411379  83.38  0.001415978    2.259    0.557
       123  -9.8824     72.9469    193.0666   1.3345990037e+02   2.6048836455e+01    0.1880991    0.1572879  74.34 0.0003041666    1.004    0.004
       124  -9.5084     26.0691    193.0097   1.4310811100e+02   3.1713103927e+01    0.1748362    0.1316668  85.33 0.0007253095    1.056    0.053
       125 -10.2600    191.4327    191.4085   1.0829837541e+02   6.1618576646e+00    0.2606851    0.2248234  12.74 0.0006477793    1.105    0.095
       126  -9.6254    172.9594    192.2267   1.1212085748e+02   9.4076829548e+00    0.2215159    0.1498267  14.66 0.0009151825    1.924    0.480
       127  -9.1053     47.6560    192.4587   1.3869508739e+02   2.9437705468e+01    0.1188683   0.09484632  85.35  1.73354e-05    1.055    0.052
       128  -9.8371     20.4504    191.6339   1.4411584687e+02   3.2563520699e+01    0.2283936    0.1453585  78.05  0.001493526    1.277    0.217
       129  -9.4507    135.1967    190.0261   1.1962934524e+02   1.6699257454e+01     0.201915    0.1695377  72.28 0.0004306633    1.257    0.204
       130 -10.2235     32.4146    189.4780   1.4155480241e+02   3.1789223626e+01    0.3293379    0.2188831  27.17  0.002034871    1.977    0.494
       131 -11.9600     72.4264    187.4049   1.3290931804e+02   2.7323508495e+01    0.3489771    0.3016824 -25.80 0.0006114328    1.695    0.410
       132  -9.4191     77.4240    188.5664   1.3196616054e+02   2.6372319142e+01    0.2520377    0.1728285 -68.47 3.476806e-05    1.427    0.299
       133  -9.9593    140.1353    183.1569   1.1741039003e+02   1.7160725348e+01    0.2052039    0.1902263  55.21 0.0003065295    1.017    0.016
       134 -10.0079    143.3000    181.3518   1.1640792724e+02   1.6935501835e+01    0.2472245    0.2334654 -32.13 0.0007345639    1.166    0.142
       135 -10.5158     25.2512    184.3274   1.4259814429e+02   3.3624737609e+01    0.2414865    0.1613201  54.13  0.001312881    1.374    0.272
       136  -9.7965     29.8451    183.3491   1.4156923997e+02   3.3364581079e+01    0.2996857    0.1768407 -88.98  0.001323743    1.466    0.318
       137 -11.3987    249.8858    187.6398   9.6997609120e+01  -3.3336239768e+00    0.3646669    0.1990586 -22.40  0.001897238    1.802    0.445
       138  -9.4369     86.4416    183.2282   1.2929992911e+02   2.6195950503e+01    0.2354825    0.1603434  14.00  0.001130972    2.481    0.597
       139  -9.0494     53.5368    182.2633   1.3642759600e+02   3.0911634915e+01    0.2611848    0.1817771 -17.78  0.001303472    3.019    0.669
       140  -9.6971     65.9587    181.9620   1.3367643318e+02   2.9381636742e+01    0.1881683    0.1599693  77.53 0.0003396598    1.020    0.020
       141 -10.1644    174.8468    179.7160   1.0942012295e+02   1.1286905677e+01    0.3620841    0.1574613  46.99  0.001448387    2.260    0.557
       142  -8.5857    104.2560    180.6631   1.2494850374e+02   2.3942721345e+01    0.1364534   0.09761433  79.27 0.0003614592    1.573    0.364
       143  -9.7327    109.0755    178.2366   1.2348668102e+02   2.3658897400e+01    0.2215907    0.1855359 -68.22 0.0004597257    1.211    0.174
       144  -9.1825     48.1511    179.6766   1.3732529528e+02   3.2127376768e+01    0.1503154    0.1131464  31.04 0.0005914413    1.625    0.385
       145  -8.7064    207.3145    178.7254   1.0280148372e+02   5.3305975001e+00    0.1238452    0.1099764  79.46 0.0002504427    1.561    0.360
       146 -11.5741     81.2878    175.6407   1.2942490703e+02   2.8617951777e+01    0.4735461    0.3083378  42.08  0.001578664    1.518    0.341
       147  -9.7437     77.4070    175.6788   1.3031522999e+02   2.9174180357e+01    0.2021499    0.1610345  88.82 0.0005986078    1.162    0.139
       148  -9.4441    114.8362    176.5499   1.2191127734e+02   2.3035752332e+01    0.2157538    0.1615739 -69.11 0.0004494059    1.406    0.289
       149 -11.7634     68.6903    173.3060   1.3199259126e+02   3.0922505577e+01    0.5704229    0.2553171 -52.85  0.001418036    2.379    0.580
       150 -10.9113     68.8276    166.8481   1.3110542123e+02   3.2355412193e+01    0.2533071    0.2149365 -60.05   0.00036999    1.258    0.205
       151  -8.5392     31.2722    177.6418   1.4077029917e+02   3.4449666238e+01    0.1269719   0.07264125  73.58 0.0003174674    1.648    0.393
       152 -12.6860    248.1127    101.3559   7.8693009953e+01   9.9818272354e+00    0.8173198    0.5283868 -32.05  0.004200124    1.386    0.279
       153 -12.2468    248.8340    171.7086   9.4020816320e+01  -9.3269021361e-01    0.5754827    0.3887815  23.17  0.003246373    1.497    0.332
       154 -13.7423    244.5863    157.5545   9.1794273754e+01   1.8892344399e+00     2.322347     0.804004 -42.29   0.00874963    3.087    0.676
       155 -13.3252    248.5207    113.9120   8.1530423511e+01   7.9395226170e+00     1.600233    0.8808197 -22.17  0.007183228    2.008    0.502
       156  -9.9294    192.6561    248.9036   1.1738179687e+02  -2.4346685612e+00     0.194044    0.1693185   9.03  0.001436017    1.182    0.154
       157  -9.9203     93.5055    169.4077   1.2568382451e+02   2.8132362018e+01    0.2112637     0.132971  27.63 5.628261e-05    2.003    0.501
       158 -12.5681     87.7890    166.8422   1.2663207430e+02   2.9599372308e+01    0.7994684    0.6189373 -52.23  0.004506683    1.384    0.278
       159 -11.1456     28.5471    171.2679   1.4077923585e+02   3.6125709650e+01    0.3909038    0.2543325 -71.92  0.001358946    1.343    0.255
       160  -8.9128    167.1951    170.0180   1.0912931588e+02   1.4577193710e+01    0.1924161    0.1125078 -43.82 0.0008631955    1.794    0.442
       161 -10.8631     43.6055    168.8931   1.3718669409e+02   3.5044545499e+01    0.3497966    0.3062771 -63.09   0.00143884    1.300    0.231
       162  -9.8050     48.5155    168.6416   1.3604118461e+02   3.4533466240e+01      0.25984    0.1669449  51.81  0.001495676    1.498    0.333
       163  -9.4517    107.2915    168.2040   1.2226212957e+02   2.6132556543e+01    0.2181842    0.1812109  37.51 0.0003491123    1.269    0.212
       164  -9.1276     58.5039    167.4950   1.3360220466e+02   3.3569708925e+01     0.130652    0.1089579  84.16 0.0008104898    1.029    0.028
       165  -8.7357    136.1796    165.3860   1.1506617961e+02   2.1526182587e+01    0.1966984    0.1281184  53.15  0.000155681    1.562    0.360
       166  -9.3636     53.9451    164.7599   1.3432525279e+02   3.4758468149e+01    0.1727239    0.1458378  85.07 0.0002857998    1.016    0.016
       167  -9.4346     80.8171    164.1772   1.2788322572e+02   3.1254513271e+01    0.1742722    0.1564738 -48.02 0.0007544545    1.298    0.229
       168  -9.3853    126.5841    167.7821   1.1771066376e+02   2.2809939887e+01    0.1968778    0.1350974 -68.03 0.0009427744    1.667    0.400
       169  -9.3590    154.6724    161.8697   1.1021012292e+02   1.8654762139e+01    0.1951582    0.1788118 -59.25 0.0003982561    1.153    0.132
       170 -12.5888     12.7051    186.1803   1.4526334815e+02   3.4435781583e+01    0.9041251    0.3756546  26.55  0.004610154    3.227    0.690
       171 -10.9436     96.0458    157.4437   1.2311889452e+02   3.0414671465e+01    0.4834861    0.2002675 -60.46  0.001892634    2.458    0.593
       172 -11.1714     99.9472    151.3500   1.2107537901e+02   3.1156870351e+01    0.5082813    0.4248608  15.02   0.00204727    1.527    0.345
       173 -10.6661     73.6074    159.7432   1.2895489348e+02   3.3310902916e+01    0.4524074    0.2549712  80.76  0.001588154    2.481    0.597
       174  -9.8468     74.3824    156.6942   1.2830645474e+02   3.3902471259e+01    0.3643127    0.1929363  59.54  0.001248422    2.214    0.548
       175  -9.2126     78.9822    158.7385   1.2749606789e+02   3.2766398310e+01    0.1826093    0.1632067  76.55 0.0004477481    1.047    0.045
       176  -9.0087     52.4781    158.4807   1.3388351376e+02   3.6371921621e+01    0.1289196    0.1100608 -86.10 0.0008097413    1.033    0.032
       177  -9.6621    134.3393    155.9551   1.1364720180e+02   2.3880167560e+01    0.2055911    0.1871067 -57.23 0.0004015934    1.119    0.106
       178  -9.2717    228.4420    155.1463   9.4028035981e+01   5.2147724810e+00    0.2062495    0.1262337 -33.18 0.0005654029    1.544    0.352
       179  -9.1885     81.3125    155.6938   1.2644405749e+02   3.3121319829e+01    0.1419704   0.09792201  74.53  0.000443285    1.620    0.383
       180 -11.6284     53.0164    146.4641   1.3212607590e+02   3.9095657026e+01    0.5877849     0.261354  27.67   0.00255719    2.871    0.652
       181 -10.0790     60.4467    151.1521   1.3093108524e+02   3.7076787825e+01    0.4297308    0.2278634  72.46  0.001734516    2.642    0.622
       182 -11.3574     56.0106    150.5096   1.3194649836e+02   3.7785574668e+01    0.4872413    0.4490354 -50.50  0.003158748    1.277    0.217
       183 -10.5385    113.9337    150.9191   1.1753987802e+02   2.8810970962e+01    0.3846381    0.2508219 -56.68 0.0006993596    1.532    0.347
       184  -9.7470    103.4636    145.8442   1.1915717429e+02   3.1816466318e+01     0.297701    0.2280062 -39.79 0.0008193543    1.466    0.318
       185 -12.9211     67.4655    144.1581   1.2807652318e+02   3.7787122487e+01    0.7276779    0.5003456  73.87   0.00379885    1.619    0.382
       186 -12.1389     73.5803    139.9293   1.2577382528e+02   3.7930394124e+01    0.6605468    0.5038427 -82.14  0.002735153    1.295    0.228
       187  -9.8333    138.5551    138.8866   1.0901756550e+02   2.6728685338e+01    0.2268069    0.2044136  44.87 0.0006232035    1.109    0.098
       188 -10.5657    134.0000    144.9850   1.1144979077e+02   2.6319056623e+01    0.5611678    0.1798344 -51.13  0.001775857    3.281    0.695
       189 -10.5266    133.0653    140.2270   1.1064019404e+02   2.7543612777e+01    0.4132693    0.3356147 -59.79  0.001563113    1.265    0.209
       190  -9.0360    122.1685    147.8874   1.1492105759e+02   2.7967453484e+01    0.1887959    0.1719862 -16.47  0.001020966    1.282    0.220
       191 -14.5028      6.1137    212.4457   1.4804735224e+02   2.9759479848e+01     2.264969     1.261949 -83.43   0.01543882    1.481    0.325
       192 -10.5253    236.4985    145.9854   9.0650260914e+01   5.1655296480e+00     0.298471     0.200202  43.14 0.0009053838    1.576    0.365
       193  -9.8103    158.9908    145.0817   1.0566460243e+02   2.1194241898e+01    0.2132994    0.2100862  55.27  0.001185885    1.025    0.024
       194  -8.7649     93.4872    145.5046   1.2162277948e+02   3.3573956893e+01    0.1435581    0.1294857  88.69  0.000809942    1.054    0.052
       195 -10.7652     37.0326    143.7154   1.3579918990e+02   4.1523363704e+01    0.2133769    0.1539934 -57.59 0.0007978274    1.352    0.260
       196 -14.2997     27.3841    247.2000   1.4628612160e+02   2.1243495320e+01     2.879708    0.9665553  34.87   0.01467797    3.261    0.693
       197 -13.0492     38.2869    245.1889   1.4439085771e+02   2.0374349620e+01     1.068219    0.4807067 -72.53  0.006583723    2.204    0.546
       198  -9.8681     41.7628    140.2624   1.3413789474e+02   4.1831422414e+01     0.171757    0.1328281 -53.95 0.0006348568    1.329    0.247
       199 -11.2194     60.6434    137.7276   1.2881663811e+02   4.0204053117e+01    0.2749304    0.2401758 -78.45 0.0008519581    1.005    0.005
       200 -11.3465     47.5666    138.4196   1.3236892339e+02   4.1622213932e+01    0.4189437     0.200517  22.35   0.00183894    3.003    0.667
       201 -10.4685    111.5628    136.0897   1.1510819342e+02   3.2601853131e+01     0.377182    0.2921095   5.18  0.001719665    1.837    0.456
       202 -12.0687     45.4540    131.6668   1.3192205679e+02   4.3451718650e+01    0.4757334    0.3664456  80.19  0.002546903    1.299    0.230
       203 -11.2410     20.9543    133.9910   1.3870959868e+02   4.5293982155e+01    0.1893128     0.150184 -80.61 0.0004442739    1.007    0.007
       204  -8.6576    107.6457    173.3090   1.2302324044e+02   2.4959239711e+01    0.1473376    0.1000808  71.60 0.0002825459    1.723    0.420
       205 -11.9115     67.5186    128.1575   1.2529276060e+02   4.1560481548e+01    0.4394668     0.346883  76.88  0.001414218    1.358    0.264
       206  -9.3669    117.5190    128.4743   1.1188826617e+02   3.3210044960e+01    0.1482084    0.1437402 -35.25  3.48967e-05    1.083    0.077
       207 -11.9391     31.5359    127.1693   1.3503276274e+02   4.5937125193e+01    0.3843974     0.200423  40.91  0.001672248    2.087    0.521
       208 -10.5098    209.8089    125.7830   9.0703029413e+01   1.3957834645e+01    0.2889815    0.2457184 -27.51 0.0004997451    1.123    0.109
       209 -11.1039     39.0483    121.9412   1.3217718346e+02   4.6429559986e+01    0.3116026    0.1791044  62.67  0.001536504    2.154    0.536
       210 -11.0290      9.0639    127.3294   1.4103591708e+02   4.7756377470e+01    0.1625994    0.1385094  89.00  0.001159389    1.122    0.109
       211  -9.4543     86.0423    126.1539   1.1978729788e+02   3.9295637361e+01    0.3035285    0.2026797  -2.40   0.00124458    2.837    0.648
       212 -11.1577    249.4610    151.0741   8.9625281804e+01   2.0073189455e+00    0.5459052    0.3134436 -34.96  0.002771575    1.584    0.369
       213 -10.0432     58.8057    125.0250   1.2714492364e+02   4.3447055910e+01    0.3447592     0.181695  21.97  0.001516194    2.673    0.626
       214 -12.5877     24.1965    121.3042   1.3623175206e+02   4.7968660350e+01    0.3883091    0.3385626   5.13   0.00264309    1.510    0.338
       215 -13.0524     20.5728    121.2010   1.3721835601e+02   4.8294385078e+01    0.5499842    0.2970413 -54.06  0.002604414    1.669    0.401
       216 -10.1838     54.8104    120.8363   1.2751861295e+02   4.4933588864e+01    0.2458758    0.1944397   6.98  0.001393649    1.684    0.406
       217 -11.8945     31.5854    117.2944   1.3356843219e+02   4.8250085736e+01    0.4381812    0.2564906 -56.97  0.002406921    1.460    0.315
       218 -11.9745     15.3275    114.7693   1.3782899088e+02   5.0193975985e+01    0.3442355    0.1762143 -64.94 0.0008393686    1.521    0.343
       219 -11.8299    247.8991    142.3873   8.8000301620e+01   3.6144392193e+00    0.6190736    0.4732836  -3.91  0.003503584    1.343    0.255
       220  -9.1877     86.2674    116.0427   1.1752996329e+02   4.1624016424e+01    0.1982556    0.1730756 -63.29 0.0002682926    1.073    0.068
       221 -10.9792    168.0228    113.1883   9.5928519686e+01   2.5678454664e+01    0.3608879    0.3022128 -80.00 0.0007828314    1.440    0.305
       222 -10.1425     50.1164    112.9410   1.2742338760e+02   4.7354228802e+01    0.1993214    0.1723379 -67.11 0.0004338663    1.005    0.005
       223 -10.0856     95.4535    172.9015   1.2577000097e+02   2.7049993366e+01    0.2358809    0.1697813  62.59 0.0005646035    1.382    0.276
       224  -9.5424    203.7614    111.4250   8.8297164958e+01   1.7841282406e+01    0.2092001    0.1387166  39.42 0.0008810504    1.637    0.389
       225  -8.9420     83.7860    111.1558   1.1712272767e+02   4.3157244465e+01    0.1871825    0.1605211 -29.13 0.0002971445    1.283    0.220
       226  -9.9467     69.9842    111.2614   1.2119368980e+02   4.5206420240e+01    0.1815632    0.1761648  81.67  0.001106619    1.105    0.095
       227 -11.2349     57.4023    110.1290   1.2470190531e+02   4.7143783975e+01    0.3740881    0.2419773  10.76  0.001816293    2.267    0.559
       228 -10.5306     31.8053    111.0011   1.3250290504e+02   4.9704961722e+01    0.1919793    0.1873301  66.48 0.0006323119    1.214    0.176
       229 -11.1919     27.3103    106.5209   1.3310704259e+02   5.1151342023e+01    0.2560336    0.2050787 -68.37  0.001387563    1.023    0.022
       230  -8.8460     32.7936    100.0226   1.3028390150e+02   5.2172766409e+01    0.1721263   0.08684655 -64.35 0.0003516972    1.650    0.394
       231 -11.3179     18.3369    104.6977   1.3551833714e+02   5.2298013932e+01    0.2372202    0.1691112  35.02   0.00137041    1.675    0.403
       232  -8.8568     85.9869     97.0278   1.1297573657e+02   4.6025477840e+01    0.1665279    0.1553143 -47.99            0    1.007    0.007
       233  -8.6115     80.2830     97.7354   1.1489201385e+02   4.6788962405e+01    0.1334219    0.1095763  85.01 0.0001829567    1.487    0.328
       234  -9.4954     72.1004     90.1483   1.1547385473e+02   4.9745128092e+01    0.2015392    0.1726785 -29.68 0.0002678466    1.182    0.154
       235  -9.1180     31.2862     90.6517   1.2895414964e+02   5.4466221233e+01    0.1251673   0.09104659  83.74 0.0007021171    1.655    0.396
       236 -10.7867     89.8939    160.6395   1.2514854658e+02   3.0673548002e+01    0.3618141    0.2781323 -89.24 0.0007703276    1.336    0.251
       237  -9.0081     24.3057     88.3029   1.3080188872e+02   5.5595110035e+01    0.1281751   0.07798533 -41.30 0.0002724487    1.599    0.374
       238 -10.1738    193.7401    245.0531   1.1664347638e+02  -2.1102980289e+00    0.1797123    0.1622428   2.63 0.0003267011    1.217    0.178
       239  -9.6077    209.7020    246.7091   1.1408349751e+02  -4.7359255977e+00    0.1155561   0.07471818  14.22 0.0001736178    1.560    0.359
       240  -9.8260    199.9220    245.6703   1.1564023967e+02  -3.1351024663e+00    0.1655142     0.122866  32.24  0.000394584    1.088    0.081
