#   1 NUMBER                 Running object number                                     
#   2 MAG_AUTO               Kron-like elliptical aperture magnitude                    [mag]
#   3 X_IMAGE                Object position along x                                    [pixel]
#   4 Y_IMAGE                Object position along y                                    [pixel]
#   5 X_WORLD                Barycenter position along world x axis                     [deg]
#   6 Y_WORLD                Barycenter position along world y axis                     [deg]
#   7 A_WORLD                Profile RMS along major axis (world units)                 [deg]
#   8 B_WORLD                Profile RMS along minor axis (world units)                 [deg]
#   9 THETA_WORLD            Position angle (CCW/world-x)                               [deg]
#  10 FWHM_WORLD             FWHM assuming a gaussian core                              [deg]
#  11 ELONGATION             A_IMAGE/B_IMAGE                                           
#  12 ELLIPTICITY            1 - B_IMAGE/A_IMAGE                                       
         1 -15.2406      7.4004    145.9225   1.4328639785e+02   4.3867868940e+01     11.58497     5.007961  80.47   0.05072346    3.154    0.683
         2 -13.5404    198.1110     27.6541   6.7418863490e+01   3.2540785204e+01     1.456621      1.34124  21.10  0.006997044    1.384    0.277
         3 -13.4779    213.3089      9.4808   6.1309438345e+01   3.0973242353e+01    0.9686852    0.8336245  61.68  0.004219783    1.289    0.224
         4 -11.9251      2.4452     10.6910   1.1619287693e+02   7.0945568802e+01     1.301998   0.09063653 -47.08  0.003688858    9.210    0.891
         5 -11.8034      3.9930      3.7222   1.1253932407e+02   7.1789169779e+01    0.4596488    0.2568304  16.27  0.003283764    1.758    0.431
         6 -11.1297    198.6534    246.5375   1.1636492715e+02  -5.9612181775e+00    0.2996542    0.2262875 -61.18  0.001788721    1.960    0.490
         7 -11.9686    247.0165    248.3748   1.0787220502e+02  -1.3761017976e+01    0.5882972    0.2775107  38.14   0.00320252    1.896    0.473
         8 -11.2395     99.2042    248.9945   1.3543862463e+02   1.0373865700e+01    0.4136537    0.2290789  56.90  0.002303798    1.532    0.347
         9 -11.0277    100.7617    245.9741   1.3483168945e+02   1.0678023788e+01    0.2447074    0.1892352  72.07  0.000774692    1.126    0.112
        10  -9.4191     66.8353    250.1580   1.4131361724e+02   1.4965285641e+01    0.1813479    0.1202362  67.47 0.0004507414    1.188    0.158
        11 -10.7980     46.4471    248.9067   1.4468012876e+02   1.7922667485e+01    0.2967567    0.1642671  73.84  0.001476697    1.540    0.350
        12 -10.4832     29.0028    248.7127   1.4752079676e+02   2.0092841769e+01    0.3166271    0.1889847 -70.64   0.00126514    1.705    0.413
        13 -12.3420     34.6040    244.6626   1.4634460339e+02   2.0185275459e+01    0.6017522    0.4073359  76.33  0.004303193    1.088    0.081
        14 -11.3647     15.5357    249.5591   1.4969196355e+02   2.1459920379e+01    0.3386638    0.2270804  48.75  0.002534237    1.524    0.344
        15 -10.7396      2.7737    248.8213   1.5159659941e+02   2.2939797456e+01    0.3548928    0.1699993 -83.58  0.002370256    1.675    0.403
        16 -11.3835    105.7740    246.1539   1.3392214650e+02   9.8473426065e+00    0.4725184    0.2046705  64.21  0.001894426    3.268    0.694
        17 -10.9925    181.5021    244.8575   1.1934879859e+02  -2.8054156184e+00    0.2190085    0.1611202  25.67  0.001302189    1.331    0.249
        18 -10.7775      8.5370    249.9982   1.5078699261e+02   2.2129660796e+01    0.2944801    0.2151262  27.84  0.002134257    2.362    0.577
        19 -11.0271     19.2370    241.5668   1.4864655138e+02   2.2540333377e+01    0.2447174    0.1552256 -64.95  0.001101821    1.835    0.455
        20 -11.4265      4.8418    241.1455   1.5089281759e+02   2.4143747506e+01     0.325921    0.2543321  18.87   0.00178967    2.508    0.601
        21 -12.2172     12.0028    240.5647   1.4974069100e+02   2.3510629187e+01    0.5253617    0.2428316  71.72  0.003209516    1.773    0.436
        22 -10.9891     12.6892    232.9407   1.4918734547e+02   2.4891610655e+01    0.2170448    0.1278013  68.22 0.0006686872    1.290    0.225
        23 -10.4225    183.0471    238.6905   1.1810608430e+02  -2.1146740449e+00    0.1910693    0.1453674  36.53 0.0005212522    1.119    0.106
        24 -11.4045    119.5296    238.1220   1.3037269856e+02   9.0581688555e+00    0.3673144     0.194097 -75.66  0.001682928    2.725    0.633
        25 -10.0527    233.5121    236.9676   1.0834679102e+02  -1.0274146740e+01    0.1709765    0.1150087 -30.71 0.0005510651    1.570    0.363
        26 -10.8584     50.2275    235.2714   1.4297571684e+02   2.0040304626e+01    0.2694677    0.2333569 -77.54  0.001553166    1.417    0.294
        27 -12.3296     21.4605    126.2236   1.3738223340e+02   4.7229466713e+01    0.8672411     0.281854  49.05  0.003294374    4.516    0.779
        28 -12.6496      8.2649     52.6043   1.2729781191e+02   6.3660907952e+01    0.6635808    0.4763288  48.45   0.00168847    2.140    0.533
        29 -10.1640    156.1885    249.8393   1.2487982373e+02   7.6564439692e-01    0.1718731    0.1404606  23.38  0.001080187    1.360    0.265
        30 -10.2758     96.7205    224.4217   1.3315887382e+02   1.5460744421e+01    0.2565632    0.1043951  46.13  0.001140803    2.123    0.529
        31  -9.8436    172.2234    222.6010   1.1766321617e+02   2.5014167581e+00    0.2001293    0.1158444  33.73 0.0007260517    1.705    0.413
        32 -12.5370      9.7562    207.1592   1.4803578262e+02   3.0341897334e+01    0.5993971     0.506918  23.49   0.00403899    1.868    0.465
        33  -7.9742    221.6691    213.3443   1.0633523174e+02  -4.8794487313e+00    0.1237359    0.1070761  83.08 0.0007050566    1.754    0.430
        34  -8.7865    152.5018    212.9691   1.2012259877e+02   7.9380886249e+00     0.182155    0.1389371 -54.55 0.0003753839    1.455    0.313
        35 -11.6228     59.1933    198.6442   1.3775523784e+02   2.6494254033e+01    0.2707224    0.2202969 -68.63 0.0004927941    1.288    0.223
        36 -11.8251     12.2742    195.3494   1.4671934805e+02   3.2574862967e+01    0.2445183    0.1709176  70.56 0.0003780574    1.207    0.172
        37 -14.0399     37.2310    225.6764   1.4450842640e+02   2.3570040982e+01    0.8319832    0.6969069  66.67   0.00288116    1.264    0.209
        38 -11.9571     65.7335    190.2238   1.3538918216e+02   2.7479803595e+01    0.2822719    0.2365781 -63.47 0.0004520267    1.300    0.231
        39  -9.6665    192.1841    193.4756   1.0837844719e+02   3.9823733265e+00    0.5156831     0.270386 -64.97  0.001620152    4.665    0.786
        40  -9.3673     55.0258    230.0131   1.4167002811e+02   2.0451334906e+01    0.1933539    0.1393897  71.83 0.0007379297    1.084    0.077
        41 -13.2140     62.8054    175.4391   1.3413178852e+02   3.1263788468e+01    0.5227588    0.2818658 -46.33  0.001832918    2.321    0.569
        42 -10.8226     76.2451    177.3870   1.3133772419e+02   2.8911006469e+01    0.2402236    0.2085274 -78.87 0.0003359338    1.086    0.079
        43 -10.5202      5.2053    227.6575   1.5009642204e+02   2.6677865515e+01     0.265007    0.1016625 -77.75   0.00149239    2.105    0.525
        44 -10.0737     96.4475    173.3046   1.2600961294e+02   2.6676365716e+01    0.2568368    0.2261292  79.69 0.0003935513    1.040    0.039
        45 -11.8022     84.0923    168.3806   1.2813254344e+02   2.9824713968e+01    0.6558951    0.5901259  22.70  0.003844192    1.406    0.289
        46  -9.3435    122.6653    227.3205   1.2836175480e+02   1.0557683227e+01    0.1399794   0.09078094  69.75 0.0003165136    1.703    0.413
        47 -10.0447     96.6576    152.4634   1.2226478885e+02   3.1552099618e+01     0.312786    0.2996048 -28.29 0.0009829848    1.227    0.185
        48  -9.2095     99.8844    148.1169   1.2060481306e+02   3.2030733098e+01    0.2141563    0.1740445 -26.56 0.0004016582    1.565    0.361
        49 -12.0029     85.2844    151.5060   1.2495933682e+02   3.3639229535e+01    0.3068882     0.250564 -46.93 0.0005350846    1.304    0.233
        50 -12.2158     67.4073    143.6120   1.2813093592e+02   3.8151438398e+01    0.6892677    0.4469683  66.93  0.003145322    1.852    0.460
        51 -10.4486     95.9540    134.6430   1.1886517543e+02   3.5900688732e+01    0.2575934     0.210495 -48.60 0.0003943823    1.202    0.168
        52  -9.7848    108.9119    137.3482   1.1603566992e+02   3.2958323601e+01     0.456431    0.2858478 -23.36  0.001400089    2.807    0.644
        53  -9.1073     77.2236    130.0852   1.2296840896e+02   3.9966272425e+01    0.2816898    0.1712177  64.86  0.001225269    2.277    0.561
        54  -9.9120     83.9841    126.3785   1.2034013844e+02   3.9808638547e+01    0.3085141    0.2141115  68.21   0.00146341    1.842    0.457
        55  -8.9624    106.2682    123.9738   1.1370779893e+02   3.6564869014e+01    0.1962592    0.1791937 -56.40  0.000285551    1.044    0.043
        56 -12.7947     32.0467    232.4120   1.4591838718e+02   2.2846050732e+01    0.2829961    0.2344276 -81.38 0.0007510117    1.370    0.270
        57 -10.3750    167.9629    113.0602   9.5528769212e+01   2.5728367902e+01    0.3288546    0.2747598 -79.97 0.0006055442    1.362    0.266
        58  -9.1818    203.1888    111.5979   8.7873719960e+01   1.7681401059e+01    0.2123848    0.1423776  42.05 0.0004407507    1.633    0.388
        59  -9.0295     44.4699     98.4064   1.2580996714e+02   5.1381460057e+01    0.1974018    0.1566564 -67.70 0.0001007372    1.234    0.190
        60  -9.2669     41.1402     96.3520   1.2639568910e+02   5.2174451226e+01    0.2136106    0.1668883  54.39 0.0005827884    1.601    0.375
        61 -10.0465    158.2691     76.9557   8.7878499914e+01   3.5063310358e+01    0.2142974    0.2017418 -39.13 0.0005473846    1.096    0.087
        62  -9.2784     47.8290     70.1288   1.1767363980e+02   5.6934294015e+01    0.2794645    0.1452009  48.09  0.001283773    2.952    0.661
        63  -8.5261     32.1668     62.3590   1.2104039021e+02   6.0025325173e+01    0.1501398    0.1065961  34.16 0.0009390822    1.721    0.419
        64 -11.3389    138.7223    248.8995   1.2806271530e+02   3.9038979437e+00    0.4010143    0.2245362 -56.23  0.002155353    2.140    0.533
        65 -11.6464    123.9625    249.7851   1.3094734586e+02   6.2319841770e+00    0.5197942    0.1726271  45.63  0.002206957    2.428    0.588
        66 -10.5386     81.5633    248.9908   1.3862270050e+02   1.3062914852e+01    0.2488753    0.1279896  57.27  0.001373764    1.626    0.385
