#   1 NUMBER                 Running object number                                     
#   2 MAG_AUTO               Kron-like elliptical aperture magnitude                    [mag]
#   3 X_IMAGE                Object position along x                                    [pixel]
#   4 Y_IMAGE                Object position along y                                    [pixel]
#   5 X_WORLD                Barycenter position along world x axis                     [deg]
#   6 Y_WORLD                Barycenter position along world y axis                     [deg]
#   7 A_WORLD                Profile RMS along major axis (world units)                 [deg]
#   8 B_WORLD                Profile RMS along minor axis (world units)                 [deg]
#   9 THETA_WORLD            Position angle (CCW/world-x)                               [deg]
#  10 FWHM_WORLD             FWHM assuming a gaussian core                              [deg]
#  11 ELONGATION             A_IMAGE/B_IMAGE                                           
#  12 ELLIPTICITY            1 - B_IMAGE/A_IMAGE                                       
         1 -13.7428    138.3610     66.3850   7.0273127673e+01   4.1584499240e+01     3.063987    0.9267033 -35.26  0.009202272    3.404    0.706
         2 -11.5610    147.1913     29.6002   5.5920778962e+01   4.4976431389e+01    0.5454157    0.4260326 -63.85   0.00111379    1.490    0.329
         3 -10.5547    134.5585     11.5854   5.1998707651e+01   5.0132761280e+01    0.3548017    0.2682634 -12.07  0.001060892    1.456    0.313
         4  -9.1369    116.7960     12.3979   5.5949726940e+01   5.4342198196e+01    0.2968459       0.1934  45.52  0.001538006    1.374    0.272
         5 -10.4768    120.4637      8.9489   5.3808541864e+01   5.3807541279e+01    0.4051195    0.3630129  50.25  0.001246019    1.052    0.050
         6 -11.0020    155.1298      9.8413   4.7904475242e+01   4.5120094970e+01    0.5054086    0.3019921  55.06   0.00248053    1.501    0.334
         7 -10.7026    148.1082      6.7432   4.7964714329e+01   4.7193260400e+01     0.286229    0.2104564  74.97  0.001545373    1.304    0.233
         8 -10.3992    188.4909      2.8229   4.1494462580e+01   3.7263167685e+01    0.4691761    0.3316914  61.13  0.001838975    1.335    0.251
         9 -10.3414    157.0847      2.7225   4.5302408998e+01   4.5271263035e+01    0.5791141    0.2522436  77.14   0.00233177    2.411    0.585
        10  -8.2813     20.5097      1.5496   8.5406370129e+01   7.2635529739e+01    0.1140566   0.08513215 -12.59  0.000181283    1.016    0.016
        11 -10.5554     27.4902    233.3531   1.2684593536e+02   2.3222477063e+01    0.4577081    0.1252978  47.96  0.001854603    2.564    0.610
        12 -10.5496    248.8724    248.8372   8.8809949522e+01  -1.1420093022e+01    0.3446663    0.2597194 -10.63  0.002576411    1.306    0.234
        13 -14.7163    100.8856    217.1402   1.1186613311e+02   1.6610678451e+01     1.236013    0.5543468  55.84  0.004055684    2.242    0.554
        14 -15.2532     91.9055    200.5786   1.1174041592e+02   2.1264994386e+01     1.458791    0.3594478 -59.44  0.005172356    4.035    0.752
        15 -16.4310    120.7887    168.4972   1.0051682587e+02   2.3285698795e+01     2.161655    0.7174186  44.94  0.007518653    2.867    0.651
        16 -16.4478    126.4715    202.4874   1.0470823085e+02   1.5248705266e+01      1.19587    0.9774449  21.52  0.004870278    1.470    0.320
        17 -18.9112    113.3518    188.5957   1.0548618576e+02   2.0287860556e+01     5.682262     4.962373  55.19   0.02582163    1.057    0.054
        18 -10.6948    204.7658    167.4902   8.2006682748e+01   7.0089606066e+00    0.7665693    0.3715709 -32.55  0.002822876    2.205    0.546
        19 -11.0005      9.2768    214.1205   1.2893787854e+02   2.8719754607e+01    0.4830086    0.2324072  70.31  0.002727701    1.667    0.400
        20  -9.4219     32.1100    159.1217   1.2027796553e+02   3.8169420010e+01    0.3478917    0.1815018 -60.09 0.0009678902    1.786    0.440
        21  -9.8307      6.0284    208.5134   1.2922132481e+02   3.0118438947e+01    0.2517887    0.1697905  57.16  0.001218222    1.275    0.216
        22  -9.5224      2.5255    212.6541   1.3003470109e+02   2.9632548590e+01     0.211666    0.1619038 -76.08 0.0005926751    1.450    0.310
        23 -10.8792    172.8619    150.5124   8.4941403182e+01   1.6714030595e+01    0.3900077    0.3433948  14.72 0.0006552333    1.200    0.167
        24  -8.6117      1.8450    152.2916   1.2657980336e+02   4.2335769951e+01    0.1745746    0.1107191 -87.20  0.001127296    1.202    0.168
        25 -11.0822     11.9135    207.0984   1.2809643111e+02   2.9844685832e+01    0.4967142    0.2931507  54.92  0.002628889    1.410    0.291
        26  -9.2881    250.0605    145.8623   6.9170894288e+01   1.9613960800e+00    0.5924235    0.1305453 -42.07  0.001667064    5.068    0.803
        27  -9.3640    175.1517    231.5478   9.9251926543e+01   1.9506534247e+00    0.2357651    0.1822368 -16.67 0.0007017304    1.580    0.367
        28  -8.8375    200.1225    147.3309   7.8519710566e+01   1.1562290510e+01    0.2903518    0.2120043 -46.65  0.001179378    1.451    0.311
        29 -10.3309     43.9530    146.6817   1.1597532999e+02   3.9820969276e+01    0.4125296    0.2539672  51.93  0.002257668    1.665    0.399
        30  -9.0438    193.0988    144.7271   7.9343311040e+01   1.3533131681e+01    0.4464341    0.2975024 -72.19  0.001755218    2.695    0.629
        31  -9.1667    184.6996    228.4997   9.6994319275e+01   8.1288357439e-01    0.2917755    0.2537628 -41.31   0.00196179    1.409    0.290
        32  -9.0908     23.8943    142.2362   1.2045995731e+02   4.2861959664e+01    0.2327846    0.1189809 -52.41  0.001175948    2.009    0.502
        33 -11.5259    203.6119    201.4444   8.8869101988e+01   1.6380681966e+00    0.6821694    0.4329165  14.63  0.001472058    1.877    0.467
        34  -9.0153    235.3275    201.8162   8.3096192205e+01  -3.7835595175e+00    0.3858785    0.2000435  -0.06  0.001502764    3.588    0.721
        35  -9.7430    206.3328    194.0305   8.6980308376e+01   2.3117787061e+00    0.3762143    0.1972533  32.02  0.001412642    1.880    0.468
        36 -11.0546    214.9210    197.1862   8.5945614739e+01   3.0915721289e-01     1.193801     0.604674 -19.98  0.005067274    2.770    0.639
        37  -9.8826      6.0179    198.2151   1.2867889102e+02   3.2174503430e+01     0.261838    0.1570188  45.20  0.001790014    1.612    0.380
        38  -8.8417     27.0210    126.9370   1.1782285166e+02   4.6185450798e+01    0.1956866    0.1550811 -76.36 0.0004778098    1.019    0.018
        39  -9.1559      1.8898    228.5895   1.3084760582e+02   2.6692139616e+01    0.2229816   0.09152603  77.23  0.001322447    2.008    0.502
        40  -9.3885    181.4739    122.8695   7.6518978378e+01   2.0345926314e+01    0.3247545    0.2537045 -56.96 0.0008339387    1.415    0.293
        41  -9.9791     31.7602    122.0287   1.1584789216e+02   4.6924553107e+01    0.4750397    0.2086647 -51.43 0.0009010793    2.130    0.531
        42 -10.1803    247.7973    118.4016   6.3349362555e+01   6.7554573659e+00    0.3645028    0.2715604  48.17  0.001270179    1.499    0.333
        43 -10.0847    246.9876    195.8500   7.9943591184e+01  -4.8354450579e+00    0.2344512    0.1963271   4.04 0.0003939933    1.061    0.058
        44 -10.9911    168.4476    114.2736   7.7159259509e+01   2.5074331280e+01    0.4530547    0.4058296  81.01  0.000914725    1.246    0.198
        45  -8.8515    207.5889    113.8006   6.9030492275e+01   1.6107870998e+01    0.3130144      0.21699 -38.42  0.001265021    1.372    0.271
        46  -8.9364    207.5027    110.5076   6.8216861038e+01   1.6724784532e+01    0.2851665    0.2531753  77.19   0.00106225    1.284    0.221
        47  -9.4822    178.1880    226.4108   9.7909108635e+01   2.2095682259e+00    0.3179184    0.2235014  -8.35  0.001050163    1.913    0.477
        48  -8.7775     12.7294    186.0236   1.2666699635e+02   3.4089167147e+01    0.1646626    0.1131087 -89.88 0.0005033651    1.130    0.115
        49  -9.1376    242.1162    185.2047   7.8721601779e+01  -2.5662489488e+00    0.1976749    0.1513949   3.97 0.0004773875    1.188    0.158
        50  -9.0181    166.6736    233.1438   1.0108531877e+02   3.1169063634e+00    0.2567813    0.2032467  25.80  0.001428063    1.205    0.170
        51 -10.1903     64.4918    107.9360   1.0370246503e+02   4.6648167935e+01    0.3563791    0.2881723  72.38  0.001016839    1.412    0.292
        52  -9.4748     76.6709    105.6918   9.9487328993e+01   4.5456734838e+01    0.2223977     0.192225 -38.46 0.0005547702    1.175    0.149
        53  -9.3617     69.0177    109.2320   1.0261016418e+02   4.5723137328e+01    0.2353411    0.2154355  31.41 0.0006097151    1.236    0.191
        54 -10.0787     72.9290    107.0602   1.0094070891e+02   4.5684775309e+01    0.3492722    0.2692942 -17.51  0.001219131    1.667    0.400
        55  -9.3612     97.2178    102.8416   9.2619153651e+01   4.2735023629e+01    0.2215667    0.1980541 -70.95  0.000408636    1.153    0.133
        56  -9.9136    249.3379    222.9400   8.4463762685e+01  -8.6183829949e+00    0.2504867    0.1582675  45.68  0.001478807    1.967    0.492
        57 -11.2351    116.5216     94.7967   8.4851866555e+01   4.0812717544e+01     1.009089    0.5395505  56.55  0.003077557    2.375    0.579
        58 -12.5508    131.6642     90.1192   7.9371531296e+01   3.8545962689e+01     1.670884     1.098958   8.37  0.006195764    2.695    0.629
        59 -12.3397    129.8131     80.6742   7.7003868056e+01   4.0878830470e+01     1.385779     0.875239 -53.32  0.005860049    1.777    0.437
        60 -11.9177    143.9783     59.6547   6.6729924179e+01   4.1387825188e+01      1.15156    0.4131355 -45.96  0.003609463    3.288    0.696
        61 -12.5888    137.7391     75.2818   7.3274091627e+01   4.0095618690e+01     1.547254     1.102821  56.20  0.007094742    1.470    0.320
        62  -9.1511     22.9913    182.4671   1.2435084068e+02   3.3874176975e+01    0.2717511    0.1711454  72.89  0.001640359    1.333    0.250
        63  -9.8641    221.0307    179.5330   8.1379044877e+01   1.9504389348e+00    0.3549788    0.2512317 -39.94  0.001267383    1.519    0.342
        64 -10.7339    234.9620     79.7540   5.5986870172e+01   1.5704260677e+01    0.4632477    0.3764286 -86.23   0.00250734    1.398    0.285
        65  -9.3926    152.0071     81.1714   7.1627617185e+01   3.5566586799e+01    0.2917505    0.2447052 -16.01  0.001412066    1.313    0.238
        66  -9.3337    184.6875    221.2021   9.5859079582e+01   1.8953378686e+00    0.2601594    0.1992896 -30.52  0.001206233    1.490    0.329
        67 -12.1025     24.0657    199.7145   1.2538572690e+02   3.0131075885e+01     0.726638    0.5713726  75.57  0.005357168    1.088    0.081
        68  -9.2560    140.3729    248.1662   1.0793521174e+02   5.0970362647e+00    0.3192073    0.2052753  36.54  0.001932211    1.350    0.259
        69 -10.6350    111.7356     72.4883   7.9411550696e+01   4.6442368892e+01    0.4505578    0.3717351 -61.03  0.001213373    1.390    0.281
        70  -9.9370    208.0126     65.7764   5.6354890865e+01   2.4270879709e+01    0.3885971    0.3009436 -33.65  0.001620655    1.269    0.212
        71 -10.4685    228.0346     58.9033   5.1703850674e+01   2.0499783463e+01    0.3993163    0.2435858 -62.96  0.001816376    1.871    0.466
        72  -9.5404     15.6018    178.6388   1.2557983737e+02   3.5403724422e+01    0.2526667    0.1971669 -44.10  0.001193148    1.844    0.458
        73  -9.1878    156.7657     45.0133   5.9177998052e+01   4.0467702134e+01    0.1990515     0.195616 -45.19 0.0001932451    1.048    0.045
        74 -10.6842     20.1053    172.8952   1.2420233713e+02   3.6238524025e+01    0.5527963    0.2959996  71.52  0.003133742    1.722    0.419
        75  -9.9165    221.3152     40.0215   4.7724138413e+01   2.4776001229e+01    0.2962242    0.2005473  89.56  0.001074607    1.584    0.369
        76  -8.0756    156.3130     35.2973   5.6089167746e+01   4.1925714712e+01    0.1511353    0.1074485  31.42 0.0007012401    1.602    0.376
        77  -8.8100     67.4338    246.7863   1.2088899554e+02   1.6003338669e+01    0.2174205     0.180641 -56.80  0.001616415    1.728    0.421
        78  -9.7928    228.8885     29.7133   4.4284100664e+01   2.4303029912e+01    0.4775989    0.2079206 -36.50  0.002008614    2.061    0.515
        79  -8.5190    231.7100     23.0030   4.2363515974e+01   2.4463744200e+01    0.1900278    0.1608694 -54.47 0.0009681972    1.083    0.076
        80  -9.0167    217.5092     22.0225   4.3539892008e+01   2.7978185926e+01    0.1969667    0.1295123 -31.80 0.0006635261    1.547    0.353
        81  -8.0479    167.6069     14.8180   4.7640939787e+01   4.1421722008e+01    0.1743169    0.1266154 -41.49 0.0002755311    1.439    0.305
        82  -8.7571    180.3319    242.8944   9.9915563859e+01  -5.0846547013e-01    0.1499693    0.1375424  10.26  0.001000872    1.199    0.166
        83  -9.8211     18.7205    166.6400   1.2399024737e+02   3.7752100709e+01    0.2444748    0.2066894  71.27  0.001514888    1.182    0.154
        84 -10.1968    245.7262    240.3764   8.7987916029e+01  -1.0090593107e+01    0.1788767    0.1318584 -30.26 0.0007822211    1.641    0.391
        85  -9.7993     33.2144    172.0556   1.2129772595e+02   3.5123952260e+01    0.4165502    0.2128535 -62.67  0.002257357    1.820    0.450
        86  -8.8584    210.9965    237.2234   9.3511917466e+01  -4.6018904917e+00    0.2258914    0.1724233 -31.36  0.001148669    1.535    0.348
        87 -10.1671     21.4214    230.8622   1.2773252880e+02   2.4331365856e+01    0.2880081    0.1078755  55.64  0.001633484    2.035    0.509
        88 -10.3358     12.0264    219.6145   1.2874308261e+02   2.7397919938e+01    0.3026817    0.1509264  89.04  0.001923442    1.645    0.392
