#   1 NUMBER                 Running object number                                     
#   2 MAG_AUTO               Kron-like elliptical aperture magnitude                    [mag]
#   3 X_IMAGE                Object position along x                                    [pixel]
#   4 Y_IMAGE                Object position along y                                    [pixel]
#   5 X_WORLD                Barycenter position along world x axis                     [deg]
#   6 Y_WORLD                Barycenter position along world y axis                     [deg]
#   7 A_WORLD                Profile RMS along major axis (world units)                 [deg]
#   8 B_WORLD                Profile RMS along minor axis (world units)                 [deg]
#   9 THETA_WORLD            Position angle (CCW/world-x)                               [deg]
#  10 FWHM_WORLD             FWHM assuming a gaussian core                              [deg]
#  11 ELONGATION             A_IMAGE/B_IMAGE                                           
#  12 ELLIPTICITY            1 - B_IMAGE/A_IMAGE                                       
         1 -14.4248    198.7791     17.2020   6.5989152837e+01   3.3130939479e+01     2.646106     1.573875  31.21   0.01006224    2.376    0.579
         2 -13.8025    203.7676      9.9424   6.3457313714e+01   3.2641156863e+01     1.464086    0.7418244  49.81  0.001441259    2.133    0.531
         3 -12.1641      2.2810     25.0609   1.2590561427e+02   7.0007129140e+01    0.6227051    0.1369375 -57.13   0.00253713    3.514    0.715
         4 -13.6635      2.8567      8.3794   1.1914364372e+02   7.2874312253e+01     1.428447    0.9112045 -29.90   0.01014842    1.191    0.160
         5 -12.5080    248.2274    240.5287   1.0911463729e+02  -9.1785076369e+00    0.5480101    0.3258075  21.91  0.003558539    1.390    0.281
         6  -9.7840    209.4937    250.5330   1.1705049418e+02  -4.6062519832e+00     0.115222   0.08714896  28.12 3.199798e-05    1.006    0.006
         7  -9.7903    183.8293    250.4402   1.2143653728e+02  -6.5942495374e-01    0.1647263    0.0875081  33.01 0.0004093225    1.609    0.379
         8 -11.9662    145.7034    241.5880   1.2705357957e+02   6.5816463913e+00    0.4664941    0.3392611  22.43  0.001182783    1.638    0.390
         9 -10.5985    152.4728    243.7527   1.2610387884e+02   5.1895133944e+00    0.2137032    0.1766291 -41.73  0.001512398    1.548    0.354
        10 -10.5057    143.7006    249.3860   1.2832999807e+02   5.7631282273e+00    0.2575944    0.1849394  65.61  0.001206304    1.523    0.344
        11 -11.4086    150.0684    248.2070   1.2706965557e+02   4.9354834511e+00      0.43238    0.2442402  43.31  0.002180401    1.376    0.273
        12 -11.1661    135.6835    241.0585   1.2879563045e+02   8.2474046274e+00    0.2568702    0.1945257  58.11  0.001132675    1.198    0.165
        13 -12.3637    135.0923    236.8033   1.2840258990e+02   8.9960510732e+00    0.4364661    0.3553358 -65.54  0.001804117    1.490    0.329
        14 -11.2592    133.7376    249.3277   1.3007606708e+02   7.3137089698e+00    0.4829983    0.1898705  50.32  0.002377303    2.203    0.546
        15 -10.4664    108.2615    242.5579   1.3386981078e+02   1.2217971642e+01    0.2326392    0.1648374  86.21  0.001545443    1.575    0.365
        16 -11.6999     96.3715    239.1413   1.3565118706e+02   1.4520424353e+01     0.420695    0.2942573  85.19  0.001636968    1.498    0.332
        17 -10.7705    104.4333    238.1411   1.3411151694e+02   1.3505090597e+01    0.2965652    0.2081309  33.99  0.001299041    1.566    0.362
        18  -9.4441     92.4575    231.7327   1.3564479209e+02   1.6342529980e+01    0.2167092    0.1100657 -65.96  0.001217927    2.205    0.546
        19 -12.0721     99.8771    246.5994   1.3573302664e+02   1.2798443622e+01    0.4962428    0.4152587  84.38  0.003776178    1.249    0.199
        20 -10.1691    122.5139    249.8570   1.3210037937e+02   8.9461157233e+00    0.2859762     0.163784  45.78  0.001691798    1.348    0.258
        21 -11.8525    112.1039    248.4722   1.3377964288e+02   1.0715160145e+01    0.8299617    0.2599613  47.19  0.003855357    2.464    0.594
        22  -9.7274    126.8406    249.1370   1.3126702164e+02   8.3980000714e+00    0.2402659    0.1258354  53.09  0.001076202    1.636    0.389
        23 -12.6735    125.0818    242.1548   1.3082548864e+02   9.7318889061e+00    0.7300311    0.4607808  27.14  0.004212332    2.004    0.501
        24 -11.1236     87.4621    249.4901   1.3812694106e+02   1.4089942681e+01     0.346596    0.2726326  61.42  0.002628055    1.072    0.067
        25 -11.3276     81.1000    246.2112   1.3894168707e+02   1.5495386354e+01     0.471307    0.3023417 -80.60   0.00304654    1.669    0.401
        26 -10.5201     83.3094    238.3846   1.3789624727e+02   1.6497979227e+01    0.3264818    0.1834427  65.99  0.001436251    1.673    0.402
        27 -10.6320     86.2675    237.0131   1.3725128027e+02   1.6318411829e+01    0.3218435     0.217792 -85.43  0.002153942    1.550    0.355
        28 -10.1850     89.7978    236.0460   1.3653372529e+02   1.5984143463e+01    0.3053046    0.1759777  75.09  0.001771233    1.924    0.480
        29  -9.1676     74.7448    250.6031   1.4036303868e+02   1.5632307731e+01    0.2127927   0.08881249  39.10  0.001156445    2.197    0.545
        30 -14.6616     26.0374    155.1034   1.4158158107e+02   4.0137198169e+01       2.6407     1.614149 -41.83   0.01449786    2.324    0.570
        31 -14.8168     54.8914    217.1587   1.4122195761e+02   2.4062197861e+01     2.042805     1.443902  86.22   0.01419205    1.231    0.187
        32 -10.5321    115.7886    239.9947   1.3226115817e+02   1.1497094504e+01    0.2113208    0.1442123  54.86 0.0008497387    1.192    0.161
        33  -9.3636    211.6751    239.6833   1.1509650529e+02  -3.6777607891e+00    0.1205908   0.07598881  15.49 0.0007044082    1.670    0.401
        34 -11.9128    136.3344    227.7975   1.2706949609e+02   1.0226729589e+01    0.5026319    0.3554775   2.22   0.00265505    2.628    0.620
        35 -15.2937      5.6882    243.6930   1.5101444682e+02   2.4727273801e+01     1.491532    0.6340631 -82.40  0.009958937    2.045    0.511
        36 -11.2740    128.2371    233.4673   1.2926566705e+02   1.0611976425e+01    0.3276777    0.2111437  47.61  0.001653296    1.250    0.200
        37 -10.7187    165.6765    235.4170   1.2264536107e+02   4.2553917097e+00    0.2147211    0.1949552 -79.69  0.001531487    1.413    0.292
        38 -11.0247    121.8854    232.8059   1.3035997518e+02   1.1719812199e+01    0.3080942    0.2637324  39.84  0.001207663    1.223    0.182
        39  -9.4256    101.1893    216.1848   1.3237393437e+02   1.7810874954e+01    0.2588545    0.1523974  69.62  0.001355524    1.900    0.474
        40 -10.5715    102.0179    211.9656   1.3172623555e+02   1.8461277330e+01        0.385    0.2062293  60.58  0.001898435    1.908    0.476
        41 -10.6908    110.4246    222.3593   1.3130875349e+02   1.5281187639e+01    0.2833668    0.2250056 -54.01 0.0006745661    1.545    0.353
        42 -10.4663    105.1230    219.1480   1.3195350664e+02   1.6671216850e+01    0.2899084     0.186469  74.53 0.0004037337    1.725    0.420
        43 -12.2951    109.6867    230.3062   1.3233493007e+02   1.4024441760e+01       0.7861     0.304096  43.80  0.003277408    2.090    0.521
        44 -11.2164     98.4699    231.0188   1.3447588460e+02   1.5587648546e+01    0.3606229    0.2863867 -75.38  0.001721022    1.387    0.279
        45  -9.9645     93.6980    217.2201   1.3393012945e+02   1.8748521433e+01    0.3294256    0.1871248  88.72   0.00170658    2.276    0.561
        46 -10.5478     92.8799    226.0773   1.3500749971e+02   1.7270768633e+01    0.2914922    0.1767436  56.61 0.0004868067    1.383    0.277
        47 -12.1006     99.0744    223.2491   1.3355523462e+02   1.6856859424e+01    0.5051253    0.2602819  38.69  0.001415005    1.832    0.454
        48 -11.6639    244.8176    232.1328   1.0832521506e+02  -7.8020635986e+00    0.3745461    0.2572924  58.12  0.002142756    2.721    0.633
        49 -11.5633    141.9458    230.1091   1.2631444424e+02   8.9419992198e+00    0.3773361    0.2610761 -38.66  0.001863464    1.917    0.478
        50 -10.4438     73.0711    231.2988   1.3910203221e+02   1.9122845018e+01    0.1677971    0.1260084  39.96  0.001155387    1.458    0.314
        51 -10.8811    165.3658    227.3301   1.2158314959e+02   5.4913139834e+00    0.3623054    0.2278685 -64.58  0.001443105    2.455    0.593
        52  -9.8154    164.1927    220.9082   1.2087960577e+02   6.6658485139e+00    0.2596642    0.1853669 -11.83  0.001138073    2.068    0.516
        53  -9.7031    151.0860    229.8237   1.2457747550e+02   7.4865038198e+00    0.2685786    0.1369208  50.67  0.001018294    1.784    0.440
        54 -10.5620     84.5785    229.7346   1.3688827098e+02   1.7815323906e+01    0.2300988    0.1928331  28.72 0.0009558528    1.601    0.375
        55  -8.9957     82.9761    225.4938   1.3678298682e+02   1.8794612665e+01    0.2631017    0.1020393  56.81  0.001208053    2.564    0.610
        56 -10.4737     79.5099    229.0400   1.3774519926e+02   1.8645253775e+01    0.2517696    0.1455777 -75.20 0.0009937421    1.839    0.456
        57  -9.9130     78.6673    224.6796   1.3750053601e+02   1.9542642108e+01    0.2145413    0.1739197 -48.19 0.0009450814    1.770    0.435
        58 -10.0610     77.9608    221.4560   1.3733072180e+02   2.0227313271e+01    0.2880988    0.1394754  58.12  0.001383942    1.872    0.466
        59 -10.8845    156.7413    231.4419   1.2374610485e+02   6.3073026341e+00      0.21229    0.2058376 -82.47 0.0002903955    1.252    0.201
        60 -10.0746    190.8902    228.0869   1.1701509180e+02   1.1293879301e+00     0.179691    0.1479396  34.02 0.0003028289    1.050    0.048
        61  -8.8310    175.6870    228.6924   1.1987394178e+02   3.5681046946e+00    0.1214072   0.08642311  16.15 0.0004973156    1.624    0.384
        62  -9.9100    180.8065    229.6307   1.1907490861e+02   2.5843743635e+00    0.1612726    0.1372456  21.22 0.0009262446    1.137    0.120
        63  -9.7218    160.2174    224.2637   1.2211013852e+02   6.8212997291e+00    0.1958044    0.1721777 -16.44  0.001313228    1.386    0.279
        64 -10.7582    132.8832    224.1799   1.2726227318e+02   1.1383195107e+01    0.1964379    0.1855041   0.84 0.0007349406    1.347    0.258
        65 -10.8713    117.3820    224.3592   1.3022184273e+02   1.3843985247e+01    0.2184045    0.1849801  53.81 0.0003014473    1.067    0.063
        66 -13.0670     14.0607    239.0641   1.4952760389e+02   2.4687153870e+01    0.3486348    0.2001505  52.00  0.001224171    1.382    0.276
        67  -8.8293    220.2138    223.5990   1.1109519424e+02  -3.0557102425e+00    0.1002375   0.09312542 -59.25 0.0006837791    1.635    0.388
        68  -9.1854    155.9477    223.5058   1.2280668806e+02   7.6584006357e+00    0.1874459    0.1039169  43.75 0.0003617265    1.496    0.332
        69 -10.3060    149.9757    222.4769   1.2379321285e+02   8.8262872187e+00    0.2006646    0.1918219  16.91 4.553982e-05    1.208    0.172
        70  -8.8938    149.5704    218.5516   1.2332399556e+02   9.5296285373e+00     0.178975    0.1390818  67.60 0.0001012253    1.424    0.298
        71 -10.4435    140.9941    212.5281   1.2413712813e+02   1.1998097874e+01    0.3420765    0.1805272  46.29  0.001392763    1.621    0.383
        72 -11.9903    142.1408    221.1422   1.2510271722e+02   1.0356172463e+01    0.3664677    0.2991374 -61.14  0.002389759    1.451    0.311
        73 -10.7877    137.3783    214.6558   1.2513981428e+02   1.2245899273e+01    0.2792006    0.2136358  83.57  0.001235383    1.576    0.366
        74  -9.8856     88.8179    220.0221   1.3515309382e+02   1.8950894568e+01    0.3421782    0.1773203 -45.65   0.00168994    3.047    0.672
        75 -10.3000    245.6114    219.1759   1.0603072117e+02  -6.4629293664e+00    0.1630296   0.09760412 -14.24 0.0009518769    1.729    0.422
        76  -9.9414    177.1798    219.6156   1.1824614400e+02   4.6442675605e+00    0.1783636     0.158456  11.87  0.001122135    1.175    0.149
        77  -9.8219    249.9779    217.7523   1.0506484618e+02  -6.9518405420e+00    0.1546326   0.08479334  35.58 0.0008889162    1.599    0.375
        78 -10.8301     88.2033    212.9963   1.3453613068e+02   2.0342449507e+01    0.2341955    0.2219903  84.24 0.0003979162    1.282    0.220
        79 -12.5283    131.8416    211.6066   1.2580721695e+02   1.3707881219e+01    0.3382125    0.2829965   9.56 0.0004944768    1.594    0.373
        80  -9.6131    152.1238    211.9292   1.2187559902e+02   1.0185480915e+01     0.193003    0.1563123  62.35 0.0005129547    1.273    0.215
        81 -10.1022    108.8963    208.8167   1.2998748154e+02   1.7970904029e+01    0.3122887    0.1367416 -68.74  0.001342229    3.086    0.676
        82 -15.1302     11.3432    208.5839   1.4846017238e+02   3.0477856058e+01     2.642562     1.144973 -73.62   0.01606849    2.017    0.504
        83 -10.5146     73.3713    238.3606   1.3963571079e+02   1.7854535163e+01    0.4616947    0.2100056  75.12  0.002230879    2.996    0.666
        84  -8.8977    197.7965    208.1435   1.1254810980e+02   2.7768302414e+00    0.1689458    0.1292687  19.13 0.0002825474    1.254    0.202
        85 -10.7126    174.3564    206.0917   1.1664736653e+02   7.2272605137e+00    0.3704286    0.2831849  25.68  0.001217249    1.290    0.225
        86 -11.7345     93.0625    205.0270   1.3269009676e+02   2.1141246277e+01    0.6146308     0.299201  47.76  0.001549253    1.771    0.435
        87 -11.8261    247.4270    205.4039   1.0330636726e+02  -5.0984159525e+00    0.4119803    0.2852639  12.81  0.002570155    1.300    0.231
        88  -9.3677    164.1033    206.1901   1.1865655780e+02   9.0359868067e+00    0.2407487    0.1750502 -87.21  0.001251625    2.184    0.542
        89 -10.0271    149.5599    204.4321   1.2125422157e+02   1.1910992907e+01    0.3146699    0.2255731 -22.41  0.001029884    2.017    0.504
        90  -9.9326    125.8724    206.0543   1.2623234074e+02   1.5706696187e+01      0.19955    0.1510089  65.53 0.0004349528    1.302    0.232
        91  -9.6148    113.6462    204.7895   1.2852237800e+02   1.7961528828e+01    0.3209721    0.1197344 -64.21  0.001247686    3.597    0.722
        92 -10.0869    115.1865    200.3762   1.2762077211e+02   1.8544946954e+01    0.2095757    0.1748957 -82.88 0.0002050973    1.248    0.199
        93 -11.1211    103.2667    202.9128   1.3037968183e+02   1.9978371018e+01    0.4038276    0.2974145 -82.86  0.002432114    1.434    0.303
        94 -10.4855    100.5063    198.4273   1.3037611600e+02   2.1283285762e+01    0.2368232    0.2142407   2.41 0.0005015555    1.563    0.360
        95 -10.7389     99.1611    195.0766   1.3022434328e+02   2.2156418429e+01     0.326122    0.2764694   6.69  0.000345455    1.747    0.428
        96  -9.6768     75.5581    203.4421   1.3600566042e+02   2.3987416645e+01    0.3149994     0.201077  32.13  0.001795724    1.876    0.467
        97  -9.8563    167.1111    203.3517   1.1761180069e+02   8.9687276105e+00    0.1879059    0.1484614  43.60            0    1.114    0.102
        98 -10.3465    169.8126    200.2341   1.1656824343e+02   8.9994982927e+00    0.2245289    0.1945405  27.47 0.0003544934    1.103    0.094
        99  -9.8815    133.1157    202.8923   1.2432608850e+02   1.5052725498e+01    0.2135739     0.189156 -56.50 0.0003266111    1.287    0.223
       100 -10.5559    133.9425    197.8626   1.2341531813e+02   1.5834138239e+01    0.3289909    0.2285926 -79.82  0.001301514    1.880    0.468
       101  -9.4165    224.9481    202.5298   1.0664209349e+02  -1.0885442976e+00    0.1814937    0.1100961  38.68 0.0003657353    1.488    0.328
       102 -10.7969    197.2845    200.5764   1.1133671488e+02   3.9918604055e+00    0.3991084    0.2090839  48.59  0.001633578    1.920    0.479
       103  -9.6791    122.6852    201.2902   1.2621528984e+02   1.7123791322e+01    0.2498278    0.1361119  48.54 0.0007616646    1.619    0.382
       104  -9.4719    119.7199    199.3452   1.2654961997e+02   1.7988295478e+01    0.2128742    0.1741573  33.64 0.0006385904    1.323    0.244
       105  -8.7206    158.6722    199.7033   1.1869100837e+02   1.1104405070e+01    0.1307504   0.09982973  13.30 0.0003989032    1.632    0.387
       106  -9.5138     82.0253    194.2626   1.3367910581e+02   2.4904586559e+01    0.1684041    0.1583066  75.63 0.0002063336    1.222    0.182
       107  -9.6568     84.7220    192.3774   1.3289517921e+02   2.4894223397e+01    0.2651638    0.1581637  67.88  0.000778167    1.758    0.431
       108  -9.2899     86.2754    199.2854   1.3339238809e+02   2.3276147354e+01    0.1744587     0.156576 -87.32  0.000202882    1.179    0.152
       109  -9.7860     85.9858    195.9971   1.3306606842e+02   2.3975727649e+01    0.1890976    0.1563876  71.88  0.001222048    1.024    0.024
       110  -9.4463    192.0330    198.0168   1.1187944836e+02   5.3273931718e+00    0.1922837    0.1706607  27.77            0    1.031    0.030
       111 -12.0043     70.5854    194.6865   1.3607857671e+02   2.6426430040e+01    0.4369889    0.2870511 -47.33  0.001695501    2.059    0.514
       112 -12.0211     75.2219    187.9103   1.3435674056e+02   2.7179376552e+01    0.3056386    0.2749192  77.54 0.0007133219    1.136    0.119
       113 -10.5025    113.0673    193.6418   1.2712840787e+02   2.0198027051e+01    0.4524778     0.246712 -66.39  0.001088818    2.118    0.528
       114  -9.4533    107.2430    195.9155   1.2865535239e+02   2.0704600617e+01    0.1987381    0.1557702  72.98 0.0006232269    1.224    0.183
       115 -11.8779    249.7450    187.6906   9.9620436051e+01  -3.2213045183e+00    0.4046644     0.237289 -23.30  0.002224712    1.645    0.392
       116 -10.3444    159.5058    193.9803   1.1758036925e+02   1.1950697575e+01    0.3151095    0.2214683  58.06  0.001002635    1.511    0.338
       117 -11.0872    120.4405    193.3956   1.2555052840e+02   1.9008741808e+01      0.35509    0.3347946  68.64 0.0009482582    1.102    0.093
       118 -10.8308     38.6269    192.7318   1.4231583497e+02   3.0791856682e+01    0.2742819      0.17765 -69.05  0.001769564    1.499    0.333
       119 -14.3887     27.6589    247.7412   1.4781634616e+02   2.1791331091e+01     1.072637    0.6573917  43.47  0.006527906    1.578    0.366
       120  -9.4832    178.2973    193.7057   1.1378025304e+02   8.5330654182e+00    0.2901673    0.1536764  24.80 0.0009104975    2.656    0.623
       121 -10.0707    173.0178    192.6645   1.1464251263e+02   9.6848061304e+00     0.312974    0.2132359 -20.91  0.001175905    1.947    0.486
       122  -9.8126     47.2469    192.9475   1.4062524237e+02   2.9755243433e+01    0.1628347    0.1361828 -73.79 0.0005786101    1.309    0.236
       123 -10.4501    191.4067    191.4158   1.1081602333e+02   6.4847042333e+00    0.2650348    0.2189226  15.82 0.0007486945    1.194    0.163
       124  -9.5673    135.3356    190.3012   1.2196024939e+02   1.7009193052e+01    0.2017076    0.1624845 -54.37 0.0005853759    1.368    0.269
       125  -9.0541    158.1532    241.8626   1.2485032271e+02   4.5524543134e+00     0.154333    0.1245876  23.60 0.0004198749    1.308    0.236
       126  -9.1494     42.4161    189.2122   1.4126066733e+02   3.1086080514e+01    0.1666781    0.1084707  69.07 0.0005253468    1.318    0.241
       127  -9.4820     46.3158    187.3319   1.4030041007e+02   3.1024324879e+01    0.3309882    0.1920614  20.18  0.001683857    2.977    0.664
       128 -10.1007    175.8727    186.9856   1.1306198323e+02   1.0121076217e+01    0.2025125    0.1856122  34.96  0.000409038    1.027    0.026
       129  -9.4707     67.4845    186.8736   1.3586679299e+02   2.8457869108e+01    0.2089365    0.1620802  21.04 0.0007519862    1.846    0.458
       130  -9.2567    154.6084    185.2089   1.1708666873e+02   1.4439544102e+01    0.1783806     0.130288 -34.76  0.000672625    1.608    0.378
       131 -10.7163    141.0278    183.7955   1.1969756230e+02   1.7223569120e+01    0.4589542    0.2435433  59.22  0.001202998    2.338    0.572
       132  -9.2516     81.8091    184.1516   1.3249917973e+02   2.7021314319e+01    0.1753732    0.1461329  84.17  0.000329991    1.068    0.064
       133  -9.6012     87.2006    183.5169   1.3125624401e+02   2.6355870717e+01     0.414806    0.1701766  36.48  0.001778397    2.562    0.610
       134  -9.7318     37.4383    184.1700   1.4182528360e+02   3.2692849686e+01    0.2243145     0.140243  49.71  0.001407051    1.482    0.325
       135  -9.3422    217.2668    183.2359   1.0441305144e+02   3.0075809381e+00    0.1598465    0.1550289  53.39  0.000370616    1.306    0.234
       136 -10.2875    115.1539    178.1043   1.2436480179e+02   2.2972695062e+01     0.509692       0.2264 -61.06  0.002118658    2.546    0.607
       137  -9.8834     65.9970    182.0032   1.3563345494e+02   2.9682251998e+01    0.1830114    0.1532398  76.10            0    1.026    0.025
       138 -10.8427    131.5962    179.9985   1.2108218660e+02   1.9684412621e+01    0.6730693    0.2783573  43.24  0.002316761    2.220    0.550
       139  -9.6183    104.1584    180.8037   1.2719001225e+02   2.4259661482e+01    0.1918879    0.1576531  69.20 0.0003194634    1.124    0.110
       140  -9.6746    175.8648    179.9476   1.1176432920e+02   1.1346735047e+01    0.2067114    0.1796971   7.76 0.0004690623    1.225    0.183
       141  -9.4025    143.8335    180.5906   1.1855349816e+02   1.7321874805e+01    0.2037328    0.1189988  52.59 0.0007772798    1.694    0.410
       142  -9.4636     48.1925    179.7134   1.3917575409e+02   3.2407439144e+01    0.1803441    0.1178658  57.43 0.0005090349    1.380    0.275
       143 -10.7657    181.8497    177.1422   1.1002296176e+02   1.0681389537e+01    0.3655865    0.2221637  38.99  0.001768758    1.538    0.350
       144 -10.6043     29.9658    177.3788   1.4277245758e+02   3.4917725935e+01    0.3435759    0.1392815  44.68  0.001413885    2.243    0.554
       145 -10.0216     77.2134    175.7334   1.3242677788e+02   2.9474598664e+01     0.205796    0.1589973 -80.68 0.0006907359    1.203    0.169
       146 -12.3052     70.6961    174.1664   1.3367138808e+02   3.0726971687e+01     0.363681    0.3248382  11.34 0.0006620237    1.578    0.366
       147 -11.0395     68.9720    167.3670   1.3318841841e+02   3.2449053392e+01    0.3485977    0.1851851 -64.28            0    1.760    0.432
       148  -9.7925    108.9235    176.1492   1.2543629702e+02   2.4438835590e+01    0.2067782    0.1640809  73.99 0.0002764256    1.254    0.202
       149 -10.0250     95.7094    174.0301   1.2806530119e+02   2.7049133266e+01    0.3280662    0.1974009 -56.30  0.001674536    1.704    0.413
       150 -12.4780    248.2405    101.4506   8.1189537609e+01   9.6881371847e+00    0.8995636    0.4820653 -28.79  0.004100848    1.770    0.435
       151 -12.6232    248.3740    171.9979   9.6755002455e+01  -8.7382490348e-01    0.6144114    0.4879011  15.26  0.003800764    1.148    0.129
       152 -11.6253    247.6683    123.0960   8.6304317066e+01   6.4803547622e+00    0.8407536    0.5756324 -75.80  0.003773577    2.700    0.630
       153 -12.4938    248.3484    113.8675   8.4077142548e+01   7.7623986923e+00     1.200786     0.688732 -18.03  0.005383333    2.033    0.508
       154 -12.7763    245.3274    163.6702   9.5555159460e+01   8.3677809852e-01    0.6588303    0.4126607 -42.27  0.003442642    1.774    0.436
       155 -12.9481    245.1366    155.8934   9.3954280391e+01   2.0043984691e+00     1.415903     1.016335 -62.13  0.007115345    2.312    0.567
       156 -12.4831    248.3383    134.3208   8.8734945535e+01   4.6372993229e+00    0.9229873    0.8683179 -13.90  0.005776683    1.108    0.097
       157  -9.6511    154.4635    172.7801   1.1487504840e+02   1.6807567103e+01    0.3346445    0.2310287  13.35  0.001084661    2.152    0.535
       158  -9.6939    139.0673    173.5040   1.1833690094e+02   1.9601018273e+01    0.2123871    0.1292696  45.20 0.0004852552    1.527    0.345
       159 -10.8946     80.7244    163.5691   1.2995566346e+02   3.1624460876e+01     0.272361    0.2259709  64.68 0.0003119191    1.122    0.109
       160  -9.5196     88.9843    157.0115   1.2700105926e+02   3.1833585960e+01    0.2305621    0.1827832   0.74 0.0003186174    1.959    0.490
       161  -9.9314     90.9219    172.8899   1.2897447575e+02   2.8044696464e+01     0.264984    0.2046324 -44.77 0.0009009345    1.578    0.366
       162 -12.6250     89.8474    167.0766   1.2836315166e+02   2.9472695855e+01     0.749704    0.5782629 -67.26  0.003679051    1.262    0.208
       163  -9.7248     84.9996    165.2373   1.2920803599e+02   3.0618281887e+01    0.1622079    0.1588469  67.80 0.0001985133    1.219    0.180
       164 -10.5406    166.0060    241.6617   1.2341767583e+02   3.3201508576e+00    0.3130079    0.1495362  31.80  0.000895294    2.144    0.534
       165 -10.0289     31.5224    171.5837   1.4193486279e+02   3.5994283139e+01    0.1593536    0.1264585  78.52 7.688058e-05    1.052    0.049
       166 -11.7519     84.2591    175.8710   1.3088220395e+02   2.8416519168e+01    0.3793055    0.3350089  86.03 0.0007729197    1.056    0.053
       167  -9.1783    100.6044    170.7309   1.2646292702e+02   2.6967270850e+01    0.1820134    0.1236389 -74.21 0.0009386649    1.556    0.357
       168  -9.0151    167.3264    170.1730   1.1165215893e+02   1.4784173174e+01    0.1942849    0.1308117 -53.69 0.0009374987    1.698    0.411
       169 -10.9461     44.0622    168.9611   1.3896265890e+02   3.5205357320e+01    0.3099672    0.2717934 -81.39  0.001375752    1.188    0.158
       170 -10.1458     47.6878    168.3174   1.3809276776e+02   3.4928863125e+01    0.2866893    0.1648541  86.91 0.0006362599    1.742    0.426
       171  -9.2937     36.1896    170.4160   1.4082498017e+02   3.5756320336e+01      0.16455   0.09305558  51.48 0.0009462917    1.661    0.398
       172  -9.6187    107.3123    168.2238   1.2453789374e+02   2.6388667057e+01    0.2156684    0.1757604  39.53 0.0004153487    1.280    0.219
       173  -9.5525     58.7205    167.7419   1.3555917226e+02   3.3713186572e+01    0.1736677      0.12381  76.76 0.0004483323    1.303    0.232
       174  -9.1225    175.6944    166.3132   1.0914323634e+02   1.3832302176e+01    0.1389769    0.1137484  84.51 0.0001853682    1.620    0.383
       175  -9.7023    136.3198    165.6237   1.1751063015e+02   2.1711141988e+01    0.2527334    0.2142651 -82.42 0.0008822328    1.293    0.227
       176  -8.7913    124.4622    165.4504   1.2015394199e+02   2.3955837561e+01    0.1408055    0.1290526  68.63 3.269153e-05    1.022    0.022
       177 -12.3856    248.2160    142.5479   9.0573482111e+01   3.4204773139e+00    0.9260949     0.551959 -30.79  0.004687749    1.536    0.349
       178 -10.1545     47.2280    163.3861   1.3764735835e+02   3.6068536367e+01    0.2097023    0.1264484  82.61 0.0005822749    1.656    0.396
       179 -10.1992     37.0784    162.8378   1.3987320221e+02   3.7316671114e+01    0.1881358    0.1343854  75.28  0.000539439    1.235    0.190
       180  -9.7967    123.2657    160.7977   1.1958579717e+02   2.5157771413e+01    0.2187431    0.2139238  25.57 0.0002349302    1.149    0.130
       181  -8.7131    119.7433    159.3040   1.2012805223e+02   2.6120308010e+01    0.1829816    0.1174294  43.37            0    1.513    0.339
       182 -11.2967     96.2713    158.8914   1.2557389408e+02   3.0255646328e+01     0.388046    0.2539832 -55.50  0.001992216    1.530    0.346
       183 -11.3168     73.3978    158.3694   1.3092157455e+02   3.3839948629e+01    0.4447324    0.3233718 -86.24  0.001264264    1.329    0.247
       184  -9.9446     79.0703    158.9790   1.2966660840e+02   3.2889946425e+01    0.1987901    0.1733114  86.15 0.0003913167    1.011    0.011
       185  -9.4243     52.3132    158.4282   1.3589241226e+02   3.6574091751e+01    0.1645216    0.1074249  52.08 0.0009235442    1.497    0.332
       186  -9.5375     47.8578    157.9052   1.3686599592e+02   3.7216435657e+01    0.1845191    0.1550332 -62.90 0.0005579871    1.276    0.216
       187  -9.6322    134.3266    155.9180   1.1610973002e+02   2.4106063759e+01    0.2470092    0.1843972 -42.24  0.000732554    1.450    0.310
       188 -10.3518    132.0906    152.2983   1.1591085204e+02   2.5302175725e+01    0.2543311    0.2212582 -87.15 0.0003525669    1.225    0.183
       189 -11.4716    133.4895    141.9374   1.1343929899e+02   2.7241461254e+01    0.7994074     0.350552 -50.35  0.003045972    2.330    0.571
       190 -10.9315      9.0736    155.4742   1.4539953500e+02   4.1542783855e+01     0.197557    0.1228612  78.18   0.00126635    1.371    0.270
       191  -9.1788    228.3628    155.2668   9.6681921432e+01   5.2372633397e+00    0.1861144    0.1215833 -40.01 0.0004537515    1.575    0.365
       192  -9.8202     61.9879    152.6633   1.3283905604e+02   3.6670069113e+01    0.3127902    0.1638721 -75.10  0.001003212    1.903    0.474
       193 -10.5686    112.8287    152.3503   1.2047409869e+02   2.8877056776e+01    0.3524818    0.2848013  60.96 0.0009040567    1.223    0.182
       194 -10.3512     95.8617    152.7849   1.2464108744e+02   3.1682904878e+01    0.2573366    0.2106315  -7.85 0.0008328989    1.799    0.444
       195 -10.8694    102.2609    151.1169   1.2279522340e+02   3.0991146324e+01    0.3418759     0.295221  80.25  0.001264143    1.128    0.114
       196 -10.1521    104.9677    146.0494   1.2119755749e+02   3.1660413852e+01    0.4265028    0.2972131 -58.16  0.002161745    1.408    0.290
       197  -8.7801    119.7157    151.3373   1.1863743428e+02   2.7847728243e+01    0.1466576    0.1092343  83.88 0.0003185303    1.627    0.385
       198 -10.6876     90.6920    150.1805   1.2545276498e+02   3.3101088480e+01    0.2316079    0.2144878  80.48 0.0003439825    1.048    0.046
       199 -11.4021     55.4690    149.1329   1.3393192427e+02   3.8294380194e+01     0.543046    0.3254599  75.11  0.002764592    1.891    0.471
       200 -11.5646     58.8500    133.4785   1.3075185098e+02   4.1483206627e+01    0.3717715    0.3308618 -74.17    0.0019147    1.067    0.063
       201 -13.2641     67.4301    144.3015   1.3026436271e+02   3.7863239669e+01    0.9044943    0.5967659  83.34  0.004687522    1.695    0.410
       202 -12.3710     74.1837    138.9122   1.2766936970e+02   3.8169412151e+01    0.6816193    0.4693091 -83.96  0.002709331    1.535    0.349
       203 -12.4494     33.5250    135.8932   1.3763698838e+02   4.3746031747e+01    0.5528584    0.2295153 -51.63  0.002560726    2.456    0.593
       204 -13.2675     28.4485    225.5966   1.4648024499e+02   2.5567278460e+01     1.418208    0.6284512  57.23  0.008684571    1.766    0.434
       205 -13.8338     45.6963    247.9201   1.4495916759e+02   1.9716781617e+01      1.74109     0.774064  37.60   0.01031529    2.272    0.560
       206 -12.6960     32.6429    141.4881   1.3854347907e+02   4.2556225001e+01    0.3552913    0.3337152 -51.52   0.00254379    1.329    0.247
       207  -9.2773    141.7119    147.9768   1.1279262317e+02   2.4317478093e+01     0.303755    0.1914557  18.11  0.001178085    2.680    0.627
       208 -12.4992     42.0517    236.7342   1.4486841133e+02   2.2053806796e+01    0.4389209    0.1940527  57.60  0.001229994    1.773    0.436
       209 -13.0255     20.1571    232.6422   1.4824425788e+02   2.5182429701e+01    0.6906812    0.3257785  86.76  0.002902117    1.851    0.460
       210 -11.8772      1.7817    122.9198   1.4422947509e+02   4.9243207538e+01    0.5848637    0.1491912 -79.46  0.002179538    3.788    0.736
       211 -11.5288      2.2799    131.1316   1.4488345223e+02   4.7387290004e+01    0.4457681    0.1836613 -72.09  0.002390162    1.823    0.451
       212 -11.9386      9.7603    141.8743   1.4408039832e+02   4.4468771151e+01    0.3282301    0.2083195  53.52  0.002124747    1.597    0.374
       213 -11.7454      2.3172    144.3351   1.4600851702e+02   4.4480616320e+01    0.4371392    0.1797099 -72.00  0.002377945    1.853    0.460
       214 -12.1173      3.2023    138.9129   1.4535279649e+02   4.5606017379e+01    0.6615549     0.271284  76.78  0.003087437    2.824    0.646
       215 -13.0758     46.3332    228.4649   1.4359452365e+02   2.3018197283e+01    0.4224118     0.321653 -77.04  0.000878094    1.411    0.291
       216 -12.5013     26.9977    140.9763   1.3986589194e+02   4.3210750468e+01    0.4367824    0.2332199 -88.46  0.002317457    1.804    0.446
       217 -12.5613     45.7169    131.7254   1.3392686088e+02   4.3437040961e+01    0.6119174    0.4379238  75.19  0.003099658    1.439    0.305
       218  -9.2433     53.6182    140.2167   1.3313336726e+02   4.0564208963e+01    0.1864318    0.1452927 -74.58 0.0004103164    1.111    0.100
       219 -11.7589     47.8901    138.4516   1.3433479624e+02   4.1639536588e+01     0.530485    0.2237943  24.43  0.002209174    3.477    0.712
       220 -10.1819    118.9959    138.5078   1.1622645263e+02   3.0800142741e+01    0.2779509    0.2562363 -28.68  0.001387249    1.222    0.182
       221 -11.1120    112.6063    136.3459   1.1736450364e+02   3.2471209132e+01    0.4256691    0.3250564  41.61  0.001720568    1.344    0.256
       222 -10.1720     13.3861    137.7870   1.4282953657e+02   4.5095115354e+01    0.1725218   0.08286821 -65.65 0.0009467956    1.681    0.405
       223  -9.2216    107.0537    130.1440   1.1746534350e+02   3.4876587604e+01    0.2416222    0.1541886  63.27 0.0006556202    1.933    0.483
       224 -11.9753     66.2276    128.1956   1.2789766838e+02   4.1756952079e+01    0.4699656    0.3547612  89.70  0.001460757    1.368    0.269
       225 -12.5292     30.9193    126.8080   1.3712673502e+02   4.6080155923e+01     0.544418    0.2409039  36.78  0.002734705    2.438    0.590
       226 -10.4896    209.7494    125.8403   9.3355312752e+01   1.3943782691e+01    0.3014273     0.247448 -23.42 0.0005269134    1.203    0.168
       227  -8.6771     93.3958    127.5328   1.2049029472e+02   3.7836614000e+01    0.1419325    0.1292845 -74.35 0.0001493491    1.026    0.025
       228  -9.7102     85.9509    126.7400   1.2231487815e+02   3.9222935222e+01    0.2468097    0.2011711 -18.02  0.001089662    1.634    0.388
       229 -12.4874      9.5550    125.8497   1.4255393453e+02   4.8060223888e+01    0.3517512    0.2326666 -63.50  0.002288393    1.304    0.233
       230  -9.6406    160.3089    126.6639   1.0369093124e+02   2.4792983489e+01    0.1557923     0.122089 -83.57 0.0007043022    1.679    0.404
       231 -11.8350     38.1008    123.7355   1.3477494145e+02   4.6091609078e+01    0.4469097    0.2574294 -58.49  0.001388756    1.503    0.335
       232 -11.8986     14.0029    154.3074   1.4421519723e+02   4.1390374712e+01    0.3265601    0.2102156 -68.74  0.001652883    1.359    0.264
       233  -8.9674    114.6068    122.8332   1.1388111552e+02   3.5120362647e+01    0.2014866    0.1374816 -62.18 0.0002713675    1.556    0.357
       234  -9.7482     50.3309    122.8666   1.3130431654e+02   4.4975604550e+01    0.2120622    0.1456293 -86.50  0.001160355    1.485    0.327
       235  -9.7097    238.6801    121.9189   8.7444541740e+01   8.4659679077e+00    0.2283802    0.1633521 -13.34  0.001153461    1.500    0.333
       236 -11.5989     20.7802    121.0721   1.3906895077e+02   4.8281998681e+01    0.2860872    0.1563212 -57.81  0.001614283    1.583    0.368
       237  -9.0246    162.3095    121.2965   1.0192048997e+02   2.5428902159e+01    0.1535769    0.1218731   7.93 0.0002135598    1.593    0.372
       238 -11.1570     12.7995    120.1998   1.4108383059e+02   4.9098393400e+01    0.1651784    0.1162746 -56.60 0.0006739035    1.349    0.259
       239 -12.1101     31.3464    117.3472   1.3567970973e+02   4.8219583610e+01     0.399913    0.2757983 -49.50  0.001890601    1.452    0.311
       240  -9.2994    231.9731    116.7449   8.7313036636e+01   1.0685730394e+01    0.1743566    0.1230895  49.21 0.0004833048    1.507    0.336
       241 -11.0521    168.1560    113.4544   9.8633234368e+01   2.5655358654e+01    0.3825898    0.3105475 -71.33 0.0009059703    1.479    0.324
       242  -9.5628     72.7937    115.1782   1.2358378540e+02   4.3878929177e+01    0.1826313    0.1549719 -32.32 0.0003635917    1.342    0.255
       243 -11.0402      2.7759    110.7628   1.4268855941e+02   5.1894921627e+01    0.2357395    0.1218503  79.42  0.001263507    2.110    0.526
       244  -9.2863    203.6707    111.6486   9.0994256194e+01   1.7787456521e+01    0.1585624    0.1164967  10.13 0.0007047674    1.770    0.435
       245  -9.8112     69.9854    111.4354   1.2360617265e+02   4.5142739307e+01    0.1874759    0.1356528  37.70 0.0003222545    1.527    0.345
       246 -10.7446     31.8594    110.9346   1.3455486699e+02   4.9650938201e+01    0.1919028    0.1879562  57.86 0.0008132032    1.239    0.193
       247 -11.8584     58.0831    110.9090   1.2695005797e+02   4.6833794057e+01    0.5655281    0.2797844  38.90  0.002661596    2.204    0.546
       248 -10.3774     28.1747    106.2901   1.3488483112e+02   5.1047876261e+01    0.1789363    0.1466353 -31.98 0.0008686183    1.444    0.307
       249 -10.2233    134.5848    104.6055   1.0418286953e+02   3.5007365430e+01    0.3554559    0.1475064 -42.37  0.001249363    2.395    0.583
       250  -8.9180    106.1919    103.1003   1.1130246405e+02   4.1098789414e+01    0.1915808     0.166732 -84.42 0.0002308507    1.280    0.219
       251  -9.0151     42.6975    103.6805   1.3011434294e+02   5.0263840625e+01    0.1311465   0.08639596 -40.35 0.0003243602    1.627    0.385
       252  -9.6615     62.9633     99.9952   1.2320349266e+02   4.8728856910e+01    0.2148675    0.1502436 -32.90 0.0004882666    1.645    0.392
       253 -10.7028     47.0082     89.9901   1.2596813657e+02   5.2930472084e+01    0.3138736    0.1933544  17.30 0.0009767638    2.137    0.532
       254 -10.2343      1.7013     89.4690   1.4032008810e+02   5.6702934106e+01    0.2225122   0.08099325 -70.33  0.001081069    2.073    0.518
       255  -9.4669    199.7822    245.7826   1.1803705406e+02  -2.5669960122e+00    0.1479515    0.1211873  46.26 0.0004506197    1.331    0.249
       256 -11.0049    223.2998    244.6596   1.1386552084e+02  -6.0132803974e+00    0.2589481    0.1117808  34.23  0.001380954    1.886    0.470
       257 -10.6548    173.2432    240.0173   1.2190392779e+02   2.3816479418e+00    0.2428406    0.2013084 -67.79 0.0009034213    1.685    0.406
