#   1 NUMBER                 Running object number                                     
#   2 MAG_AUTO               Kron-like elliptical aperture magnitude                    [mag]
#   3 X_IMAGE                Object position along x                                    [pixel]
#   4 Y_IMAGE                Object position along y                                    [pixel]
#   5 X_WORLD                Barycenter position along world x axis                     [deg]
#   6 Y_WORLD                Barycenter position along world y axis                     [deg]
#   7 A_WORLD                Profile RMS along major axis (world units)                 [deg]
#   8 B_WORLD                Profile RMS along minor axis (world units)                 [deg]
#   9 THETA_WORLD            Position angle (CCW/world-x)                               [deg]
#  10 FWHM_WORLD             FWHM assuming a gaussian core                              [deg]
#  11 ELONGATION             A_IMAGE/B_IMAGE                                           
#  12 ELLIPTICITY            1 - B_IMAGE/A_IMAGE                                       
         1  -7.4605    133.6753      9.7134   3.9592862426e+01   4.9774412743e+01    0.1321856   0.08325966  43.16 0.0002851333    1.605    0.377
         2  -8.3521    165.0763      7.6396   3.4687205758e+01   4.2550004017e+01    0.1846721    0.1799503 -15.20  0.000274853    1.280    0.219
         3  -7.1741    214.3319    248.6772   8.0589181306e+01  -7.6811350168e+00    0.1052885   0.09457992  42.81 0.0004220573    1.702    0.412
         4  -8.0298    246.5297    250.4978   7.5033370069e+01  -1.1776718773e+01    0.1143636   0.08585035  -3.23 8.000348e-05    1.065    0.061
         5  -9.3965    190.5291    236.5263   8.3282760057e+01  -2.6102337694e+00    0.3102823    0.2751878  73.59  0.001138038    1.838    0.456
         6  -7.2602    225.5101    237.4935   7.6657403013e+01  -7.5010994839e+00    0.1232522    0.0964549  -1.67 -1.901661e-06    1.017    0.017
         7  -7.8131    247.3290    235.3283   7.2377499298e+01  -9.8533579926e+00    0.1254941   0.07261878  -6.00 0.0007051108    1.708    0.415
         8  -7.5225    120.6478    234.2104   9.7914034578e+01   8.3637864191e+00    0.1736838    0.1206342 -43.34 0.0006171004    1.651    0.394
         9 -10.2879    210.9662    230.8092   7.8278720899e+01  -4.5747439341e+00    0.2349675    0.1893874 -13.44 0.0004215625    1.109    0.099
        10  -9.1531    178.6861    230.6523   8.4756823314e+01   1.0748654185e-01    0.3672656    0.2096028  38.92 0.0009722968    1.703    0.413
        11  -9.1795    180.0400    226.0797   8.3714565224e+01   6.9438181544e-01    0.2413938    0.2054965  -5.60 0.0003154811    1.084    0.078
        12  -8.9040    180.9621    221.3964   8.2726322784e+01   1.3771453373e+00    0.2300318    0.1847623 -30.85 0.0002293298    1.259    0.206
        13  -7.3106    100.6284    223.5113   1.0102978030e+02   1.3579721968e+01    0.1302808    0.1227286  50.50 0.0001606688    1.051    0.048
        14  -7.1981    190.8036    222.5474   8.0878393373e+01  -3.2291200515e-01    0.1691059     0.117203  40.22 0.0004673339    1.552    0.356
        15  -7.5630    208.2341    218.9681   7.6749433750e+01  -2.2919022265e+00    0.1791513    0.1442069 -15.51   0.00109812    1.101    0.092
        16  -9.9118    147.6892    215.2103   8.8969702133e+01   7.8581274800e+00     0.242319    0.2345376 -18.45 0.0003701651    1.113    0.101
        17  -8.4210     99.8837    210.1074   9.9399651577e+01   1.6617502383e+01    0.2012139    0.1890704  46.29 0.0003962146    1.036    0.035
        18  -7.0813     58.9961    209.0536   1.0902204712e+02   2.2633862144e+01    0.1589678    0.1384404  81.46 0.0004465936    1.050    0.048
        19  -6.8714     37.3214    209.2954   1.1405611682e+02   2.5162290764e+01    0.1188207   0.09590291 -40.62 0.0007018429    1.616    0.381
        20  -8.7460    170.5795    201.1049   8.1356294862e+01   6.8546927865e+00    0.2397679    0.2045274  26.43 0.0003424571    1.124    0.110
        21  -8.0757    156.2107    198.3910   8.4098323566e+01   9.8523416398e+00    0.3334877     0.195013 -51.56  0.001497465    1.857    0.462
        22  -7.2450     40.0478    198.4647   1.1242492495e+02   2.7396814353e+01    0.1648266    0.1133125 -14.67 0.0006395968    2.415    0.586
        23  -9.4384     31.8113    197.2266   1.1425957857e+02   2.8584497034e+01    0.2291697    0.1883059 -71.74  0.001428157    1.200    0.167
        24  -7.1137    224.2437    195.3560   6.9322346548e+01  -6.7618094678e-01    0.1637751    0.1199817  38.15 0.0003585034    1.564    0.360
        25  -6.8284     45.6817    192.7209   1.1047548882e+02   2.8135700926e+01    0.1262159    0.1006616 -37.14  0.000245386    1.577    0.366
        26  -7.4540    248.3265    191.7067   6.4382159705e+01  -3.4901758191e+00    0.1098925   0.09819956 -55.21 0.0007003196    1.622    0.384
        27  -7.8283     98.0147    187.2465   9.6431349621e+01   2.2227945508e+01    0.1978552    0.1843108  48.11            0    1.046    0.044
        28  -7.4597     79.0132    187.4724   1.0137567305e+02   2.5066796762e+01    0.1990694    0.1377187  35.31 0.0003470368    1.444    0.307
        29  -7.8755    103.8011    183.6141   9.4336032097e+01   2.2166663447e+01    0.2421126     0.196913 -44.22  0.000633203    1.292    0.226
        30  -9.0031     34.2623    181.4736   1.1213531171e+02   3.2153214192e+01    0.2343432    0.1977269 -79.66 0.0004415431    1.075    0.070
        31  -6.9240    122.3037    180.3618   8.8994355707e+01   1.9792991583e+01    0.1574097    0.1167065 -18.29 0.0007037786    1.729    0.422
        32  -6.8407    191.6944    179.2604   7.2547717795e+01   7.5284109860e+00    0.1288602    0.1160446  81.13 0.0001806715    1.521    0.342
        33  -7.1361    194.0256    183.2269   7.2864491824e+01   6.3549855200e+00    0.1771681    0.1147043  34.56 0.0002798285    1.576    0.365
        34  -7.4669    130.2667    169.6092   8.4882628551e+01   2.0891714480e+01    0.2025224    0.1461627  24.61 0.0002364939    1.508    0.337
        35  -6.7561    163.2670    167.6386   7.6394378078e+01   1.5127799201e+01    0.1483149    0.1219097 -82.28 0.0006991151    1.644    0.392
        36  -9.7154    177.6105    148.2155   6.8886044104e+01   1.6499313885e+01    0.2826512    0.2513303 -26.31 0.0002491254    1.081    0.075
        37  -7.5702    182.9442    145.1408   6.7040028314e+01   1.6080319241e+01    0.2136649    0.1987011 -69.00            0    1.206    0.171
        38  -9.0073    121.0649    144.9955   8.2082957877e+01   2.8521013438e+01    0.2342863    0.2234215  26.58 -0.001320134    1.067    0.063
        39  -7.4971    182.2744    138.3823   6.5627294855e+01   1.7613120412e+01    0.1963816     0.146084  54.07 0.0003380307    1.514    0.340
        40  -7.2589    175.1557    137.3671   6.6917630279e+01   1.9281256647e+01    0.2097497    0.1451121  55.44 0.0004090432    1.664    0.399
        41  -7.8447     84.1304    135.4673   9.0704849562e+01   3.7461080377e+01    0.2221055    0.1957835 -55.86 0.0003068822    1.083    0.077
        42  -7.2671     85.4387    126.5048   8.8303095933e+01   3.9507612702e+01     0.155906    0.1425338 -34.13 8.423418e-05    1.082    0.076
        43  -8.3258    234.8476    119.1425   5.1852717442e+01   1.1053257581e+01    0.2034069    0.1617704 -52.56  0.000313222    1.187    0.157
        44  -7.7966    126.9345    119.1954   7.4219466990e+01   3.3447277460e+01    0.2246397    0.2089922  80.75 0.0004089984    1.186    0.157
        45  -8.2542     69.9612    113.0934   9.0187512721e+01   4.5258690042e+01    0.2164615    0.1986386 -39.19 0.0003137377    1.019    0.019
        46  -9.0805    184.1293    101.5292   5.6333797192e+01   2.4561741397e+01    0.3902932    0.2650233 -32.88 0.0008703102    1.519    0.341
        47  -8.1498    104.7637    102.5301   7.6138699381e+01   4.1731689159e+01    0.3341723    0.2400202   5.73  0.001437005    1.889    0.471
        48 -10.3638     88.2679     95.2261   7.9313732235e+01   4.6475089536e+01    0.2719939    0.2563734  -1.87 0.0002683042    1.038    0.037
        49  -7.8623     99.9594     95.2626   7.5556862740e+01   4.4279118155e+01    0.2071497    0.1896578  30.09 0.0003355816    1.100    0.091
        50  -7.4411    160.0610     89.3108   5.8017100184e+01   3.2327365794e+01    0.2035359    0.1874447  58.51 0.0006052601    1.095    0.086
        51  -7.2445    136.8520     74.1865   5.8971485405e+01   4.0484165789e+01    0.1933967    0.1686397  16.52 0.0002990014    1.282    0.220
        52  -7.3645    134.7738     62.4708   5.5911555934e+01   4.2954302103e+01    0.2076028    0.1289495  42.29 0.0005809714    1.640    0.390
        53  -7.7909    120.8663     50.9939   5.5600421572e+01   4.7961222655e+01    0.2110813    0.1815356  16.29 0.0004616516    1.251    0.201
        54  -7.3388    159.5753     47.8197   4.6534414281e+01   3.9243512769e+01    0.1820921    0.1242343 -49.68 0.0003233989    1.521    0.343
        55  -8.1147    152.0349     46.1406   4.7406370721e+01   4.1283026912e+01    0.2040824     0.186879  78.49 0.0004280476    1.028    0.027
        56  -8.9508    120.6883     38.9811   5.1654741181e+01   4.9668605678e+01    0.2444416    0.1839224  56.39 0.0002234554    1.224    0.183
        57  -8.4422    225.8473     36.3780   3.5070598592e+01   2.5704901672e+01    0.1912004    0.1826736 -59.39  0.000466149    1.291    0.226
        58  -7.9191    238.0336     31.9121   3.3057251142e+01   2.3787094080e+01    0.1759712    0.1412976 -67.33 0.0002934727    1.026    0.025
        59  -7.5574    115.2020     24.0346   4.7810363346e+01   5.2705598605e+01    0.1721945    0.1611198  37.51 0.0003118542    1.080    0.074
        60  -6.9260     76.3448     23.3217   5.8039357586e+01   6.1164161265e+01    0.1398616   0.08617432  22.48 0.0007049969    1.732    0.423
        61  -7.5515    187.7705     20.9613   3.5477998776e+01   3.5924352397e+01    0.1661828    0.1448882 -62.36 0.0003135581    1.135    0.119
        62  -6.6329    209.7402     17.3595   3.2458171588e+01   3.1415331827e+01    0.1288621   0.07352734 -62.11 0.0003638096    1.626    0.385
        63  -7.5519    230.5225    249.4377   7.7707475092e+01  -9.7898568531e+00     0.119739   0.08919747   0.24 9.033041e-05    1.018    0.018
