#   1 NUMBER                 Running object number                                     
#   2 MAG_AUTO               Kron-like elliptical aperture magnitude                    [mag]
#   3 X_IMAGE                Object position along x                                    [pixel]
#   4 Y_IMAGE                Object position along y                                    [pixel]
#   5 X_WORLD                Barycenter position along world x axis                     [deg]
#   6 Y_WORLD                Barycenter position along world y axis                     [deg]
#   7 A_WORLD                Profile RMS along major axis (world units)                 [deg]
#   8 B_WORLD                Profile RMS along minor axis (world units)                 [deg]
#   9 THETA_WORLD            Position angle (CCW/world-x)                               [deg]
#  10 FWHM_WORLD             FWHM assuming a gaussian core                              [deg]
#  11 ELONGATION             A_IMAGE/B_IMAGE                                           
#  12 ELLIPTICITY            1 - B_IMAGE/A_IMAGE                                       
         1 -14.4569    152.8008     55.4138   2.9031606396e+02   6.2588504426e+00   0.05974554   0.05261283  -5.00  0.001010717    1.202    0.168
         2 -14.7961    164.2346     40.5861   2.9009374896e+02   6.3644782752e+00   0.06291597    0.0441843 -50.53  0.003841819    1.397    0.284
         3 -14.6412    180.1403      7.3086   2.8970830184e+02   6.6578436867e+00   0.07756495    0.0487196  17.17   0.00619839    1.742    0.426
         4 -11.5451    125.0032    246.8397   2.9178525525e+02   4.1961427139e+00   0.01626612  0.007685586 -62.70  0.001420377    2.100    0.524
         5 -19.9027     73.4949    169.0125   2.9192049649e+02   5.3984333510e+00    0.9249683    0.3946878 -65.82   0.07582486    2.474    0.596
         6 -12.0224    168.7297    202.3014   2.9101080694e+02   4.4606621980e+00   0.01512614   0.01077952  74.74 0.0008365594    1.771    0.435
         7 -10.0371    137.2348    198.0924   2.9135203109e+02   4.6919363711e+00    0.0267749   0.01270202  63.20  0.001740839    4.502    0.778
         8 -11.3362    154.6310    196.2740   2.9113876418e+02   4.6123561473e+00   0.01694804   0.01133588  86.34  0.001648419    1.973    0.493
         9  -9.7935    151.0000    246.8809   2.9148322236e+02   4.0453212379e+00   0.01038758  0.003740915 -62.79 0.0007751065    2.756    0.637
        10  -9.9042     14.8003    232.8054   2.9298400842e+02   4.9950164279e+00    0.0181318  0.007111368  19.00   0.00111796    3.202    0.688
        11 -11.6424    155.3276    190.2506   2.9109465015e+02   4.6783122674e+00    0.0119391  0.009822559  29.34  0.001375229    1.217    0.178
        12 -11.4435    153.9908    185.4784   2.9108166855e+02   4.7415051197e+00   0.01047464  0.009194258 -60.98  0.001107054    1.131    0.116
        13 -10.0173     25.5732    232.0110   2.9285388544e+02   4.9422446189e+00  0.008522986  0.006416299 -63.07 7.965561e-05    1.322    0.244
        14  -9.5841     28.3424    229.1737   2.9280478208e+02   4.9592933116e+00  0.006280652  0.004780083  -2.91 0.0002551654    1.512    0.339
        15 -10.5377    108.6295    182.7491   2.9159332715e+02   5.0357408919e+00  0.009022193  0.008148054 -75.46  0.001079568    1.139    0.122
        16 -11.7040     24.7602    226.1434   2.9282846547e+02   5.0151584777e+00   0.02546167  0.007089323 -52.03  0.001785276    3.227    0.690
        17 -11.9072      4.0042    180.3860   2.9279799667e+02   5.6667169583e+00   0.01862661   0.01184341   9.22  0.001639006    1.870    0.465
        18 -10.4083    117.1570    180.3380   2.9147964119e+02   5.0144466456e+00   0.01071547  0.006680943  51.82  0.001034211    1.828    0.453
        19 -12.1532    195.6981    174.3297   2.9052982087e+02   4.6292616340e+00   0.02098586   0.01300975  67.51 0.0007303487    2.253    0.556
        20 -13.4042    195.7862    170.8680   2.9050806595e+02   4.6689555509e+00   0.03526859   0.02239891 -83.46  0.002714409    1.991    0.498
        21 -11.8750    219.2931    224.7480   2.9055733122e+02   3.9068671264e+00   0.01727413   0.00944259 -71.24  0.001067055    2.060    0.515
        22 -10.9539     10.6709    174.7202   2.9268657305e+02   5.6942408052e+00  0.009792755  0.008460148 -58.32   0.00028777    1.142    0.124
        23 -12.8884    177.3889    171.5320   2.9072601338e+02   4.7679414303e+00   0.02577566    0.0158748 -88.79  0.002355328    2.251    0.556
        24 -13.2612    138.3513    170.8416   2.9117614578e+02   5.0021510536e+00    0.0323359   0.02921444  75.47  0.003917226    1.188    0.158
        25 -13.0239    143.8018    168.4852   2.9109860792e+02   4.9979688939e+00   0.03134244   0.01802166  72.62  0.002585176    2.853    0.650
        26 -12.6566    122.5571    222.4436   2.9166820139e+02   4.4938302219e+00   0.02064141   0.01448764  10.16  0.001108324    1.601    0.375
        27 -11.2804    125.7290    172.1555   2.9133094122e+02   5.0599475241e+00    0.0141289   0.01125824 -48.39  0.001551931    1.240    0.194
        28 -11.9479    230.2623    166.9657   2.9008391332e+02   4.5141562964e+00   0.01975398  0.009800241 -79.42  0.001535869    2.993    0.666
        29 -11.1745    200.9678    164.9664   2.9041246440e+02   4.7074304259e+00   0.01442474  0.008912074  81.88 0.0009852202    2.402    0.584
        30 -11.3666    122.7388    165.8923   2.9132831110e+02   5.1500373693e+00   0.01904087  0.008671455  41.56 0.0007324705    2.256    0.557
        31 -11.4421    203.0130    172.4458   2.9043348523e+02   4.6087024762e+00   0.01268975  0.009548762  89.94 0.0009313821    1.568    0.362
        32 -10.2033     24.7182    165.4164   2.9246742618e+02   5.7215431565e+00  0.008721607  0.006449206   9.04 0.0004418839    1.497    0.332
        33 -11.0639    110.1754    222.9459   2.9181525580e+02   4.5595678575e+00  0.009374102  0.008890764 -72.09  0.000371755    1.068    0.063
        34 -10.7451    222.7944    162.3339   2.9014294245e+02   4.6112988846e+00    0.0156554  0.009093437 -84.06   0.00108911    2.382    0.580
        35 -10.3468     13.5357    163.3667   2.9258555179e+02   5.8097631408e+00  0.009554786  0.007398983  62.17 0.0004704125    1.465    0.317
        36 -12.8144    129.7974    160.9451   2.9121653950e+02   5.1666723083e+00   0.02176408   0.01884402 -23.01  0.001985202    1.219    0.180
        37 -12.6494    163.9751    156.5349   2.9079230120e+02   5.0199208043e+00   0.01631141   0.01433698 -52.24 0.0008235775    1.120    0.107
        38 -11.5902     19.6772    222.8615   2.9286812910e+02   5.0825858509e+00    0.0113942  0.008539854 -32.92 0.0008604052    1.441    0.306
        39 -10.5610    139.2451    250.0986   2.9163908134e+02   4.0759245616e+00   0.01369143  0.007280913  49.91  0.001207508    2.200    0.546
        40 -11.7058    173.9304    148.7435   2.9062979088e+02   5.0527022881e+00   0.01660996   0.01340371  48.16  0.001288997    1.293    0.227
        41 -11.2711    118.6537    225.2284   2.9173022791e+02   4.4840293495e+00  0.009264702  0.007198102  47.17 0.0002784086    1.343    0.255
        42 -10.5628      1.2559    214.3898   2.9303226450e+02   5.2870942912e+00  0.007122643  0.004673595 -35.94 0.0006963923    1.684    0.406
        43 -11.7688    116.1494    211.9471   2.9168012117e+02   4.6528804369e+00   0.01522517    0.0101483  62.79  0.001099864    1.870    0.465
        44 -11.0426     22.4240    138.2645   2.9233225177e+02   6.0504141540e+00   0.01351217   0.01063056 -13.99  0.000736401    1.441    0.306
        45 -11.6141      5.4248    137.1568   2.9252388512e+02   6.1611575405e+00   0.01921578   0.01374677  -1.83  0.001908869    1.671    0.401
        46 -11.7473    110.6096    212.1242   2.9174564501e+02   4.6828490410e+00   0.01173769  0.009145617  63.22 0.0008527194    1.459    0.314
        47 -12.4446    160.6054    127.8901   2.9065994642e+02   5.3721840561e+00   0.01916632   0.01564104  86.40  0.001983357    1.388    0.279
        48 -12.3796    109.8587    208.1149   2.9173045912e+02   4.7337917833e+00   0.01682045   0.01395628   3.83   0.00193904    1.297    0.229
        49 -13.2348     11.7463    206.1081   2.9286085282e+02   5.3230561589e+00   0.02926998   0.01992048  15.31  0.002729435    1.598    0.374
        50 -10.8088      9.4408    201.5305   2.9286047787e+02   5.3895556265e+00  0.007793949  0.006451308   4.56 0.0002166553    1.298    0.230
        51 -11.3087     14.0000    240.5834   2.9303953349e+02   4.9091711426e+00    0.0135619   0.00373674 -62.98 0.0008923629    3.600    0.722
        52 -10.7259    167.6355    112.6157   2.9048653661e+02   5.5087865417e+00   0.01406502  0.008948009  64.14  0.001326314    2.064    0.516
        53 -10.3847    131.7679    236.3208   2.9164385240e+02   4.2792818366e+00   0.00718773  0.005780101  37.56 0.0002745398    1.250    0.200
        54 -10.8663    205.3957    110.1746   2.9003243406e+02   5.3178827650e+00   0.01431054  0.009903572  11.19  0.001010145    1.623    0.384
        55 -11.5643      7.8528    102.0158   2.9228585480e+02   6.5556071780e+00    0.0168865   0.01319297  35.51   0.00152799    1.281    0.219
        56 -11.2528    157.9127    202.8051   2.9113962821e+02   4.5174622646e+00   0.03067843   0.01442953  59.68  0.002138958    3.855    0.741
        57 -12.2038    163.6986    203.2717   2.9107511945e+02   4.4785321823e+00   0.01707476    0.0140261 -80.88 0.0007754336    1.314    0.239
        58 -10.5374    144.6925     80.0767   2.9055859161e+02   6.0196604734e+00   0.00946138   0.00846178 -54.03 0.0004661008    1.102    0.093
        59 -10.3118    160.1894    248.8034   2.9138786850e+02   3.9698130541e+00   0.01155671  0.007922947 -65.37 0.0006313858    1.476    0.323
        60 -11.3368    133.7437    247.9239   2.9169007980e+02   4.1330092311e+00  0.009497783  0.007697001 -53.29 0.0004871379    1.211    0.174
        61 -12.9049    168.3525     32.6558   2.8999809945e+02   6.4325280211e+00   0.02043667   0.01671869 -48.96  0.001165608    1.207    0.171
        62 -11.0170     13.5170     59.9405   2.9196823496e+02   7.0117444067e+00   0.01187752  0.008822124  45.73 0.0004341408    1.402    0.287
        63 -10.4338    142.5994     33.1251   2.9030108064e+02   6.5766218015e+00   0.01139204  0.008514628  39.19 0.0006573494    1.347    0.258
        64 -12.7799    161.2571    198.0058   2.9107203776e+02   4.5538578993e+00   0.02059337   0.01658037 -84.41  0.001750738    1.374    0.272
