#   1 NUMBER                 Running object number                                     
#   2 MAG_AUTO               Kron-like elliptical aperture magnitude                    [mag]
#   3 X_IMAGE                Object position along x                                    [pixel]
#   4 Y_IMAGE                Object position along y                                    [pixel]
#   5 X_WORLD                Barycenter position along world x axis                     [deg]
#   6 Y_WORLD                Barycenter position along world y axis                     [deg]
#   7 A_WORLD                Profile RMS along major axis (world units)                 [deg]
#   8 B_WORLD                Profile RMS along minor axis (world units)                 [deg]
#   9 THETA_WORLD            Position angle (CCW/world-x)                               [deg]
#  10 FWHM_WORLD             FWHM assuming a gaussian core                              [deg]
#  11 ELONGATION             A_IMAGE/B_IMAGE                                           
#  12 ELLIPTICITY            1 - B_IMAGE/A_IMAGE                                       
         1  -8.7527     63.4996    169.5146   1.1237846535e+02   3.2032931693e+01    0.1332396    0.1152502  87.77  2.73955e-05    1.022    0.021
         2  -9.8755    241.5178    228.4273   8.4568938269e+01  -8.2251188643e+00    0.4508736      0.22341  -7.50  0.002047188    3.049    0.672
         3 -10.5081    230.6877    234.2999   8.7432791615e+01  -7.3813386241e+00    0.3764712    0.2562611   1.87  0.002392398    1.393    0.282
         4  -9.9177    223.9871    248.0671   9.0796575137e+01  -8.0664667963e+00    0.4265387    0.2336895  -1.98  0.002230866    2.505    0.601
         5  -9.6542    237.1062    234.0005   8.6266261558e+01  -8.2695363305e+00    0.2964488    0.1900491  27.37  0.001765196    1.299    0.230
         6  -9.3681    248.8623    223.6097   8.2485821823e+01  -8.6815955257e+00    0.3160584    0.1793352  11.34  0.001757043    1.842    0.457
         7 -10.9368    232.8272    243.9983   8.8627611216e+01  -8.8436259766e+00    0.9587763    0.4815713   0.85  0.004373081    3.281    0.695
         8 -11.4417    244.3217    235.5591   8.5287958957e+01  -9.4675022741e+00     1.718738    0.8067118  -3.37  0.006900168    4.179    0.761
         9  -9.6825    245.9225    229.2800   8.3960519777e+01  -8.9509791077e+00    0.3560648    0.1968493  -8.99  0.001402597    2.021    0.505
        10 -10.1778    248.2071    249.8643   8.6949200439e+01  -1.1581896014e+01    0.5970158    0.2073943  32.57  0.002990605    2.432    0.589
        11 -10.5214    243.2552    245.4095   8.7072345639e+01  -1.0439733080e+01    0.7100599    0.3488363   6.49  0.003404371    2.950    0.661
        12 -10.3943    248.8573    243.6703   8.5851793852e+01  -1.0998754065e+01    0.4394988    0.3696884 -19.39  0.003331372    1.479    0.324
        13  -9.8356    218.6152    245.1487   9.1288776227e+01  -6.9446826853e+00    0.3014999    0.1928002  -1.13  0.001407145    1.715    0.417
        14  -9.4865    202.6208    250.0884   9.4877149232e+01  -5.1906373756e+00    0.2481597    0.1369296  31.29   0.00144536    1.475    0.322
        15  -9.4166     89.3873    249.4899   1.1561057402e+02   1.2142134906e+01     0.282456    0.1525201  46.37  0.001423427    1.454    0.312
        16  -9.9082     74.0658    249.9715   1.1838952672e+02   1.4168615459e+01    0.4045528    0.1588548  37.67   0.00204384    2.353    0.575
        17 -10.2511     62.8678    248.7689   1.2026564211e+02   1.5849296006e+01    0.3430605    0.2405613  29.85  0.002268051    1.858    0.462
        18  -9.4643     49.0584    249.6882   1.2270948016e+02   1.7416875720e+01     0.333144     0.186875  34.25  0.001857749    2.018    0.505
        19  -8.6326    110.8808    248.8483   1.1162505116e+02   9.1259967173e+00    0.2238119    0.1255724  46.61  0.001055619    1.406    0.289
        20  -8.1706     16.5828    249.2254   1.2803758360e+02   2.1163724936e+01    0.1320816   0.07976856 -74.99 0.0009512423    1.699    0.411
        21  -7.6836    129.3363    248.6801   1.0818700102e+02   6.3512331866e+00    0.1237426   0.07849975  62.22 0.0007049667    1.705    0.414
        22  -8.5004     31.9291    247.9893   1.2548257092e+02   1.9719727561e+01    0.1382424    0.1265573 -59.38  0.001124263    1.743    0.426
        23 -10.0120    211.1726    245.8384   9.2715080482e+01  -5.9343253131e+00    0.2860979    0.1758582   1.57   0.00163086    1.969    0.492
        24  -8.5290     99.8030    247.3555   1.1351477763e+02   1.1009305079e+01    0.1671245    0.0954916  35.43 0.0009470583    1.717    0.418
        25  -7.8233    166.3467    250.3082   1.0151473657e+02   3.3986353812e-01    0.1204799   0.08266415  15.55 0.0007043942    1.702    0.413
        26  -8.4995    198.2481    244.8710   9.4897088619e+01  -3.8643104983e+00    0.2420806    0.1302406  19.59   0.00123176    2.165    0.538
        27 -10.2584     82.7116    244.1044   1.1634407482e+02   1.4007085152e+01    0.3648528    0.1722599  41.94   0.00164003    1.759    0.432
        28  -8.9063     95.4988    244.1816   1.1400149425e+02   1.2176542212e+01    0.2298283    0.1419861  45.06  0.001410455    1.323    0.244
        29 -10.2292    225.4937    240.8204   8.9399032634e+01  -7.4212968057e+00    0.3271746    0.2070965  11.72  0.001342263    1.518    0.341
        30  -8.1530    193.3778    241.7996   9.5330756433e+01  -2.7059203163e+00    0.1516447    0.1076371 -19.46  0.000592187    1.623    0.384
        31  -8.9611     42.6339    244.2168   1.2345759361e+02   1.9157172081e+01     0.234797    0.1836047  24.65  0.001664989    1.947    0.486
        32 -10.0524     70.7777    239.2965   1.1811178623e+02   1.6496140893e+01    0.3940343    0.2914656  39.52  0.001884987    1.424    0.298
        33  -8.9157    210.2493    241.5519   9.2223490892e+01  -5.2582184458e+00    0.1686715   0.09274651  27.94 0.0005493562    1.577    0.366
        34  -8.2161    104.7649    241.5801   1.1201350336e+02   1.1261908972e+01    0.1715682   0.08943699  49.46 0.0009355557    1.566    0.361
        35  -9.2849     50.9521    239.7835   1.2171520525e+02   1.8956358100e+01    0.2707864    0.2097638 -89.49  0.002006009    1.253    0.202
        36  -8.1774     35.8430    240.2150   1.2437554466e+02   2.0671295023e+01     0.133602    0.1175858  87.17 0.0007437734    1.380    0.275
        37  -7.6329    187.6389    245.6813   9.6953872332e+01  -2.3377923848e+00    0.1255217   0.08101892  13.52 0.0007042623    1.767    0.434
        38  -9.8737    220.3616    237.9355   8.9845747940e+01  -6.3140832261e+00      0.25243    0.1261711  24.57  0.001309244    1.950    0.487
        39  -8.5770     42.1402    236.4320   1.2304253161e+02   2.0635191286e+01    0.1910087    0.1667078 -68.38  0.001468929    1.548    0.354
        40  -9.3872     92.9905    235.4039   1.1361046608e+02   1.4090298606e+01    0.3090131    0.1982381  39.55  0.001415699    1.445    0.308
        41  -9.8907     79.9587    236.1900   1.1614371467e+02   1.5806597644e+01    0.3358844    0.2064216  39.85  0.002031796    1.520    0.342
        42  -9.4173    217.0389    234.8952   8.9951658321e+01  -5.4313699727e+00    0.1959844    0.1232911  10.40  0.001121931    1.671    0.401
        43 -10.4001     58.2500    231.2000   1.1975668407e+02   1.9636324298e+01     0.396675    0.3880106 -39.46  0.003048943    1.569    0.363
        44  -8.7759    225.3304    230.3247   8.7720909988e+01  -6.0931145650e+00    0.2331096    0.1188771  -0.59 0.0009441812    3.673    0.728
        45  -9.2390    216.1731    229.7579   8.9271163925e+01  -4.6295659723e+00    0.3988001    0.2087159  10.69  0.001762326    2.960    0.662
        46  -9.7122     86.5149    230.3794   1.1434849314e+02   1.5949274109e+01    0.2360476    0.2006109 -75.29  0.001638118    1.315    0.239
        47  -8.1665    208.5013    229.4878   9.0626989004e+01  -3.4013666350e+00    0.2243537   0.09718462  29.97  0.001023131    2.258    0.557
        48  -8.9681     80.4954    228.1777   1.1529194301e+02   1.7219162138e+01    0.2588444    0.1771625  85.14  0.001317956    1.461    0.316
        49  -7.8349      4.3240    229.3311   1.2913491165e+02   2.5990504587e+01   0.09114228   0.07335445 -65.24 0.0007050346    1.703    0.413
        50 -10.3455    236.4991    226.5744   8.5122057209e+01  -7.2717176415e+00    0.4877933    0.2469735  14.36  0.002330014    2.522    0.603
        51  -8.8466    229.6586    226.3148   8.6279242416e+01  -6.2276253682e+00    0.2417735    0.1363744 -23.61   0.00133912    1.849    0.459
        52  -9.2691     93.7932    226.8208   1.1256977942e+02   1.5550856519e+01    0.3604546    0.1266322  47.57   0.00158319    2.387    0.581
        53 -10.5868     70.4839    223.4930   1.1678333407e+02   1.9502236541e+01    0.4063853    0.3719705  56.25    0.0023164    1.288    0.224
        54  -8.6431    224.0452    224.7937   8.7021248764e+01  -5.1812189339e+00    0.2112797    0.1179516  16.65  0.001082526    1.979    0.495
        55  -9.5144     50.7332    222.0876   1.2044097810e+02   2.2335779473e+01    0.3086152    0.2237885 -63.37  0.002060486    1.605    0.377
        56  -9.5415     83.7573    222.3460   1.1407666604e+02   1.7869121651e+01    0.2582695     0.161182  44.57 0.0009441755    1.402    0.287
        57  -7.9002     99.6466    221.3304   1.1080280362e+02   1.5707865879e+01    0.1368449   0.08203073  65.96 0.0007046248    1.778    0.438
        58  -8.6071     42.0213    220.4933   1.2195672086e+02   2.3698593851e+01    0.2058706    0.1192834 -42.62  0.001033867    3.412    0.707
        59 -10.0549    247.6336    216.4031   8.1425383645e+01  -7.6136796087e+00    0.4614496     0.230776 -19.31  0.002369386    2.152    0.535
        60  -9.5732    240.6974    218.2164   8.2940292820e+01  -6.8301412108e+00    0.3792282    0.2095544  -5.90  0.001917516    2.246    0.555
        61  -8.8319    232.3779    219.7576   8.4668670079e+01  -5.7862921578e+00    0.1722692    0.1022194 -19.30 0.0009499302    1.739    0.425
        62  -8.5907    216.8190    220.3854   8.7578496313e+01  -3.4627330873e+00    0.1845352   0.09884736  28.16 0.0009441904    1.738    0.425
        63  -8.7934     60.4902    220.0811   1.1841061667e+02   2.1497201643e+01    0.2066165    0.1648717  29.64  0.001361861    1.624    0.384
        64  -8.0248    206.3355    222.3382   8.9846948016e+01  -2.0622335769e+00    0.1330703    0.0864996   8.16 0.0004204789    1.751    0.429
        65  -8.6522    236.2282    216.5861   8.3431861994e+01  -5.9516954539e+00    0.1747817   0.09780652  26.05 0.0009455089    1.647    0.393
        66  -8.0213     30.4636    216.5064   1.2383028315e+02   2.5802084015e+01     0.114833   0.08663604  74.64 0.0006014762    1.020    0.020
        67  -9.1996     84.4663    214.5384   1.1311126104e+02   1.9299481692e+01    0.2550386    0.1104294  39.03 0.0008592049    2.123    0.529
        68  -8.5353    221.7017    213.1845   8.5428480973e+01  -3.2349608097e+00    0.2422626    0.1390929  16.36  0.000937444    1.982    0.496
        69  -9.5795     53.6004    212.1156   1.1906369559e+02   2.3975048376e+01    0.2980975    0.2416799 -26.16  0.001870458    2.143    0.533
        70  -9.9310     64.7200    210.9649   1.1674243244e+02   2.2774985053e+01    0.3013024    0.2525098  62.63   0.00184454    1.113    0.101
        71  -8.5598    233.2742    211.5625   8.3055140167e+01  -4.8298795237e+00    0.1719661    0.1020656  25.93 0.0006559159    1.551    0.355
        72  -8.7414     98.2156    210.2350   1.0978409542e+02   1.8095283089e+01    0.2209284   0.07898567  47.76 0.0006959013    2.501    0.600
        73  -9.8737     78.1935    207.1764   1.1359753112e+02   2.1697521407e+01    0.2854998    0.2637019  37.50  0.001641666    1.340    0.254
        74  -8.3824    250.5067    210.0909   7.9798652407e+01  -7.2267768196e+00     0.173865    0.1058566 -26.56 0.0005277888    1.539    0.350
        75  -7.7799     33.3134    207.3516   1.2264741871e+02   2.7344330127e+01    0.1064134   0.08387302 -53.13 0.0007045913    1.728    0.421
        76  -8.4469    247.7211    204.9979   7.9336061842e+01  -6.1491944372e+00    0.1774563    0.1399866  -5.82 0.0009395753    1.070    0.066
        77  -8.1541     43.0507    212.4486   1.2115119826e+02   2.5188918462e+01    0.1396392    0.1058163   0.07 0.0008084212    2.606    0.616
        78  -8.3293     88.9705    204.0171   1.1097355918e+02   2.0772412962e+01    0.1891106    0.1637072 -20.50  0.001143414    1.703    0.413
        79  -8.0678    235.6698    201.6345   8.0805421959e+01  -3.8328369491e+00    0.2003222    0.1283374   5.65  0.001075689    1.682    0.405
        80  -9.2329     58.3483    201.5108   1.1712870682e+02   2.5577417917e+01    0.2341487    0.1807327  28.51  0.001307949    1.653    0.395
        81  -9.6558     71.1166    199.9090   1.1428729111e+02   2.4214133010e+01    0.2655539    0.1742327  38.87  0.001166636    1.545    0.353
        82  -9.0233     81.6426    198.8523   1.1192007715e+02   2.2942142314e+01    0.2259972    0.1710046  36.06  0.001326294    1.436    0.304
        83  -8.4492    250.1484    199.5467   7.7903074875e+01  -5.7847934589e+00    0.2525855    0.1404714 -14.66  0.001298179    1.925    0.480
        84  -8.1150     61.4798    195.4915   1.1586269304e+02   2.6459316937e+01    0.1268615     0.105298  76.86 6.220375e-05    1.017    0.016
        85  -8.2408    247.4832    190.4723   7.6618696854e+01  -4.1234188954e+00    0.1297409    0.1042125  -0.83 0.0001678923    1.036    0.035
        86  -9.2721     66.7486    190.5938   1.1419178398e+02   2.6825053874e+01    0.1818573    0.1040368  49.79 0.0009501211    1.598    0.374
        87  -7.9003    244.4806    198.5043   7.8675357069e+01  -4.7762664086e+00    0.1280009    0.1029748   1.52 0.0001676353    1.018    0.018
        88  -9.2784     80.0192    189.0520   1.1107587379e+02   2.5296541865e+01    0.2228189    0.1398642  69.51  0.001135282    1.680    0.405
        89  -9.2620     74.4019    187.2238   1.1210172161e+02   2.6508343102e+01    0.1828112    0.1147553 -82.49 0.0009457585    1.627    0.385
        90  -8.1589     64.6563    183.7162   1.1386315090e+02   2.8632762509e+01     0.118035    0.1012663 -32.51 0.0003108667    1.640    0.390
        91  -8.0622     68.5264    182.4881   1.1284371288e+02   2.8384771341e+01    0.1310702    0.1132657  81.82 0.0008097964    1.030    0.029
        92  -8.2625     79.7572    171.9827   1.0884372107e+02   2.9181657274e+01    0.1789049    0.1080253 -65.30 0.0008793123    1.587    0.370
        93  -7.9545     87.3029    167.6536   1.0638453922e+02   2.9041008358e+01    0.1476003   0.09947246  75.68 0.0007039949    1.689    0.408
