#   1 NUMBER                 Running object number                                     
#   2 MAG_AUTO               Kron-like elliptical aperture magnitude                    [mag]
#   3 X_IMAGE                Object position along x                                    [pixel]
#   4 Y_IMAGE                Object position along y                                    [pixel]
#   5 X_WORLD                Barycenter position along world x axis                     [deg]
#   6 Y_WORLD                Barycenter position along world y axis                     [deg]
#   7 A_WORLD                Profile RMS along major axis (world units)                 [deg]
#   8 B_WORLD                Profile RMS along minor axis (world units)                 [deg]
#   9 THETA_WORLD            Position angle (CCW/world-x)                               [deg]
#  10 FWHM_WORLD             FWHM assuming a gaussian core                              [deg]
#  11 ELONGATION             A_IMAGE/B_IMAGE                                           
#  12 ELLIPTICITY            1 - B_IMAGE/A_IMAGE                                       
         1 -13.6111     68.2477    144.0787   1.0315014150e+02   3.7548217097e+01      3.06558     1.489584 -89.60  0.002304663    5.276    0.810
         2 -13.9429    215.4473     33.4501   4.0499227434e+01   2.7419500344e+01      1.38589    0.8450019  55.18  0.006845267    1.775    0.437
         3 -13.9618    222.3409     26.7677   3.8215922919e+01   2.6671999670e+01     1.555336     1.051246  22.18  0.001563439    2.693    0.629
         4 -13.6564    238.7827     11.1340   3.3369080827e+01   2.4871351388e+01     0.753728    0.5734963 -63.79  0.002642078    1.071    0.066
         5 -10.6627      2.4230      3.7472   8.9343983324e+01   7.4204249229e+01    0.2670428   0.08139894 -42.92  0.001309143    2.658    0.624
         6  -8.9036     91.5120      1.4263   5.0393424578e+01   6.0476583522e+01    0.1248814    0.1085817  44.15 0.0001426539    1.079    0.073
         7 -10.9735     39.7065    233.7075   1.2004349125e+02   2.0655155128e+01    0.3841377    0.1800544  74.38  0.001189138    2.230    0.551
         8 -14.9363     81.2119    247.0289   1.1317747454e+02   1.2769390875e+01     7.654829     2.509102  28.83   0.02325299    6.314    0.842
         9 -12.9139     25.1758    208.8696   1.2113004064e+02   2.7392175751e+01    0.4203359    0.3402971 -52.86 0.0009201439    1.629    0.386
        10 -15.2679     35.5682    196.7638   1.1799783515e+02   2.8927958866e+01     3.530863     1.701736  76.71   0.01503791    2.293    0.564
        11 -13.8642      9.7451    207.1111   1.2408535936e+02   2.9294461912e+01    0.8658978    0.7089661   7.90  0.003787886    1.924    0.480
        12 -11.8491     22.8104    224.1866   1.2261134691e+02   2.4443669909e+01    0.4232329    0.2155772  75.49  0.002419694    1.766    0.434
        13 -10.8441     40.5664    246.7698   1.2076353801e+02   1.8044096282e+01    0.4035264    0.3196033 -11.50  0.002586466    2.534    0.605
        14 -10.4926     26.7915    250.4244   1.2341929802e+02   1.8934581812e+01    0.2836429    0.1739599  36.89  0.001292234    1.691    0.409
        15 -11.8529     44.0154    217.0343   1.1793577852e+02   2.3545902433e+01    0.4415759    0.2320316 -86.52  0.001805821    1.882    0.469
        16 -11.7019     31.7745    248.4336   1.2243571897e+02   1.8747126431e+01     0.422373    0.3743121 -65.76  0.002657863    1.574    0.365
        17 -10.9220     28.6084    245.7409   1.2283884024e+02   1.9603633592e+01    0.2714527    0.2553874 -73.71 0.0009573905    1.534    0.348
        18 -15.4605      4.8034    175.4316   1.2305208843e+02   3.6722743404e+01     7.185607    0.9666348 -74.93   0.02191846    5.404    0.815
        19 -13.9031     86.0378    227.2616   1.1025090647e+02   1.5857246670e+01     2.756482    0.9371946  53.24  0.004679579    3.282    0.695
        20 -12.7096     14.9781    214.3083   1.2350089316e+02   2.7277160437e+01    0.5134791    0.4090831  80.21  0.002119137    1.096    0.088
        21  -9.4698     44.5221    230.2867   1.1887417292e+02   2.0764521586e+01    0.1977364    0.1027043 -83.44 0.0009790342    1.898    0.473
        22 -10.5559    192.6978    193.2491   8.2098061142e+01   4.4674448463e+00    0.6548312    0.3807575 -56.97  0.002813523    2.602    0.616
        23 -11.6714     54.8913    181.0137   1.1197924757e+02   3.0276705370e+01     0.368793    0.2737945 -34.93  0.001690159    1.870    0.465
        24 -11.7295     61.0661    174.9961   1.0973120638e+02   3.0914736943e+01    0.3059404    0.2590172 -45.05 0.0004640028    1.398    0.285
        25  -8.9775    137.4936    170.5215   8.9944790926e+01   1.9381444493e+01     0.148418    0.1443442  31.14 7.833701e-05    1.024    0.023
        26 -12.6622     79.3372    158.2790   1.0254560768e+02   3.2413243747e+01     1.185293    0.7166308  65.24  0.001132682    2.065    0.516
        27 -14.3253      6.6932    238.2018   1.2627847788e+02   2.3316090656e+01     2.049438     1.047092 -86.34   0.01316965    1.675    0.403
        28 -11.2358     71.8880    164.9489   1.0557260834e+02   3.1868036991e+01    0.2756445    0.2433883 -68.92 0.0003687462    1.101    0.092
        29 -13.3641     58.3788    161.3445   1.0856113024e+02   3.4579037991e+01    0.5479786    0.3178967 -45.95  0.001753771    1.965    0.491
        30 -11.6029     33.3182    157.0676   1.1451813419e+02   3.8501463282e+01    0.3587911    0.2354772 -86.86  0.001968384    1.393    0.282
        31 -11.0962     28.1589    156.1922   1.1574308472e+02   3.9222486263e+01    0.2832685    0.1426195 -61.09  0.001025361    1.735    0.424
        32  -9.9385    124.5070    153.3316   8.9678590999e+01   2.5802216073e+01    0.3612908    0.2453505 -88.56  0.001092403    2.294    0.564
        33  -9.9614    133.8815    145.5238   8.5576385665e+01   2.5768464058e+01     0.686785    0.1065542 -51.23  0.001269087    8.551    0.883
        34 -10.2258     94.7216    143.9140   9.5692688021e+01   3.3492636046e+01    0.3261549    0.2743909 -52.50 0.0008215812    1.161    0.139
        35  -9.2863     97.7169    140.7036   9.4197704705e+01   3.3766496121e+01    0.2449992    0.2068347 -26.20  0.000454207    1.368    0.269
        36  -9.6297     48.9722    145.3536   1.0876330126e+02   3.9694270539e+01    0.2071214    0.1144898  -6.29 0.0003932336    4.498    0.778
        37 -12.1704     82.7683    142.4308   9.8745295111e+01   3.5810222837e+01    0.3251291    0.2604873 -56.92 0.0005224739    1.183    0.155
        38 -10.7102     28.8248    142.6806   1.1395837908e+02   4.2467542487e+01    0.1902764     0.164506 -33.15  0.001190837    1.402    0.287
        39 -10.5593    106.7387    131.5947   8.9664407686e+01   3.4359878391e+01    0.3744543    0.3572991 -71.83  0.001218982    1.037    0.035
        40 -12.2250     15.6291    129.8283   1.1603659336e+02   4.6731981530e+01    0.4033312    0.2401751  87.93  0.001988955    1.677    0.404
        41 -10.1781     94.3784    128.3722   9.2462796749e+01   3.7366436732e+01    0.2998372    0.2393329 -25.05 0.0008817234    1.470    0.320
        42  -9.3013    114.9930    125.0621   8.5800611991e+01   3.4338567912e+01    0.2569896    0.1947797 -11.32  0.001130113    1.777    0.437
        43 -11.1068     67.6181    128.9157   1.0050944196e+02   4.1427301280e+01    0.3461361    0.2236726  80.42  0.001496435    2.186    0.543
        44  -9.6259    105.1490    120.1563   8.7386560621e+01   3.7399546166e+01    0.2187771    0.1995227 -19.13 0.0002847271    1.174    0.148
        45  -9.3009    168.0207    113.0102   6.9296364285e+01   2.5474786644e+01    0.2579927     0.195467 -77.39  0.001128983    1.764    0.433
        46  -9.9340    204.9885    110.5982   6.1244357736e+01   1.7568060490e+01    0.3478556      0.25939  37.79  0.001595396    1.500    0.333
        47 -11.1090      1.6761     89.3057   1.1480784468e+02   5.7288545905e+01    0.5204589    0.1393071 -71.16  0.001983388    3.147    0.682
        48 -11.7063      2.2915     81.6909   1.1333225099e+02   5.9010880136e+01    0.5771739    0.1359326 -67.81  0.002162226    3.252    0.693
        49  -9.2582     45.3043     91.3496   9.9628434049e+01   5.3374726882e+01    0.1471283   0.09070247 -33.65 0.0004574202    1.700    0.412
        50  -9.0461     24.8377     82.8012   1.0515798686e+02   5.7313131865e+01    0.1582275    0.1417359 -84.07 0.0003114247    1.270    0.213
        51 -10.1093    161.8559     81.8502   6.2066202993e+01   3.3012726182e+01    0.2166654    0.1844842 -78.50 0.0004218325    1.318    0.241
        52  -8.6637    184.3354     77.3262   5.6354955153e+01   2.8347524561e+01    0.1530729     0.118342  18.77 0.0007051543    1.719    0.418
        53 -10.4046     13.3867     60.2383   1.0433971603e+02   6.3142690521e+01    0.2120543     0.179774 -54.68  0.000487736    1.161    0.139
        54  -8.6645     94.4840     54.5839   7.0774728548e+01   5.3261300007e+01    0.1421414    0.1316375  10.54  0.000185117    1.022    0.022
        55 -12.0208    199.2593     46.8533   4.5824808757e+01   2.9463093005e+01    0.7096603    0.3731134 -51.11  0.003165322    1.918    0.478
        56 -11.2512     53.1188    240.6696   1.1801386449e+02   1.7676759219e+01    0.3446847    0.1946553 -56.18  0.001324862    2.214    0.548
        57 -10.6973     56.9748    238.9654   1.1714758185e+02   1.7518061305e+01     0.252421    0.1582107 -84.41 0.0006436954    1.587    0.370
        58  -9.1678     27.5062     52.0604   9.5776949466e+01   6.3729066393e+01      0.17747    0.1079562 -50.97 0.0003279005    1.459    0.314
        59 -10.1267    130.3701     37.8258   5.5115545107e+01   4.7722115694e+01    0.2741101    0.2090692 -84.28 0.0007206532    1.679    0.404
        60 -10.7697     33.9958    237.6648   1.2137527489e+02   2.0539404830e+01    0.2117077     0.132919  79.27  0.000696555    1.363    0.266
        61 -10.0884    189.4972     15.0620   3.8736434632e+01   3.5742492921e+01    0.1876245     0.127627 -32.36 0.0007574019    1.575    0.365
        62 -10.9527     61.3517    234.8822   1.1596485931e+02   1.7748426445e+01    0.2912319    0.1950721  78.83 0.0008821132    1.405    0.288
