#   1 NUMBER                 Running object number                                     
#   2 MAG_AUTO               Kron-like elliptical aperture magnitude                    [mag]
#   3 X_IMAGE                Object position along x                                    [pixel]
#   4 Y_IMAGE                Object position along y                                    [pixel]
#   5 X_WORLD                Barycenter position along world x axis                     [deg]
#   6 Y_WORLD                Barycenter position along world y axis                     [deg]
#   7 A_WORLD                Profile RMS along major axis (world units)                 [deg]
#   8 B_WORLD                Profile RMS along minor axis (world units)                 [deg]
#   9 THETA_WORLD            Position angle (CCW/world-x)                               [deg]
#  10 FWHM_WORLD             FWHM assuming a gaussian core                              [deg]
#  11 ELONGATION             A_IMAGE/B_IMAGE                                           
#  12 ELLIPTICITY            1 - B_IMAGE/A_IMAGE                                       
         1 -13.0738    245.5910     47.9140   1.0570825952e+01   1.9520186040e+01    0.8586007    0.7520761 -49.36  0.005867735    1.169    0.145
         2 -13.6960    226.6006     58.7205   1.4961191486e+01   2.1974183797e+01     1.482497     1.264641 -71.36   0.00766033    1.064    0.060
         3  -9.4148      6.6882      3.3298   5.4876955839e+01   7.2838132802e+01   0.08989936   0.08329927  -5.14  0.000394201    1.671    0.401
         4 -11.6957     71.9584    189.5413   7.7960715940e+01   2.6378275526e+01    0.7186109    0.3279682 -81.23   0.00259339    3.444    0.710
         5 -11.6963     31.7205    166.2063   8.4930657831e+01   3.6705472612e+01     0.362608     0.303965 -10.24  0.000481596    1.596    0.373
         6 -13.0280     12.5459    241.4183   9.5002165299e+01   2.2276612357e+01     1.209257    0.9712248  65.23  0.008608703    1.137    0.121
         7 -15.4221      7.8935    176.4532   9.1609900664e+01   3.6455034922e+01     6.318347      3.14276  79.38   0.03236619    2.048    0.512
         8  -9.8926     67.1181    177.4988   7.7500257225e+01   2.9857005937e+01    0.2674369    0.1969203 -77.11 0.0004448205    1.322    0.244
         9 -12.7179    238.8687    157.2531   3.4788201342e+01   3.4397399449e+00    0.9887434    0.8136223  57.92  0.005820755    1.584    0.369
        10 -11.8460     70.7140    134.1162   6.9258565892e+01   3.9874519397e+01    0.4407317    0.3693298 -47.26 0.0003496192    1.144    0.126
        11 -11.5144     64.3135    148.1113   7.3681058604e+01   3.7334851968e+01    0.4295177    0.3642285  64.14  0.001060606    1.242    0.195
        12 -12.9002     68.1263    143.7435   7.1834698120e+01   3.7888130160e+01    0.9384391    0.6993425  80.08  0.002339775    1.596    0.373
        13 -12.8219     39.1247    148.2987   8.0703022948e+01   4.0266761516e+01    0.4995441    0.3390166  -8.83  0.001899127    2.170    0.539
        14 -13.8372      5.6089    219.6629   9.5048965105e+01   2.7261528573e+01      1.57882    0.9975926  51.10  0.006309671    1.399    0.285
        15 -11.7336     40.6910    160.9306   8.1998573641e+01   3.7041485882e+01    0.2899409    0.2674894 -35.96 0.0004858639    1.270    0.213
        16  -8.8648    134.0000    147.5681   5.4685280161e+01   2.5721296090e+01    0.3365915   0.08698537 -48.38 0.0009258207    3.863    0.741
        17 -10.8765     18.8601    140.3292   8.5208595853e+01   4.4060345078e+01    0.2875265    0.1960318  67.72   0.00126575    1.607    0.378
        18 -11.0122     83.5951    137.3795   6.6168750401e+01   3.7166729991e+01    0.3693818    0.3308843  26.17 0.0009137985    1.195    0.163
        19  -9.3585     88.1327    134.6679   6.4292249986e+01   3.7097667783e+01    0.2779585     0.202115 -47.23 0.0004912987    1.326    0.246
        20  -9.8133    231.0323    135.4558   3.1471312073e+01   8.5780979559e+00    0.2466363    0.1763947 -50.60 0.0005675673    1.444    0.307
        21 -11.4185     55.7005    151.4692   7.6622979562e+01   3.7613842718e+01    0.8474851    0.3312855 -50.13  0.003346761    2.478    0.597
        22  -9.7928    100.6697    127.7544   5.9138239775e+01   3.6607074288e+01    0.4469197    0.3020639   8.73  0.001558953    2.164    0.538
        23 -10.3306     86.4743    123.2728   6.2250822420e+01   4.0083064079e+01    0.2675779      0.25334 -15.97 0.0005081078    1.084    0.077
        24  -9.8963    105.5099    130.5209   5.8408646491e+01   3.5088516388e+01    0.4166765    0.3273828 -66.31  0.001342415    1.394    0.283
        25  -8.6342    109.3069    123.2958   5.5618139700e+01   3.6058453351e+01      0.15314    0.1196594 -10.48 0.0002660479    1.587    0.370
        26  -8.8081     85.6581    203.3078   7.6568704070e+01   2.1308783768e+01    0.1436619   0.09376486  65.75 0.0007043409    1.690    0.408
        27  -9.1816    114.0009    120.4832   5.3607018652e+01   3.5801296544e+01    0.3550298    0.1845969 -33.05  0.001290383    2.446    0.591
        28  -9.4803    100.5926    116.8984   5.6541507492e+01   3.9135583631e+01    0.2517293     0.211192  40.86 0.0003669499    1.232    0.188
        29  -9.1034    205.7125    110.3120   3.0095303183e+01   1.8117854536e+01    0.2551637    0.1650708 -41.73  0.000535886    1.446    0.308
        30  -9.9597    244.0000    108.9796   2.3741069697e+01   1.0637261498e+01    0.2299489   0.06723605 -37.98 0.0008075309    2.978    0.664
        31 -11.1784      3.2113     90.3997   8.2788488676e+01   5.6779721800e+01    0.4424365    0.2629213 -86.32  0.002404131    1.966    0.491
        32 -10.7751    169.3371     90.0530   3.1917718660e+01   2.9947232449e+01    0.2859028    0.2559832  32.10 0.0008763248    1.188    0.158
        33  -9.7432     52.8500     90.6858   6.5221872456e+01   5.2416725709e+01    0.2542033    0.1646163 -42.65 0.0009280208    1.383    0.277
        34 -11.4678      2.2951     78.0131   8.0880080719e+01   5.9564867933e+01     0.692585   0.03903651 -59.60  0.002274945    4.312    0.768
        35 -10.6258    184.5294     77.6494   2.5743191997e+01   2.8548060722e+01    0.2571788    0.2184242  -4.25  0.001363251    1.435    0.303
        36 -12.9302      9.6811    206.9485   9.3470949854e+01   2.9552295639e+01    0.9206522    0.5237525  30.15  0.003240266    2.003    0.501
        37  -9.8392     39.9757    246.0099   9.0314734921e+01   1.8445117845e+01    0.3046981    0.1406384 -84.20  0.001622937    2.296    0.565
        38 -10.4895     13.0724     60.0187   7.2504334588e+01   6.2718161880e+01    0.2285261    0.2140071 -61.77 0.0004725671    1.315    0.240
