#   1 NUMBER                 Running object number                                     
#   2 MAG_AUTO               Kron-like elliptical aperture magnitude                    [mag]
#   3 X_IMAGE                Object position along x                                    [pixel]
#   4 Y_IMAGE                Object position along y                                    [pixel]
#   5 X_WORLD                Barycenter position along world x axis                     [deg]
#   6 Y_WORLD                Barycenter position along world y axis                     [deg]
#   7 A_WORLD                Profile RMS along major axis (world units)                 [deg]
#   8 B_WORLD                Profile RMS along minor axis (world units)                 [deg]
#   9 THETA_WORLD            Position angle (CCW/world-x)                               [deg]
#  10 FWHM_WORLD             FWHM assuming a gaussian core                              [deg]
#  11 ELONGATION             A_IMAGE/B_IMAGE                                           
#  12 ELLIPTICITY            1 - B_IMAGE/A_IMAGE                                       
         1 -15.0958      5.2862    138.3270   1.4134210281e+02   4.5957259486e+01       5.1842     1.345949 -76.54   0.01793985    4.138    0.758
         2 -14.1927      2.6988     87.9887   1.3484493670e+02   5.7259654771e+01     3.118925          nan -63.64  0.008172587    7.393    0.865
         3 -13.4206    200.9132     28.2805   6.5298927509e+01   3.1824472184e+01     1.309039      1.25624  75.82  0.007095989    1.214    0.177
         4 -13.5183    216.8616     10.1805   5.9413214031e+01   3.0176664166e+01    0.9009931    0.7606736  70.15  0.002529859    1.251    0.201
         5 -13.3270     60.4465    174.6678   1.3266213635e+02   3.1795971141e+01    0.5473183    0.2824237 -47.17  0.002353718    2.304    0.566
         6 -12.8852    246.7649    249.2061   1.0562492024e+02  -1.3986688287e+01    0.7575974    0.5901936 -13.57  0.005306404    1.210    0.174
         7 -13.2411     34.0172    246.5343   1.4512172926e+02   1.9561500949e+01     1.472282    0.6111161  47.68  0.008236306    1.978    0.494
         8 -13.0287      6.7059    228.2166   1.4855718790e+02   2.6196346300e+01     1.193798    0.5360906  66.36   0.00691493    1.895    0.472
         9 -11.1644     22.6185    246.0874   1.4700011938e+02   2.0983754089e+01    0.3372916    0.2074243  63.35  0.001353057    1.246    0.198
        10 -13.0084      6.5098    248.5333   1.4973761710e+02   2.2274595482e+01     1.085478    0.8223295  24.91  0.007877075    2.288    0.563
        11 -11.9068      3.9254    240.7833   1.4973268553e+02   2.4013056054e+01    0.6111137    0.4234231  69.90  0.004223123    1.104    0.094
        12 -12.0909    100.5893    246.8478   1.3309977068e+02   1.0138660002e+01    0.4327293     0.330728 -78.25  0.002693922    1.375    0.273
        13 -10.7335     65.4331    249.1162   1.3983762134e+02   1.4966289400e+01    0.2631393    0.1700929  75.70 0.0009059209    1.355    0.262
        14 -10.7491    183.2690    238.9855   1.1580019134e+02  -2.5252817631e+00    0.1787085      0.16372  18.69 0.0005583396    1.087    0.080
        15 -10.2171     52.5521    237.9940   1.4120361161e+02   1.8894324457e+01    0.1717142    0.1014719 -79.13  0.000625854    1.566    0.362
        16 -12.1823    141.2885    249.6439   1.2559295769e+02   2.9128464504e+00     0.683439      0.18537  39.15  0.002415179    3.394    0.705
        17 -11.1875    121.8037    249.6277   1.2935940010e+02   6.1849968755e+00    0.2682143    0.1639296  46.78  0.001491432    1.357    0.263
        18 -13.1751     43.3909    213.6513   1.4076559961e+02   2.5130131774e+01      1.04227    0.6699576 -69.61  0.004902869    1.457    0.313
        19 -14.1842     32.8443    225.1985   1.4374859800e+02   2.3964366136e+01    0.8529898    0.5839766  69.93  0.002530403    1.162    0.140
        20 -12.0838    125.2118    232.1138   1.2642929830e+02   8.8659654126e+00    0.6706982    0.1403406  44.12  0.002098843    3.969    0.748
        21 -11.4989    111.6421    231.5364   1.2910154379e+02   1.1285970045e+01    0.3304597    0.1554974  49.59  0.001277537    1.873    0.466
        22 -12.1038     89.3052    226.7133   1.3301244921e+02   1.5884736710e+01    0.9037158    0.1517676  48.33  0.002493142    5.655    0.823
        23 -12.0036     58.3484    212.9769   1.3772730986e+02   2.3338364097e+01     0.927323    0.2726488  56.82   0.00296024    4.825    0.793
        24  -8.5100    221.4053    213.7161   1.0399492937e+02  -4.9845614722e+00    0.1260834    0.1047554  70.20 0.0006986142    1.791    0.442
        25  -8.6088    152.4308    213.1590   1.1788573335e+02   7.6724070475e+00    0.1711935    0.1353246 -71.87  0.000416745    1.484    0.326
        26 -12.4718      9.7118    207.0749   1.4663740029e+02   3.0257812971e+01    0.6181114    0.4273257  30.56  0.002768476    1.950    0.487
        27 -13.0121     28.0184    231.3680   1.4508211824e+02   2.3264791534e+01     0.304214    0.2492163  80.67 0.0007529628    1.191    0.160
        28 -11.8312     56.2027    198.0893   1.3654829240e+02   2.6928338802e+01    0.2856386    0.2286354 -75.57 0.0005275995    1.175    0.149
        29  -9.3257    192.0017    193.2621   1.0591273899e+02   3.9660737344e+00    0.2856401    0.1805991 -68.51   0.00115456    2.730    0.634
        30 -11.0514      6.8246    192.2934   1.4608855257e+02   3.3708006187e+01    0.2493286    0.1776641  74.47 0.0004488097    1.172    0.147
        31 -12.0226     10.7643    120.8202   1.3767989338e+02   4.9551797442e+01    0.5452154    0.2703914  45.58  0.002575363    2.467    0.595
        32 -11.6617     45.6583    248.1307   1.4324345108e+02   1.7805676120e+01    0.3957174    0.3036225 -78.09  0.002485903    1.365    0.267
        33 -10.8652     74.1295    176.6621   1.2972343846e+02   2.9399179000e+01    0.2520458    0.2192048  77.72 0.0003381073    1.061    0.057
        34  -9.3053     93.6699    170.9304   1.2411211403e+02   2.7696868750e+01    0.2012216    0.1713961 -80.77 0.0003979008    1.098    0.090
        35 -12.0204     81.8010    167.6294   1.2646105702e+02   3.0395596303e+01     0.706451    0.5359728 -52.19  0.003774866    1.356    0.263
        36 -11.0837    216.2931    249.0737   1.1111934758e+02  -9.4675131176e+00    0.3334461     0.138194  26.44  0.001365018    3.020    0.669
        37 -10.8114     95.1759    152.2051   1.2031989784e+02   3.1939637840e+01    0.3257116    0.2894985 -47.57 0.0008623706    1.184    0.156
        38 -11.8000     83.7530    151.0578   1.2306373533e+02   3.4088237935e+01    0.3085092    0.2459822 -47.45 0.0006259663    1.296    0.229
        39  -9.5431     98.6191    147.9297   1.1857820563e+02   3.2376178199e+01    0.2221539    0.2091906  24.92 0.0003900807    1.210    0.174
        40 -12.0178     68.2249    143.2200   1.2571466627e+02   3.8291132165e+01    0.6036071    0.4256779  86.36  0.001730537    1.651    0.394
        41 -11.0160     64.6736    141.6897   1.2638806580e+02   3.9147621575e+01    0.3462098     0.196174 -46.23 0.0009843884    1.806    0.446
        42  -9.9426    108.0844    137.0177   1.1376404462e+02   3.3276839673e+01    0.3963846    0.2843211 -18.55  0.001721845    2.064    0.515
        43 -10.6213     94.8672    134.4509   1.1675111834e+02   3.6253583441e+01    0.2585406    0.2227452 -50.28 0.0003575484    1.125    0.111
        44  -9.2138    105.6796    123.9360   1.1139295740e+02   3.6792193794e+01    0.2018517    0.1795654 -56.91 0.0003147247    1.079    0.073
        45  -9.6168     76.3478    120.6776   1.1890998722e+02   4.2491005930e+01    0.2808332    0.2109247  75.29  0.000799725    1.699    0.412
        46  -9.2579     63.1373    119.4837   1.2248605261e+02   4.4633880844e+01    0.1879512    0.1358739  38.85  0.001001155    1.536    0.349
        47 -10.5382    241.9866     94.2432   7.5069244280e+01   1.2324913350e+01    0.1788638    0.1178391  61.54 0.0007770983    1.641    0.391
        48  -9.6959     63.1971     79.3353   1.1257970841e+02   5.3422154810e+01    0.2065078    0.1675107  47.84 0.0006991859    1.499    0.333
        49  -9.7880    158.9877     77.4844   8.5417376163e+01   3.4789966018e+01    0.2334573    0.1451132  54.98 0.0005906334    1.564    0.361
        50  -8.8934     51.7889     72.5332   1.1450900159e+02   5.6236202380e+01    0.1566657    0.1202143  41.99 0.0006542919    1.584    0.368
        51  -8.6602     43.3455     67.6990   1.1609110546e+02   5.8144232520e+01    0.1133694   0.09919048  78.63 0.0007038117    1.682    0.406
        52 -12.0742     63.0548    189.6194   1.3404162900e+02   2.7940042031e+01    0.2770906     0.234571 -76.97 0.0004365378    1.131    0.115
        53 -11.9739    199.4143    248.2104   1.1415011969e+02  -6.6555100997e+00    0.3642381    0.3510171 -34.76  0.002561219    1.303    0.233
        54 -10.6810      3.0834    183.5056   1.4614163501e+02   3.5959412038e+01    0.2915991    0.1417383  61.77   0.00161624    2.008    0.502
        55 -11.4586    163.1741    249.1726   1.2127354226e+02  -7.3523522050e-01    0.3051459    0.1722969  40.66    0.0016033    1.489    0.328
