#   1 NUMBER                 Running object number                                     
#   2 MAG_AUTO               Kron-like elliptical aperture magnitude                    [mag]
#   3 X_IMAGE                Object position along x                                    [pixel]
#   4 Y_IMAGE                Object position along y                                    [pixel]
#   5 X_WORLD                Barycenter position along world x axis                     [deg]
#   6 Y_WORLD                Barycenter position along world y axis                     [deg]
#   7 A_WORLD                Profile RMS along major axis (world units)                 [deg]
#   8 B_WORLD                Profile RMS along minor axis (world units)                 [deg]
#   9 THETA_WORLD            Position angle (CCW/world-x)                               [deg]
#  10 FWHM_WORLD             FWHM assuming a gaussian core                              [deg]
#  11 ELONGATION             A_IMAGE/B_IMAGE                                           
#  12 ELLIPTICITY            1 - B_IMAGE/A_IMAGE                                       
         1 -15.2395    247.8975     95.7627   4.6772578074e+01   1.3668075320e+01     6.197332     1.111562 -38.57   0.02053194    4.146    0.759
         2 -15.1070    247.4569    141.7499   5.6021591000e+01   6.7351593567e+00     7.911864     1.505755 -35.58   0.02339856    5.224    0.809
         3 -10.0498     12.6136     28.6207   9.1552510424e+01   7.0842828172e+01    0.4729415    0.1074852 -53.88  0.001655262    4.215    0.763
         4  -9.9751     40.8768     14.2091   6.8255956488e+01   6.9525217558e+01    0.2063473    0.1582059   1.39 0.0002100157    1.199    0.166
         5 -10.4763    165.8990    233.2448   8.7505112744e+01   3.5363919279e+00    0.2474806    0.1541878  12.10  0.001078156    1.609    0.378
         6 -11.3311    154.7658    239.8221   9.0774592491e+01   3.9697424694e+00    0.7827184    0.2281015 -43.24  0.003078497    3.769    0.735
         7 -12.0732    162.1669    245.7291   9.0065347090e+01   2.0483367113e+00     0.636677    0.4294568 -41.48  0.003905806    1.687    0.407
         8 -10.1831    159.0092    231.1684   8.8638621192e+01   4.8220369370e+00    0.3127783    0.1831816 -39.97  0.001416215    1.835    0.455
         9 -11.3769    164.1818    226.1216   8.6788770888e+01   4.9513524051e+00    0.6072831    0.3191154  27.68  0.003062863    1.704    0.413
        10 -11.2004    160.0190    237.6897   8.9375653795e+01   3.6095459555e+00    0.4616345    0.2636654 -37.27  0.002009257    1.895    0.472
        11  -9.9417    147.4712    244.9672   9.3005536646e+01   4.1075009944e+00    0.1697099    0.1215754 -42.90 0.0006942987    1.609    0.379
        12  -9.2268    147.3667    237.7763   9.2053341906e+01   5.3108542532e+00    0.1690538    0.1104333 -33.23 0.0008903662    1.695    0.410
        13 -10.7261    125.8836    220.5459   9.4397387962e+01   1.1434431108e+01    0.2682672    0.2116801  42.26 0.0006691099    1.244    0.196
        14  -9.2280    204.5121    217.0420   7.7243762771e+01   9.1971106353e-01    0.1795119    0.1098755 -33.98  0.001021338    1.557    0.358
        15  -9.1273    180.0000    216.9234   8.2043386732e+01   4.2737550165e+00    0.1956754   0.07006837 -43.92  0.000796903    2.904    0.656
        16  -9.6272    143.7713    216.2210   8.9704621920e+01   9.6399424803e+00    0.2201992    0.1661366 -46.87   0.00125161    1.477    0.323
        17 -10.7181    186.2204    212.5127   8.0048161454e+01   4.1304678037e+00     0.536077    0.2520744 -26.83   0.00232772    2.569    0.611
        18  -9.4358    111.7109    214.8968   9.6914760909e+01   1.4596507213e+01     0.211751    0.1631575 -29.28  0.001177115    1.496    0.331
        19  -9.3196    199.1194    213.8304   7.7731417513e+01   2.1373442147e+00     0.180682    0.1259182  -9.69 0.0008058865    1.346    0.257
        20  -8.8592    131.3379    214.3452   9.2247585776e+01   1.1833445818e+01    0.1419293   0.09905954  -8.27 0.0007048516    1.776    0.437
        21 -10.3874    217.7199    208.9717   7.3430747123e+01   4.2598141859e-01    0.2981365    0.1626175 -26.33  0.001612238    1.702    0.412
        22 -12.4777    226.2218    206.5642   7.1506740692e+01  -3.0089590567e-01    0.7225896    0.2259201 -37.90  0.003088377    2.883    0.653
        23  -9.9070    223.4838    201.8974   7.1169447403e+01   7.4760868596e-01    0.2302441    0.1027428 -33.61  0.001131558    2.009    0.502
        24 -11.2450    230.5148    198.9565   6.9432079770e+01   2.8306520845e-01    0.2843769    0.1447409 -32.84 0.0009973943    1.704    0.413
        25 -11.8502    225.4276    190.4767   6.8782367135e+01   2.2403021357e+00     0.677137    0.2105386 -36.76  0.002756735    2.877    0.652
        26 -12.2583    229.6859    186.2816   6.7286202990e+01   2.3157263516e+00    0.6367119    0.2852209 -34.45  0.003139596    1.942    0.485
        27  -9.9807    205.9046    206.4325   7.5167472560e+01   2.3862071280e+00     0.263637    0.1385604 -24.82  0.001305599    1.963    0.491
        28 -10.2581    198.3802    202.8061   7.5969173537e+01   4.0145843652e+00    0.3757926    0.1792969 -36.78  0.001642878    1.994    0.499
        29 -10.3135    185.9331    203.2234   7.8509607550e+01   5.7343106243e+00    0.3425628    0.1734617 -37.36  0.001450394    1.931    0.482
        30 -10.7829    164.5099    200.2915   8.2501368419e+01   9.4742455834e+00    0.5018601    0.2374551 -36.95  0.001977787    2.230    0.551
        31 -10.3317    211.4275    200.6901   7.3126724746e+01   2.5413732927e+00    0.2609093    0.2336598 -31.00  0.001743519    1.359    0.264
        32  -9.1713     89.3144    199.6867   1.0033803191e+02   2.1047298594e+01    0.1439444    0.0989055  60.61   0.00032485    1.639    0.390
        33  -9.4023    203.1142    196.6906   7.3967994093e+01   4.3472937055e+00    0.2162867    0.1588546 -37.36 0.0008784801    1.375    0.273
        34  -9.6078    126.1607    197.4120   9.0849502286e+01   1.6031532788e+01    0.2775254    0.1735905  13.85   0.00125642    1.926    0.481
        35  -9.9245    172.6512    195.6265   7.9923567085e+01   9.0761863244e+00    0.2424468    0.1905958  43.26 0.0008500909    1.455    0.313
        36  -9.5327    209.4460    194.2596   7.2337267089e+01   3.8459610097e+00    0.2308938    0.1087772 -33.96 0.0009486473    1.970    0.492
        37  -9.3070    193.2481    209.1650   7.8079393579e+01   3.6945743994e+00    0.2070401    0.1368774 -20.08 0.0008331212    1.470    0.320
        38  -9.6691     44.4451    194.1597   1.1117724383e+02   2.8005641414e+01    0.2761663    0.1291776  56.39  0.001190403    2.292    0.564
        39  -9.3768    215.4460    193.0742   7.1022218624e+01   3.1972347829e+00    0.1894553    0.1097191 -35.45 0.0006828759    1.564    0.360
        40  -9.5979    161.9806    192.1860   8.1624998759e+01   1.1395271312e+01    0.3753604    0.1723139 -39.10  0.001581168    2.248    0.555
        41  -9.8321    172.8408    190.3381   7.8924802205e+01   1.0020607424e+01    0.3095799    0.1847974 -53.14  0.001454949    2.066    0.516
        42  -9.3081    205.6729    190.2133   7.2301333072e+01   5.0495949798e+00    0.1849498    0.1038999 -30.45 0.0006053568    1.663    0.399
        43  -8.6188    200.0000    189.9777   7.3337975859e+01   5.9204734131e+00    0.2064942   0.06863394 -41.43 0.0006705201    2.860    0.650
        44  -9.0039    179.3525    189.7998   7.7449741275e+01   9.0965624353e+00     0.188308    0.1156294 -31.61 0.0006574991    1.610    0.379
        45 -10.0133     96.0604    187.5376   9.6879517842e+01   2.2821364750e+01    0.4258326    0.1928419  45.40  0.001688687    2.252    0.556
        46  -9.7321     56.1613    187.8460   1.0746834063e+02   2.8154552042e+01    0.4218258    0.1268617  53.80  0.001086775    6.091    0.836
        47  -9.5979     35.0018    187.9842   1.1303704746e+02   3.0472461953e+01    0.2302097    0.1314199  59.21  0.001133988    1.751    0.429
        48  -9.1838    217.6003    186.2009   6.9371400575e+01   3.9963851508e+00    0.1877166    0.1022632 -27.64 0.0009471781    1.723    0.420
        49  -9.6743    164.9981    184.1582   7.9483896803e+01   1.2452268025e+01    0.4162541    0.1839914 -42.86  0.001718588    2.252    0.556
        50  -9.5804     12.4862    184.9897   1.1857474851e+02   3.3259546010e+01    0.1892173   0.08270004  71.18 0.0008098203    2.488    0.598
        51  -9.8799      6.5351    183.8907   1.2000075829e+02   3.3993005976e+01    0.3093583     0.152798  85.17  0.001523267    1.937    0.484
        52  -9.9686    224.8628    181.8702   6.7291927420e+01   3.6675111403e+00    0.4091782    0.1390465 -30.21  0.001505356    3.439    0.709
        53 -10.6058    174.3141    181.1677   7.6893904102e+01   1.1500914421e+01    0.4732824    0.2266317 -35.01   0.00200391    2.170    0.539
        54  -9.0727     27.6660    183.3418   1.1454278803e+02   3.2310556428e+01    0.1454717   0.08251221  60.65 0.0007050923    1.756    0.431
        55  -9.6825    211.5151    182.1053   6.9703408063e+01   5.5421963641e+00     0.212865     0.157592  -9.10  0.001044645    1.276    0.216
        56  -9.5001     44.7826    182.6274   1.0993263397e+02   3.0725502066e+01     0.200217    0.1081725  40.10 0.0009476033    1.718    0.418
        57  -9.8119    205.3741    176.4512   6.9759172386e+01   7.4170159982e+00    0.2703741    0.1787309 -26.80  0.001122617    1.394    0.283
        58  -9.2406    192.1575    175.6740   7.2154669679e+01   9.6252251394e+00    0.3807063   0.08387368 -39.02  0.001100581    4.631    0.784
        59  -9.3967     60.4994    177.4940   1.0505273579e+02   3.0130203738e+01    0.2747335   0.09960913  40.36  0.001032614    2.524    0.604
        60  -9.4334     13.7503    177.0517   1.1769383832e+02   3.5060653539e+01    0.2824683    0.1013714  48.93  0.001171346    2.648    0.622
        61 -10.1988    183.2944    174.1393   7.3646070650e+01   1.1344982255e+01    0.4014255    0.2042101 -31.27  0.001478789    2.089    0.521
        62  -9.4515     78.2295    176.2131   9.9977247379e+01   2.8086269298e+01     0.369166    0.1226656  49.87  0.001067938    4.286    0.767
        63  -9.1862    218.4387    175.0936   6.7127493162e+01   5.6820529050e+00    0.1987225    0.1105437 -35.20  0.000988097    1.583    0.368
        64  -9.6575    203.8628    182.9213   7.1280257450e+01   6.5419470377e+00    0.2808219    0.1472754 -35.78  0.001368453    1.754    0.430
        65  -9.2802     35.6314    174.3144   1.1156199274e+02   3.3735615658e+01    0.1497817   0.08719406  59.08 0.0007036783    1.776    0.437
        66  -9.0518     45.3469    172.6737   1.0868521856e+02   3.3111367849e+01    0.1513631   0.09252009  60.96 0.0007049931    1.749    0.428
        67 -10.2034    177.1313    169.6364   7.4039344116e+01   1.3224143159e+01    0.4375642    0.2040545 -35.65  0.001798977    2.190    0.543
        68  -9.3656    122.0299    169.8461   8.7092035931e+01   2.2716343565e+01    0.2511843    0.1642116  60.04  0.001071267    2.061    0.515
        69  -9.3153     55.7695    170.1882   1.0543984941e+02   3.2521051413e+01    0.2527214    0.1238524  61.86 0.0009491526    2.775    0.640
        70  -8.8963    199.2687    168.3741   6.9330285354e+01   9.7862442394e+00    0.1419556   0.09516928 -12.62 0.0004443816    1.676    0.403
        71  -9.5972    185.1692    165.4038   7.1516388990e+01   1.2660945986e+01    0.2754972    0.1789344 -36.70  0.001257846    1.447    0.309
        72  -9.1979     19.8436    166.6217   1.1520916607e+02   3.7119573201e+01    0.1917081    0.1048144  39.17 0.0009488604    1.767    0.434
        73 -10.1870    192.2701    163.8611   6.9780542259e+01   1.1749817271e+01    0.3818202    0.1618812 -39.93  0.001572296    2.202    0.546
        74  -9.4057    139.4886    165.0148   8.1734115183e+01   2.0751418074e+01    0.2951583    0.1812433  68.51  0.001034271    3.402    0.706
        75  -9.5195     80.4079    164.5685   9.7562954884e+01   3.0626739954e+01    0.3679714    0.2026972  78.41  0.001224496    3.624    0.724
        76 -10.3974    223.5099    226.0624   7.5265828889e+01  -2.7705676214e+00    0.1744523   0.09981852 -32.00  0.001034521    1.595    0.373
        77  -9.2522     47.9622    164.4889   1.0695486835e+02   3.4871524086e+01    0.2133566   0.09004122  48.85 0.0008098407    2.561    0.609
        78 -11.0387    213.0636    160.2217   6.5158803436e+01   8.9980242210e+00    0.7247288    0.2200465 -41.02  0.002683403    2.958    0.662
        79  -9.0910     93.4954    160.9896   9.3214425822e+01   2.9515418191e+01    0.2053211    0.1321551  88.55  0.000808992    2.422    0.587
        80  -9.6172      9.0405    160.5455   1.1772529453e+02   3.9483765004e+01    0.2940898    0.1060356  64.71  0.001037448    3.640    0.725
        81 -10.0072    206.0260    168.8643   6.8155850406e+01   8.6232252721e+00     0.316347    0.1730588 -47.84  0.001409826    2.003    0.501
        82  -9.2408     23.3399    159.6711   1.1357000366e+02   3.8564897899e+01    0.1466182   0.08755875  61.21 0.0007051665    1.738    0.425
        83 -10.1018    218.7160    155.7092   6.3269156272e+01   8.8685497240e+00    0.2840508    0.1564993 -33.46  0.001017552    1.610    0.379
        84  -9.7597    196.4887    156.4764   6.7445763370e+01   1.2384460216e+01    0.2884915    0.1254129 -41.82  0.001197709    2.136    0.532
        85 -10.2630     50.3396    155.6994   1.0508661882e+02   3.6835799978e+01    0.4576271    0.1697285  50.34  0.001532903    3.389    0.705
        86  -9.3343    119.6682    155.3591   8.4886037483e+01   2.6446998469e+01     0.157845    0.1203116  75.44  0.000704156    1.799    0.444
        87  -9.7773     82.2838    155.1352   9.5417778135e+01   3.2694044249e+01    0.3123817    0.1733482  54.75  0.001237294    2.222    0.550
        88  -9.7598     68.6951    154.4069   9.9347350195e+01   3.4835117273e+01    0.3870806    0.1813577  51.23  0.001292979    2.575    0.612
        89  -9.5937    204.5791    153.7712   6.5371227632e+01   1.1504044186e+01    0.2626721    0.1185225 -35.50  0.001116962    2.070    0.517
        90  -9.4378    133.7673    153.2074   8.0745933285e+01   2.4386957845e+01    0.2515178    0.1700644  78.72 0.0009558421    2.778    0.640
        91  -9.7888     29.2211    150.2606   1.1081536357e+02   4.0440112763e+01    0.3723261    0.1744152  71.12   0.00139614    3.007    0.667
        92 -10.6550    189.3969    148.2713   6.7092733361e+01   1.5134015274e+01     0.458568    0.2218128 -39.87  0.001751534    1.921    0.479
        93 -10.3989     40.2316    148.2287   1.0716439667e+02   3.9880217980e+01    0.5217909    0.2121908  49.63    0.0019377    2.866    0.651
        94 -10.1467    200.0171    146.3799   6.4662502072e+01   1.3605093038e+01    0.4132392    0.1792194 -33.77  0.001661231    2.313    0.568
        95 -10.7404    196.8545    142.7245   6.4469382482e+01   1.4826256228e+01    0.2834542    0.2328499  40.77 0.0008074949    1.335    0.251
        96 -10.8849     56.7457    146.2495   1.0170394892e+02   3.8492804259e+01    0.5764627    0.2895081  59.17  0.002139671    2.798    0.643
        97  -9.8052    222.6590    146.2397   6.0689022166e+01   9.8287353175e+00    0.3538085    0.1991432 -11.63   0.00147185    2.938    0.660
        98  -8.8818    206.0000    146.9566   6.3693592680e+01   1.2469296757e+01    0.2271605   0.07018374 -40.26 0.0007974566    2.908    0.656
        99 -10.1480    108.2911    146.0331   8.6097531022e+01   3.0659990205e+01     0.538761    0.2837026  61.31  0.001716085    3.583    0.721
       100  -9.2391     78.6629    147.3464   9.5100067370e+01   3.5194440425e+01    0.1603638    0.1128259  68.00 0.0007048202    1.778    0.437
       101  -9.9313    149.0945    145.1195   7.5186451113e+01   2.3279729109e+01    0.3679246    0.2437527 -77.88  0.001394924    2.873    0.652
       102  -9.5080     13.2815    146.1573   1.1524237301e+02   4.2806782546e+01    0.2651899    0.1345522  51.45  0.001229303    2.072    0.517
       103  -9.7236    125.4859    143.4933   8.0813940681e+01   2.8122531821e+01    0.3526605    0.2427017  80.05  0.001384516    2.526    0.604
       104  -9.9100    205.6637    160.8043   6.6610908745e+01   1.0086015373e+01    0.3450651    0.1551331 -35.17  0.001491123    2.080    0.519
       105  -9.7435    230.6887    141.8271   5.8513084795e+01   9.2762470729e+00    0.2577941    0.1541237 -34.45 0.0009443508    1.419    0.295
       106  -8.9991    229.6317    137.8248   5.7861316533e+01   1.0097619155e+01    0.2043316    0.1105683 -36.74 0.0008655936    1.566    0.361
       107  -9.9641     88.4431    144.3228   9.1557757742e+01   3.4433754579e+01     0.341551    0.2045197  63.11   0.00131071    2.447    0.591
       108  -8.6748    203.2830    140.3612   6.2781695519e+01   1.4112140370e+01    0.1418271     0.100475 -10.39 0.0005913481    1.678    0.404
       109 -10.4731     23.7799    138.3845   1.1111812328e+02   4.3984540953e+01    0.5384846    0.2414449  62.59  0.002025373    3.078    0.675
       110  -9.5092    225.0000    138.8908   5.8803496864e+01   1.0672962207e+01    0.2176068   0.06480014 -38.92 0.0007667167    2.879    0.653
       111 -10.1577    197.5647    135.5647   6.2780809435e+01   1.6001362615e+01    0.5332593    0.1258443 -40.30  0.001613465    3.871    0.742
       112  -9.4626    219.5141    135.5060   5.8978056233e+01   1.2151039834e+01    0.2431798     0.112887 -29.43  0.001023928    2.295    0.564
       113  -9.9911     39.3806    136.1359   1.0572882195e+02   4.3107506851e+01    0.2910089    0.1640247  46.64  0.001310357    1.905    0.475
       114 -10.6433     99.1142    225.6247   1.0123900712e+02   1.4207802148e+01     0.352818    0.2164214  30.37  0.001693172    1.443    0.307
       115 -10.0960    226.3043    132.0302   5.7178332078e+01   1.1593122708e+01    0.2979115       0.1443 -32.36  0.001377146    1.917    0.478
       116 -10.9492     84.0057    132.1069   9.0424852244e+01   3.8199082771e+01    0.4851426     0.327837  61.81  0.001615676    1.896    0.473
       117  -9.5280    132.5414    132.0264   7.6332968984e+01   2.9360271177e+01     0.311107    0.1950644  75.02  0.001039307    3.439    0.709
       118 -10.7179     99.7776    128.6791   8.4783266019e+01   3.6354091375e+01    0.4611418    0.3355998  87.15  0.001612443    2.006    0.502
       119 -10.6704     73.6950    129.9267   9.3280708146e+01   4.0354620824e+01     0.358025    0.2278123  54.06   0.00154724    1.857    0.462
       120  -9.9967     13.0161    129.5467   1.1360453762e+02   4.7088669533e+01    0.3523491    0.1821801  74.63  0.001532387    2.330    0.571
       121  -9.4075    221.2013    128.0085   5.7127033041e+01   1.3123693998e+01    0.2233056    0.1417088 -13.62  0.001068885    2.103    0.525
       122 -11.4002     60.2421    124.9726   9.6773097180e+01   4.3530330090e+01    0.6774664    0.3880647  69.59  0.002488856    2.953    0.661
       123 -11.3259     44.6504    123.2424   1.0184255862e+02   4.5892370070e+01    0.8912907    0.4794612  71.85  0.003245258    3.154    0.683
       124  -9.7235    118.0802    125.7123   7.8739337843e+01   3.3626998202e+01    0.3515672    0.2297339  74.51  0.001292313    2.758    0.637
       125  -9.4861    182.9875    221.2295   8.2139449323e+01   3.1528872866e+00    0.2333022    0.1444622 -24.11  0.001269324    1.649    0.394
       126 -10.9841     28.5826    122.2840   1.0732790396e+02   4.7750258569e+01    0.8371208    0.3716233  69.53  0.002582839    4.627    0.784
       127 -10.2220     72.0185    120.6595   9.1866470207e+01   4.2948888862e+01    0.3976745    0.2337014  55.90  0.001594087    2.231    0.552
       128  -9.5242    142.0469    119.7529   7.0931522123e+01   3.0111804620e+01    0.3245127    0.1984408 -69.17  0.001175569    2.799    0.643
       129  -9.7278      3.0482    117.0910   1.1561985004e+02   5.0887521838e+01    0.3127081    0.1462373  75.85  0.001296908    2.674    0.626
       130 -13.5868    248.2776    183.7417   6.3812815394e+01   2.7976129825e-01     3.729452    0.6385733 -34.72    0.0105819    6.353    0.843
       131 -10.6456    109.8399    114.7727   7.8391409196e+01   3.7750885887e+01    0.4863513    0.3149489  87.61  0.001656641    3.339    0.700
       132 -11.6719     79.8764    113.2717   8.7503823601e+01   4.3542211258e+01    0.6743718    0.4376882  75.88  0.002548931    2.692    0.628
       133 -11.5002     93.8378    113.2043   8.2904375445e+01   4.1139021112e+01    0.6605563      0.37084  54.72  0.002211716    2.329    0.571
       134 -11.5180     67.2916    111.2665   9.1375410415e+01   4.6008309549e+01    0.4747362    0.2921559  56.74  0.001975612    2.150    0.535
       135 -10.3303     14.2453    110.3377   1.1075805906e+02   5.1946731488e+01    0.3752003    0.2178818  85.53  0.001758424    1.985    0.496
       136 -10.7602     59.6374    109.7818   9.3775955040e+01   4.7472251271e+01    0.2046605    0.1899865  -7.56 0.0008331077    1.107    0.096
       137 -11.9718     46.2077    102.6971   9.7209227564e+01   5.0966049511e+01     0.870855    0.4657574  63.48  0.003078072    3.482    0.713
       138 -11.1619     23.0976    102.4135   1.0614301276e+02   5.3321452581e+01    0.7347045    0.3647844  68.90  0.002666023    3.580    0.721
       139 -11.5200     83.0746    100.3428   8.3109222900e+01   4.6096711814e+01    0.4872971    0.3135006  63.52  0.001956807    2.342    0.573
       140 -12.8185     64.5951     95.8855   8.8553437033e+01   5.0170054764e+01    0.8621464    0.5794439 -77.62  0.003704742    2.090    0.522
       141 -11.4635     96.2843     97.6450   7.7974619938e+01   4.4280817982e+01    0.5419878    0.3084661  52.46   0.00216189    2.082    0.520
       142 -10.3916     43.8399     92.9089   9.5898293850e+01   5.3670435119e+01    0.3249581    0.2061091 -31.76   0.00152136    1.690    0.408
       143 -10.6234     35.0216     88.3809   9.8458485496e+01   5.5743303797e+01    0.8341041    0.2973605 -63.94  0.003010902    2.834    0.647
       144 -12.0123    157.3968    245.8224   9.1057039008e+01   2.6582589063e+00    0.6522864    0.3535281 -17.05   0.00307234    2.729    0.634
       145  -9.8235    124.6350     91.2827   6.7791932432e+01   3.9762588932e+01    0.2448887    0.1889663 -82.98  0.001111005    1.774    0.436
       146  -9.2561      4.5136     91.0327   1.1174588093e+02   5.7387622408e+01    0.1886592   0.09904699  77.29  0.000810214    2.600    0.615
       147 -12.4541     88.2285     87.7441   7.7770634170e+01   4.8011162345e+01    0.7560796    0.4469543  62.23  0.002817999    2.764    0.638
       148 -11.5005     49.0450     84.7052   9.1690096735e+01   5.5003977975e+01    0.6414602    0.4265389  76.58  0.002672783    2.646    0.622
       149 -10.4818     49.5208     76.9856   8.9325219709e+01   5.6729698306e+01    0.3306965    0.2032341 -21.59  0.001464542    2.010    0.502
       150 -11.3523    105.1920     83.5936   7.1055803335e+01   4.5498453938e+01    0.5388619    0.3604356  87.66    0.0019818    3.047    0.672
       151 -11.8217    110.6826     99.9841   7.4192236316e+01   4.0896715675e+01    0.8989514    0.4655466  62.98  0.002758287    3.839    0.739
       152 -11.4213     75.2573     81.2160   8.0385215892e+01   5.1798891740e+01    0.3614706    0.2718731 -71.56  0.001265166    1.776    0.437
       153 -10.3935     25.0156     77.9284   1.0034671020e+02   5.9210170131e+01     1.013325    0.3016877 -55.52  0.003816597    2.622    0.619
       154 -11.6593     61.9681     76.2391   8.3961309096e+01   5.5091313587e+01    0.6579944    0.2103802 -52.74  0.002157455    3.265    0.694
       155 -11.9211     83.3377     73.5578   7.5034076065e+01   5.1936217350e+01    0.5416347    0.3939252  87.11  0.002198827    2.421    0.587
       156 -10.8262     96.0187     72.3645   7.0370687237e+01   4.9647807648e+01    0.3620285    0.2463272 -65.84  0.001560881    2.128    0.530
       157 -10.1636     42.7986     72.4903   9.0919005363e+01   5.8611082577e+01    0.3366558    0.1856996 -58.46  0.001325871    1.870    0.465
       158 -11.3014     51.5700     68.5860   8.5874732157e+01   5.8310520154e+01    0.8188617     0.340826 -61.49  0.002726193    3.744    0.733
       159  -9.6672     16.6225     69.7490   1.0228674531e+02   6.1809015350e+01    0.2824987    0.1612694 -71.25  0.001367028    1.878    0.468
       160 -10.6175     37.5831     62.9132   9.0374785834e+01   6.1359790951e+01    0.6163828    0.2348215 -52.04  0.002475077    2.400    0.583
       161  -9.6258     18.2329     62.7266   9.9728434932e+01   6.3302269220e+01    0.2201385   0.07238921 -50.72 0.0008822466    2.377    0.579
       162 -11.3512     73.5500     59.8690   7.3917971120e+01   5.6467318943e+01     0.397987    0.3117992 -63.45  0.001459679    1.676    0.403
       163 -10.2850      7.7408     53.8302   1.0277785644e+02   6.6020022337e+01    0.7385042   0.05906149 -56.13  0.002350096    4.231    0.764
       164 -10.9650     63.2538     54.7693   7.6112940958e+01   5.9270173738e+01    0.3408248    0.2240157 -46.60  0.001014771    1.616    0.381
       165 -10.6823     54.3767     53.1625   7.9288248675e+01   6.1039380308e+01    0.6394616    0.2543252 -54.19  0.002239081    3.551    0.718
       166 -10.1879     44.2560     55.1755   8.4626986187e+01   6.2132654674e+01    0.3702192    0.2487701 -65.58  0.001794437    2.097    0.523
       167 -10.1819     45.0861     49.4751   8.2136163481e+01   6.3141241835e+01    0.3239029    0.1921379 -30.68 0.0009559336    1.723    0.420
       168  -9.2859    100.5074     54.4546   6.2862615590e+01   5.1909302809e+01    0.1448475    0.1348003  30.13 2.237634e-05    1.019    0.019
       169 -10.4588     92.8669     51.5001   6.4139653349e+01   5.4060804413e+01    0.2901599    0.1847049 -52.64  0.001321202    1.965    0.491
       170 -10.3650     30.9134     49.8884   8.9291762668e+01   6.4867439933e+01    0.6019136    0.2228433 -58.50  0.002221234    3.399    0.706
       171  -9.5286     19.9985     51.3528   9.5500920211e+01   6.5654595274e+01    0.3753916    0.1336148 -56.69  0.001543722    2.569    0.611
       172  -9.8488     25.0374     57.9573   9.4948524183e+01   6.3773492206e+01    0.3968836    0.1680137 -53.57  0.001752255    2.081    0.520
       173 -10.2198     81.9914     47.2870   6.6153719387e+01   5.7034181433e+01    0.2024529    0.1789091  32.38 0.0006414464    1.057    0.054
       174 -10.2947     45.3222     43.7538   7.9785731109e+01   6.4180930880e+01    0.4398094    0.1639685 -40.87  0.001755685    2.627    0.619
       175 -10.0962     16.8076     42.7825   9.4405244734e+01   6.7715257892e+01    0.5174127   0.09209361 -51.25  0.001761865    3.823    0.738
       176 -10.6934     58.1646     42.1923   7.3318565501e+01   6.2398559720e+01    0.3463188    0.2160477 -57.76  0.001571068    2.478    0.596
       177 -10.3728      5.0253     39.6804   1.0022915133e+02   6.9218122459e+01    0.5820709    0.1729203 -63.04  0.002231342    3.463    0.711
       178 -10.7213     69.4818     41.5193   6.8433917225e+01   6.0447351625e+01    0.2844995    0.2179261 -86.87  0.001149411    2.357    0.576
       179  -9.2419    113.8091     41.2682   5.4588619144e+01   5.0866911015e+01     0.188924    0.1541703  28.97 0.0003891944    1.303    0.232
       180  -9.9802     36.7995     39.5119   8.2283192371e+01   6.6152331076e+01    0.4150945      0.15601 -44.55  0.001729289    2.542    0.607
       181  -9.6980     84.0187     39.9986   6.2619967292e+01   5.7747973222e+01    0.2249238    0.1566114  19.73 0.0005498725    1.653    0.395
       182 -10.4763     27.6946     29.8529   8.3056254742e+01   6.9038474765e+01    0.5593451    0.1629491 -37.57  0.002015388    3.663    0.727
       183  -9.7908     60.5008     32.5332   6.8205982155e+01   6.3528523791e+01    0.2231455    0.1229172 -45.86  0.001032148    2.224    0.550
       184  -9.5752     49.9605     32.5327   7.2820324519e+01   6.5373102124e+01    0.2100843    0.1660411 -25.81 0.0008353192    1.248    0.199
       185  -9.3755     72.3236     31.6627   6.3236374628e+01   6.1370955644e+01    0.1290493    0.1094284 -81.69 0.0007051015    1.717    0.418
       186  -9.1964     78.5010    235.4669   1.0701513271e+02   1.4961987924e+01    0.1285388    0.1050111  46.30 0.0002804267    1.065    0.061
       187  -9.4729    108.7062    222.0098   9.8563150632e+01   1.3598184784e+01    0.1766136    0.1716224 -14.45 0.0007235755    1.138    0.121
       188  -9.7262      3.5901     25.5341   9.6155564209e+01   7.2123113602e+01    0.3333858     0.103162 -56.60  0.001408301    3.005    0.667
       189  -8.7761    118.3222     24.7150   4.7736930682e+01   5.1863788013e+01     0.134706    0.1006847 -76.36 0.0003295795    1.596    0.374
       190  -9.0776     48.3004     21.6474   6.8483570339e+01   6.7272271851e+01    0.1156197    0.1055594 -80.04 0.0003305504    1.698    0.411
       191  -9.2421     40.7746     21.4100   7.2003796317e+01   6.8550528940e+01    0.1658138    0.1064615  24.62 0.0001196633    1.451    0.311
       192  -9.9223    144.7279    230.5017   9.1601594751e+01   6.9235328967e+00    0.3707731     0.149952 -42.91  0.001625832    2.737    0.635
       193  -9.6121     49.7775     16.8087   6.5401495933e+01   6.7656127508e+01    0.2273225    0.1219407  13.23 0.0009585822    2.839    0.648
