#   1 NUMBER                 Running object number                                     
#   2 MAG_AUTO               Kron-like elliptical aperture magnitude                    [mag]
#   3 X_IMAGE                Object position along x                                    [pixel]
#   4 Y_IMAGE                Object position along y                                    [pixel]
#   5 X_WORLD                Barycenter position along world x axis                     [deg]
#   6 Y_WORLD                Barycenter position along world y axis                     [deg]
#   7 A_WORLD                Profile RMS along major axis (world units)                 [deg]
#   8 B_WORLD                Profile RMS along minor axis (world units)                 [deg]
#   9 THETA_WORLD            Position angle (CCW/world-x)                               [deg]
#  10 FWHM_WORLD             FWHM assuming a gaussian core                              [deg]
#  11 ELONGATION             A_IMAGE/B_IMAGE                                           
#  12 ELLIPTICITY            1 - B_IMAGE/A_IMAGE                                       
         1 -14.2505    202.6518     18.7901   6.0396026226e+01   3.1685029493e+01     3.037766     1.556617  27.64   0.01165033    2.731    0.634
         2 -11.6878      2.0918      6.0673   1.2241927163e+02   7.3368302120e+01    0.6109937    0.2079771 -60.47  0.002992704    2.260    0.558
         3 -12.4207      2.6958     15.4171   1.2511978066e+02   7.1444279043e+01     1.146229    0.1783768 -59.08  0.004542609    3.235    0.691
         4 -10.3535    143.0164    241.4923   1.2140987437e+02   1.0050426619e+01    0.1736956   0.08138222  39.33 0.0005175495    1.552    0.356
         5 -12.1977    139.4817    248.9939   1.2278581877e+02   9.6019544620e+00    0.4119347    0.2338755  54.66  0.002658305    1.818    0.450
         6 -13.5876     99.9628    249.2156   1.2957703496e+02   1.4793133045e+01     2.005737     0.199292  37.63  0.005952968    7.385    0.865
         7 -13.7882    105.2453    245.3372   1.2836944046e+02   1.4649198513e+01     1.387095    0.2712062  41.35  0.005994294    3.295    0.697
         8 -11.8361     90.9408    246.9814   1.3093951019e+02   1.6220519555e+01    0.3669024    0.1950037  44.58 0.0008663695    1.344    0.256
         9 -11.5292     88.4208    243.4736   1.3111499937e+02   1.7021843739e+01    0.2796991    0.1741636  36.25 0.0005026075    1.404    0.288
        10 -15.3675      4.9993    239.2941   1.4446510411e+02   2.6257185705e+01     12.23964    0.4027138 -77.85   0.04145139   10.904    0.908
        11 -12.5235     15.9080    241.1180   1.4284979920e+02   2.5046150941e+01     1.097287     0.142509  50.88  0.005579737    3.413    0.707
        12 -13.2883     56.6173    226.7319   1.3550430290e+02   2.3236143237e+01    0.7388053    0.6296485  62.78  0.004635438    1.197    0.165
        13 -15.2260     11.3556    206.6967   1.4241934211e+02   3.0913706602e+01     9.964416          nan  37.22     0.024724    4.799    0.792
        14 -11.9310     75.1997    229.1320   1.3238947716e+02   2.0740624123e+01    0.4126641    0.1711745  45.46 0.0006385689    1.768    0.434
        15 -12.7251     40.1400    226.6808   1.3834246319e+02   2.4973853172e+01    0.2739671    0.2473122 -86.58 0.0007489246    1.426    0.299
        16 -13.8973     47.3165    216.9796   1.3657120780e+02   2.5805566318e+01     0.747844    0.5794051  61.76  0.003856768    1.050    0.048
        17 -10.5605    173.7523    220.1040   1.1328258058e+02   8.2360190442e+00    0.2397288    0.1286184  21.68  0.001247376    2.150    0.535
        18 -12.1116     63.8369    218.8301   1.3371114245e+02   2.3696218663e+01    0.4676717    0.1733857  50.92  0.001310032    2.151    0.535
        19  -9.9621    228.7013    205.7422   1.0119907976e+02   1.3757642298e+00    0.2058291    0.1849823 -20.01 0.0006331521    1.579    0.367
        20 -12.0026     25.5914    234.4531   1.4109140764e+02   2.5171464984e+01    0.3610128    0.3135253  37.01  0.002131608    1.523    0.343
        21  -9.8928    192.2303    193.4223   1.0578976846e+02   8.7520427650e+00    0.2997713    0.1718325 -56.34  0.001337441    3.677    0.728
        22 -11.6979     65.7993    193.7518   1.3143641845e+02   2.7773838611e+01    0.3254069    0.2216486 -47.46  0.001716864    2.005    0.501
        23  -8.4852    181.5283    192.4631   1.0769706333e+02   1.0684620544e+01    0.1295945    0.1030585  27.09 5.173163e-05    1.010    0.010
        24 -11.7715     71.0355    186.4359   1.2971854462e+02   2.8488758575e+01    0.2296441    0.2117347 -47.10 0.0006170342    1.412    0.292
        25 -11.1023     80.3090    174.5771   1.2652436160e+02   2.9569545670e+01     0.219971    0.1908035  51.46 0.0004412686    1.081    0.075
        26 -13.3326     67.6601    171.9198   1.2903140039e+02   3.1667367825e+01    0.4236341    0.2554634 -44.47  0.001720806    2.261    0.558
        27 -12.1936     86.8163    165.7516   1.2402080545e+02   3.0429282949e+01    0.9229984    0.4610861  53.55   0.00453414    2.041    0.510
        28 -12.9819     67.6429    144.5577   1.2591611776e+02   3.7283623208e+01       1.0101    0.5662122  80.69  0.002989963    2.369    0.578
        29 -10.9194     32.6158    155.4365   1.3538689418e+02   3.8683188458e+01    0.2753814   0.08104271 -68.43  0.001253767    2.893    0.654
        30  -9.9443     99.8287    150.0009   1.1873301084e+02   3.1736081930e+01    0.2456914    0.2262528 -41.12 0.0007239106    1.224    0.183
        31  -9.2210    102.7432    146.0166   1.1738091227e+02   3.2108354153e+01    0.3161637    0.1950383 -21.90  0.001317326    3.103    0.678
        32 -12.1847     88.4963    149.1579   1.2138112421e+02   3.3568491035e+01    0.2524502    0.2336306 -27.07 0.0006036696    1.290    0.225
        33 -10.1861     40.7830    147.4202   1.3280032600e+02   3.9592176647e+01    0.1464926    0.1135384  15.28 0.0005301118    1.675    0.403
        34  -9.6943    110.6710    135.6861   1.1358544815e+02   3.2977820321e+01     0.286901     0.216442 -13.28  0.001362286    1.833    0.454
        35 -10.5390     98.1632    132.7391   1.1628026756e+02   3.5609817910e+01    0.2443727    0.2023928 -28.54 0.0004188973    1.429    0.300
        36 -12.2386     57.3558    130.7869   1.2676640717e+02   4.1477933315e+01     2.348191    0.6838271 -76.80  0.005425727    9.436    0.894
        37  -8.4505    116.6502    128.6620   1.1068866644e+02   3.3423005838e+01    0.1458882     0.110628  -6.74 0.0007045875    1.790    0.441
        38  -9.5826    107.4853    122.9780   1.1195263171e+02   3.6195292268e+01    0.1914008    0.1799178  38.20 0.0007255118    1.050    0.047
        39 -13.4184     34.9630    246.2658   1.4006882940e+02   2.2510558088e+01     1.020732    0.6684045  31.64  0.008239857    1.719    0.418
        40  -9.4606    204.5538    110.9739   8.6215184318e+01   1.8620656841e+01    0.3451845    0.1607229  32.74  0.001275435    2.509    0.601
        41 -10.5855    168.0263    113.0404   9.4433484872e+01   2.6281195890e+01    0.3462784    0.2938444 -87.65  0.000903325    1.659    0.397
        42 -14.5937     54.5769    209.3919   1.3477683425e+02   2.6300211150e+01     3.306491    0.5540542  49.72   0.01248749    4.650    0.785
        43 -11.6101      1.9185     90.3784   1.3789061147e+02   5.4917878208e+01     0.619994    0.1030928 -77.87  0.002002933    5.036    0.801
        44  -9.0303     11.2521     93.3853   1.3535322760e+02   5.3776799358e+01    0.1404241    0.1028859  41.37 0.0006240534    1.544    0.352
        45 -10.0878    110.6467     43.5471   8.8219936390e+01   5.1779472297e+01    0.3089913    0.2563005  73.33 0.0007826597    1.630    0.386
        46 -11.1449    249.2159    244.3272   1.0375272966e+02  -5.1997514768e+00    0.2091726    0.1389468 -18.70  0.001581886    1.715    0.417
        47 -12.3512     83.8986    238.1556   1.3150966843e+02   1.8339585750e+01    0.6226414    0.2928786 -57.36  0.003148792    2.745    0.636
