#   1 NUMBER                 Running object number                                     
#   2 MAG_AUTO               Kron-like elliptical aperture magnitude                    [mag]
#   3 X_IMAGE                Object position along x                                    [pixel]
#   4 Y_IMAGE                Object position along y                                    [pixel]
#   5 X_WORLD                Barycenter position along world x axis                     [deg]
#   6 Y_WORLD                Barycenter position along world y axis                     [deg]
#   7 A_WORLD                Profile RMS along major axis (world units)                 [deg]
#   8 B_WORLD                Profile RMS along minor axis (world units)                 [deg]
#   9 THETA_WORLD            Position angle (CCW/world-x)                               [deg]
#  10 FWHM_WORLD             FWHM assuming a gaussian core                              [deg]
#  11 ELONGATION             A_IMAGE/B_IMAGE                                           
#  12 ELLIPTICITY            1 - B_IMAGE/A_IMAGE                                       
         1 -10.6736     37.2540      9.7164   7.4482219649e+01   6.9672332611e+01    0.7628585    0.3096188 -40.37   0.00208431    2.828    0.646
         2 -10.6073     27.6461     11.8879   8.0407398787e+01   7.0603711824e+01    0.8618471    0.4422139  36.28  0.004844503    2.137    0.532
         3 -10.2987     18.3456      5.4660   8.2260101526e+01   7.2517397673e+01    0.5671695    0.3780776 -44.89  0.002747963    1.933    0.483
         4 -11.0261     23.7219     32.3304   9.1359722983e+01   6.7776668693e+01     1.281588    0.4491383 -37.37  0.003444575    2.555    0.609
         5  -9.4847      2.3480     14.2955   9.5796829501e+01   7.2516419739e+01    0.4363954    0.2224834 -62.22  0.001809759    2.998    0.666
         6 -10.4693      5.5293      4.4907   8.9407395704e+01   7.3829248450e+01    0.4910669    0.3520965   0.22  0.001842364    1.209    0.173
         7  -9.8322    130.6606     46.2263   5.7947763388e+01   4.6604743837e+01     1.766011    0.6404843 -20.59  0.001756043    7.022    0.858
         8 -10.8716    134.0475     31.0362   5.2126311550e+01   4.7813491763e+01    0.3726584    0.2773876   2.18            0    1.673    0.402
         9 -10.1347     69.5695     40.4669   7.4330769066e+01   6.0320340608e+01    0.9576369    0.3709336 -36.59  0.002560446    2.574    0.612
        10  -9.8106     76.0367     32.1386   6.8595134441e+01   6.0416248919e+01    0.4871085     0.338368  55.01   0.00168915    1.743    0.426
        11  -9.6459     63.2213     21.4053   6.8768423591e+01   6.4159234535e+01    0.4251447    0.3052879 -58.45  0.001361693    2.517    0.603
        12  -9.9919     64.4602     13.5622   6.4738094421e+01   6.4891573404e+01    0.4615943    0.2798468 -18.36  0.001999624    1.687    0.407
        13 -10.2643     51.5893     14.6897   7.0405257355e+01   6.6932069658e+01    0.8772113    0.4456461  12.01  0.003678496    2.983    0.665
        14 -10.1296     46.2652     29.4935   7.9434351104e+01   6.5646068872e+01    0.4721353    0.2784503 -45.43   0.00123248    1.936    0.483
        15  -9.1183    128.4389     25.7642   5.1526473040e+01   4.9796882012e+01     0.433495     0.253635 -23.07   0.00143164    1.952    0.488
        16  -8.6151    132.7884     16.8055   4.7611785440e+01   4.9708090008e+01    0.3012543    0.1927332 -25.69  0.001562688    1.761    0.432
        17  -8.3100    120.2618      6.5418   4.6475211650e+01   5.3680757811e+01    0.2856439   0.08677194  55.95  0.001115389    2.480    0.597
        18  -9.0147    115.3810      4.4174   4.6677456410e+01   5.5010963569e+01     0.302484     0.228307 -79.11 0.0005889111    1.656    0.396
        19  -8.6435    112.1886     15.4135   5.1420491038e+01   5.4752660413e+01    0.2809919    0.1933125 -38.03  0.000710403    1.667    0.400
        20  -9.0960    114.0531     10.0436   4.9017856138e+01   5.4832128118e+01    0.3431467    0.1934834  43.35 0.0002991288    1.608    0.378
        21  -8.6718    109.8289      7.6291   4.9038185438e+01   5.6028800190e+01    0.2228318    0.1747721 -58.69 0.0006746054    1.616    0.381
        22  -8.9585    110.1766      3.6782   4.7477320840e+01   5.6283385153e+01    0.2772453    0.2412224 -44.12  0.001639499    1.372    0.271
        23  -9.7714     73.5332     17.7244   6.3350404803e+01   6.2739337796e+01    0.7315482    0.2213201 -29.79  0.002824787    3.428    0.708
        24  -9.7676     10.4235     18.7610   9.2990346158e+01   7.1214350027e+01      0.57753    0.2436257 -13.53  0.002478111    3.580    0.721
        25  -9.3317    120.4575     15.5481   4.9646364846e+01   5.2799774101e+01    0.5824783    0.2929977  13.71  0.002162902    3.726    0.732
        26  -9.1209    125.8156      5.1453   4.4938466861e+01   5.2474715835e+01    0.2643048    0.2147973  29.35  0.001009897    1.294    0.227
        27  -8.9182    125.1239     12.8986   4.7758494669e+01   5.1944533158e+01    0.3183274    0.2302919 -35.03 0.0009920296    1.559    0.358
        28  -8.8803    126.5268      8.5641   4.5986709757e+01   5.2007563092e+01    0.2494835    0.1841452  55.36 0.0006496112    1.157    0.136
        29  -8.6791     96.3505     12.9738   5.4388795014e+01   5.8565069902e+01    0.3605866    0.1770285  18.89   0.00142085    3.220    0.689
        30  -8.6866    104.8896     14.7840   5.2918215365e+01   5.6486411593e+01    0.4423812    0.1667899  32.58  0.001441299    4.228    0.763
        31  -9.5147     85.2344     13.0442   5.7551539468e+01   6.0924557199e+01    0.3979173      0.25982 -56.39  0.001605363    2.546    0.607
        32  -7.9418     80.4604     12.7329   5.8880457207e+01   6.1930930319e+01    0.2331387    0.1435014 -38.55 0.0009114342    1.963    0.491
        33  -8.4990    141.4581     12.6508   4.4700602624e+01   4.7995157462e+01    0.2277612    0.1842614 -58.75 0.0007120436    1.375    0.273
        34 -10.3692      4.7355     42.5051   1.0422148143e+02   6.7234023145e+01     1.287461    0.4794986 -69.18  0.005144839    3.882    0.742
        35  -8.6349    133.3839     10.9240   4.5534240779e+01   5.0134090909e+01    0.4244828    0.2156641 -58.99  0.001742629    3.005    0.667
        36  -9.4836    132.1943      4.7629   4.3687163523e+01   5.0969034913e+01    0.4859885    0.2264023  38.86  0.001962099    2.393    0.582
        37  -7.7155    137.6327      9.2201   4.4235634769e+01   4.9254313292e+01    0.1658973    0.1261836   2.67 0.0003835132    1.619    0.382
        38  -8.6213     71.9312      8.8123   5.9907764962e+01   6.4009324041e+01    0.1983693    0.1415594  19.35 0.0006169042    1.291    0.225
        39  -8.5001    101.9237      8.0993   5.1039042121e+01   5.7787527114e+01    0.2273758    0.1851166 -31.04 0.0006537811    1.419    0.295
        40  -8.2624    103.3759      3.2067   4.8784893969e+01   5.7877896041e+01    0.3112738    0.1618218  30.58  0.001484872    2.113    0.527
        41  -8.3713     76.8559      6.7887   5.7392743588e+01   6.3241096653e+01    0.2955603    0.1661871 -30.27  0.001544828    1.964    0.491
        42  -8.6116     78.5421      3.0204   5.5190114672e+01   6.3242876611e+01    0.2413924    0.2329486  58.70 0.0007210492    1.303    0.233
        43  -9.8390     63.0475      3.0643   6.0298272584e+01   6.6237892727e+01    0.3967087    0.3044527  42.38  0.001653402    1.243    0.195
        44  -8.2479     97.6712      5.7177   5.1128894138e+01   5.8944986799e+01    0.2254172    0.1549306  -2.36 0.0009073949    1.640    0.390
        45  -8.2521     96.0000      3.0171   5.0448862865e+01   5.9541385591e+01    0.2850956    0.2007292   0.28   0.00105973    1.578    0.366
        46  -8.0718     84.9864      6.5264   5.4839309556e+01   6.1604863243e+01    0.2699567    0.1199619  22.77  0.001033958    3.438    0.709
        47  -8.2771    143.0172      5.0437   4.2032163984e+01   4.8305740639e+01    0.2118668    0.1411665 -68.54 0.0004922239    1.772    0.436
        48  -7.3263    193.7083      4.7262   3.5743344754e+01   3.5957148569e+01    0.1194935   0.08883543  50.87 0.0006929828    1.518    0.341
        49  -8.4808    151.5942      2.4480   3.9990332964e+01   4.6421682484e+01    0.3720435    0.1694168 -60.51  0.001487692    3.160    0.684
        50  -8.2908     89.0014      2.4800   5.2009561861e+01   6.1106235077e+01    0.2359418    0.1568131   9.68 0.0008036451    1.643    0.391
        51 -10.0792     27.2666    122.7425   1.1174824525e+02   4.7568062608e+01     0.558356    0.2985856  72.15  0.002046838    2.595    0.615
        52  -8.7418    238.0356    250.1307   8.2560017664e+01  -1.0691857139e+01    0.1741218    0.1298499   8.03 0.0004183198    1.007    0.007
        53  -9.6763    203.8706    249.8282   8.8754994654e+01  -6.0241815681e+00    0.2536576    0.1903862  49.16  0.001591479    1.776    0.437
        54 -10.6495    187.8734    249.5955   9.1778472702e+01  -3.6602966811e+00    0.4679514    0.2104302  35.65  0.002356394    1.832    0.454
        55 -11.0670    168.4323    249.0486   9.5507764555e+01  -6.4569177539e-01    0.6130849    0.2459739  38.29  0.002862506    2.035    0.509
        56  -7.8458    157.9880    121.9523   7.3462285850e+01   2.6021014416e+01     0.253271    0.1972169 -85.17  0.001094311    1.722    0.419
        57  -8.7093     98.8505    119.4018   8.8796242833e+01   3.8860889313e+01    0.4872031    0.3676273 -27.61  0.002286286    1.540    0.350
        58 -10.1803     92.0434    112.8974   8.9284571322e+01   4.1623115295e+01    0.6465197    0.4750653  82.03  0.001508853    1.925    0.481
        59  -9.1952     93.1151    103.5416   8.6561602128e+01   4.3628226226e+01    0.6363206    0.4200038  12.59   0.00266348    2.152    0.535
        60  -9.7036    140.7313    118.5426   7.6870380663e+01   3.0584120232e+01    0.4641078    0.3487029 -82.77  0.001224168    1.851    0.460
        61  -8.7169      1.6212    116.4495   1.1873280787e+02   5.0868602555e+01    0.4072122    0.1374235 -81.26  0.001264328    2.938    0.660
        62  -8.2682     81.7597     94.3637   8.7780082349e+01   4.7692405931e+01    0.3787614    0.2355158  -9.18   0.00144366    2.796    0.642
        63 -10.3642     78.3166    113.0537   9.3641650588e+01   4.3854652386e+01    0.5902542    0.3768873 -81.92  0.001878449    2.342    0.573
        64  -9.5887     81.0763    101.3775   8.9872919849e+01   4.6190242381e+01    0.6897801    0.3918381 -38.57   0.00170016    1.855    0.461
        65  -8.2921    153.0336    115.2956   7.2954668087e+01   2.8551026070e+01    0.2152896    0.2096671  64.23 0.0005730767    1.045    0.043
        66  -7.4821    167.4687    113.9787   6.9236609337e+01   2.5544996207e+01    0.2095769    0.1335709 -65.36 0.0004280084    2.216    0.549
        67  -9.8483     14.2050    111.2074   1.1418231757e+02   5.1364918638e+01    0.4927383    0.2431791  87.84  0.002051306    2.540    0.606
        68  -8.7643     14.7487    104.4496   1.1302064719e+02   5.2948655447e+01    0.2834639    0.1522269 -37.74   0.00103024    1.972    0.493
        69 -10.4477     65.8948    109.3140   9.6812930705e+01   4.6587832754e+01      1.11346    0.5238219 -53.24   0.00282821    1.910    0.476
        70  -9.7523     59.0933    109.5855   9.9123942029e+01   4.7429456990e+01    0.5192627    0.2702722 -56.95   0.00153077    1.726    0.421
        71 -10.5119     62.9560     95.6368   9.4548914109e+01   5.0246214787e+01    0.6925078    0.4147748 -76.28  0.001688699    2.507    0.601
        72  -9.1408     64.0112     86.8470   9.1877272152e+01   5.2117647752e+01    0.7824395    0.4197995 -13.42  0.002543177    4.267    0.766
        73  -8.3392    158.7366    111.9847   7.0730689483e+01   2.7952398989e+01    0.2204558    0.1969145 -36.77 0.0003783259    1.122    0.109
        74  -8.3290    149.6437    109.9362   7.2379447271e+01   3.0455047031e+01    0.3432761    0.1487321 -42.78  0.000792406    2.304    0.566
        75  -9.2399     35.6477    110.8047   1.0714810769e+02   4.9740252959e+01    0.5474781    0.2967352  62.44  0.002301462    2.753    0.637
        76 -10.8767     21.8463    102.5888   1.1034214567e+02   5.2894488990e+01     1.095893    0.5480226  77.26  0.003308092    3.638    0.725
        77  -9.4894     15.5183     92.9342   1.1089126997e+02   5.5624852869e+01    0.6342736    0.3429996  -5.81  0.003166695    2.501    0.600
        78 -10.8981     44.7988    102.3592   1.0242001385e+02   5.0863645091e+01    0.8887866    0.4862593  68.79  0.003094881    3.629    0.724
        79  -9.2207     39.6841    106.2488   1.0495225254e+02   5.0455438877e+01    0.3364654    0.2247951  76.51 0.0009839755    2.005    0.501
        80  -9.6434      6.3415    103.6823   1.1567789134e+02   5.3641197251e+01    0.4235551    0.2395456  70.68  0.001543686    2.250    0.556
        81  -8.5139    166.0700    104.1185   6.6979215146e+01   2.7862058628e+01     0.269328    0.2219353 -57.39 0.0005215009    1.275    0.216
        82  -9.6975    149.4782    103.0651   7.0575373255e+01   3.1929289060e+01    0.8371639    0.4095329 -59.32 0.0009735077    3.333    0.700
        83  -8.1699    150.9630     96.5176   6.8415946084e+01   3.2918286226e+01    0.3394016    0.1942839  28.06  0.001205268    2.626    0.619
        84  -8.3300     73.6964    102.9226   9.2707116326e+01   4.6986973645e+01    0.2063396    0.1777896 -55.57 0.0004042076    1.116    0.104
        85  -9.4737    245.6572    102.0106   5.2325010123e+01   1.0818584668e+01    0.2972139    0.1976949  55.94  0.001591292    1.720    0.418
        86  -8.7945    158.9993    101.4447   6.7870945005e+01   3.0048890761e+01    0.2935333    0.2295043 -46.18 0.0004703326    1.280    0.219
        87  -9.3338    109.6651     63.8321   6.9437020244e+01   4.8572825630e+01    0.4066865    0.3623507  22.56 0.0006752852    1.099    0.090
        88  -8.7285    111.1326     58.0288   6.7052520739e+01   4.9259542375e+01    0.3358724    0.2342685  25.33 0.0009091801    1.624    0.384
        89  -9.5638     94.3986     97.2502   8.4455001638e+01   4.4831470718e+01    0.4483647    0.2886166 -52.57 0.0007805407    1.566    0.361
        90  -9.5619    105.0019     72.4202   7.3659069163e+01   4.7969105785e+01    0.7868133    0.3928965 -28.80  0.002376946    2.572    0.611
        91 -10.6988     99.0576     86.4919   7.9885233441e+01   4.6310041661e+01    0.6415741    0.3785332 -19.33 0.0008203411    2.762    0.638
        92 -10.3504    103.9509     82.7097   7.7214551607e+01   4.6134484988e+01    0.5938404    0.3166588 -52.98 0.0009103269    2.160    0.537
        93  -8.7024    239.0334     96.5488   5.2037421330e+01   1.3018439674e+01    0.1901925    0.1356137  58.86 0.0003433842    1.576    0.365
        94  -8.4501    164.3257     94.3978   6.4752502680e+01   3.0182598273e+01    0.2921434    0.2355583 -57.47  0.000648508    1.311    0.238
        95  -9.1420    138.8227     92.6366   7.0333277737e+01   3.6518428332e+01    0.4324442    0.3169311  89.24  0.001145589    2.001    0.500
        96  -8.3143    139.3134     87.7073   6.8785644195e+01   3.7389479612e+01    0.3625745    0.2049509  40.41  0.001106185    1.857    0.462
        97  -8.9114     39.6502     52.9269   9.1289462586e+01   6.2334421272e+01    0.2703071    0.1888023 -28.09  0.001292626    1.287    0.223
        98  -9.7352     19.7864     85.4916   1.0795918023e+02   5.7067951187e+01    0.7366647    0.1644606 -52.20  0.002759031    2.994    0.666
        99 -10.5807     25.6634     77.6591   1.0403975526e+02   5.8414142895e+01    0.9115516    0.4962609 -82.28  0.003995055    2.828    0.646
       100 -10.5585     32.1201     64.5383   9.8079117566e+01   6.0731617230e+01     0.995407    0.3934376 -31.49  0.002508498    3.314    0.698
       101  -9.0277     38.2043     58.0860   9.3582353415e+01   6.1464805498e+01    0.2934109    0.2908293  58.25  0.001448023    1.312    0.238
       102 -10.0653     34.4563     90.5143   1.0357234736e+02   5.4706742247e+01    0.5795757    0.3033248 -80.38  0.001698522    2.812    0.644
       103 -10.3285     36.9093     80.9986   1.0046295877e+02   5.6664811528e+01    0.7609631    0.3880381 -10.71  0.003041457    3.298    0.697
       104 -10.1696      4.3678     89.4274   1.1427258810e+02   5.7082193249e+01    0.5912959    0.2975588  86.25  0.002107697    2.677    0.626
       105  -9.6102      6.5032     78.7100   1.1168571364e+02   5.9426214179e+01    0.6846941    0.2648921 -33.55  0.003050393    2.823    0.646
       106  -8.7369    158.0032     90.1319   6.4990328529e+01   3.2508823020e+01    0.5782261    0.2532182 -28.38  0.001797003    3.376    0.704
       107  -8.5497     47.0912     90.2332   9.8885386342e+01   5.3479705834e+01    0.3015257    0.2707061  62.74   0.00181566    1.327    0.247
       108 -10.1849     48.0359     84.4931   9.7116577246e+01   5.4691429616e+01    0.5399677    0.3577926  70.91  0.001566432    2.576    0.612
       109  -9.3919     48.4752     77.2344   9.5028573491e+01   5.6265662715e+01    0.6386966    0.3445711   8.39  0.002749799    2.636    0.621
       110  -9.8611     81.6473     72.5683   8.1355960218e+01   5.2406775930e+01    0.4463847    0.3239166 -72.50 0.0009581666    2.110    0.526
       111  -9.1607     83.2777     64.9098   7.8270250108e+01   5.3625035011e+01    0.5756722    0.3514472  -4.04  0.002260081    2.784    0.641
       112 -10.3063     85.3729     86.6451   8.4387614064e+01   4.8795950021e+01    0.5681028    0.4060627  65.44 0.0008786646    2.006    0.501
       113  -9.8639     87.0672     79.1325   8.1563037284e+01   5.0098716434e+01    0.7049397    0.4013251  17.62  0.001983029    2.700    0.630
       114  -8.8005    195.6700     86.2883   5.6395195989e+01   2.4241444805e+01    0.3353404    0.2388997 -29.45  0.001018764    1.499    0.333
       115  -8.7505    163.6058     86.4730   6.2724651989e+01   3.1859023984e+01    0.3819225    0.1529687 -33.72  0.001262117    2.827    0.646
       116  -9.1727    150.2959     89.7629   6.6678694837e+01   3.4410840311e+01    0.4904816    0.2764426 -28.05  0.001731471    2.194    0.544
       117  -8.8287    157.8204     82.6920   6.2931648499e+01   3.3954604846e+01    0.5501295    0.2262553 -34.73  0.001654601    2.644    0.622
       118  -8.6185    157.0154     76.4618   6.1320514220e+01   3.5281179952e+01    0.3691841    0.1969863 -47.43  0.001016071    1.990    0.497
       119  -9.1861    140.6244     82.0773   6.6803565575e+01   3.8174057807e+01    0.5821991    0.2739562 -37.70  0.001323318    2.194    0.544
       120  -9.2119    140.0702     75.6737   6.5025340552e+01   3.9501079836e+01    0.4718549    0.2124697 -40.49  0.001257553    2.250    0.556
       121  -9.1204    150.1550     79.8697   6.3861858070e+01   3.6321215365e+01    0.5575153    0.2481498 -36.94  0.001364512    2.324    0.570
       122  -8.9540    119.0019     80.4880   7.2072844909e+01   4.3411251933e+01    0.3923555    0.2511669 -54.70 0.0007741989    1.831    0.454
       123  -8.3587    120.0095     75.9869   7.0393780817e+01   4.4061928014e+01    0.2734491     0.214828  41.46 0.0007732692    1.250    0.200
       124  -9.4266     74.4658     78.8806   8.5847872080e+01   5.2295210074e+01    0.7203014    0.3253192 -45.35  0.002107135    2.083    0.520
       125  -8.1369     63.3825     81.2296   9.0540904628e+01   5.3457273915e+01     0.198701    0.1293576 -60.64 0.0009459998    1.691    0.409
       126  -8.7819     68.6822     79.4890   8.8104733548e+01   5.3063517107e+01    0.3146878    0.1515343 -44.76    0.0010728    1.930    0.482
       127  -8.5421    166.5465     78.3307   5.9821312985e+01   3.2628562596e+01    0.3371691    0.1511311 -35.57 0.0009119097    2.313    0.568
       128  -8.1204    184.3466     78.0805   5.6283291330e+01   2.8354108666e+01    0.2370022    0.2059632  46.88 0.0006192926    1.210    0.173
       129  -8.8142    130.6048     64.8104   6.4021172898e+01   4.3667261269e+01    0.5043997    0.3042898 -52.20  0.001759918    1.976    0.494
       130  -9.4338    127.4065     75.2941   6.8154101410e+01   4.2525079128e+01    0.4845206    0.2576325 -48.05 0.0008885222    2.063    0.515
       131  -9.0708    128.2867     69.9550   6.6251315140e+01   4.3302394184e+01    0.5251033    0.2840296  24.81  0.001736103    3.362    0.703
       132  -9.2206    115.2748     72.0844   7.0502871581e+01   4.5844020924e+01    0.5792946    0.2699851 -36.63  0.001210198    2.245    0.554
       133 -10.6537     54.7697     70.7212   9.0712680601e+01   5.6892568406e+01    0.6134887    0.3847799  52.65  0.001212366    2.315    0.568
       134  -9.2352     55.5623     63.3406   8.8095327397e+01   5.8311621398e+01    0.4447263    0.2749122  13.70  0.001633893    1.901    0.474
       135 -10.1171     62.6543     60.7711   8.4457711961e+01   5.7817372342e+01    0.7466432    0.2437133  35.26  0.001255458    3.159    0.683
       136  -8.4124    162.6640     72.8058   5.9058682640e+01   3.4544167104e+01    0.2988615     0.213278 -56.19  0.000738313    1.536    0.349
       137 -10.8685     21.6234     53.3090   9.9424629053e+01   6.3962862215e+01    0.7480851    0.5101771  89.07  0.003160069    2.679    0.627
       138  -8.4221    248.0349    249.2771   8.0682468772e+01  -1.1840987995e+01    0.1574991    0.1328344 -76.76 0.0009051902    3.627    0.724
       139  -8.4513    225.9790    248.9763   8.4531712932e+01  -8.9749171791e+00    0.1590004    0.1420574  42.80 0.0006004515    1.701    0.412
       140  -8.4822     97.2596    244.3687   1.0930096148e+02   1.1028260396e+01    0.2658496    0.1537711  90.00 0.0009427281    2.458    0.593
       141 -10.9137    108.7094    100.8249   8.1033100146e+01   4.1287529147e+01     1.100001    0.7650625 -70.01  0.004713939    1.940    0.484
       142  -9.7674     17.2275     61.4136   1.0358197924e+02   6.2597658974e+01    0.6016891    0.4608716 -10.60  0.003904863    1.342    0.255
       143 -10.0693     12.8943     45.5046   1.0116467272e+02   6.6157966453e+01    0.6287136    0.3031173 -21.67  0.002221367    2.282    0.562
       144  -8.3935    209.0830    239.9185   8.6225955288e+01  -5.4182267126e+00    0.1793955    0.1463385  13.17 0.0004513355    1.048    0.046
       145  -8.4070    247.0711    234.2732   7.8385851945e+01  -9.8921359519e+00     0.165872    0.1244878  11.92 0.0004679837    1.103    0.093
       146  -9.5683      6.8037     32.6705   1.0015804986e+02   6.9007581644e+01    0.2992175    0.1916578 -13.28 0.0008032167    1.472    0.320
       147 -10.0919      7.1620     28.1994   9.8430372880e+01   6.9805575688e+01    0.3936802    0.2573309  30.71 0.0008895253    1.926    0.481
       148  -7.8569    175.2168     72.5748   5.6493269304e+01   3.1509041590e+01    0.2117992    0.1363368  47.82 0.0004556451    1.591    0.372
       149  -8.2985    169.2419     71.3998   5.7324348757e+01   3.3171509985e+01    0.2405126    0.1718823 -43.93  0.000639023    1.405    0.288
       150  -9.2152    153.1077     34.8350   4.9622069816e+01   4.2633219067e+01    0.2912431    0.2128179 -73.39  0.001468632    1.605    0.377
       151  -8.8600    153.4530     40.5856   5.1320629242e+01   4.1797041104e+01    0.3359096    0.2451833 -35.22  0.001388561    1.458    0.314
       152  -9.3410    147.0334     69.3196   6.1450021316e+01   3.8961887235e+01     0.414627     0.270895 -62.07 0.0009085656    1.999    0.500
       153  -9.7910    146.9146     60.3011   5.8728892998e+01   4.0499980120e+01     0.793651     0.267247 -35.90  0.002657743    3.038    0.671
       154  -8.2101    156.5503     69.7811   5.9473859362e+01   3.6561889086e+01    0.2649483    0.1517079 -31.64 0.0007748767    1.898    0.473
       155  -9.6564     94.8601     68.2472   7.5494058942e+01   5.0810588641e+01    0.4292774    0.2663752 -50.31 0.0008187913    1.801    0.445
       156  -9.1976     97.2540     58.6691   7.1471340009e+01   5.2087016263e+01    0.7823039    0.4447414  -6.91  0.002653814    3.716    0.731
       157  -9.3909    138.0101     66.2582   6.2638966012e+01   4.1663118628e+01     0.332929    0.2611553 -74.59 0.0005620625    1.606    0.377
       158  -8.6232    138.8209     62.1582   6.1162554864e+01   4.2161119930e+01    0.2821746    0.2156375  -3.25 0.0008512766    1.666    0.400
       159  -9.0572    121.1538     66.0333   6.6905666287e+01   4.5636604255e+01    0.3625929     0.254631 -53.27  0.000703069    1.654    0.395
       160  -8.5363    121.8115     61.4129   6.5218768536e+01   4.6288531352e+01    0.4766613    0.2179508  38.18  0.001601651    2.502    0.600
       161  -8.3906    170.5096     64.9317   5.5252093228e+01   3.3931585694e+01    0.2188919    0.1450907 -37.95 0.0006830924    1.531    0.347
       162  -8.2956    157.4101     63.0320   5.7302603863e+01   3.7476286576e+01     0.286856    0.1687389 -43.29 0.0007644601    1.746    0.427
       163  -9.0438     49.5300     62.4956   9.0249923756e+01   5.9264531671e+01    0.2290485    0.1260716 -60.82  0.001024358    2.299    0.565
       164  -8.3926    164.5760     60.3271   5.5072695190e+01   3.6136638048e+01    0.3769289    0.1505696 -31.53  0.001331617    2.787    0.641
       165  -9.8649     73.1269     59.3204   7.9990812216e+01   5.6444511195e+01    0.4474622    0.2608581 -51.84 0.0008792597    1.995    0.499
       166  -9.4813     74.7051     51.3722   7.6566650611e+01   5.7616005585e+01    0.7646272      0.38503  17.94  0.002681735    3.643    0.726
       167  -7.5139    152.5147     60.0760   5.7445832605e+01   3.9160642639e+01    0.2212916    0.1474513 -36.04  0.001021529    1.559    0.358
       168  -8.6502     87.5141     58.4670   7.4597005851e+01   5.4035430147e+01    0.2600237    0.2401242 -79.57 0.0006665952    1.395    0.283
       169  -8.5173    130.0843     57.8990   6.1927602941e+01   4.4946172114e+01     0.278689    0.2287559 -62.79 0.0005093854    1.428    0.300
       170  -7.8766    130.5446     53.4868   6.0373375550e+01   4.5539392323e+01    0.2517526    0.1948459 -15.33 0.0009436944    1.481    0.325
       171 -10.1260     49.8880     53.7353   8.7194950770e+01   6.0948125729e+01    0.6664049    0.3385428 -55.23  0.001962053    2.344    0.573
       172  -9.4918     56.4432     43.1161   8.0574830958e+01   6.1971747684e+01    0.7359453    0.3874769  -0.51  0.002598703    4.130    0.758
       173  -9.6036    142.0500     48.2524   5.6028237556e+01   4.3546252772e+01    0.5517759    0.2999825 -19.54   0.00198941    2.482    0.597
       174  -9.4635    138.9115     56.6592   5.9405745736e+01   4.3031471931e+01     0.336823    0.2222271 -47.44 0.0006973408    1.653    0.395
       175  -9.2743    118.1325     55.4207   6.4212650502e+01   4.8124778894e+01    0.3713825    0.2976175 -76.54 0.0006085582    1.671    0.401
       176  -9.2356    120.6613     47.6781   6.0906271708e+01   4.8751571564e+01    0.5745749    0.3261383 -15.57  0.001465925    2.483    0.597
       177  -9.2957     44.1980     53.8953   8.9653958900e+01   6.1623050508e+01    0.3679327    0.1949193 -34.89 0.0008431686    1.778    0.438
       178  -7.3317    169.3403     55.6818   5.2838540045e+01   3.5673023037e+01     0.154744    0.1091918 -73.60 0.0003503064    1.711    0.416
       179  -8.9578    162.8807     53.7398   5.3477426521e+01   3.7573230430e+01    0.3113903     0.216323 -26.15  0.001415417    1.625    0.385
       180  -8.8562    105.5321     52.2406   6.6679260125e+01   5.1436240710e+01    0.5118323    0.2715038 -36.49  0.001790866    1.946    0.486
       181  -8.7617     89.4119     53.0790   7.2041653424e+01   5.4612105354e+01    0.5662032    0.2622263  32.22   0.00213648    2.560    0.609
       182 -10.2038     85.1755     48.1454   7.1661688150e+01   5.6253037443e+01    0.4069218    0.3283427 -60.81  0.001021521    1.688    0.408
       183 -10.2142     90.4294     38.1397   6.6125114431e+01   5.6760844452e+01    0.8742534    0.3088673  35.40  0.002844774    3.762    0.734
       184  -7.4941    172.4369     50.0319   5.0681261269e+01   3.5740509790e+01    0.2071698    0.1425282 -32.25 0.0003501453    1.551    0.355
       185  -8.5358    157.3661     49.3572   5.3232527985e+01   3.9594726344e+01    0.2882937    0.1931357 -70.84 0.0006942162    1.939    0.484
       186  -9.0709    139.5033     40.2595   5.4008531918e+01   4.5294081333e+01    0.4130917     0.292602 -65.15 0.0007766443    1.783    0.439
       187  -9.0382    187.8020    233.0306   8.9263585296e+01  -1.1962321311e+00    0.2617532    0.2292002 -81.01  0.001219215    1.801    0.445
       188  -8.7849    132.8614     35.8053   5.3972041863e+01   4.7502992575e+01    0.2721026    0.2086075 -60.34 0.0007348142    1.555    0.357
       189  -7.9419    110.6064    225.1929   1.0432482923e+02   1.2635032331e+01    0.1730629    0.1211291 -47.03 0.0008771304    1.721    0.419
       190  -8.5174    162.6199     46.6415   5.1439688861e+01   3.8673841866e+01    0.2894084    0.1885037 -70.13 0.0009069337    1.973    0.493
       191  -8.4881    111.9469     46.8986   6.2960942976e+01   5.0859156515e+01    0.2262553    0.2049672 -32.40  0.000499472    1.177    0.150
       192  -9.0064     70.6042     26.3608   6.8142514802e+01   6.2204931396e+01    0.3978598    0.2429516  36.64  0.001889385    1.498    0.333
       193  -9.0150    207.8557    222.4215   8.3568076008e+01  -2.6909287303e+00    0.2825144    0.2343932  65.95  0.001087569    1.980    0.495
       194 -10.2899    227.7690    215.9153   7.8663983957e+01  -4.7305311526e+00    0.2347525    0.1944721   8.17 0.0004061596    1.064    0.060
       195  -8.7541     84.5243     21.8953   6.1493700361e+01   6.0093980282e+01    0.2359617     0.203198 -15.98 0.0007717697    1.219    0.180
       196  -9.9135     37.8101     41.9962   8.8266922189e+01   6.4599343224e+01    0.3474218    0.3042286 -86.50  0.001535458    1.853    0.460
       197 -10.3199     35.9134     38.0076   8.7640072483e+01   6.5526406207e+01    0.5765507    0.3010264 -16.97 0.0003741282    2.475    0.596
       198  -8.4273    114.4963     40.9380   6.0161252240e+01   5.1150944857e+01    0.4227348    0.2434309  -4.22  0.001651968    2.893    0.654
       199  -8.6701    110.0471     26.9425   5.6227513299e+01   5.3984774709e+01    0.3435263    0.1670334 -13.93  0.001363473    2.947    0.661
       200  -9.2308    110.3124     33.2173   5.8475370084e+01   5.3145943680e+01    0.3676946    0.2481009 -39.88  0.001051295    1.652    0.395
       201  -8.8311    104.9152     40.7312   6.2717165400e+01   5.3326964906e+01    0.3367693    0.2205317 -48.09 0.0009357389    1.857    0.462
       202  -8.5868    105.8751     36.3936   6.0847514827e+01   5.3720468645e+01     0.335493    0.2151547  32.49  0.001138315    1.603    0.376
       203  -8.2511    123.1330     40.4522   5.7799401475e+01   4.9212095765e+01    0.3497829    0.1781522  23.32  0.001136795    3.945    0.747
       204  -8.5102     53.3172     39.0440   8.0290203949e+01   6.3115126532e+01    0.2537479    0.1407429 -39.91  0.001293623    1.736    0.424
       205  -8.8138    160.3948     38.7284   4.9495205980e+01   4.0310428604e+01    0.2639967    0.1300765 -36.11  0.001128804    2.092    0.522
       206  -9.0646    144.2849     36.5398   5.1832349185e+01   4.4607507645e+01    0.2755825    0.2158346 -66.27 0.0008027999    1.468    0.319
       207  -8.8093    118.9158     34.6253   5.6795789037e+01   5.0981502487e+01    0.2969246    0.1963086 -28.84 0.0009140556    1.633    0.388
       208  -9.2790    101.0427     31.6708   6.0432421346e+01   5.5408713513e+01    0.4865287    0.2067023 -32.56  0.001840093    2.472    0.595
       209  -8.8610     62.5971     26.8280   7.1393835318e+01   6.3538187205e+01    0.5051643    0.2031574  31.48  0.001863182    2.796    0.642
       210  -8.9821    196.4062    216.7748   8.4850397613e+01   1.5130751199e-03    0.2857549    0.1855767  33.60 0.0009469895    1.383    0.277
       211  -7.5964     55.8042    216.0489   1.1514867652e+02   2.2382495665e+01    0.1670852   0.09053329 -74.45 0.0002722882    1.832    0.454
       212  -7.8629    168.0302     33.9042   4.6805057575e+01   3.9021897884e+01    0.2226126    0.1559175  38.26  0.001113583    1.662    0.398
       213  -7.5836    163.6891     33.7105   4.7452059705e+01   4.0130897500e+01    0.1404367    0.1016205  37.53 0.0002202562    1.582    0.368
       214  -9.6357     79.5377     23.9650   6.3986232724e+01   6.0833902588e+01    0.5481659    0.2455926  31.24  0.001740322    2.620    0.618
       215  -9.4349     60.1526     33.4966   7.5199720420e+01   6.2964156295e+01    0.3811954    0.2632743 -48.56  0.001411797    1.864    0.464
       216  -8.8449    197.2550    212.0971   8.3863350537e+01   6.2444242710e-01    0.2157935    0.1706468  29.55 0.0002424292    1.159    0.137
       217  -8.6496     45.4831     15.9274   7.3671427469e+01   6.7704603313e+01    0.2085089    0.1358351 -21.42  0.001247704    1.427    0.299
       218 -10.0211     11.3597    207.3332   1.2370389993e+02   2.9142231583e+01    0.5725251    0.3091706  22.74  0.003209976    2.488    0.598
       219  -8.2653     42.0220     28.0377   8.0742093654e+01   6.6442446687e+01    0.2229422    0.1319111 -13.35  0.001166801    1.863    0.463
       220 -10.0075    149.8421     46.4998   5.3846649556e+01   4.1876705566e+01    0.8004749     0.254632 -37.41  0.002503498    3.117    0.679
       221  -8.4745    147.4809     28.4844   4.8674260346e+01   4.4810687321e+01    0.1974925    0.1279716  74.62 4.223237e-06    1.571    0.363
       222  -9.1137    144.1504     25.7420   4.8415227545e+01   4.5954810001e+01    0.2315273    0.1776804 -45.40 0.0007362155    1.424    0.298
       223  -9.0291     91.3993     26.2679   6.1149977048e+01   5.8151026696e+01    0.3253846     0.223317 -48.24 0.0008219357    1.903    0.474
       224  -8.3468     92.2697     20.8612   5.8713572039e+01   5.8607997584e+01    0.3637673    0.1810963  28.86  0.001550818    2.439    0.590
       225  -7.9725    156.6846     27.3370   4.6718154657e+01   4.2652759889e+01    0.1449242   0.09985856 -69.55 0.0002460524    1.696    0.410
       226  -8.4642    197.9599    207.2747   8.2861756423e+01   1.3060614550e+00    0.2074322    0.1782944 -14.34 0.0003662806    1.136    0.119
       227  -7.2952    224.7163    204.0056   7.7069986610e+01  -2.4790857750e+00    0.1491665    0.1055101 -29.04 0.0003770749    1.352    0.260
       228  -8.1039    129.4292     16.9254   4.8299859010e+01   5.0511194297e+01    0.3980112    0.1816937 -51.44  0.001246518    3.201    0.688
       229  -8.2520    149.7969     25.3231   4.7273885068e+01   4.4601430328e+01    0.1867775    0.1722948 -67.03 0.0006131631    1.146    0.127
       230  -9.1671    118.7970     21.4343   5.2116374202e+01   5.2580148698e+01    0.2390255    0.2215923  49.43 0.0005445771    1.054    0.051
       231 -10.4305    165.1637    202.0939   8.8825157220e+01   7.8890956629e+00    0.2484372    0.2433099  14.18 0.0003361258    1.119    0.107
       232  -9.2229    191.7562    193.6644   8.1613283408e+01   4.7225588144e+00    0.8969044    0.4568242 -62.59  0.002547182    6.392    0.844
       233  -8.2456    111.6015     20.7694   5.3549139473e+01   5.4330264968e+01    0.3409361    0.1325211 -23.19  0.001339959    3.022    0.669
       234  -8.5684    187.0440    187.0873   8.1336867888e+01   6.7647793595e+00    0.2013704    0.1877761  13.08 0.0002759268    1.058    0.054
       235  -8.4636    117.0740    199.9117   9.9378066506e+01   1.6757044779e+01    0.2019192    0.1875035  48.18 0.0003435513    1.038    0.037
       236  -9.2202     49.6768    191.0108   1.1409856241e+02   2.8687228457e+01    0.2073802    0.1747654  49.96 0.0002267576    1.192    0.161
       237  -7.1960    172.6967    184.3500   8.3898469523e+01   9.9320628478e+00    0.1414467     0.116845  82.57 0.0007040284    1.699    0.411
       238  -9.0309    102.9915     21.1156   5.5845253312e+01   5.6245691593e+01    0.2849662    0.2492303 -56.91 0.0008884566    1.423    0.297
       239  -7.3433    240.3340    179.2752   6.9499386997e+01  -1.0461458710e+00      0.13287   0.09097587   1.24            0    1.602    0.376
       240  -8.5994     40.8094     20.3511   7.7893204505e+01   6.7754037644e+01    0.2491658    0.1497627 -34.92  0.001438991    1.608    0.378
       241  -7.4651    114.7279    176.4208   9.6125141799e+01   2.2375108972e+01    0.1860235    0.1397925  28.85 0.0002723291    1.415    0.293
       242  -7.6002    151.5005     20.4961   4.5493888539e+01   4.4711874261e+01    0.1373394    0.1218162  71.20 -0.0001514945    1.009    0.009
       243  -8.7785    139.5721     17.9222   4.6729477935e+01   4.7934040437e+01    0.2264174    0.2056831 -38.20 0.0008415963    1.231    0.188
       244  -8.5467    233.0905     18.7513   3.5413785907e+01   2.5432709478e+01    0.1944871    0.1656812 -47.76 0.0003710179    1.237    0.192
       245  -6.9272    100.7276    176.2222   9.9615679926e+01   2.4820301269e+01    0.1377362    0.1026032  63.72            0    1.414    0.293
       246  -8.7697     50.9959    175.3488   1.1206500531e+02   3.2202232622e+01    0.2175999    0.1697842 -67.47 0.0003186544    1.233    0.189
       247  -8.2260    230.4844    168.4577   6.9064015832e+01   2.3468929441e+00    0.2521741    0.1164255 -47.07  0.001040511    2.475    0.596
       248  -8.6968    133.7094    146.9555   8.5462638591e+01   2.5614935072e+01    0.6370733     0.203683 -54.16  0.001820907    3.748    0.733
       249  -8.3351     95.9788     16.9483   5.6086740419e+01   5.8240250876e+01    0.2129924    0.1830046 -16.61 0.0004162535    1.259    0.206
       250  -9.1782    237.6075    145.8358   6.3090359079e+01   4.9424844742e+00    0.2975287    0.1461503  31.39  0.001224027    2.749    0.636
       251  -9.8638     16.1207     70.4335   1.0620905231e+02   6.0717062334e+01    0.4255646    0.2050601 -59.16  0.001334253    1.687    0.407
       252  -9.5123     66.8553    143.9438   1.0334048933e+02   3.7882645902e+01    0.5262252    0.3441727  51.46  0.002558748    1.625    0.384
       253  -7.3380    236.6784    138.3194   6.1631216759e+01   6.3954942431e+00    0.1344906    0.1051477 -65.72 0.0005868871    1.669    0.401
       254 -11.0653     69.9154    126.9987   9.9297487818e+01   4.1681833638e+01     1.055305    0.6423683 -42.22  0.001766791    1.736    0.424
       255  -8.0437    245.1986     13.2002   3.3310821330e+01   2.3497223626e+01    0.1637363    0.1423213 -72.83 0.0005097268    1.157    0.136
       256 -10.4890     58.1571    124.4989   1.0244850441e+02   4.3878470455e+01      0.89484    0.4753171 -80.19  0.001948862    2.571    0.611
       257  -8.8352    112.2884    133.9758   8.8312091626e+01   3.2871707074e+01    0.3651053     0.271778  88.46  0.001336624    1.802    0.445
       258 -10.2054    134.5758    132.1965   8.1852465011e+01   2.8828866147e+01     0.584826    0.4747085  74.54  0.001679696    1.482    0.325
       259  -9.1941     83.1178    131.4327   9.6206311442e+01   3.8599754650e+01    0.6630033    0.3994629  79.14  0.002373751    2.967    0.663
       260  -7.2428    195.6672     11.3128   3.7172950456e+01   3.4823790422e+01    0.1389325   0.08346471 -68.17 0.0004767483    1.680    0.405
       261  -9.4823    191.9189    133.5532   6.8793927697e+01   1.6188289679e+01    0.2821754    0.2605501 -47.03 0.0003267683    1.095    0.087
       262  -9.8453     98.6059    128.6174   9.1015352204e+01   3.6684468857e+01    0.6340275    0.4002692  74.44  0.002321059    2.668    0.625
       263  -8.1809    196.9773    130.0203   6.6944165378e+01   1.5801614073e+01     0.227748     0.216355 -26.98 0.0004409578    1.003    0.003
       264  -9.8466    111.4978     89.6393   7.7008919439e+01   4.3146813879e+01     1.710223    0.7039728  28.44  0.004190434    5.775    0.827
       265 -10.3347    117.1852    125.4142   8.4934653183e+01   3.3948530908e+01     1.023068    0.6295416 -69.29  0.002288982    2.273    0.560
       266 -10.4413    139.5399    104.4262   7.3443607849e+01   3.3908858698e+01     1.239647    0.3828477 -48.22   0.00325449    3.568    0.720
       267 -11.0519    122.9094     93.5861   7.4871102231e+01   3.9889034365e+01     1.689258    0.6697614 -35.03  0.003696384    3.176    0.685
       268 -10.4485    131.9247    119.7651   7.9492953171e+01   3.2213830886e+01     1.000524    0.6069017  76.59  0.003154073    3.680    0.728
       269 -10.9627    133.5429    109.6568   7.6428157757e+01   3.4112349777e+01    0.9506106    0.6098795 -48.97  0.002381616    1.584    0.369
       270 -10.0747    108.7395    114.5172   8.4654679383e+01   3.8157387100e+01    0.7341675    0.4866055 -83.29  0.001593306    2.567    0.610
       271 -11.2303    120.7077    110.7980   8.0247436396e+01   3.6600990705e+01     1.386817    0.7115809 -59.30   0.00232897    2.553    0.608
       272 -10.5218    128.5180    100.5778   7.5304897143e+01   3.7180445530e+01     1.323835    0.7295581 -21.23  0.004178707    3.459    0.711
       273  -9.9358     42.0001    122.8962   1.0720658924e+02   4.6135969694e+01    0.6480954    0.3417576  89.07  0.002590001    2.806    0.644
