#   1 NUMBER                 Running object number                                     
#   2 MAG_AUTO               Kron-like elliptical aperture magnitude                    [mag]
#   3 X_IMAGE                Object position along x                                    [pixel]
#   4 Y_IMAGE                Object position along y                                    [pixel]
#   5 X_WORLD                Barycenter position along world x axis                     [deg]
#   6 Y_WORLD                Barycenter position along world y axis                     [deg]
#   7 A_WORLD                Profile RMS along major axis (world units)                 [deg]
#   8 B_WORLD                Profile RMS along minor axis (world units)                 [deg]
#   9 THETA_WORLD            Position angle (CCW/world-x)                               [deg]
#  10 FWHM_WORLD             FWHM assuming a gaussian core                              [deg]
#  11 ELONGATION             A_IMAGE/B_IMAGE                                           
#  12 ELLIPTICITY            1 - B_IMAGE/A_IMAGE                                       
         1 -12.9320    235.6382     22.8249   1.2359712102e+01   2.3284884108e+01    0.9287677    0.5720102  87.45  0.004914705    1.608    0.378
         2 -12.1944    235.6540     16.3733   1.0888596778e+01   2.4048286161e+01      0.72063    0.3411379  81.78  0.003340761    2.167    0.539
         3 -10.9029     49.8065      5.6305   4.4411006163e+01   6.7626652266e+01    0.1560122    0.1056603  44.64 0.0007143445    1.729    0.422
         4 -11.3807    102.3060    242.0889   8.4668180428e+01   1.1602101676e+01    0.2177592    0.1629003 -63.97   0.00115149    1.578    0.366
         5  -9.4554    114.2960    250.3031   8.3302051028e+01   8.3822003764e+00    0.1059397   0.08875912  20.71  0.000310761    1.579    0.367
         6 -18.4498      8.0501    233.9826   1.0066609952e+02   2.5068935625e+01     6.456374     3.429073 -79.18   0.02037393    1.664    0.399
         7  -9.3382    142.0000    213.9131   7.3313976707e+01   1.0077142364e+01    0.1897215   0.07760181 -51.69 0.0005630123    2.828    0.646
         8 -10.9063    130.5730    206.2810   7.4569241323e+01   1.3521335704e+01    0.2382218    0.1899562  52.93 0.0005259227    1.109    0.099
         9 -15.5762      8.5735    207.5918   9.9207698265e+01   3.0057919518e+01    0.9268685     0.662562  -7.40  0.005636072    3.285    0.696
        10  -9.7466    125.0000    243.9509   8.0613475961e+01   7.7366716254e+00    0.1673494   0.07055973 -56.49 0.0007969684    2.905    0.656
        11 -12.3163    111.0573    234.9587   8.2242617292e+01   1.1487141704e+01    0.4128216    0.1906101 -54.94  0.001809167    2.554    0.608
        12 -13.1532    100.3344    227.0531   8.3437289885e+01   1.4598778005e+01    0.6493289    0.2690004  54.79  0.002899062    2.379    0.580
        13 -10.8220     75.5252    181.5002   8.3188341771e+01   2.7713545402e+01     0.282211    0.1620706  72.30  0.001323684    2.050    0.512
        14 -11.6109     98.2058    181.4170   7.8001414426e+01   2.4224761995e+01    0.3989481    0.3305024  12.58  0.001411984    1.657    0.396
        15 -10.2098    179.5144    175.5054   5.8648359792e+01   1.0135851617e+01     0.145592    0.1351114  27.11 0.0008104966    1.001    0.001
        16 -11.5798     69.9493    173.4495   8.3413211572e+01   3.0319675505e+01    0.3087793    0.2346839  44.65 0.0009322108    1.336    0.251
        17 -12.8563     57.5930    133.9651   8.0672269104e+01   4.1227023399e+01    0.6975553    0.3390558 -51.12  0.001330853    1.970    0.492
        18 -11.3087     81.9252    152.2462   7.7321810225e+01   3.3490927012e+01    0.3934613    0.2407508 -78.40 0.0004871507    1.847    0.458
        19 -11.8237     76.9681    168.8677   8.1129059361e+01   3.0361146675e+01    0.4388195    0.2706555  68.45  0.002135534    1.813    0.449
        20 -13.0006     71.9836    161.8136   8.1307142605e+01   3.2711680287e+01    0.8935246    0.5778074 -26.70  0.003968356    2.829    0.647
        21 -13.8623     69.3751    145.3133   7.9406075609e+01   3.6965821503e+01     1.001854    0.6555811  81.15  0.002853187    1.821    0.451
        22 -10.9326    110.4974    166.9985   7.2779004499e+01   2.5337166615e+01    0.2926319    0.2178993 -88.79 0.0009620368    1.540    0.351
        23 -11.5645     93.9731    165.7320   7.6557556550e+01   2.8444756989e+01    0.4457824    0.2703716 -88.80  0.001273922    2.245    0.555
        24 -11.7572     83.7357    167.0604   7.9240996078e+01   2.9761010442e+01    0.3990261    0.1921675 -68.71  0.001693349    2.212    0.548
        25 -11.2694    247.2404    164.0672   4.3206157850e+01  -9.0335288968e-01    0.3981566    0.1549777 -43.05  0.001566943    2.796    0.642
        26 -11.2590    148.3864    228.5050   7.4124513990e+01   6.4213413550e+00    0.3239281    0.1267064 -50.39  0.001408908    3.069    0.674
        27 -11.3941    144.1757    228.9613   7.5019754339e+01   7.0641304784e+00    0.1993185    0.1574559  60.80 0.0006032499    1.267    0.211
        28 -12.3010     23.1861    155.1112   9.2194985166e+01   3.9955511618e+01    0.4214928    0.2335258  82.67  0.001665511    1.778    0.438
        29 -11.6047     31.8271    154.7334   9.0116134976e+01   3.9213032757e+01    0.3971503    0.1893624 -88.82   0.00184268    2.274    0.560
        30 -11.1220     60.0035    154.5163   8.3206538562e+01   3.6043391756e+01    0.3405269    0.2001118  56.56  0.001404754    1.790    0.441
        31 -12.8975    126.2132    228.6026   7.8524199984e+01   1.0150712747e+01    0.5379385    0.1952811  47.63  0.002275932    2.370    0.578
        32 -10.7891    133.6841    144.3397   6.2633948350e+01   2.6023473505e+01    0.2521767    0.1586476 -54.06 0.0008692651    1.648    0.393
        33 -11.1967     64.8835    152.6860   8.1715512732e+01   3.5832241808e+01    0.4431696    0.1892862 -57.41  0.001913985    2.131    0.531
        34 -11.0491     35.4648    143.9096   8.7939355436e+01   4.1361694502e+01    0.3226418    0.1818317  46.21  0.001669916    1.861    0.463
        35 -11.9888     88.4002    147.3730   7.4807445597e+01   3.3627933842e+01    0.4974338    0.3671282 -11.62  0.001469221    2.184    0.542
        36 -10.4331     25.9518    137.8531   8.9605670258e+01   4.3684395597e+01    0.2447696    0.1698433  47.47   0.00149849    1.556    0.357
        37 -12.0033    104.5666    132.3497   6.7543726397e+01   3.4413349382e+01    0.6830192    0.3925154 -29.75  0.002551615    2.787    0.641
        38 -11.1260     49.1226    129.5154   8.2263599836e+01   4.3299162470e+01    0.2393386    0.1894409 -77.48  0.000408705    1.130    0.115
        39 -10.2783    137.5307    128.4909   5.8038633083e+01   2.8759866027e+01    0.1542742    0.1518121  83.71 0.0008098035    1.008    0.008
        40 -11.4243     90.2476    133.4810   7.1657925863e+01   3.6621891859e+01     0.262644    0.2449686 -39.92 0.0004376284    1.162    0.140
        41 -10.1675     98.8182    122.2465   6.6875995767e+01   3.7811371911e+01    0.2592962    0.2232108 -15.76 0.0009246522    1.387    0.279
        42 -10.4493     73.6668    120.2363   7.3599781037e+01   4.2342232776e+01    0.2552674    0.1654135 -49.77 0.0007942895    1.452    0.311
        43  -9.8186     64.7676    118.5525   7.5843038143e+01   4.3981133183e+01    0.2416986    0.1838373 -82.77 0.0004766117    1.398    0.285
        44 -10.7829     32.3794    118.3517   8.5193108899e+01   4.7669166608e+01    0.2240759     0.184923 -82.65 0.0003096647    1.113    0.101
        45 -12.8389     88.8112    225.5554   8.5526262266e+01   1.6635830192e+01    0.5161946    0.3501411 -86.36  0.003116092    1.552    0.356
        46  -9.9079     61.2590    115.9817   7.6361356150e+01   4.5051251422e+01    0.1881275    0.1594812 -63.38 0.0002926065    1.050    0.047
        47 -10.2806     67.6827    120.7236   7.5428131979e+01   4.3070404122e+01    0.2268743    0.1787056 -87.42 0.0006177467    1.362    0.266
        48 -10.9668     56.5432    112.3741   7.7046271241e+01   4.6497151296e+01    0.2374167    0.1811961 -83.35 0.0007363477    1.394    0.283
        49  -9.4889    205.3276    110.0665   3.8343588796e+01   1.6973378551e+01    0.2161316    0.1928869 -39.41 0.0007392613    1.086    0.079
        50 -10.7929    110.3851    223.1928   8.1000053112e+01   1.3724156397e+01    0.1694187     0.115742 -80.73 0.0009529626    1.709    0.415
        51 -12.1360     24.1324    106.2872   8.5705165360e+01   5.1194562446e+01    0.3875664    0.2149557 -58.19  0.001701269    1.450    0.310
        52 -10.4017    154.1865    222.4159   7.2095006402e+01   6.4420909425e+00    0.1861086    0.1063665  49.01 0.0009331726    1.584    0.369
        53 -11.4469      9.8797     92.7497   8.7933400129e+01   5.5289317506e+01    0.2288097    0.1837183  56.80 0.0006969548    1.498    0.333
        54 -11.3079      7.9807     85.6877   8.7398321193e+01   5.6979244095e+01    0.1617496     0.134539 -60.11 0.0005129456    1.070    0.066
        55  -9.7397     86.0081     73.0145   5.7576889026e+01   5.0973768118e+01    0.1702855    0.1596358   0.31 0.0003819411    1.059    0.055
        56 -11.3487    186.9863     60.0518   2.8347328899e+01   3.0123818369e+01    0.3336154    0.3178379 -86.64 0.0006946018    1.011    0.011
        57 -11.4167     13.3972     60.1523   8.0349338424e+01   6.2165575039e+01    0.1955633    0.1803976 -61.22 0.0006139639    1.229    0.186
        58  -9.8753     74.8133     57.7744   5.6359520184e+01   5.5813971127e+01    0.1764049    0.1663814  74.78  0.001058871    1.385    0.278
        59 -13.2477    202.8101     48.6775   2.2696718315e+01   2.7822723553e+01     1.136411    0.7856671  40.11   0.00485469    1.719    0.418
        60 -12.7123    209.2543     43.2941   2.0374875234e+01   2.6972276367e+01    0.6964694    0.6300737   3.31  0.001633798    1.360    0.265
        61 -10.4804     20.7606     40.7247   7.1886719021e+01   6.5507715627e+01    0.2112167    0.1247487  43.36  0.001169321    2.547    0.607
        62  -9.8264    154.7027    248.6707   7.5607350149e+01   2.1842208605e+00     0.116713   0.08729363  15.12 0.0004669611    1.637    0.389
        63 -10.0092    124.5462    248.5166   8.1216276756e+01   7.0674717752e+00    0.1221555   0.09584117  50.77   4.8852e-05    1.004    0.004
        64  -9.7475     60.4652     21.0201   4.7336958951e+01   6.4058144660e+01    0.1799259    0.1112938 -27.68 0.0004497348    1.512    0.338
        65 -11.0682     45.5100     18.4681   5.2266812385e+01   6.6595675876e+01    0.2154819    0.1746415   1.41 0.0007340212    1.069    0.065
