#   1 NUMBER                 Running object number                                     
#   2 MAG_AUTO               Kron-like elliptical aperture magnitude                    [mag]
#   3 X_IMAGE                Object position along x                                    [pixel]
#   4 Y_IMAGE                Object position along y                                    [pixel]
#   5 X_WORLD                Barycenter position along world x axis                     [deg]
#   6 Y_WORLD                Barycenter position along world y axis                     [deg]
#   7 A_WORLD                Profile RMS along major axis (world units)                 [deg]
#   8 B_WORLD                Profile RMS along minor axis (world units)                 [deg]
#   9 THETA_WORLD            Position angle (CCW/world-x)                               [deg]
#  10 FWHM_WORLD             FWHM assuming a gaussian core                              [deg]
#  11 ELONGATION             A_IMAGE/B_IMAGE                                           
#  12 ELLIPTICITY            1 - B_IMAGE/A_IMAGE                                       
         1 -15.1867    247.5604    123.2757   1.4915766761e+01   9.1591071596e+00     2.871123    0.5956237 -41.45  0.009789328    4.517    0.779
         2 -14.9189    245.9692    105.4792   1.1546843833e+01   1.1801658946e+01     2.874495    0.6929965 -44.57  0.009745119    4.548    0.780
         3 -15.9594    248.1358     57.1067   1.3060690178e+00   1.7702172749e+01     8.597202    0.8796146 -31.52   0.02132549    8.267    0.879
         4 -12.6434      2.8712     50.4482   7.3211402206e+01   6.9169546157e+01    0.6036467    0.2354656 -64.84  0.002624837    2.128    0.530
         5 -13.0581     11.6090     24.4352   5.8886387800e+01   7.4785455307e+01    0.8356192    0.3545583 -27.28  0.003324464    2.969    0.663
         6 -11.8272      1.6655     24.9395   6.7934236590e+01   7.5280657798e+01    0.4568183    0.1453887 -69.19  0.001819885    2.982    0.665
         7 -12.4809      6.1444     11.5942   5.7895341228e+01   7.7898319123e+01    0.7460474      0.35952 -30.00  0.003589276    2.111    0.526
         8 -11.5009     19.6389     14.6942   4.6632197108e+01   7.5946083245e+01     0.296794    0.1897506 -14.57  0.001538207    1.772    0.436
         9 -11.4287     13.4712     12.9970   5.1288634887e+01   7.6968065105e+01    0.2779725    0.1784852 -26.10   0.00128585    1.534    0.348
        10 -12.0895     15.5293      7.2895   4.5523761087e+01   7.7797013525e+01    0.3835288    0.2418648 -10.57  0.002030905    1.800    0.445
        11 -12.1892     25.4119      4.2240   3.4215869850e+01   7.6884194214e+01     0.495508    0.3014714  10.35  0.002435909    2.097    0.523
        12 -10.7917     41.3230      2.6875   2.1951191709e+01   7.4115195024e+01    0.2900721    0.1230545  36.43  0.001182324    2.500    0.600
        13 -11.8961      9.8887      2.2599   4.7714905154e+01   7.9334776587e+01    0.5421163    0.2207106  18.79  0.002338703    2.752    0.637
        14 -12.3800    248.6015    215.1048   3.1005825207e+01  -2.4757423030e+00    0.4968548    0.1939216 -30.71  0.002859039    2.236    0.553
        15 -11.6625    240.0222    239.4965   3.5946665623e+01  -4.2213659728e+00    0.2310444    0.1302394 -28.60  0.001103915    1.709    0.415
        16 -10.9781    243.4879    235.9447   3.4901593947e+01  -4.1951540262e+00     0.179792    0.1195915 -13.65  0.001206711    1.217    0.179
        17 -11.0799    244.7453    230.7332   3.3948679702e+01  -3.7730601897e+00    0.2338468    0.1356925 -28.54  0.001114755    1.635    0.388
        18 -12.1467    242.6774    245.9738   3.6451898264e+01  -5.1417747048e+00    0.5049361    0.2245717 -16.11  0.003075659    2.236    0.553
        19 -11.7321    248.9693    225.5003   3.2533874441e+01  -3.6419106554e+00    0.3438276      0.16189 -29.28  0.001699093    1.875    0.467
        20 -11.4589    247.1085    239.9123   3.4920850569e+01  -4.9558766250e+00    0.3068231    0.1692517 -17.03  0.001693381    1.488    0.328
        21 -11.4491    249.9268    233.2893   3.3541764768e+01  -4.5519188480e+00      0.31731    0.1787504 -16.63  0.001988307    1.431    0.301
        22 -10.9600    248.9315    250.0764   3.6071619430e+01  -6.1322250142e+00    0.3300314    0.1271011  23.99  0.002038322    2.184    0.542
        23 -10.8429    248.9399    245.2918   3.5405573608e+01  -5.6665745355e+00    0.2885999    0.1354785 -18.52  0.001916824    1.874    0.466
        24 -12.0897    233.9441    245.0155   3.7680326126e+01  -4.1903288411e+00    0.3783463    0.1833777 -20.06  0.001996127    1.902    0.474
        25 -11.4091    225.3138    248.6818   3.9576016597e+01  -3.7040678342e+00    0.2444071    0.1486319 -17.59  0.001509296    1.452    0.311
        26 -11.8690    211.8157    248.4642   4.1797007961e+01  -2.2695371854e+00    0.3283773    0.1863982 -11.60  0.002181573    1.675    0.403
        27 -10.3900     50.7107    250.1136   7.4830073426e+01   1.6893643254e+01    0.2562763   0.07732117  38.54  0.001211809    2.097    0.523
        28 -11.4327     36.7771    248.6561   7.7788912659e+01   1.8639176575e+01    0.4809933     0.143588  46.38  0.002305201    2.278    0.561
        29 -11.6627     18.6714    221.7858   8.0763374631e+01   2.5538559035e+01    0.3391192    0.1657203  64.03  0.001843477    1.825    0.452
        30 -12.9581      3.5536    197.1329   8.3624007286e+01   3.2062375762e+01    0.6935067    0.3049003  89.54  0.003450878    2.233    0.552
        31 -13.0757     11.8323    216.9112   8.2204698167e+01   2.7156891768e+01    0.7408546    0.2559435  47.94  0.003605518    2.035    0.509
        32 -12.5204     20.2147    249.0961   8.1359988802e+01   2.0211606851e+01    0.8437814    0.2122062  28.50  0.003732039    2.826    0.646
        33 -12.5240      2.5335    212.6365   8.4283219362e+01   2.8835295500e+01    0.8123945    0.2425871  88.36  0.003433976    3.478    0.712
        34 -11.7453     14.0764    231.9912   8.2162641876e+01   2.3957389390e+01    0.4328937    0.1999424  53.60  0.002021454    1.645    0.392
        35 -12.2151     11.1054    225.6756   8.2643995795e+01   2.5458388908e+01    0.5118246    0.1971218  44.83  0.002546356    1.777    0.437
        36 -12.8852     15.7392    240.1916   8.2045363042e+01   2.2253672017e+01    0.8261995    0.2260855  42.14  0.004023065    2.165    0.538
        37 -11.9036     12.2288    248.8611   8.3037740908e+01   2.0999806149e+01    0.5140566    0.1667336  37.75  0.002019279    1.898    0.473
        38 -12.3582      6.6067    236.2563   8.3926305162e+01   2.3815773754e+01    0.6036482    0.2645545  50.63  0.003484824    1.616    0.381
        39 -12.0763      4.6968    228.2772   8.4159427301e+01   2.5510105407e+01     0.604243    0.2351114  51.15  0.002836337    1.819    0.450
        40 -11.6211      2.2893    221.0132   8.4536202507e+01   2.7148733200e+01    0.4179212    0.2351187  74.09   0.00185712    1.613    0.380
        41 -11.2281      3.0685    250.2199   8.4969092916e+01   2.1573832856e+01    0.3770719    0.1289619  27.06  0.001725577    2.305    0.566
        42 -12.6044      3.3886    243.3395   8.4769090193e+01   2.2782584188e+01    0.6201057    0.2941521  67.55  0.003741456    1.837    0.456
        43 -12.3718    238.9605    218.4332   3.2987330680e+01  -1.8229697249e+00    0.4385139    0.1559011 -31.05  0.002340545    2.557    0.609
        44 -10.4032    227.6557    219.5421   3.4956457144e+01  -7.0309119918e-01    0.1801551    0.0882196 -32.02  0.001084873    1.938    0.484
        45 -10.6495    233.2619    212.3934   3.2942836677e+01  -4.9330784614e-01    0.2052403    0.1084932 -20.64  0.001261406    1.704    0.413
        46 -11.6759    239.9635    207.2181   3.1073902061e+01  -6.3940754689e-01     0.230068    0.1285158 -35.41  0.001423999    1.835    0.455
        47 -13.3929     12.1594    205.6800   8.1744814325e+01   2.9482486273e+01    0.6927925    0.3098488  49.09   0.00360245    1.694    0.410
        48 -11.2172    246.9724    205.9991   2.9817267516e+01  -1.2745896672e+00    0.2412034    0.1317187 -34.34  0.001510043    1.800    0.445
        49 -10.9662    250.2635    200.6359   2.8469491418e+01  -1.0177963047e+00    0.2977919    0.1193699 -30.77  0.001677738    2.129    0.530
        50 -11.7513    243.6907    200.0181   2.9344415270e+01  -2.1080153641e-01    0.2842838    0.1420877 -32.86  0.001588374    1.810    0.447
        51 -13.2801      4.2159    188.5846   8.3195461007e+01   3.3917632172e+01     1.136787    0.2913406  65.89  0.004030351    3.866    0.741
        52 -12.4379      2.0186    178.1063   8.3452511185e+01   3.6496712767e+01    0.5315214    0.2326288  80.31  0.002425384    2.148    0.534
        53 -10.8976    237.5564    197.2471   2.9825146861e+01   8.3382683344e-01    0.2031075   0.09243266 -35.75  0.001141759    2.078    0.519
        54 -12.4226    246.8640    192.7892   2.7681809500e+01   2.8764279304e-01    0.3743882    0.1890213 -38.19  0.002237071    2.049    0.512
        55 -11.8174     11.2417    191.0898   8.1434415120e+01   3.2776069957e+01    0.2536416    0.1384443  64.03  0.001352076    1.590    0.371
        56 -11.2057    249.2884    184.7186   2.5973324198e+01   9.7875305797e-01    0.2374332    0.1275613 -33.09 0.0009223349    1.644    0.392
        57 -12.7145     11.5652    183.7616   8.1049747847e+01   3.4427130290e+01    0.4278798    0.1669963  83.58  0.001834376    2.630    0.620
        58 -13.2002      6.5063    171.7697   8.1967954138e+01   3.7660240392e+01    0.5508977    0.2273734  72.59  0.002422714    2.322    0.569
        59 -11.7507      1.5770    170.2564   8.3318342489e+01   3.8384237262e+01     0.291129    0.1563093 -76.20  0.001381165    1.846    0.458
        60 -11.8624    248.9152    176.5676   2.4627699795e+01   2.0241602096e+00    0.3333463    0.1400383 -32.08  0.001821582    1.995    0.499
        61 -13.2090      3.4892    154.2090   8.2140608108e+01   4.2175456880e+01    0.6957942    0.2478381 -80.15  0.002858179    2.606    0.616
        62 -14.2679    240.8090    123.1039   1.5733139380e+01   1.0208869735e+01     1.415004     0.245466 -39.95  0.004529672    4.806    0.792
        63 -10.8345    193.6755    247.4877   4.4849634165e+01  -1.4801162957e-01    0.1708534    0.0939426 -33.88  0.001087602    2.004    0.501
        64 -10.8316    177.2485    244.7442   4.7530917519e+01   2.1218520238e+00    0.1652438   0.08011477 -27.56 0.0008975079    2.433    0.589
        65 -10.6084     44.8723    244.7478   7.5825333325e+01   1.8480123671e+01     0.253531    0.1069347  42.82  0.001354303    1.667    0.400
        66 -11.5165    233.4044    129.0365   1.7911362782e+01   1.0534505038e+01    0.2646922    0.1579369 -45.83   0.00112554    1.732    0.423
        67 -11.0403    228.0812    124.6738   1.7764009501e+01   1.2013362573e+01    0.2268969    0.1462776 -40.17 0.0009746816    1.405    0.288
        68 -12.5805      4.1896    116.3913   7.9871851298e+01   5.1902824634e+01    0.3739305     0.160455 -81.40  0.001585337    2.124    0.529
        69 -11.8801    231.0265    116.4483   1.5658192307e+01   1.2712004109e+01    0.2453417    0.1481804 -44.35 0.0009613743    1.569    0.363
        70 -12.7193      9.9596    155.7028   8.0198260913e+01   4.1340764303e+01    0.3639697    0.2041447  78.67  0.001806676    1.673    0.402
        71 -12.2794      2.2988    143.6810   8.2056802019e+01   4.4908314073e+01    0.3906511    0.2098199  78.46  0.001733335    1.714    0.417
        72 -12.9626      1.8677     93.6801   7.9143353053e+01   5.8035240193e+01    0.9500174    0.1911798 -84.07  0.002598815    5.184    0.807
        73 -11.8392      4.6184     99.7900   7.8439796082e+01   5.6289624237e+01    0.2699416    0.1292134 -88.48  0.001171336    2.006    0.502
        74 -12.2477    234.4309    146.3675   2.1181718073e+01   7.9433267208e+00    0.2789971    0.1804715 -37.27   0.00169339    1.414    0.293
        75 -11.9400    230.9738    103.7936   1.3002106038e+01   1.4525799453e+01    0.2301432    0.1571673 -35.77 0.0009289272    1.232    0.188
        76 -13.0219      4.0406    136.6130   8.1127943283e+01   4.6614884473e+01    0.7461999    0.2514463  75.40  0.002668898    3.210    0.688
        77 -12.9296      3.3395    128.3560   8.0924791484e+01   4.8802778681e+01    0.5375198    0.2447044 -89.62  0.002360913    2.057    0.514
        78 -12.5519      2.8880     79.2729   7.7281274978e+01   6.1791638336e+01    0.5858344    0.1764919 -73.51  0.002164854    2.789    0.641
        79 -12.3465      2.0209     64.7025   7.5987348516e+01   6.5602939042e+01    0.6842462    0.1841306 -81.43  0.002234869    3.829    0.739
        80 -11.3646      6.8183     63.1774   7.2961035894e+01   6.5798412386e+01    0.2036981    0.1391843 -44.14  0.001087549    1.368    0.269
        81 -11.7060    226.0653    241.4834   3.8450458468e+01  -3.0119386264e+00    0.2732855    0.1354509 -29.81  0.001776236    1.953    0.488
        82 -12.0052    234.2228    135.1628   1.9021242297e+01   9.5425693028e+00    0.3021936    0.1785379 -45.21  0.001294415    1.766    0.434
        83 -12.1253     29.3377    240.5311   7.9070319041e+01   2.0873027663e+01    0.4747317    0.1679313  51.64  0.002360351    2.169    0.539
        84 -10.0301    202.4207    249.7779   4.3599122399e+01  -1.3959447894e+00    0.1425226   0.08377486 -16.61 0.0009427694    1.658    0.397
        85 -11.5405    231.4202    235.3284   3.6703441113e+01  -2.9015576109e+00    0.2702413    0.1457149 -22.69  0.001817892    1.656    0.396
        86 -10.4173     32.9754    236.0122   7.8059923874e+01   2.1347528184e+01    0.2117869   0.09504426  51.80  0.001132179    1.761    0.432
        87 -10.1340    207.3043    234.3313   4.0600338026e+01  -1.3987695196e-01    0.1163453   0.06762099   0.01 0.0006099376    1.657    0.396
        88 -12.5483     25.6528    228.7758   7.9416148053e+01   2.3477023731e+01    0.5325815    0.2220003  61.52  0.002676176    2.203    0.546
        89 -12.0061    236.7231    228.8334   3.4908964125e+01  -2.7453678866e+00    0.2764959     0.164216 -19.05  0.001630387    1.423    0.297
        90 -11.0116    243.9681    225.0434   3.3220926035e+01  -3.0840238155e+00    0.2060768    0.1160298 -24.26 0.0009494998    1.524    0.344
