#   1 NUMBER                 Running object number                                     
#   2 MAG_AUTO               Kron-like elliptical aperture magnitude                    [mag]
#   3 X_IMAGE                Object position along x                                    [pixel]
#   4 Y_IMAGE                Object position along y                                    [pixel]
#   5 X_WORLD                Barycenter position along world x axis                     [deg]
#   6 Y_WORLD                Barycenter position along world y axis                     [deg]
#   7 A_WORLD                Profile RMS along major axis (world units)                 [deg]
#   8 B_WORLD                Profile RMS along minor axis (world units)                 [deg]
#   9 THETA_WORLD            Position angle (CCW/world-x)                               [deg]
#  10 FWHM_WORLD             FWHM assuming a gaussian core                              [deg]
#  11 ELONGATION             A_IMAGE/B_IMAGE                                           
#  12 ELLIPTICITY            1 - B_IMAGE/A_IMAGE                                       
         1 -13.9106      4.0421     52.8225   1.2675460317e+02   6.4191074484e+01     1.878668    0.4834432 -59.24  0.005793982    3.474    0.712
         2 -15.1035      8.3236    142.9616   1.4112946782e+02   4.4680205780e+01     11.34013     5.092439  82.51   0.04958712    3.021    0.669
         3 -13.3920    198.7762     29.4408   6.5847702039e+01   3.2194630632e+01     1.320452     1.216997  46.97  0.006736623    1.306    0.234
         4 -13.3814    215.2511     10.8647   5.9717692281e+01   3.0472183317e+01    0.9786807    0.8181831  53.29  0.004731153    1.447    0.309
         5 -12.6801      2.9323     12.1485   1.1391005446e+02   7.0913734276e+01    0.9020449    0.2920742 -46.08   0.00470191    2.806    0.644
         6 -11.6885    104.9929    245.4683   1.3210194408e+02   9.6943404832e+00    0.4571511    0.2538743 -45.92  0.002296259    2.537    0.606
         7 -11.1354    138.4910    250.0000   1.2618244122e+02   3.3250256758e+00    0.3568209    0.1457276  48.36  0.001583646    2.137    0.532
         8 -11.6215    124.2459    250.0585   1.2894206931e+02   5.7032015688e+00    0.6219386    0.1482926  41.66  0.002176313    3.492    0.714
         9 -10.5108     81.8452    249.4276   1.3688167828e+02   1.2536038277e+01    0.2524515    0.1584167  70.54  0.001481079    1.476    0.322
        10 -10.4966     65.4377    248.9601   1.3982310379e+02   1.4995477042e+01    0.2650709    0.1814322  83.40  0.001707474    1.294    0.227
        11 -11.3421     45.9268    248.7441   1.4324353785e+02   1.7653556318e+01    0.4199097    0.2541366  46.86  0.002218349    1.511    0.338
        12 -12.5190     35.9419    245.1405   1.4469567087e+02   1.9597218587e+01    0.6402026    0.5023434 -67.09  0.004623099    1.581    0.368
        13 -10.8782     29.1867    248.7618   1.4608358636e+02   1.9711324414e+01    0.2776457    0.2126437 -76.13  0.002056857    1.440    0.305
        14 -12.6244      6.6750    227.6112   1.4852585388e+02   2.6320631441e+01    0.7054231    0.4052482  61.53   0.00473629    1.410    0.291
        15 -12.7066      6.6177    247.7148   1.4967712988e+02   2.2417332420e+01     1.104395    0.4798504  41.36  0.006739786    2.219    0.549
        16 -12.5295     10.6405    238.8536   1.4853393247e+02   2.3692754455e+01    0.9246442    0.2492324  43.96  0.004638678    2.891    0.654
        17 -11.9867    247.0681    247.5741   1.0529666408e+02  -1.3822547042e+01     0.480024     0.390314  40.31   0.00331131    1.538    0.350
        18 -11.3612     52.0734    236.5103   1.4116401714e+02   1.9254544151e+01    0.4240597    0.2104277  86.56  0.001552686    2.162    0.538
        19 -10.4420    186.2481    239.4148   1.1528546052e+02  -3.1056269579e+00    0.2045555    0.1665425 -77.81  0.001192942    1.800    0.444
        20 -10.6243    162.7668    249.5745   1.2141024937e+02  -7.3136659056e-01    0.2538233    0.1078957  38.10  0.001134119    2.066    0.516
        21 -12.5827    238.2231    247.6995   1.0688944420e+02  -1.2579396368e+01     0.641593    0.3963717  35.29  0.003891471    1.475    0.322
        22 -11.5684     97.1604    245.8103   1.3363831793e+02   1.0875369075e+01    0.4687237     0.254146 -78.18  0.001907768    2.249    0.555
        23 -11.9609     14.7477    122.8958   1.3688973150e+02   4.8791780182e+01    0.5270636    0.2781556  48.33  0.002472545    2.321    0.569
        24 -12.9215     45.0464    213.2476   1.4040340159e+02   2.5011224360e+01    0.9391399    0.8469815 -67.56  0.005248217    1.412    0.292
        25 -12.6418      9.3760    207.4812   1.4672833363e+02   3.0204313624e+01    0.6519473    0.6272491  32.07  0.004193279    1.602    0.376
        26 -11.6087     57.7733    197.5137   1.3614738610e+02   2.6849678999e+01    0.3449146    0.2331301 -67.74 0.0005254738    1.377    0.274
        27  -9.2658    192.2593    193.6660   1.0593871018e+02   3.8395018956e+00    0.2890012    0.1729633 -73.10 0.0009518349    4.258    0.765
        28 -11.7917     64.3272    189.1500   1.3369868688e+02   2.7872743736e+01    0.2789476    0.2469711 -67.64 0.0004841687    1.232    0.188
        29  -8.5878    152.5395    212.9821   1.1783318577e+02   7.6869483035e+00    0.1843434    0.1400141 -51.38 0.0001293661    1.441    0.306
        30 -12.7782     29.8366    230.7727   1.4471641131e+02   2.3174812052e+01    0.3010684    0.2518223 -85.48 0.0007387635    1.299    0.230
        31  -9.6976     34.6243    202.6130   1.4147384475e+02   2.8585001899e+01    0.1974102    0.1652077  70.89 0.0005617108    1.164    0.141
        32 -13.1772     61.5795    174.3372   1.3235005318e+02   3.1722187981e+01    0.5410218    0.2807678 -46.61  0.002192439    2.322    0.569
        33 -10.7824     75.0264    176.4716   1.2948288272e+02   2.9311805065e+01    0.2467854    0.2189026 -89.98 0.0003738369    1.030    0.029
        34  -9.8479     94.5019    171.4200   1.2399335847e+02   2.7441404339e+01    0.3399474    0.2181997  52.33  0.001431953    1.569    0.363
        35 -11.7040     82.8012    167.4327   1.2618283618e+02   3.0287238210e+01     0.645093    0.5573955 -51.13  0.003665288    1.255    0.203
        36 -13.8199     35.2336    224.0053   1.4321442325e+02   2.3928861200e+01    0.7392271    0.5636275  72.45  0.002402299    1.068    0.063
        37  -9.9463     96.0737    151.7872   1.2000649179e+02   3.1887251862e+01    0.2919496     0.268783 -64.94 0.0006765287    1.061    0.058
        38 -11.9508     84.5197    150.8160   1.2281907287e+02   3.4025555946e+01    0.3069881    0.2485196 -47.09 0.0007266551    1.283    0.220
        39  -8.9016     99.2115    147.7952   1.1839636038e+02   3.2305124014e+01     0.194148    0.1720627 -30.42 0.0003458542    1.301    0.232
        40 -12.0038     68.1691    143.1566   1.2571805835e+02   3.8314208720e+01    0.6166636    0.4309783 -84.49  0.002061315    1.571    0.363
        41 -10.9528     64.6922    141.6781   1.2638098220e+02   3.9147904772e+01    0.3533809    0.2205628 -48.77 0.0009199421    1.560    0.359
        42  -9.4780    142.6707    230.6625   1.2266558654e+02   6.0833523487e+00     0.131224    0.1050654   4.89 0.0007051956    1.732    0.423
        43  -9.5350    108.4966    136.9124   1.1363119072e+02   3.3224928513e+01    0.4197141    0.2741357 -16.38  0.001580382    2.839    0.648
        44 -10.3825     95.4799    134.2271   1.1653573167e+02   3.6201381368e+01    0.2512746    0.2386591 -38.47 0.0004453326    1.117    0.105
        45 -11.3053     25.8660    128.5051   1.3469549842e+02   4.6597003753e+01    0.2935596    0.2225429  57.64  0.001830172    1.508    0.337
        46  -8.7608     74.0786    127.7132   1.2107640715e+02   4.1169706612e+01    0.1851077    0.1771965  79.48 0.0005456466    1.102    0.093
        47  -8.9956    105.9972    123.7320   1.1125708487e+02   3.6780273480e+01    0.1928388    0.1885322  57.48 0.0002650125    1.063    0.060
        48 -10.1006    167.6926    112.6951   9.2976717172e+01   2.5917524801e+01    0.2953601    0.2557194 -82.71 0.0007508937    1.260    0.206
        49 -10.3321    242.8144     93.6022   7.4810351213e+01   1.2259153106e+01    0.1945166    0.1303703  76.63 0.0009607174    1.746    0.427
        50  -9.6252     62.7372     80.0640   1.1293930160e+02   5.3338337196e+01     0.251608    0.1786276  48.92 0.0004503802    1.771    0.435
        51  -9.5261    158.4273     77.7609   8.5615764689e+01   3.4876113607e+01    0.2059895    0.1487211 -25.40 0.0009489088    1.610    0.379
        52  -9.6344     56.5934     75.2471   1.1363554149e+02   5.5106720940e+01    0.3514334    0.2096704  52.10  0.001143253    2.529    0.605
        53 -10.1948    228.6735    228.3645   1.0529263520e+02  -8.4426095590e+00    0.2395675    0.1893532 -63.84  0.001153366    2.081    0.520
        54  -9.6069     88.5008    249.4894   1.3565598591e+02   1.1521930930e+01     0.125596   0.09812915  65.00 -0.0001303062    1.012    0.011
        55 -10.8086    199.3235    246.4395   1.1388585075e+02  -6.3791004524e+00    0.2556465    0.1929731  85.42  0.001350576    2.577    0.612
