#   1 NUMBER                 Running object number                                     
#   2 MAG_AUTO               Kron-like elliptical aperture magnitude                    [mag]
#   3 X_IMAGE                Object position along x                                    [pixel]
#   4 Y_IMAGE                Object position along y                                    [pixel]
#   5 X_WORLD                Barycenter position along world x axis                     [deg]
#   6 Y_WORLD                Barycenter position along world y axis                     [deg]
#   7 A_WORLD                Profile RMS along major axis (world units)                 [deg]
#   8 B_WORLD                Profile RMS along minor axis (world units)                 [deg]
#   9 THETA_WORLD            Position angle (CCW/world-x)                               [deg]
#  10 FWHM_WORLD             FWHM assuming a gaussian core                              [deg]
#  11 ELONGATION             A_IMAGE/B_IMAGE                                           
#  12 ELLIPTICITY            1 - B_IMAGE/A_IMAGE                                       
         1 -14.3213     68.4555    144.9547   9.5921781835e+01   3.7136521024e+01     4.258246     2.082805  64.29  0.002886703    4.649    0.785
         2 -13.7510    233.1883     23.4431   3.0512366526e+01   2.5884385390e+01    0.8291742    0.7960546  73.22  0.002628353    1.445    0.308
         3 -13.8281    206.5785     44.8257   3.7576905192e+01   2.8700628978e+01     1.415458      1.01813  37.93  0.004608581    2.016    0.504
         4 -13.8249    214.6798     39.5475   3.5518427132e+01   2.7667700800e+01      1.47866     1.035565 -28.88  0.005475092    1.713    0.416
         5  -9.7519      2.3332      9.3370   8.4549176782e+01   7.3531997106e+01    0.1229043   0.06444433 -15.84 0.0007052022    1.741    0.426
         6 -10.8746    250.2494      3.5530   2.5676330536e+01   2.4862757693e+01    0.3716606    0.1265366 -37.94   0.00196178    2.570    0.611
         7 -10.1419     74.9720    208.2556   1.0389317029e+02   2.0104261871e+01    0.2576558    0.1940888 -86.57 0.0006734906    1.391    0.281
         8 -10.4765    117.1017    249.6597   9.9321133925e+01   5.1843996769e+00     0.312479    0.1785985 -84.01  0.001298739    3.551    0.718
         9 -10.3214     86.9924    249.9796   1.0588979823e+02   9.3766509485e+00    0.1967157    0.1667096  50.83 0.0005618745    1.029    0.028
        10 -12.0549     82.7934    215.5902   1.0291308522e+02   1.7294179031e+01     0.499329    0.3536486  78.58  0.000616307    1.618    0.382
        11 -16.3437     31.6739    242.0860   1.1683634711e+02   1.7895527710e+01     8.781917     2.684401  23.88   0.02935928    5.492    0.818
        12  -9.2544    146.7846    187.0865   8.2528903026e+01   1.3465651969e+01    0.3013658    0.1894032 -72.73  0.001156283    2.681    0.627
        13  -9.4897     99.4620    181.0245   9.3539038230e+01   2.3060255447e+01    0.2207967    0.2024828  37.13 0.0004291905    1.090    0.082
        14 -12.1424     56.4113    174.8422   1.0431213757e+02   3.0891412020e+01    0.4812725    0.3160748 -29.37    0.0021936    2.073    0.518
        15 -12.0972     62.0023    169.7245   1.0201879108e+02   3.1502518913e+01    0.3730004    0.3181779 -34.40 0.0005896621    1.316    0.240
        16  -9.8186    187.3197    175.8862   7.0998023151e+01   8.6555444155e+00     0.263765    0.2527815 -48.71  0.001050796    1.208    0.172
        17 -13.5198     59.3845    156.3061   1.0067090851e+02   3.5364150915e+01    0.6522195    0.4248196 -49.38  0.002112768    1.495    0.331
        18 -12.3851     60.1306    122.1017   9.3987194544e+01   4.4233150692e+01      1.11021    0.5195755  38.61 0.0003774184    2.287    0.563
        19 -11.9125     72.4975    160.7566   9.7566370465e+01   3.2408081110e+01    0.3903103    0.3833599   2.06 0.0005405301    1.101    0.091
        20 -13.2157     79.2015    154.9834   9.4561707384e+01   3.2932457626e+01     1.273448      1.01789 -80.82   0.00164487    1.343    0.255
        21 -14.9650      9.0424    208.0340   1.1933211449e+02   2.7703142368e+01     2.111635     1.114898 -74.90   0.01048519    1.657    0.397
        22 -12.9495     66.9967    128.1371   9.2997601371e+01   4.1735675974e+01     4.065309     2.180549  82.06  0.009600021    7.270    0.862
        23 -16.0693     33.8884    186.8111   1.1170900218e+02   3.0426009019e+01     9.260289     3.764428  82.20   0.02441612    4.280    0.766
        24  -9.0808    174.8398    149.0538   6.7891667536e+01   1.6619758838e+01    0.2479591    0.1748538 -69.62  0.000751434    2.014    0.503
        25 -10.3072    133.8454    145.6396   7.7054875825e+01   2.5579211579e+01    0.9393783    0.2220357 -54.34  0.001880101    7.130    0.860
        26 -10.7926    230.8329    168.1793   6.1002612963e+01   2.9026026434e+00    0.4154219    0.1636352 -53.10  0.001325714    4.416    0.774
        27 -12.4258     83.3774    139.4773   9.0203630276e+01   3.6324625605e+01    0.3778849    0.2854275 -50.82 0.0005912533    1.255    0.203
        28  -9.6483    111.0318    203.5056   9.4266942620e+01   1.5789900572e+01     0.218376    0.1369325  35.48 0.0004588043    1.515    0.340
        29 -10.5318     95.5878    141.2032   8.6861205462e+01   3.3848539288e+01     0.395878    0.3045347 -42.80 0.0008853837    1.281    0.219
        30  -9.5284     99.0324    137.9676   8.5106010667e+01   3.4068644873e+01    0.4495658    0.2720347 -21.23  0.001603505    2.664    0.625
        31  -8.7649    144.3071    140.6413   7.3174149644e+01   2.4653695114e+01    0.1625971    0.1281589 -87.30 0.0007040857    1.730    0.422
        32 -10.9253    106.8552    130.7384   8.1081127974e+01   3.4448666251e+01    0.4438016    0.3548283  16.72  0.001222429    1.408    0.290
        33  -9.3369    110.7041    167.4492   8.7991084837e+01   2.4551768356e+01    0.2681795    0.1888538 -68.33 0.0006701829    1.609    0.378
        34  -8.9199     95.6845    125.6517   8.3231971348e+01   3.7757961538e+01     0.167169    0.1206089 -19.86 0.0007047501    1.725    0.420
        35  -9.1922    115.1056    124.6298   7.7156737497e+01   3.4344363715e+01    0.2262699    0.1505224  25.08 0.0009295279    1.762    0.433
        36 -11.5665    242.0445    123.0836   4.9961223773e+01   9.1289124078e+00     0.374537    0.1986187  57.27  0.001810412    2.468    0.595
        37  -9.5842    162.0763    119.7998   6.3772511144e+01   2.5555740167e+01    0.3802996    0.1984136 -61.94   0.00124511    3.107    0.678
        38  -9.4621    159.0165    115.2703   6.3325088288e+01   2.7180221637e+01    0.2864366    0.1972516 -77.11 0.0008098614    2.228    0.551
        39  -9.8463    105.3945    119.0931   7.8614835362e+01   3.7563657354e+01    0.2352967    0.2100227  15.09 0.0004931887    1.176    0.150
        40  -8.8354    168.3648    113.6671   6.0834647560e+01   2.5471667057e+01     0.161597    0.1208854 -81.50 5.491508e-05    1.819    0.450
        41 -10.1201    205.2436    110.6463   5.2997134900e+01   1.8251747294e+01    0.3053376    0.2464454  33.55  0.001073775    1.487    0.327
        42 -12.3753     35.1474    159.3228   1.0819286783e+02   3.7355031727e+01    0.7333084    0.3930275  66.33  0.002409676    2.379    0.580
        43  -9.1577     71.9740    108.0450   8.6606231795e+01   4.6060160962e+01    0.2283114    0.1842268  75.52 0.0005019326    1.647    0.393
        44 -10.9651    243.6062    105.8026   4.6179940440e+01   1.1821356414e+01    0.1999971   0.09922236 -48.06 0.0009572188    1.721    0.419
        45  -8.9326    134.6532    106.3158   6.6926165438e+01   3.4439143036e+01    0.1614076    0.1265161 -89.32 0.0007047852    1.722    0.419
        46  -9.8083     65.1008    102.2246   8.7527326684e+01   4.8496050690e+01    0.2593902    0.1932807 -86.79 0.0005853478    1.933    0.483
        47 -11.2900     53.3361     92.2998   8.9257958878e+01   5.2464630622e+01    0.6338933    0.2437481 -59.98  0.002202972    2.985    0.665
        48 -10.3205     44.8658     90.8100   9.2133212217e+01   5.3850617947e+01    0.2739726    0.2260337  59.45  0.001471808    1.583    0.368
        49  -9.0129     73.9913     88.5251   8.0519471732e+01   5.0287676125e+01    0.2020121     0.124615  56.95 0.0008080031    2.453    0.592
        50 -10.0323    162.1501     84.1338   5.4440880038e+01   3.2614594163e+01    0.2251363    0.2052163  14.73 0.0006789688    1.269    0.212
        51  -8.8783    184.5128     77.4729   4.8532312196e+01   2.8658754603e+01    0.1392591    0.1338836 -66.89 2.714665e-05    1.075    0.069
        52 -10.1544     57.4959     76.6004   8.3112203948e+01   5.5409499648e+01    0.3446715      0.24384  53.64  0.001589595    1.971    0.493
        53 -10.3091     50.3911     72.0008   8.4532314712e+01   5.7357113857e+01    0.4322475    0.2435444  53.93  0.001708049    3.252    0.692
        54  -9.0401     39.3533     65.6704   8.7194402353e+01   6.0039431264e+01    0.1266417     0.107513  66.55 0.0007046537    1.776    0.437
        55 -11.6505     12.8236     59.9840   9.7558700440e+01   6.3660742317e+01    0.3382633    0.2858585  47.45 0.0008080899    1.637    0.389
        56 -10.8215     32.4919    233.5012   1.1606561568e+02   1.9630846673e+01    0.4870639     0.238451  49.77  0.001911527    1.748    0.428
        57 -10.7096    193.1629    195.2211   7.3638793666e+01   3.8478351887e+00    0.8679119     0.453413 -64.26  0.002280523    7.265    0.862
        58  -9.1192    122.5891    199.7579   9.0781648124e+01   1.4760442209e+01    0.1915494    0.1440621 -69.55 0.0004027808    1.559    0.359
        59 -12.4522    222.4410     32.7914   3.3318770294e+01   2.6913302647e+01    0.4270533    0.3868925  62.90  0.001169517    1.398    0.285
        60  -9.9770     29.3635     53.0789   8.7571327805e+01   6.3645238639e+01    0.2075574    0.1682095  14.57 0.0004038181    1.271    0.213
        61 -10.3976     12.0355     52.9658   9.5901731487e+01   6.5164177540e+01    0.1981604    0.1554243 -29.25 0.0006821885    1.013    0.013
        62 -10.8748      2.6024     49.6041   9.9609219065e+01   6.6425841067e+01    0.2041596    0.1813051 -32.20  0.001450277    1.197    0.165
        63 -11.0949    127.5640     35.2491   4.7281484381e+01   4.8284925280e+01     0.267888    0.2245994 -85.04 0.0005858645    1.331    0.249
        64  -9.9399    130.2393     29.9485   4.5058992589e+01   4.8283954669e+01    0.2134955    0.1701778  63.22 0.0003319724    1.125    0.111
        65  -9.5857    189.8032     15.2042   3.2593493098e+01   3.5994134700e+01     0.188826    0.1426462 -75.01 0.0006479286    1.159    0.138
        66 -13.1924     26.6047    200.7513   1.1479716204e+02   2.7752071133e+01    0.5514193    0.4136528 -39.58  0.001062127    1.720    0.419
