#   1 NUMBER                 Running object number                                     
#   2 MAG_AUTO               Kron-like elliptical aperture magnitude                    [mag]
#   3 X_IMAGE                Object position along x                                    [pixel]
#   4 Y_IMAGE                Object position along y                                    [pixel]
#   5 X_WORLD                Barycenter position along world x axis                     [deg]
#   6 Y_WORLD                Barycenter position along world y axis                     [deg]
#   7 A_WORLD                Profile RMS along major axis (world units)                 [deg]
#   8 B_WORLD                Profile RMS along minor axis (world units)                 [deg]
#   9 THETA_WORLD            Position angle (CCW/world-x)                               [deg]
#  10 FWHM_WORLD             FWHM assuming a gaussian core                              [deg]
#  11 ELONGATION             A_IMAGE/B_IMAGE                                           
#  12 ELLIPTICITY            1 - B_IMAGE/A_IMAGE                                       
         1 -16.4600    175.1611     57.1882   8.4408312851e+01   3.3735645306e+01     6.910429     3.999717  29.21   0.02199625    2.355    0.575
         2 -16.5855    216.0165     60.0458   7.8522505076e+01   2.3059635800e+01     10.79197     4.477816  32.29   0.02537823    7.311    0.863
         3 -16.5373    222.4276    123.4479   9.3906577101e+01   1.1752379702e+01     4.673159     3.362673  18.65   0.02082151    1.584    0.369
         4 -15.0710    193.9345     42.2701   7.6752682111e+01   3.1037622447e+01     2.212433      1.89004 -68.27  0.003887619    1.240    0.194
         5 -17.6366    222.2617     84.5894   8.4143607101e+01   1.7924137668e+01     2.683422     2.217245 -29.67   0.01090951    1.145    0.127
         6 -14.7353    192.5933     27.2402   7.2505337589e+01   3.3237108982e+01     1.529882     1.396258 -77.44  0.007561401    1.099    0.090
         7 -17.3077    189.1967     84.1256   8.9703603107e+01   2.5939615338e+01     9.590633     3.911077 -28.77   0.03270939    2.686    0.628
         8 -11.0059    160.0316     20.2827   7.5200465888e+01   4.2398216252e+01    0.4815964    0.2973145  -1.43  0.002159919    2.025    0.506
         9 -11.1718    247.7523     15.6490   6.3471686429e+01   2.1020687952e+01    0.3845553    0.2321682 -38.67  0.001279371    1.482    0.325
        10 -11.8214    238.6205     10.5801   6.3019505750e+01   2.3667241009e+01    0.3761117    0.2938833  62.48  0.001221441    1.339    0.253
        11  -9.2069    233.3109     10.7555   6.3520459402e+01   2.4900292664e+01    0.1537991    0.1449984 -88.97 0.0009808163    1.091    0.084
        12 -10.0044     94.9854     11.4883   8.5573941704e+01   5.8666889110e+01    0.2435328    0.1659923   2.72 0.0004522826    1.490    0.329
        13 -10.4517    142.9818      8.3662   7.3942656893e+01   4.7889188776e+01    0.2424203    0.2048509 -10.51 0.0003097295    1.243    0.195
        14 -16.0384    243.8621     69.4729   7.7168821601e+01   1.5177552078e+01     3.770071     1.232175 -39.55   0.01369844    2.693    0.629
        15  -9.8804    116.9771      7.7471   7.8703822802e+01   5.4205046295e+01    0.2174398    0.1819253  -3.91   0.00029556    1.189    0.159
        16 -10.2081    201.4591      6.7524   6.5531163660e+01   3.3131315128e+01     0.242057    0.2158233  78.17 0.0004183798    1.055    0.052
        17  -8.9486    158.8025      7.1609   7.1000777300e+01   4.4008902611e+01    0.1868402    0.1423874  43.91 0.0003164418    1.257    0.204
        18 -16.0071    213.1546     48.3356   7.5711946104e+01   2.5381648318e+01     3.243682     1.885149  -7.69   0.01322347    2.425    0.588
        19  -9.5423    213.2258      4.6325   6.3777303968e+01   3.0388100271e+01     0.188965    0.1553172  74.29 0.0003899118    1.156    0.135
        20  -9.7348    210.7009      2.3494   6.3407133929e+01   3.1229163902e+01    0.2570088    0.1635401 -64.22  0.001000316    1.628    0.386
        21  -9.5423    151.7029      2.0198   7.0315520480e+01   4.6253517061e+01     0.190007    0.1708005 -17.75  0.001130502    1.197    0.165
        22  -9.1817    180.4324      1.4844   6.6337507426e+01   3.8967956296e+01    0.1346643    0.1251755  83.95  5.37531e-05    1.029    0.028
        23  -9.9079    149.6842    227.2645   1.2736283187e+02   9.0519339457e+00    0.2218365    0.1824983  31.85 0.0009499994    1.225    0.184
        24 -10.3815    228.7438    250.4536   1.1715488455e+02  -6.3489554161e+00    0.2040637   0.08610106  42.87  0.001118959    1.976    0.494
        25  -9.7357    205.0112    249.7509   1.2090295038e+02  -2.7079955542e+00    0.1633684    0.1146102  34.15 0.0005629845    1.076    0.071
        26 -10.1419    182.5000    249.6765   1.2461624247e+02   7.8647382078e-01    0.2112435    0.1501806  42.77  0.001425265    1.131    0.116
        27 -10.8893    165.8004    249.6230   1.2739870916e+02   3.4007997951e+00    0.4231805     0.209801  54.75    0.0020989    2.152    0.535
        28 -10.4053    161.8062    246.3855   1.2767440260e+02   4.4419315784e+00    0.1654909    0.1317497   5.88 0.0002401347    1.637    0.389
        29  -9.9541    124.8515    250.1816   1.3430331380e+02   9.5974839707e+00     0.168359    0.1198322  58.30  0.000676679    1.187    0.158
        30  -9.0922    219.3451    227.3026   1.1519086780e+02  -2.4229720442e+00    0.1238643   0.07579577  18.00 0.0007039502    1.685    0.406
        31 -13.2742    238.8335    224.2723   1.1146004248e+02  -5.1494914645e+00    0.3126224    0.2472009  33.50 0.0006365971    1.254    0.203
        32  -9.5844    204.2330    226.3670   1.1761900025e+02   1.3869341058e-01    0.1741313   0.09502611  47.20 0.0009522283    1.715    0.417
        33 -10.3851    181.4666    223.3596   1.2114567901e+02   4.3190416708e+00    0.3580201    0.1493542  37.66   0.00140113    2.103    0.524
        34  -9.9042     93.8415    222.3052   1.3679890809e+02   1.8518831814e+01    0.1794532     0.135165  77.35 0.0004360696    1.230    0.187
        35  -9.0356      2.2678    222.6292   1.5216562263e+02   2.9207751439e+01    0.1052176   0.04858055  70.10 0.0006992753    1.667    0.400
        36 -10.0388    124.0635    216.0313   1.3058644706e+02   1.4982203746e+01    0.1912935    0.1542929  52.78  0.001278942    1.037    0.036
        37 -10.9461     60.1889    215.1234   1.4210653804e+02   2.4315367134e+01    0.3555874    0.1726133  48.31  0.002121358    1.722    0.419
        38  -9.4128      2.2665    214.2937   1.5178392238e+02   3.0661318804e+01    0.1627144   0.08871816  28.09  0.001073591    2.722    0.633
        39 -10.2590     89.8204    211.1598   1.3636690709e+02   2.1047383102e+01    0.2022004    0.1674795  51.60 0.0003300879    1.191    0.160
        40 -11.0647     86.9544    208.0559   1.3656719427e+02   2.2018812339e+01     0.202134    0.1557018  66.88            0    1.083    0.077
        41  -9.6167    214.6617    210.2926   1.1320024925e+02   4.2404712966e-01    0.1126895   0.09528474  62.94 0.0003265263    1.647    0.393
        42  -8.8509    224.4858    208.4798   1.1118891326e+02  -1.0018895182e+00    0.1247241     0.100602  20.62 0.0003446482    1.004    0.004
        43  -9.6235    237.8852    207.2592   1.0870450575e+02  -3.0652363792e+00    0.1862944    0.1401416  44.62  0.001145071    1.480    0.324
        44  -9.4421    251.0000    204.0746   1.0597111117e+02  -4.7984126660e+00    0.1812775   0.06320444 -30.41 0.0006790323    2.935    0.659
        45  -8.9217     39.3261    204.2697   1.4493294200e+02   2.8779108180e+01   0.08985745   0.08271826 -60.75  0.000375434    1.576    0.365
        46 -10.0703    244.5013    202.3248   1.0671895592e+02  -3.5554429898e+00     0.209691    0.1679329  10.38 0.0004231855    1.031    0.030
        47 -10.9513    214.3811    197.2380   1.1095990929e+02   2.1969048520e+00    0.3685001    0.2856425  67.00  0.002100922    1.949    0.487
        48  -9.9609     68.4468    198.3298   1.3904144530e+02   2.6374728110e+01    0.2161028   0.09899777 -62.34  0.001064691    2.176    0.540
        49 -10.5541    231.0422    192.7115   1.0721437526e+02  -1.1235310169e-01     0.239912    0.2028564 -21.65  0.001558548    1.278    0.217
        50  -9.3045    166.3260    196.0010   1.1965361619e+02   1.1055160226e+01    0.1705508    0.1653907  19.60 0.0007667761    1.118    0.106
        51  -9.5522    149.5097    196.0464   1.2291884564e+02   1.4065390435e+01    0.1731574    0.1294331 -54.17 0.0004908141    1.528    0.346
        52  -9.5034    249.4762    194.8415   1.0451927305e+02  -3.4744295886e+00    0.2249635    0.1472462  34.86  0.001236011    1.378    0.274
        53  -9.9180    156.4739    194.6840   1.2134357406e+02   1.3051963217e+01    0.2693064    0.1626226  43.39  0.001409068    1.459    0.314
        54  -9.7101    142.2399    193.9591   1.2401910978e+02   1.5710573764e+01      0.36599    0.2131059  76.52  0.001446283    3.557    0.719
        55 -10.4425    117.3754    189.4763   1.2831294499e+02   2.0782480155e+01    0.4285755    0.2114058 -69.14  0.001279863    2.845    0.648
        56  -9.6249    217.7953    193.7906   1.0972565065e+02   2.0624698685e+00    0.1556365    0.1493328  41.68 0.0003625836    1.319    0.242
        57 -10.6311    202.3000    192.8744   1.1234685881e+02   4.9735488101e+00    0.2911107    0.2737422   7.44 0.0008202511    1.144    0.126
        58  -9.5428    106.5791    194.0758   1.3111118115e+02   2.1663814054e+01    0.1741317    0.1180012 -65.29  0.000399682    1.563    0.360
        59 -10.6013    226.4064    190.5712   1.0761430086e+02   9.7673156673e-01    0.4047865    0.1786517 -41.10  0.001827735    2.687    0.628
        60 -10.9509    207.9854    190.8446   1.1093975925e+02   4.2332226477e+00    0.3863098    0.2641518 -16.13 0.0009436277    1.654    0.395
        61  -9.2048    129.9627    192.6455   1.2625347410e+02   1.8076381697e+01     0.172251    0.1429928  55.73 0.0003784073    1.070    0.065
        62 -10.8359    230.9557    187.1394   1.0617432635e+02   6.3411585089e-01    0.2745789    0.2171597  52.55  0.001225148    1.563    0.360
        63 -11.6690    214.9006    185.9129   1.0876701664e+02   3.6780452826e+00    0.4332764    0.3153341  16.00  0.001981311    1.369    0.269
        64  -9.1784     81.9674    187.9681   1.3525608341e+02   2.6538179014e+01    0.1489629    0.1235877  67.26 0.0005727382    1.049    0.046
        65  -9.2831     76.3292    186.2882   1.3618973552e+02   2.7660116750e+01    0.1061748   0.09664845 -25.07 0.0003415636    1.617    0.382
        66  -9.6913    110.7770    184.0446   1.2887198181e+02   2.2903420210e+01    0.2227701    0.1697333  48.07 0.0008037033    1.216    0.178
        67 -11.4240    221.1134    177.6231   1.0604609302e+02   3.7190762442e+00    0.3480791    0.3079211   5.73  0.002188808    1.058    0.054
        68 -11.8171    201.8520    178.9176   1.0981160018e+02   7.1377526878e+00    0.3250038      0.26651 -35.94  0.001916681    1.340    0.254
        69 -11.3145    188.7628    178.2514   1.1216064001e+02   9.7398643630e+00    0.2856947    0.2088028  13.54  0.001193089    1.580    0.367
        70  -9.1050    129.4635    179.4614   1.2430261579e+02   2.0611334113e+01    0.1328949    0.1188209  62.68  8.69907e-05    1.029    0.028
        71  -9.9452    235.6725    177.4899   1.0347877597e+02   1.0916836031e+00     0.235306    0.1981343  43.92   0.00110063    1.350    0.259
        72  -9.4621    247.5025    177.4893   1.0149035273e+02  -9.8470610674e-01    0.1284204     0.107983   7.04 0.0001301625    1.032    0.031
        73  -9.5275    247.9448    173.5094   1.0061893465e+02  -5.4433446716e-01    0.1847156    0.1160735  38.58 0.0005549247    1.521    0.343
        74 -11.8988    233.4714    171.1272   1.0257445624e+02   2.3626178804e+00    0.2616626    0.2232393  22.55 6.048198e-05    1.088    0.081
        75  -9.7565    233.0196    248.9930   1.1625870403e+02  -6.8319487062e+00    0.1367679    0.1001856  24.27 0.0004609794    1.005    0.005
        76  -9.7838     56.4055    165.1863   1.3784490439e+02   3.4595244683e+01    0.1743688    0.1010603 -82.38 0.0005699163    1.682    0.406
        77 -15.1744    240.0428     55.5968   7.4146592347e+01   1.7949145043e+01      1.30458      1.12815  37.94  0.007530604    1.292    0.226
        78  -9.4360    244.0610    161.4606   9.8777546322e+01   1.7665766100e+00    0.1926516    0.1219048  40.61  0.001016101    1.551    0.355
        79  -8.6512    161.2575    159.3176   1.1395882397e+02   1.8431296848e+01     0.136126    0.1098017  -0.05 0.0004348077    1.538    0.350
        80 -10.5882    192.6627    247.2948   1.2260893447e+02  -5.1978141544e-01    0.2152486    0.1138819  48.01  0.001251745    1.699    0.411
        81  -9.8336    139.0603    155.4636   1.1795840960e+02   2.3524675530e+01    0.2103633    0.1329954  45.65 0.0003888366    1.517    0.341
        82 -10.0157     77.1122    154.4272   1.3180122560e+02   3.4175097296e+01     0.219331    0.1627953 -68.19 8.455037e-05    1.248    0.199
        83  -9.2138    140.7977    172.1607   1.2069619057e+02   1.9952029545e+01    0.1790928    0.1595075  17.43  0.000652679    1.281    0.219
        84  -9.0777    102.4624    166.5336   1.2798974534e+02   2.7759003334e+01    0.1298046    0.1196097  78.27 0.0002558386    1.043    0.041
        85 -10.3539    122.2412    149.6884   1.2060330369e+02   2.7851850123e+01    0.4504779    0.1762605  40.48  0.001706578    2.608    0.617
        86 -10.7215    132.5974    246.7359   1.3264736281e+02   8.9210407403e+00    0.2838144    0.1868141  44.26 0.0005425382    1.209    0.173
        87  -8.6325    131.3071    242.3231   1.3238493502e+02   9.7502585456e+00    0.1042123    0.0830737  20.40 0.0007034572    1.644    0.392
        88 -10.6016     11.4303    146.2849   1.4561637652e+02   4.3179303345e+01    0.2227113    0.1706838 -58.01  0.001032499    1.436    0.304
        89 -10.1131     32.3429    135.7574   1.3971878592e+02   4.3613256923e+01    0.2223257    0.1686011 -64.80 0.0007432315    1.204    0.170
        90 -11.6292    133.4849    131.9980   1.1430419348e+02   2.9393626997e+01    0.4269468    0.2216401 -48.41  0.001222001    1.934    0.483
        91 -12.1213    129.3682    131.3549   1.1513081109e+02   3.0338611472e+01    0.4167612    0.3501753   1.97 0.0002906414    1.502    0.334
        92  -9.1636    249.2517    129.9866   9.1013110118e+01   5.2467979909e+00    0.1874398    0.1567319 -13.73  0.001087886    1.067    0.062
        93 -11.0408    214.9463    243.9247   1.1844585379e+02  -3.5980842464e+00    0.2688207    0.1973637  47.31 0.0009005168    1.460    0.315
        94  -9.8289     41.9955    126.4620   1.3608324570e+02   4.4706217670e+01     0.184774    0.1418833 -73.36 0.0003323046    1.083    0.077
        95  -9.5574     57.5714    124.5443   1.3178895398e+02   4.3374194386e+01    0.1288267    0.1096147 -75.56 4.734913e-05    1.018    0.017
        96 -10.9498    127.8143    119.8323   1.1283976706e+02   3.3063897305e+01     0.218991    0.2027985 -15.41 0.0005701272    1.176    0.150
        97 -11.3765     97.4506    117.7118   1.2001796060e+02   3.9123511025e+01    0.5295836    0.2480861  45.29  0.002215387    2.258    0.557
        98  -8.8251    155.3346    245.6515   1.2868064393e+02   5.5546226315e+00    0.1148206   0.07723043  65.44 0.0007047962    1.776    0.437
        99  -9.4956     38.6851    110.9276   1.3451915313e+02   4.8527289447e+01    0.1754078    0.1367272 -69.29 0.0005963569    1.059    0.056
       100 -10.2949     29.4212    107.3248   1.3647572372e+02   5.0205700828e+01    0.2361969    0.1840566  81.25  0.000791272    1.328    0.247
       101 -10.5862    100.0118    106.5065   1.1672045568e+02   4.1137933967e+01    0.4432084    0.2853574  31.93  0.001961387    1.811    0.448
       102  -9.3221      3.3039    107.6909   1.4356945445e+02   5.2092652466e+01    0.1123972   0.07174109  76.84  0.000388594    1.607    0.378
       103  -8.9006     54.0036    103.2213   1.2881444874e+02   4.8599300054e+01    0.1548758    0.1081764  33.16 0.0008742243    1.674    0.403
       104 -15.6360    211.8472     78.9375   8.4305130534e+01   2.1265743439e+01     1.043633    0.7161747  58.29  0.003094583    1.524    0.344
       105  -9.7222     66.2616    242.7909   1.4326128048e+02   1.8842848253e+01    0.1857345    0.1045179  55.69 0.0006617095    1.352    0.260
       106  -9.2506     85.5306     93.9933   1.1759459022e+02   4.6279769547e+01    0.2067012    0.1276391 -51.46 0.0004382087    1.483    0.326
       107  -8.7531     20.7209     91.2787   1.3631378666e+02   5.4486224631e+01    0.1111822   0.08147478  83.35 0.0001634673    1.504    0.335
       108 -10.8412    107.7796     89.6187   1.1015602113e+02   4.3311057056e+01    0.2508436    0.1895049 -35.52  0.001263458    1.301    0.232
       109  -9.9271     98.9836     87.9971   1.1214266354e+02   4.5272186693e+01    0.2178685    0.1761923 -87.69 0.0005211195    1.617    0.381
       110 -11.4255    115.8772     84.8486   1.0658710601e+02   4.2696325657e+01    0.5394985    0.2953232  62.19  0.002018131    2.824    0.646
       111 -10.0554    236.7525    165.0570   1.0076086727e+02   2.6081314317e+00    0.2692976    0.1722424 -17.90  0.001205291    1.584    0.369
       112 -10.3807    230.7498    164.8140   1.0174311065e+02   3.7599385979e+00     0.432482    0.1678557  41.54 0.0008614092    2.461    0.594
       113  -9.6173     58.9765     83.7690   1.2293973874e+02   5.2294750919e+01     0.229654    0.1577026 -69.37  0.001051341    1.584    0.369
       114  -9.6965    109.1895     81.8489   1.0751252303e+02   4.4620356493e+01     0.214033    0.1963479 -61.26 0.0005351215    1.167    0.143
       115 -12.0534    123.1112     76.8122   1.0224366813e+02   4.2764801508e+01    0.5293673    0.3349047  63.34  0.002146576    2.093    0.522
       116 -10.8067    105.1211     73.3724   1.0605190983e+02   4.7079923143e+01    0.3300144    0.2293742 -59.63 0.0008870608    1.756    0.431
       117 -10.1001     49.0339     73.1268   1.2339329143e+02   5.5765836513e+01    0.1905424    0.1608028 -46.73 0.0003662645    1.009    0.009
       118 -11.1635    119.8673     69.8871   1.0090561753e+02   4.4749405408e+01    0.3046766    0.2863699 -60.68 0.0004122127    1.174    0.149
       119 -10.0081     10.0000     68.0007   1.3537923506e+02   6.0268830649e+01    0.1957061   0.05184177 -64.46  0.000472915    2.892    0.654
       120  -9.4444     45.6239     67.2305   1.2295095688e+02   5.7385611109e+01    0.1874492   0.09567808 -46.07 0.0007145751    1.631    0.387
       121 -11.2668    109.9282     63.5009   1.0149949416e+02   4.7981191270e+01    0.4169138    0.2457667 -16.27  0.001661621    2.429    0.588
       122 -11.2701    112.4565     60.2976   9.9721581335e+01   4.8034207880e+01     0.386919    0.3286991 -68.80  0.001409416    1.483    0.326
       123  -9.3488     95.7954    165.9994   1.2936808844e+02   2.8930627084e+01    0.1739666    0.1552417  88.11 0.0002854163    1.033    0.032
       124  -9.5423     12.9329     64.2347   1.3357454291e+02   6.0875124022e+01    0.1228179   0.09843283  16.91 0.0004726339    1.579    0.367
       125 -12.2495    131.5401     53.9574   9.2624717515e+01   4.4909568236e+01    0.4687974    0.2855295  30.49  0.001203714    1.950    0.487
       126 -11.3473    137.2852     52.6248   9.0805856201e+01   4.3779623641e+01    0.2887404    0.2185908  38.41 0.0005769234    1.325    0.245
       127 -12.0447    134.8633     49.2910   9.0225948663e+01   4.4865763412e+01    0.4790561    0.2972405 -34.03  0.001687289    1.591    0.372
       128 -10.2241    131.4705     49.0175   9.0932702199e+01   4.5700906066e+01    0.2640716    0.1848445 -36.66 0.0006625365    1.430    0.301
       129  -8.9932     93.6618     58.7160   1.0457733764e+02   5.2001396221e+01    0.1429923    0.1057139   1.69 0.0004430677    1.628    0.386
       130  -9.5849     18.4600    166.3004   1.4587189710e+02   3.8390467528e+01    0.1615315   0.09483072  37.20 0.0005594872    1.905    0.475
       131  -9.7176    241.8449    165.1646   9.9922419871e+01   1.6603021204e+00    0.1931203    0.1792393 -19.91  0.000861029    1.253    0.202
       132  -9.8529    101.3519     54.2508   1.0074634704e+02   5.1333830896e+01    0.2015168    0.1245592 -42.92 0.0007389651    1.613    0.380
       133 -10.1796    194.5336    168.9751   1.0923104003e+02   1.0119796275e+01    0.1953481    0.1350465 -37.46 0.0004220555    1.535    0.348
       134  -9.4328    106.4823     52.0082   9.8485007949e+01   5.0689777970e+01    0.2229873    0.1348395 -33.45 0.0009564912    1.582    0.368
       135  -9.6337     20.1615     52.1445   1.2797553531e+02   6.2855935045e+01    0.1523603    0.1215934 -66.00 0.0002641967    1.295    0.228
       136  -8.8269     94.3521     51.2859   1.0175125725e+02   5.3191137545e+01    0.1444546    0.1040681   6.28 0.0006389919    1.664    0.399
       137 -11.5230    124.6848     47.9083   9.2196879919e+01   4.7428196898e+01    0.4842709    0.2602968  33.72  0.001959136    2.199    0.545
       138 -11.5978    139.5381     42.1256   8.6670430163e+01   4.4805729430e+01    0.4773113    0.3370509  32.71 0.0008757382    1.486    0.327
       139  -9.4291     33.4719     44.5414   1.2055381588e+02   6.3190517667e+01    0.1216222   0.09904081 -39.60 0.0008079495    1.054    0.052
       140 -10.8554    127.1756     40.3067   8.8859050028e+01   4.7987820405e+01    0.3520539    0.2339347  47.76 0.0006304896    1.464    0.317
       141 -11.5292    147.6452     36.2985   8.2932934092e+01   4.3615006549e+01    0.4961121    0.3687941   3.95  0.002431791    1.537    0.350
       142 -10.6195    141.3322     36.2745   8.4230114787e+01   4.5171900511e+01    0.3134403    0.2572867  56.10 0.0008353484    1.213    0.176
       143  -8.9334     14.5185     40.5269   1.2686159605e+02   6.5571734110e+01       0.1159   0.09021435 -45.91 0.0008091961    1.054    0.051
       144 -10.2564    132.0758     31.4277   8.4492800916e+01   4.8036504235e+01    0.2938651    0.2005338   4.14  0.001380901    1.732    0.423
       145  -9.2481    127.0000     31.9462   8.5830288504e+01   4.9168358285e+01    0.2380311   0.08007987 -27.77 0.0008094935    2.992    0.666
       146 -10.3073    111.0655     32.4130   8.9914762692e+01   5.2708184468e+01    0.3106645    0.1572865  37.07  0.001311502    2.098    0.523
       147 -10.4733    145.3912     31.1871   8.1607724291e+01   4.4827125804e+01    0.2438842    0.1829528  46.16 0.0005257248    1.269    0.212
       148 -10.3834     70.4065     30.9456   1.0158423079e+02   6.0721204509e+01    0.2195741    0.1821665  25.46 0.0003658003    1.237    0.191
       149  -9.8759    141.3528     29.8111   8.1936762879e+01   4.5993567084e+01    0.2432638    0.1818247  -7.64 0.0006354386    1.436    0.304
       150 -10.3735     99.1837     25.7436   9.0452563180e+01   5.6113991199e+01    0.2425971    0.1927648   1.63 0.0002690197    1.208    0.172
       151 -10.5622    152.5129     24.9456   7.8083610220e+01   4.3790500882e+01    0.2530617    0.2014129  60.39 0.0003351631    1.215    0.177
       152 -10.1836    226.0901    241.6543   1.1628602856e+02  -5.0563940207e+00    0.1647312    0.1449567  11.83 0.0005781131    1.258    0.205
       153  -9.1533     40.8266     19.9069   1.0802939834e+02   6.6668428015e+01    0.1625162   0.07545812 -37.07 0.0004033544    1.819    0.450
       154  -9.6107    142.3066    242.6581   1.3054492396e+02   8.0023920639e+00    0.1141765   0.07649508  66.52  0.000704248    1.687    0.407
       155  -9.5611    235.7993     17.7625   6.5041725534e+01   2.3566320122e+01    0.1795827    0.1317164 -56.46 0.0003498761    1.284    0.221
       156  -8.5683    152.7122     18.6992   7.5898505489e+01   4.4428098456e+01    0.1468427    0.1002467  31.46 0.0001824021    1.559    0.359
       157  -9.7631    122.4512     15.7245   8.0675247311e+01   5.2141652220e+01    0.3337426    0.2113321 -56.84    0.0015208    2.278    0.561
       158  -9.8411     56.4002     15.6092   9.9874443906e+01   6.5147759796e+01    0.2120389     0.161911 -23.79 0.0004857274    1.178    0.151
       159 -10.6126    211.9063    166.5209   1.0546619262e+02   7.1090028721e+00    0.2202938    0.1845443 -58.01  0.001173447    1.588    0.370
       160  -9.1849     93.0509    241.5015   1.3876698857e+02   1.5489986672e+01    0.1577561   0.08685388  45.79 0.0003621072    1.474    0.321
       161  -9.5536    210.3072    239.6230   1.1858598994e+02  -2.4026099206e+00    0.1037616   0.08697269  65.88 0.0007028475    1.779    0.438
       162  -9.8062    127.4222    238.5257   1.3263201171e+02   1.0904501366e+01    0.2922851    0.1265931  35.77  0.001391563    2.432    0.589
       163 -11.4453    187.8331    236.5129   1.2193745122e+02   1.5483789513e+00    0.1958893    0.1701291  24.99 0.0002960167    1.128    0.113
       164  -8.9055     22.6461    236.6931   1.4972177622e+02   2.4850720376e+01   0.08066042   0.07374253 -71.64 0.0006637087    1.717    0.418
       165  -9.9180    237.0132    233.9569   1.1332251130e+02  -5.9038696745e+00    0.1787125    0.1353962  20.91 0.0007843309    1.010    0.010
       166  -9.1883    211.6628    233.6952   1.1747523915e+02  -1.9386455203e+00    0.1211729   0.07518007  18.70 0.0007039821    1.672    0.402
       167 -12.1487    154.0680    231.2278   1.2709994012e+02   7.7571992127e+00    0.2414174    0.1882291  48.39 0.0003215918    1.069    0.065
       168  -9.0955    167.5315    232.4551   1.2489460718e+02   5.3865990154e+00     0.119407     0.095365  40.12 -1.934234e-05    1.013    0.013
       169  -9.7202    145.0007    231.4288   1.2872691896e+02   9.1948224420e+00    0.1873061    0.1515786  80.99 0.0003513192    1.456    0.313
       170 -10.4524    175.4125    231.6250   1.2340156878e+02   4.2066056155e+00    0.3163805   0.09166025  39.86  0.001273871    2.953    0.661
       171  -9.4472     69.0439    230.6670   1.4186649335e+02   2.0480519631e+01    0.1500274    0.1107533  60.97 0.0005634626    1.067    0.063
