#   1 NUMBER                 Running object number                                     
#   2 MAG_AUTO               Kron-like elliptical aperture magnitude                    [mag]
#   3 X_IMAGE                Object position along x                                    [pixel]
#   4 Y_IMAGE                Object position along y                                    [pixel]
#   5 X_WORLD                Barycenter position along world x axis                     [deg]
#   6 Y_WORLD                Barycenter position along world y axis                     [deg]
#   7 A_WORLD                Profile RMS along major axis (world units)                 [deg]
#   8 B_WORLD                Profile RMS along minor axis (world units)                 [deg]
#   9 THETA_WORLD            Position angle (CCW/world-x)                               [deg]
#  10 FWHM_WORLD             FWHM assuming a gaussian core                              [deg]
#  11 ELONGATION             A_IMAGE/B_IMAGE                                           
#  12 ELLIPTICITY            1 - B_IMAGE/A_IMAGE                                       
         1 -11.8631      5.4428     38.3609   1.0821581867e+02   6.7385790192e+01     1.450298    0.6065683 -66.23  0.007042547    2.511    0.602
         2 -11.9998      2.0216     24.5433   1.0557158536e+02   7.0221660596e+01     0.400465     0.147581 -58.74  0.001348206    2.386    0.581
         3 -12.1491      5.8688     16.3554   1.0049819931e+02   7.1480113981e+01    0.3904573    0.2711274 -49.66  0.001413749    1.377    0.274
         4 -12.4226    116.9518     22.2975   5.8937326600e+01   5.3162799695e+01    0.2913002     0.248843   2.32 0.0004737689    1.187    0.158
         5 -11.6486    166.3794     17.9038   4.7818150336e+01   4.1297620330e+01    0.3636763    0.2574805  46.50 0.0003517801    1.408    0.290
         6 -10.8290     70.4741     11.9581   6.8265207242e+01   6.4098460857e+01    0.2765158    0.1729327  45.99  0.001518465    1.605    0.377
         7 -10.4715     73.9207      8.2241   6.5285477043e+01   6.3874650749e+01    0.2894413    0.1552297  32.05 0.0009912888    1.756    0.431
         8 -11.0431     64.3695     15.8973   7.2398877097e+01   6.4691177019e+01    0.4714718    0.2509438  29.10  0.001583817    1.881    0.468
         9  -9.6699     63.0055     12.2085   7.1159702632e+01   6.5381745125e+01    0.1861004    0.1390488  10.34            0    1.169    0.145
        10 -10.9801    116.6429     15.1530   5.6231768781e+01   5.4019345903e+01    0.3192733    0.2283143  38.54 0.0006583906    1.279    0.218
        11 -11.2732    133.1479     12.9979   5.1895922251e+01   5.0245403405e+01    0.2922592    0.2259163  -8.79 0.0003564058    1.432    0.301
        12 -11.2172    173.2393     13.2942   4.5419413084e+01   4.0014022124e+01    0.3204877    0.2601305 -36.00  0.001188271    1.318    0.241
        13 -10.7887    176.2884     10.6503   4.4226071417e+01   3.9498615906e+01    0.2614798     0.185751 -53.67 0.0005733186    1.475    0.322
        14 -10.9218    148.0398     12.4669   4.8998416457e+01   4.6559166421e+01    0.4299288     0.198229  52.44  0.001852468    1.898    0.473
        15 -10.8465    142.7697     10.9947   4.9405010641e+01   4.8035733492e+01    0.2227909    0.1717093  38.33 0.0004251226    1.278    0.218
        16 -10.2508     88.5190     13.5718   6.3055199263e+01   6.0416602838e+01    0.2670723    0.1813779  44.03 0.0001122938    1.339    0.253
        17 -11.0541     14.3057     10.4618   9.3292172774e+01   7.1851216290e+01    0.4924882    0.1916148 -31.10  0.002007616    2.331    0.571
        18 -10.2255    219.1034     11.4511   3.9717887956e+01   2.8714853871e+01     0.231367    0.2062284 -61.58  0.000506822    1.095    0.087
        19 -10.0201     97.9158     10.8373   5.9170893431e+01   5.8710900597e+01    0.2739238    0.1771064 -28.57 0.0009221358    1.649    0.393
        20 -10.2766     44.4114     10.6821   7.8184564052e+01   6.8457596816e+01    0.5268608      0.24985  11.73   0.00209703    3.700    0.730
        21  -9.4540     51.7107      6.5922   7.2908286763e+01   6.7893254915e+01    0.2581425    0.1261161  22.91 0.0009809764    2.309    0.567
        22 -10.1201    165.1903      8.7966   4.5164674543e+01   4.2528103254e+01     0.329973    0.1854567 -50.69  0.001525973    2.002    0.500
        23 -10.5542    212.1318      8.8882   3.9741295319e+01   3.0674858376e+01    0.2383609    0.1820938  63.51 0.0009029421    1.311    0.237
        24  -9.0342     79.4938      9.5174   6.4044030228e+01   6.2665308572e+01    0.1296683    0.1110559  17.64 0.0008099555    1.047    0.045
        25  -9.5346      5.1359      8.6636   9.7638498930e+01   7.2826520125e+01    0.1520079    0.1149007 -37.08  0.001117756    1.217    0.178
        26  -9.6060    185.4708      8.5642   4.2488118149e+01   3.7360854389e+01      0.13614    0.1204978  81.53 8.993387e-05    1.018    0.017
        27 -10.5800    120.0939      7.6714   5.2560337488e+01   5.3927037318e+01    0.2442908    0.1929351   3.67 0.0005658775    1.351    0.260
        28 -10.9782    111.5144      6.4969   5.3981779024e+01   5.6056130553e+01    0.6072633    0.2210452 -36.87   0.00237912    3.141    0.682
        29 -11.1820    108.0119      7.4849   5.5199206282e+01   5.6774552853e+01    0.5647681    0.3059398 -30.20  0.002756895    1.987    0.497
        30 -10.4423    104.1770      7.6354   5.6193931788e+01   5.7632155785e+01    0.3738412    0.1926164  30.17    0.0016741    2.086    0.521
        31 -10.9339     87.4819      6.3132   6.0116768578e+01   6.1376037444e+01    0.2756201    0.2061895  55.68 0.0005243975    1.401    0.286
        32  -9.8528     62.2230      6.3484   6.8575209662e+01   6.6193694641e+01    0.2317529    0.2020734  78.93  0.001448109    1.951    0.487
        33 -10.3317     24.7498      6.7401   8.5809938394e+01   7.1424348224e+01     0.210228    0.1699491 -33.09  0.000995833    1.433    0.302
        34 -10.2532     20.5960      6.3309   8.7824577003e+01   7.1910266419e+01    0.2517028    0.1587142 -31.68 0.0009050336    1.309    0.236
        35 -10.1463     18.4778      2.4991   8.6998251830e+01   7.2669889050e+01    0.1950631    0.1435051 -31.17 0.0007843053    1.320    0.243
        36 -10.5606    142.1242      5.1921   4.7513961172e+01   4.8729560098e+01      0.29626    0.1300371 -34.75 0.0008669358    2.427    0.588
        37 -10.5895     38.3242      4.7008   7.7918495872e+01   7.0064519514e+01    0.3060108    0.2136711  50.00  0.001715594    2.309    0.567
        38 -10.1451     38.2748      1.6924   7.6324815936e+01   7.0441859018e+01    0.2268767      0.19839  39.87 0.0008246428    1.687    0.407
        39 -10.1906    248.8050      3.4881   3.5494078234e+01   2.2764797794e+01    0.2563651    0.1753326  -0.45  0.001054765    2.482    0.597
        40 -11.1089    208.4639      3.9982   3.8856396382e+01   3.2071742533e+01    0.4308763    0.2403742 -70.71  0.002090327    1.883    0.469
        41 -11.6212    195.3137      3.4567   4.0002982959e+01   3.5377294699e+01    0.5244806    0.2090071  64.82  0.002006204    2.162    0.537
        42 -11.3117    160.3163      2.8297   4.3981908068e+01   4.4320495509e+01     0.366987    0.2895178  73.21  0.000819126    1.134    0.118
        43 -10.1671     30.9663      3.3050   8.0784121653e+01   7.1184391146e+01    0.1900262    0.1409212 -33.51  0.000498153    1.503    0.335
        44 -11.2107    115.7267      2.0286   5.1282076386e+01   5.5451977859e+01    0.2454904    0.1885005  53.41 0.0003256637    1.139    0.122
        45 -10.8103     74.1535      2.0339   6.2230608833e+01   6.4450166592e+01    0.2877809    0.1858443  38.47 0.0008777163    1.335    0.251
        46 -10.0108     80.9767      2.2605   6.0187210330e+01   6.3084868040e+01    0.3839938    0.1523671  48.12   0.00174236    2.123    0.529
        47  -9.8903    218.2343      2.0510   3.7507571860e+01   2.9907110461e+01     0.231661    0.1702229  84.71 0.0009953517    1.216    0.177
        48 -10.6962    179.7625      1.8597   4.1249925448e+01   3.9448578159e+01    0.3052604    0.1751955  79.34  0.001489597    1.626    0.385
        49  -9.7497     90.6822      1.2692   5.6942499809e+01   6.1159802880e+01    0.1946025    0.1184674  56.39 0.0002172767    1.563    0.360
        50  -9.6895     87.5481      1.5752   5.7947082117e+01   6.1795695302e+01    0.2022978    0.1635368  33.62 0.0001304437    1.046    0.044
        51 -10.3726     49.7839      2.1746   7.1416274277e+01   6.8700353290e+01    0.2059832    0.1450513  24.31  0.000338434    1.237    0.192
        52  -9.6057    148.0218      1.4432   4.5307058640e+01   4.7562049946e+01    0.2090964    0.1173777  65.45 0.0003587409    1.542    0.352
        53 -10.5494    130.6693      1.5555   4.8206170904e+01   5.1884502678e+01    0.3340625    0.1270671  69.36  0.001284136    2.617    0.618
        54  -9.1661     69.6508      1.7256   6.3586846845e+01   6.5333440077e+01    0.1338962   0.07797632  24.43 0.0003479467    1.633    0.387
        55  -9.4855     14.3794    218.7988   1.2807203217e+02   2.6937083762e+01    0.1460761    0.1214112 -62.86 0.0005652292    1.651    0.394
        56 -11.1260    187.1166    250.3853   9.8862804170e+01  -2.9521779017e+00    0.1970529    0.1281423  36.53 0.0005344224    1.212    0.175
        57 -11.4302    127.6348    247.9054   1.0962872942e+02   6.7391591370e+00    0.3215042    0.2842638 -85.23  0.001705382    1.339    0.253
        58 -10.7532    115.9719    249.4130   1.1195893207e+02   8.2825600716e+00    0.2846954    0.1941047  59.59   0.00131986    1.335    0.251
        59 -10.5512    111.9162    246.3269   1.1239124145e+02   9.3962239927e+00      0.20173    0.1894528 -65.95 0.0003596877    1.363    0.266
        60 -10.2293     38.9561    248.8535   1.2553143191e+02   1.8762992304e+01    0.1971842    0.1484977 -85.26  0.001269044    1.365    0.267
        61  -9.6742     30.9959    250.5563   1.2693119237e+02   1.9371009158e+01     0.143962   0.07966204  47.16 6.083968e-05    1.467    0.318
        62  -9.7056     16.1003    250.3408   1.2929930174e+02   2.1006267188e+01    0.1491174   0.09351359  60.61 0.0008026612    1.134    0.118
        63 -10.6635     11.0405    250.3071   1.3008755613e+02   2.1527942140e+01     0.255287    0.1243725  32.57 0.0008749912    2.532    0.605
        64 -10.2995     13.9222    214.6192   1.2793013680e+02   2.7794171594e+01    0.2934274    0.1430064 -70.91  0.001803165    1.918    0.479
        65  -8.8793    117.3014    218.7020   1.0817546510e+02   1.3393166655e+01    0.1305069   0.08755247  65.43 0.0002121935    1.580    0.367
        66  -9.5996     47.4173    218.2007   1.2200138254e+02   2.3445680019e+01    0.1798376    0.1359343  32.00 0.0005624609    1.661    0.398
        67  -9.9501     39.0446    218.1010   1.2356593348e+02   2.4448163458e+01    0.1536633    0.1356705 -86.44 0.0004623501    1.334    0.251
        68  -9.5729     27.9901    218.0274   1.2559552711e+02   2.5688088701e+01    0.1345147   0.09896859  72.08            0    1.008    0.008
        69  -9.8026    135.9925    217.4637   1.0417944309e+02   1.0524840240e+01    0.2027241    0.1126446  40.43  0.000464383    1.547    0.354
        70 -11.3631     90.4505    215.9148   1.1332172837e+02   1.8103242004e+01    0.4783062    0.2510356  56.28 0.0008567119    1.777    0.437
        71  -8.8880     68.4750    215.4073   1.1768223772e+02   2.1316930877e+01    0.1223515   0.09700923  66.02 0.0001408054    1.017    0.016
        72 -10.1365    111.9067    213.4340   1.0861773319e+02   1.5259268549e+01    0.2096223      0.17748 -43.17 0.0003126166    1.487    0.327
        73  -9.6747     29.1899    212.7850   1.2503925656e+02   2.6594433707e+01    0.1376085    0.1181932 -85.87 0.0003833029    1.311    0.238
        74 -11.2012      8.4905    209.9723   1.2865418137e+02   2.9225097752e+01    0.2780993    0.1623352 -77.30  0.001879485    1.518    0.341
        75 -11.1005    126.5697    210.2924   1.0513370396e+02   1.3439785632e+01    0.3434287    0.2673161 -14.99 0.0007362226    1.920    0.479
        76  -9.5575    117.8368    211.8171   1.0717209331e+02   1.4604219919e+01    0.1862797    0.1368477  61.35  0.001062767    1.306    0.234
        77  -8.7790     52.6596    212.7037   1.2055490108e+02   2.3900797622e+01    0.1021695   0.09300281 -38.81 0.0007031944    1.660    0.397
        78  -9.3509      1.5850    212.1942   1.2998228138e+02   2.9417710121e+01    0.1431536   0.07804474 -74.30 0.0009446734    1.672    0.402
        79 -10.0807    144.4385    208.4739   1.0111206331e+02   1.0702856187e+01    0.3071134    0.2071707 -77.37  0.001148861    2.208    0.547
        80  -9.3541     47.2482    210.4360   1.2142503811e+02   2.5017602141e+01    0.1623693   0.08891764  51.38 0.0002957552    1.541    0.351
        81  -9.7877     39.1628    209.7730   1.2294025083e+02   2.6096800587e+01    0.2165619    0.1720343 -25.88  0.001378293    2.298    0.565
        82  -8.7956    177.7441    209.3500   9.4373754867e+01   4.6578001336e+00    0.1221809    0.1043961  77.79 0.0002657975    1.599    0.375
        83  -9.4375    155.5373    209.4860   9.8951979432e+01   8.5674850369e+00    0.1350283    0.1175831  38.67 7.813766e-05    1.002    0.002
        84 -10.8360     67.1275    207.1869   1.1716437606e+02   2.3158562310e+01    0.3466325     0.225221  66.09  0.002047097    1.379    0.275
        85  -9.5603     63.5785    207.5222   1.1791909823e+02   2.3561019799e+01    0.2227603    0.1195457  74.23  0.000866263    2.018    0.505
        86  -8.7243     60.2991    209.3280   1.1874875694e+02   2.3619082053e+01    0.1069869   0.09339401 -44.30 0.0004681314    1.638    0.389
        87 -10.8411     22.5291    208.4833   1.2600400278e+02   2.8153724809e+01    0.2221083     0.152924  53.13   0.00106812    1.298    0.229
        88 -10.7268     18.2587    207.8840   1.2676033301e+02   2.8703695895e+01    0.2894388    0.1863501  62.79  0.001065299    1.235    0.191
        89  -9.2070    195.8891    208.3739   9.0583723403e+01   1.6297746753e+00    0.1848896    0.1078303  29.04  0.000319092    1.622    0.384
        90 -10.5695     72.7638    215.3605   1.1682517738e+02   2.0743067638e+01    0.3378517    0.2122346 -83.26  0.001136372    1.614    0.380
        91 -10.6739     58.3677    215.7380   1.1969843243e+02   2.2576235736e+01    0.1970192    0.1643787  68.72 0.0003423069    1.104    0.094
        92 -10.0686     57.7826    204.3580   1.1879961288e+02   2.4964014607e+01    0.3485502    0.1113396 -58.26  0.001473667    3.246    0.692
        93  -9.3797     40.3885    204.7619   1.2231826130e+02   2.6981340590e+01    0.1515292   0.09542547 -70.65 0.0008394743    1.536    0.349
        94 -10.4061    142.2436    203.3459   1.0078493545e+02   1.2041467398e+01    0.2352052    0.2112512  44.50 0.0002365699    1.020    0.020
        95  -9.9481     35.4825    203.5109   1.2318560067e+02   2.7791329713e+01    0.2247354    0.1492153 -72.18  0.001147823    1.453    0.312
        96 -11.1183     33.0614    199.3341   1.2334783645e+02   2.8924323023e+01    0.3194775    0.2150723  58.08 0.0009592674    1.268    0.211
        97  -9.4419     11.4230    203.7112   1.2778199655e+02   3.0202980310e+01    0.1427005   0.08419462 -74.26  0.000632657    1.540    0.351
        98  -9.5363      1.4040    204.3179   1.2963966970e+02   3.0985389863e+01    0.1456479   0.07645346  84.06 0.0004739579    1.487    0.327
        99 -10.7242    121.6625    199.7863   1.0467959038e+02   1.6316550085e+01    0.3274396    0.2408837 -77.29 0.0009103554    1.583    0.368
       100  -9.5053     87.5192    200.4887   1.1216358023e+02   2.1655306532e+01    0.1288713    0.1126147  67.48 1.009789e-05    1.049    0.047
       101 -10.6921      5.9407    199.9703   1.2858968339e+02   3.1461178619e+01    0.1635967    0.1178743  79.67 0.0003687596    1.016    0.016
       102 -10.4240     62.3947    198.3465   1.1726494290e+02   2.5630406961e+01    0.1997877    0.1683739  71.68 0.0002257961    1.057    0.054
       103 -10.5581     39.4534    198.0588   1.2196865690e+02   2.8485572406e+01    0.3019921    0.1550871  65.89  0.001455188    1.823    0.451
       104  -9.9762    110.2263    197.7892   1.0688822072e+02   1.8640583465e+01    0.2882721    0.1934243  69.82  0.001124374    1.675    0.403
       105  -9.9079    108.3705    194.1986   1.0679084998e+02   1.9689260299e+01    0.1801075    0.1240214 -77.11 0.0003253258    1.640    0.390
       106  -9.3267     25.1208    197.1152   1.2475333200e+02   3.0222537793e+01     0.162545    0.1035833  72.21 0.0003603795    1.281    0.219
       107 -10.4115     82.7570    195.1825   1.1255520673e+02   2.3478823665e+01     0.213184    0.1855984  86.24 0.0003157584    1.088    0.080
       108 -10.4080     95.5978    194.5939   1.0966709854e+02   2.1658182897e+01    0.2312323    0.2035766  61.92 0.0008697137    1.048    0.046
       109 -10.1685      5.9216    193.5737   1.2824066909e+02   3.2774009902e+01    0.2671999    0.1307275  75.75   0.00115162    1.724    0.420
       110  -8.8717      1.7935    195.3296   1.2911316417e+02   3.2767904594e+01    0.1147316   0.09752358  42.16 0.0002103839    1.501    0.334
       111 -10.2431     63.3106    193.5628   1.1657830427e+02   2.6532940307e+01    0.3111469    0.2262923  20.45 0.0009123498    1.950    0.487
       112  -9.1993     44.5532    194.0194   1.2058136027e+02   2.8759333118e+01    0.1656286    0.1030007 -79.04 3.892281e-05    1.439    0.305
       113 -10.9333     58.9202    190.9167   1.1724580700e+02   2.7674937545e+01    0.3450026    0.1722746 -70.94   0.00124818    1.895    0.472
       114  -9.0894     52.2802    193.3553   1.1890370024e+02   2.7978767390e+01    0.1144923   0.08992102 -49.61  0.000701361    1.658    0.397
       115  -9.2697    100.3215    192.2635   1.0830765201e+02   2.1404548046e+01    0.1706195    0.1196029 -74.32 0.0005063179    1.510    0.338
       116 -10.3281     12.5654    197.6845   1.2721740776e+02   3.1326675816e+01    0.2693254    0.1461734 -63.98  0.001653497    1.893    0.472
       117 -11.3652     91.1628    188.6139   1.0986136699e+02   2.3626620157e+01    0.3749359    0.2587289  65.61   0.00102262    1.436    0.303
       118  -9.7186     86.4933    186.5207   1.1063587568e+02   2.4794456217e+01    0.2026714     0.122651  40.77 0.0005110201    1.586    0.369
       119 -10.7520    105.4147    185.8553   1.0624608947e+02   2.1946125251e+01    0.2807148    0.2344482 -83.15 0.0004927161    1.210    0.174
       120 -10.0700     96.1435    200.1646   1.1026788749e+02   2.0407878021e+01    0.1870068    0.1344423  64.70 0.0003319583    1.317    0.241
       121 -10.1272     44.8497    185.0126   1.1969246582e+02   3.0680779084e+01    0.3361128    0.1868108  83.51  0.001488872    1.793    0.442
       122 -10.2545     15.9537    182.6832   1.2557629627e+02   3.4178687624e+01    0.2536596    0.1427566 -74.10  0.001237041    1.511    0.338
       123 -10.1953     54.7629    180.4644   1.1705389358e+02   3.0504945619e+01    0.2970799    0.1674627  72.16  0.001449334    1.877    0.467
       124 -10.6230     31.2006    180.2485   1.2219545580e+02   3.3225574502e+01    0.2838157    0.1587327  78.68  0.001573808    1.673    0.402
       125  -9.0345    120.7803    178.9629   1.0162246431e+02   2.0794876788e+01    0.1706176    0.1156299 -55.87 0.0003183431    1.552    0.356
       126 -10.4249     46.9157    177.3271   1.1847803216e+02   3.2151879157e+01    0.3061803    0.1598894  52.65   0.00115991    1.808    0.447
       127  -9.2368      3.4732    178.0017   1.2780250021e+02   3.6261962698e+01     0.172327   0.06699717  76.62 0.0008093091    2.575    0.612
       128  -9.3972     92.3581    177.2558   1.0800091411e+02   2.5945352769e+01    0.1797289    0.1233907 -75.66 0.0002036923    1.507    0.336
       129 -10.7734     32.4643    175.8396   1.2153451826e+02   3.4074080549e+01    0.2069601     0.171848  83.29 0.0003638609    1.067    0.063
       130  -9.1302     24.1807    176.3925   1.2337708772e+02   3.4779474738e+01    0.1501679   0.09297152  53.16 8.029623e-05    1.500    0.333
       131 -10.6433     17.4760    175.6082   1.2474381291e+02   3.5580919012e+01    0.2161274    0.1696214 -86.85 0.0005521607    1.100    0.091
       132  -9.1840    199.2316    175.3750   8.3646824451e+01   6.4984487093e+00    0.1840764    0.1291895  48.10 0.0002280746    1.508    0.337
       133 -11.6303     78.8563    174.1148   1.1073330095e+02   2.8700504697e+01     0.263965     0.220452  74.39 0.0003245763    1.085    0.079
       134 -10.2369     76.5440    170.5600   1.1079243242e+02   2.9849122159e+01    0.2239684    0.1995308  71.37 0.0001076462    1.057    0.054
       135  -9.0329     44.5346    169.4574   1.1819182583e+02   3.4212688588e+01    0.1859668   0.09955848 -62.02 0.0005266688    1.736    0.424
       136 -10.6399     47.7210    166.2254   1.1709277485e+02   3.4592139368e+01     0.448643    0.2239593  28.92   0.00217123    2.407    0.584
       137  -9.2767     19.5244    169.4903   1.2382196872e+02   3.6751450143e+01    0.1201961   0.09375831  88.04 0.0001875125    1.020    0.020
       138  -9.9634      4.2112    167.8867   1.2699833775e+02   3.8398812919e+01    0.3718087    0.1477063  66.94 0.0009770017    2.569    0.611
       139  -8.9420     61.3889    166.2272   1.1384423899e+02   3.2919861593e+01    0.1179821    0.1021493 -18.96 0.0006887333    1.630    0.387
       140  -8.7378    185.6944    164.7102   8.4231570036e+01   1.1107874375e+01    0.1483963     0.111665   6.57 0.0002434645    1.572    0.364
       141 -10.1510     24.6588    162.7816   1.2209289097e+02   3.7793661494e+01     0.182377    0.1569098  57.43 0.0003017783    1.255    0.203
       142  -9.4344     75.2652    161.9606   1.0987673929e+02   3.2031802266e+01    0.1933737    0.1662434 -85.47 0.0005692614    1.052    0.050
       143  -9.7529    139.8989    160.8023   9.3769985356e+01   2.1149328193e+01    0.2152743    0.1966727  18.40 0.0004068142    1.174    0.148
       144 -11.6163     36.8501    158.9925   1.1886626996e+02   3.7464935937e+01    0.7017028    0.2329997  49.26  0.002881722    3.108    0.678
       145 -10.8962     30.5018    154.2600   1.1988231237e+02   3.9204308812e+01     0.386243    0.1921652  40.28  0.001575199    2.058    0.514
       146  -9.8466    114.0243    158.1226   9.9564776658e+01   2.6643412186e+01    0.2123392    0.1978584  67.78 0.0002882344    1.026    0.025
       147  -9.0360     66.0218    158.0000   1.1160220235e+02   3.4242897815e+01    0.2060141   0.07551084  34.01 0.0005993292    2.896    0.655
       148  -9.1049    143.9985    153.4564   9.1274093373e+01   2.1928816211e+01    0.2132652     0.145719  43.08 8.045274e-05    1.422    0.297
       149  -9.0725    113.4298    153.4715   9.8831343875e+01   2.7820875053e+01    0.1475091    0.1380622  82.42 9.200498e-05    1.034    0.033
       150  -9.6061     45.9121    151.5059   1.1577010420e+02   3.8249325280e+01    0.1911916    0.1490373 -78.45   0.00032024    1.097    0.089
       151 -11.8608      5.3808    147.4303   1.2521706852e+02   4.2890279806e+01    0.3734767    0.2107404 -89.09            0    1.455    0.313
       152 -10.4605      2.1816    139.9031   1.2535384806e+02   4.4828165672e+01     0.197174    0.1512804  80.65 0.0005901629    1.145    0.127
       153  -9.8686     29.7216    147.3323   1.1932301199e+02   4.0901990313e+01    0.2290586    0.1639895  15.68  0.001358796    1.925    0.480
       154 -10.8564     13.9512    143.6852   1.2283623769e+02   4.3110165498e+01    0.2731522    0.2105306  25.74  0.001827548    1.659    0.397
       155 -11.2040     16.9811    140.7570   1.2179991482e+02   4.3552505598e+01    0.5060863    0.2287541  14.58  0.002352618    3.510    0.715
       156 -10.5661     23.9465    144.4459   1.2044641467e+02   4.2105497686e+01    0.2169265    0.1510694  56.19   0.00133032    1.461    0.316
       157 -10.4924    235.9530    137.1706   6.8332134176e+01   5.9129253826e+00     0.207094    0.1920148 -52.59 0.0007270657    1.264    0.209
       158 -10.3813     34.0327    136.7728   1.1695591908e+02   4.2998593619e+01    0.3173114    0.1668672  48.96  0.001395874    2.039    0.510
       159  -9.7682     50.1120    136.1501   1.1255679719e+02   4.1460556572e+01    0.2006135    0.1668162 -49.98 0.0006171216    1.275    0.216
       160  -9.9052      2.3140    134.5629   1.2486280316e+02   4.6043328455e+01    0.2116922    0.1443339  64.95  0.001375663    1.450    0.310
       161 -10.5273     42.0978    132.1999   1.1416062637e+02   4.3290604657e+01    0.4919011    0.1827003 -48.41  0.001951245    2.886    0.654
       162  -9.9658      7.5519    133.6590   1.2346850101e+02   4.5904320971e+01    0.2185037    0.1348893 -60.44  0.000846792    1.441    0.306
       163  -8.9378     76.2251    132.9500   1.0480997741e+02   3.8852695258e+01    0.1820241    0.1095839 -62.29 0.0004352007    1.544    0.352
       164 -12.1655     28.3539    131.9051   1.1784925032e+02   4.4686451881e+01    0.2802694    0.2401711  76.47   0.00185908    1.163    0.140
       165  -9.2616     16.2773    133.3719   1.2120578835e+02   4.5337616432e+01    0.1269835   0.07410011 -52.61  0.000461621    1.690    0.408
       166  -9.8754     20.4665    131.4874   1.1989897138e+02   4.5452659786e+01    0.1255584   0.09996952 -76.01 9.209639e-05    1.035    0.034
       167 -10.4937     12.8723    131.0300   1.2183957211e+02   4.6141330535e+01    0.1775829    0.1499332 -88.69            0    1.096    0.088
       168 -10.2049      3.3913    130.2885   1.2420470749e+02   4.6959111063e+01    0.1730819   0.08989697 -86.76   0.00094558    1.633    0.388
       169 -10.3193     33.8571    129.0965   1.1598491394e+02   4.4855631071e+01    0.2141501    0.1765014 -42.10  0.001342678    1.380    0.276
       170 -10.0462     38.9269    126.5486   1.1421292092e+02   4.4978389045e+01    0.1965202    0.1440242 -71.71 0.0001961044    1.151    0.131
       171 -10.2936     30.0785    125.3568   1.1651755402e+02   4.6099407096e+01    0.2086568    0.1417268 -62.88 0.0002306273    1.244    0.196
       172  -9.9289      2.6537    123.1805   1.2371291385e+02   4.8648494719e+01    0.1993605    0.1422746  84.41  0.001308331    1.249    0.199
       173 -10.3165      6.5520    122.4433   1.2260139643e+02   4.8578324357e+01    0.3466061    0.1454826  72.47  0.001455047    3.308    0.698
       174 -10.1990    237.5014    120.9906   6.4331673323e+01   8.3147022864e+00    0.2013055    0.1196495 -11.15 0.0008089183    2.419    0.587
       175  -9.5889     93.2617    118.9948   9.7056181961e+01   3.9546676941e+01    0.2080235    0.1851026 -51.26 0.0004455011    1.075    0.070
       176 -10.3690     54.8443    117.9476   1.0817891590e+02   4.5333894593e+01    0.2047359    0.1973956  31.59 0.0004587127    1.202    0.168
       177 -10.8884     10.3935    117.3176   1.2098261899e+02   4.9528333216e+01    0.2265719    0.1735958 -55.95   0.00098753    1.254    0.203
       178 -10.9416     13.7391    113.3591   1.1955305546e+02   5.0235196932e+01    0.3943883    0.2015357   2.15  0.001931781    3.166    0.684
       179 -11.1501     19.5480    110.0552   1.1741343344e+02   5.0605126504e+01    0.3954867    0.2266011 -40.79  0.002132789    1.905    0.475
       180 -12.1712     21.5510    118.9984   1.1805674390e+02   4.8330341929e+01    0.5050099    0.3762796  42.06  0.002040532    1.545    0.353
       181 -10.1068      4.5236    116.5048   1.2251644755e+02   5.0085787952e+01    0.2336466    0.1509958 -61.20  0.001167615    1.297    0.229
       182  -9.7979      1.6769    116.2948   1.2327503883e+02   5.0300153063e+01    0.1654968    0.1233605 -88.62 0.0004554099    1.150    0.131
       183 -11.2948     61.3481    113.1334   1.0529175894e+02   4.5703478762e+01    0.3305373    0.2171481 -44.85  0.000961383    1.497    0.332
       184  -9.3424     33.9685    114.4902   1.1379768485e+02   4.8358497054e+01    0.1651137    0.1286404  33.40 0.0003468498    1.508    0.337
       185 -10.9670      3.6854    109.9037   1.2201307205e+02   5.1668563382e+01    0.4855735    0.1486123 -77.76  0.001970736    2.913    0.657
       186 -10.3578     31.8376    111.1449   1.1390178216e+02   4.9352770190e+01    0.1865706    0.1522054 -87.19 0.0002403213    1.184    0.155
       187 -10.1263     37.3955    106.9396   1.1149296651e+02   4.9852552596e+01    0.3546326    0.1351202 -53.76  0.001349253    2.138    0.532
       188  -9.4872      8.2870    106.8452   1.2031017451e+02   5.2112233717e+01    0.1930935    0.1222455 -87.91 0.0006767339    1.459    0.315
       189 -10.1862     29.2428    103.7615   1.1348501038e+02   5.1338819166e+01    0.3146209     0.148743 -63.98  0.001011923    1.693    0.409
       190 -10.4204     47.7118    103.2801   1.0755533157e+02   4.9683303136e+01    0.3688518    0.1986945 -71.79   0.00159706    1.922    0.480
       191  -9.4271    174.8996    102.8792   7.1614842725e+01   2.5723145033e+01    0.2208808    0.2037946   6.06            0    1.147    0.128
       192  -8.9467    100.5173    103.4271   9.1094378697e+01   4.1931662474e+01    0.1504564    0.1428602 -32.55 0.0001238658    1.043    0.042
       193  -8.5936     80.6875    101.7276   9.6724122373e+01   4.5698420557e+01    0.1430643     0.109889 -20.72  0.000252409    1.554    0.356
       194 -10.6117      8.8334     99.2435   1.1913745879e+02   5.3851325105e+01    0.2576411    0.1999302  82.24 0.0007443958    1.329    0.248
       195 -10.7159      3.8697     97.9755   1.2049259554e+02   5.4422060461e+01    0.3149563     0.190685 -63.69  0.001362896    1.257    0.204
       196 -11.4246     41.8596     98.8920   1.0856124810e+02   5.1339600158e+01    0.2611549    0.2317276 -22.61  0.000369877    1.264    0.209
       197  -9.3903    111.3267     98.5108   8.6576136285e+01   4.0980710207e+01    0.4180786    0.2495762 -13.88  0.001349272    3.583    0.721
       198  -9.4651     50.9638     99.0193   1.0562361165e+02   5.0339934522e+01    0.1627795    0.1408425 -57.12 0.0003210606    1.003    0.003
       199  -9.2598    103.5295     96.7482   8.8386063558e+01   4.2891320260e+01    0.2024566    0.1443156 -57.92 0.0004016126    1.483    0.326
       200 -10.0966     46.6506     94.0078   1.0596189398e+02   5.1999748746e+01     0.265797    0.1937452  27.25 0.0007005321    1.591    0.372
       201 -10.6548     30.3715     93.3186   1.1125085474e+02   5.3713225424e+01    0.3608457    0.1471641  42.47  0.001262667    3.040    0.671
       202  -9.9721      1.5492     92.8068   1.2052659988e+02   5.5729606459e+01    0.2076765    0.1188326 -77.69 0.0006366035    1.449    0.310
       203 -10.9034    105.4925     90.8154   8.6110028460e+01   4.3832222478e+01    0.3012802    0.2482708  33.87  0.001032504    1.266    0.210
       204 -10.3697      7.1047     89.5490   1.1828215482e+02   5.6190831120e+01    0.2561581    0.1682728 -65.16 0.0005986343    1.162    0.140
       205  -9.6320     88.0442     88.4821   9.0857199753e+01   4.7540363579e+01    0.2326274    0.1838675 -45.72 0.0004556321    1.180    0.153
       206 -11.1933     21.2869     87.7085   1.1325101624e+02   5.5727263942e+01    0.2133965    0.1906329 -71.74 0.0002840403    1.136    0.119
       207 -10.9636     27.4834     87.0015   1.1099982872e+02   5.5423442838e+01     0.380101    0.2114132 -51.85  0.000796324    1.460    0.315
       208 -10.0883     30.8396     84.1598   1.0925374213e+02   5.5805711643e+01    0.2403558    0.1809973 -30.56 0.0006468028    1.382    0.276
       209 -10.0609    123.9451     87.1644   7.9678920015e+01   4.0797690222e+01    0.3052461    0.2219124 -51.47 0.0007797133    1.443    0.307
       210  -9.3833     43.7670     88.3403   1.0568017922e+02   5.3628719407e+01    0.1829575    0.1480068 -62.40  0.000669194    1.121    0.108
       211  -9.8232      2.4882     86.9035   1.1939780700e+02   5.7033590663e+01     0.169457     0.131959 -63.53 0.0004491448    1.036    0.035
       212  -9.8818     10.9954     85.4087   1.1633298592e+02   5.6922863671e+01    0.2348559    0.1445934 -82.37  0.001338661    1.605    0.377
       213  -9.5013    155.2521     85.0029   7.0988037009e+01   3.3961957419e+01    0.2149591    0.2014374 -34.39 0.0002849993    1.063    0.060
       214 -10.9343     50.5436     83.2050   1.0209876384e+02   5.4080077908e+01    0.4218711    0.2477466  13.68  0.001267662    2.239    0.553
       215 -10.3613     44.8696     80.1668   1.0335551926e+02   5.5393855833e+01    0.2813518    0.2334323  30.68  0.001053322    1.400    0.286
       216 -10.2620     73.2171     80.7719   9.3552819755e+01   5.1637823449e+01    0.5152515    0.1714751 -39.79  0.001643347    3.476    0.712
       217  -9.3696     35.7946     82.7645   1.0720457311e+02   5.5691974781e+01    0.1749842    0.1465421  89.03   0.00107182    1.388    0.280
       218  -9.6159     95.3777     82.0007   8.6612049811e+01   4.7660945555e+01    0.2032991    0.1736103 -41.80 0.0004813013    1.114    0.102
       219 -10.0182     19.9982     81.3466   1.1249136725e+02   5.7282029709e+01    0.2168294    0.1576675  88.34 0.0009399836    1.590    0.371
       220  -9.3926      2.5607     80.5397   1.1840796573e+02   5.8474470976e+01    0.1651697     0.101977  36.10 0.0006469465    2.038    0.509
       221  -9.5544     28.9254     75.6874   1.0807934596e+02   5.7896973295e+01    0.4162291    0.1749995 -58.93  0.001914703    1.894    0.472
       222  -9.5314     83.0173     74.9882   8.8488649803e+01   5.1332188906e+01    0.3767942    0.2144131 -20.83  0.001100279    2.720    0.632
       223 -10.3953     64.3878     75.8598   9.5205062755e+01   5.3990547227e+01    0.2610053    0.2035638  59.66 0.0008461713    1.706    0.414
       224 -11.2007     52.8741     75.2630   9.9177791816e+01   5.5598423206e+01    0.2565159    0.2074172 -24.92 0.0003661631    1.228    0.186
       225 -10.6386     18.2758     73.7421   1.1157538567e+02   5.9121952496e+01    0.3686854     0.223205 -34.48  0.001387898    1.639    0.390
       226  -9.6348    175.0149     75.2096   6.3764958785e+01   3.0862986342e+01    0.2255092    0.2230494 -69.23  0.001207278    1.005    0.005
       227  -9.7403    169.0156     72.2341   6.4120093782e+01   3.2893151462e+01    0.2189073    0.1980262  57.25            0    1.103    0.093
       228  -9.3343     68.9554     73.6399   9.2928331545e+01   5.3826223500e+01    0.1835249    0.1703354 -19.50  0.001005933    1.065    0.061
       229 -10.3045     89.0750     71.9372   8.5500103979e+01   5.0919962788e+01    0.2633376    0.1999659 -46.72  0.000325416    1.294    0.227
       230  -9.2532     88.2905     68.3591   8.4590864812e+01   5.1788908816e+01    0.1522362    0.1083728 -12.39 0.0007027371    1.690    0.408
       231  -9.7301     91.5478     66.4794   8.2885834555e+01   5.1572140635e+01     0.302069    0.1868077  48.98  0.001101883    1.845    0.458
       232  -9.4480     44.8162     73.2061   1.0158160380e+02   5.6962219647e+01    0.1841278    0.1298917 -37.32 0.0005790063    1.286    0.222
       233 -10.6057    199.9441     71.5525   5.8091980116e+01   2.5245590125e+01    0.2649042    0.2127233 -37.02 0.0003166663    1.213    0.176
       234  -8.9083    137.4986     71.6136   7.1208528044e+01   4.0767608417e+01    0.1528483     0.148376  39.11 0.0001716601    1.036    0.034
       235  -9.3324     94.8141     70.8364   8.3269337197e+01   5.0093426770e+01    0.1951493    0.1769952 -74.92 0.0005453787    1.346    0.257
       236  -9.9945      1.3027     69.2919   1.1696918722e+02   6.1045438479e+01    0.2121426    0.1342073 -35.74 0.0007071513    1.535    0.349
       237 -11.9129      1.6413     63.2372   1.1571767764e+02   6.2358830152e+01    0.6340771    0.2135976 -71.47   0.00276414    2.750    0.636
       238 -11.6226      5.8819     59.0357   1.1319471729e+02   6.3072177502e+01    0.4323985    0.3749946  55.09   0.00101013    1.525    0.344
       239 -11.8731     79.7885     69.8612   8.7962531770e+01   5.2943006509e+01    0.2402732    0.2222652  -9.69 0.0002756815    1.055    0.052
       240 -10.7950     52.6577     69.4177   9.7600608437e+01   5.6904633617e+01    0.2405635    0.2104757 -44.32 0.0003941494    1.074    0.069
       241 -10.6774     45.6335     68.2308   9.9905731489e+01   5.7965836592e+01    0.6159107    0.2859791 -25.53  0.002285362    3.560    0.719
       242  -9.4841     63.9518     69.3067   9.3400592225e+01   5.5465614116e+01    0.1841386    0.1685416  -4.47 0.0004382501    1.118    0.105
       243  -9.4386    106.1199     66.7113   7.8349286627e+01   4.8681645510e+01    0.2278575    0.1863792  52.39  0.001158262    1.344    0.256
       244  -9.2473     17.9358     66.9764   1.1023047570e+02   6.0649254491e+01     0.139914     0.118203 -42.27 0.0004349028    1.105    0.095
       245  -9.1370    144.0334     66.0049   6.7789251261e+01   4.0205491606e+01    0.1833161    0.1789515  24.16 0.0004345107    1.001    0.001
       246  -9.6208     75.2784     66.0378   8.8291439885e+01   5.4459349360e+01    0.1954048    0.1656213 -35.76  0.001097398    1.082    0.075
       247 -10.8371     22.2452     63.6839   1.0777322539e+02   6.1071709673e+01     0.409869    0.1840051 -43.95  0.001469221    1.834    0.455
       248 -11.2081     32.3012     64.6277   1.0406096466e+02   6.0059523771e+01      0.28823    0.2446838  -2.98  0.001890871    1.293    0.227
       249 -10.5850     31.4436     58.4752   1.0270354149e+02   6.1451854425e+01    0.2667201    0.1965995 -62.62 9.982172e-05    1.384    0.278
       250 -11.5089     23.8333     57.2750   1.0547651117e+02   6.2330300652e+01     0.402384    0.2564002 -37.67  0.001488988    1.343    0.256
       251 -10.8153     28.9886     53.6193   1.0230276192e+02   6.2680561979e+01    0.5213665    0.3204981  21.98  0.002277958    1.865    0.464
       252  -9.6167    202.1472     64.4843   5.5791486032e+01   2.5838215624e+01    0.3564785    0.1855572 -17.25 0.0005531384    2.937    0.660
       253 -10.0496     14.2230     64.9990   1.1122134188e+02   6.1318758801e+01     0.231031    0.1879253 -54.67 0.0008196019    1.060    0.056
       254 -10.3169     16.8715     60.7272   1.0918542673e+02   6.2081644668e+01    0.2865599    0.1961258 -82.83  0.001055315    1.813    0.448
       255 -10.3709     71.2465     60.3346   8.7826999356e+01   5.6240393560e+01    0.4020846    0.2308489  48.06  0.001832149    2.217    0.549
       256  -9.7278     59.6606     58.4031   9.1495627970e+01   5.8311347584e+01    0.2484035    0.2004042 -14.32  0.001423527    1.204    0.169
       257  -8.9820    238.4496     58.4501   4.9122940572e+01   1.8115621846e+01    0.1380038    0.1232669 -54.73 6.829516e-05    1.008    0.008
       258 -10.3990     38.5859     57.0615   9.9386077637e+01   6.1075391076e+01    0.2202728     0.169664  40.33  0.000855533    1.638    0.389
       259 -10.3547    145.2014     54.2198   6.3666124556e+01   4.1893891356e+01    0.2641113    0.2278179  28.24 0.0006837415    1.195    0.163
       260 -10.0206    119.1241     54.8458   7.0458775015e+01   4.8010439697e+01    0.2726171    0.2045768  -0.96 0.0006192584    1.572    0.364
       261 -10.3771    122.2026     52.3586   6.8743060698e+01   4.7721309977e+01     0.371567    0.2047646  35.64  0.001296059    2.010    0.502
       262  -9.8015     89.5272     49.9359   7.7680463108e+01   5.5031303497e+01    0.2219128    0.1971032 -16.32 0.0004121063    1.051    0.049
       263 -11.0988     93.0627     54.6065   7.8233651660e+01   5.3529864429e+01    0.2977839     0.222186 -25.74 0.0002784616    1.306    0.234
       264 -10.8037     94.5154     49.5816   7.5909775801e+01   5.4128950628e+01    0.4610414    0.2421732  35.57  0.001122529    2.001    0.500
       265  -9.0941    191.5185     53.9507   5.4579706002e+01   3.0133578147e+01    0.1992399    0.1324432   4.37 0.0008070226    2.379    0.580
       266  -9.7894     52.4666     53.9912   9.2808265229e+01   6.0133509170e+01    0.1733813    0.1156249 -70.72 0.0008082338    2.464    0.594
       267  -9.4571    151.3425     53.2993   6.1990576106e+01   4.0502544443e+01    0.1599308    0.1141181  26.03 0.0003898742    1.671    0.402
       268  -9.3497     75.4450     52.6900   8.3600777026e+01   5.7036900790e+01     0.186792    0.1217845 -29.39 0.0008314127    1.475    0.322
       269 -11.0996     42.1088     51.2986   9.6102908249e+01   6.1882037561e+01    0.4094869     0.200422 -36.48  0.001110207    1.871    0.466
       270  -9.3785     13.7965     53.3699   1.0861006364e+02   6.3843565979e+01    0.1472382    0.1023725 -14.05 0.0004142554    1.551    0.355
       271 -10.3978    199.9233     51.6019   5.2596579344e+01   2.8355612459e+01    0.3564583    0.2560488  22.87 0.0009489722    1.915    0.478
       272  -9.9853     60.9122     51.9430   8.8776502249e+01   5.9407519782e+01    0.2001844     0.177271 -18.14 0.0005626472    1.050    0.048
       273 -10.1760     20.6051     40.6867   1.0194507298e+02   6.5963424422e+01    0.4329795    0.1825347  13.59  0.002073283    2.953    0.661
       274 -11.2074     14.1040     39.6676   1.0459908764e+02   6.6622027902e+01    0.2401667    0.1714434 -39.70 0.0005504877    1.069    0.064
       275 -11.2245     14.4732     36.0000   1.0325706135e+02   6.7314371009e+01    0.3339009    0.1959432  11.10  0.001121941    1.924    0.480
       276 -11.9483     61.9671     44.2642   8.5521534456e+01   6.0682942110e+01    0.3359151    0.2287925 -38.57  0.000450613    1.350    0.259
       277 -10.6651     65.7875     49.2485   8.5921096806e+01   5.9203626984e+01    0.3339384    0.2150468 -20.32  0.001287102    1.664    0.399
       278 -10.3643     67.6646     44.2545   8.3316111747e+01   5.9818597186e+01    0.2890512    0.2174505   3.99 0.0006146097    1.365    0.268
       279  -9.9032     31.9123     47.8647   9.9275649235e+01   6.3592312923e+01    0.1802348    0.1505882 -27.05  0.001031611    1.071    0.066
       280 -10.9513     17.4085     46.7124   1.0523307603e+02   6.4988722918e+01    0.3063989    0.1934197 -37.43  0.001149473    1.295    0.228
       281  -9.6777     21.8889     46.0950   1.0307873323e+02   6.4790575049e+01    0.2365315    0.1078266 -38.18 0.0003587198    1.872    0.466
       282 -12.0574     12.4131     43.8946   1.0663083747e+02   6.5883769930e+01    0.4906105    0.1558184 -42.43 0.0003981019    2.421    0.587
       283  -9.4425    114.4863     46.9017   6.8896614036e+01   5.0354542055e+01    0.2094361    0.1428054 -28.07 0.0003377333    1.489    0.328
       284 -10.0225     47.0353     47.0108   9.2580984943e+01   6.2160841327e+01    0.2648814    0.1463336 -20.87 0.0009443795    2.202    0.546
       285  -9.5580     38.8257     46.8236   9.5968068300e+01   6.3116831362e+01     0.158632    0.1486319 -58.68 0.0006060253    1.354    0.261
       286  -8.9804    165.2124     45.9897   5.6827974035e+01   3.8063488677e+01    0.1908269    0.1213906 -31.06 0.0004013096    1.629    0.386
       287  -9.9670    124.0525     45.1284   6.5678993256e+01   4.8433290500e+01    0.3967329    0.1996401  49.42  0.001635212    1.881    0.468
       288  -9.6641     42.3954     44.6045   9.3669630998e+01   6.3158398720e+01    0.1654845    0.1521723 -77.98  0.001006033    1.538    0.350
       289  -9.9237    102.8370     43.7015   7.1087786287e+01   5.3396515564e+01    0.2903056    0.2097798   2.35  0.001421149    1.593    0.372
       290 -11.6242    103.6171     38.7143   6.8940267271e+01   5.3994468701e+01    0.2561884    0.2350542  -0.64 0.0002896469    1.049    0.047
       291 -10.8356    165.4734    248.2913   1.0258849921e+02   7.2631171313e-01    0.3038026    0.2169407  69.68   0.00178695    2.080    0.519
       292  -9.7864    200.0806     43.1789   5.0248147863e+01   2.9514469894e+01    0.2069056    0.1915161  44.70 0.0003826674    1.185    0.156
       293  -9.2787     32.9280     43.0513   9.7219519421e+01   6.4443524145e+01    0.2418564    0.1491978 -36.25   0.00118012    1.342    0.255
       294 -11.3454     40.4030     36.0342   9.1330390815e+01   6.4972496329e+01    0.8555128    0.3119946 -37.31  0.003392539    2.497    0.599
       295  -9.1046     53.0004     42.7240   8.8534036056e+01   6.2213989192e+01    0.1424158    0.1099348  20.11 0.0002885643    1.339    0.253
       296  -9.3278    152.0367     40.2653   5.7564823774e+01   4.2249956455e+01    0.2006163    0.1874851  54.66 0.0004050338    1.018    0.018
       297 -10.5451    127.4001     39.8129   6.2919337889e+01   4.8422181908e+01    0.3247815    0.2441938  60.48 0.0008686999    1.371    0.270
       298  -9.7256     91.8183     40.5013   7.3302413307e+01   5.6152152025e+01    0.2024081    0.1331258  42.30  0.000652868    1.502    0.334
       299  -9.5640     82.5148     39.0038   7.5830754078e+01   5.8165055825e+01    0.1924168     0.163216 -16.59 0.0004046371    1.093    0.085
       300  -9.7786     85.9827     37.0155   7.3844267969e+01   5.7826814311e+01    0.2037029    0.1767346   2.15  0.001190484    1.029    0.029
       301 -10.3346    228.0261     37.5694   4.5236985577e+01   2.3433310653e+01    0.2509488    0.1620697 -49.65 0.0002822149    1.427    0.299
       302  -9.4884    118.9811     39.0000   6.4762412726e+01   5.0521984022e+01    0.2427025    0.0795401  53.91 0.0008026033    2.944    0.660
       303  -9.3054    237.5459     37.5306   4.4194652296e+01   2.1227201460e+01     0.136646    0.1154382 -62.83  0.000259219    1.042    0.040
       304  -9.5296    156.9308     37.3113   5.5632142228e+01   4.1400185325e+01      0.24685    0.1219769  85.34 0.0007024928    4.495    0.778
       305  -9.4934    176.6995     36.6249   5.1926924592e+01   3.6386987068e+01    0.3602243    0.1432661  70.09  0.001233471    2.872    0.652
       306 -10.9008    137.2467     35.4591   5.9064231989e+01   4.6622523427e+01    0.4917594    0.2309268  41.12  0.001401221    2.256    0.557
       307 -10.6177    142.8507     31.6818   5.6547405532e+01   4.5714557096e+01    0.2880812    0.2118959  22.15  0.001068623    1.555    0.357
       308 -10.0089    131.9960     36.4896   6.0624308205e+01   4.7774436208e+01    0.2945333    0.2205576 -80.16  0.001171634    1.850    0.459
       309  -9.6012    128.5370     35.4417   6.1063167475e+01   4.8755710532e+01    0.2266239    0.1921345 -42.91 0.0006085528    1.294    0.227
       310 -11.0503    194.2667     34.9810   4.8792323680e+01   3.2086475963e+01    0.2470885    0.1971639  70.23 0.0002232752    1.198    0.166
       311 -12.1437    107.7189     28.9193   6.3928797766e+01   5.4462443820e+01    0.4224064    0.3124987 -22.97  0.002247772    1.379    0.275
       312  -9.8475    153.1572     32.8707   5.4897614409e+01   4.2947288737e+01    0.2333798    0.1988868 -75.45  0.001240941    1.306    0.234
       313  -9.2767    118.0158     32.9806   6.2758938161e+01   5.1580953759e+01    0.1766826    0.1494365  43.97  0.000425458    1.112    0.100
       314  -9.4230    233.2751     32.0196   4.3320181939e+01   2.2925096572e+01    0.1854575    0.1561784 -57.90 0.0002976853    1.056    0.053
       315 -11.2134     56.3283     33.4011   8.3443777201e+01   6.3378773026e+01    0.4853979    0.3694212  41.00  0.001219894    1.592    0.372
       316  -9.5395     82.9908     32.5257   7.3019433142e+01   5.9071149582e+01    0.1721845    0.1247648  72.62 0.0008077695    2.444    0.591
       317 -10.1175     19.2841     29.1750   9.8546979944e+01   6.8247647563e+01    0.1828894    0.1645178 -29.74  0.000535359    1.263    0.208
       318 -10.4320     24.9862     30.5822   9.6321861453e+01   6.7513732489e+01    0.3282954    0.1878409  22.46  0.001643345    1.918    0.479
       319 -10.2089     32.2333     28.5101   9.2056678033e+01   6.7186890227e+01    0.4029012    0.3254498 -44.57  0.002687116    1.369    0.270
       320 -11.7024    221.3898     29.4873   4.3962447935e+01   2.6053472544e+01    0.3763398    0.2348661 -43.84 0.0007193722    1.486    0.327
       321  -9.8721    206.1885     31.1879   4.6178236183e+01   2.9564993836e+01     0.194673    0.1479141 -68.36 0.0003174031    1.305    0.234
       322 -10.1206    159.0392     29.9691   5.2860856781e+01   4.1801029727e+01    0.2104724     0.202012  62.49 0.0003242986    1.027    0.026
       323 -10.5184     71.9668     29.4738   7.5651157966e+01   6.1515641205e+01    0.2433337    0.2118032 -13.50  0.001508446    1.113    0.101
       324 -11.2697     48.7262     26.3709   8.3650617750e+01   6.5577188437e+01    0.3942864    0.3264202  69.35  0.001822864    2.302    0.566
       325 -10.0228    211.9698     28.0956   4.4669853399e+01   2.8518296187e+01    0.2046617    0.1832777 -74.61 0.0003877782    1.008    0.008
       326  -9.1889    134.4270     27.4968   5.6858320651e+01   4.8334714625e+01    0.1418858    0.1331405  43.17 0.0001084869    1.022    0.022
       327  -9.6821     99.8617     26.9566   6.5367894984e+01   5.6435473610e+01    0.2114755    0.1673208  17.53            0    1.214    0.177
       328 -10.6152    165.0006     25.5907   5.0442714926e+01   4.0789496818e+01    0.4566796    0.2447771 -70.57  0.001682135    3.030    0.670
       329  -9.3142    139.7705     26.2196   5.5281581643e+01   4.7158499877e+01    0.1964265    0.1499986  37.99 0.0004053045    1.286    0.222
       330  -9.6146     26.4674    249.5199   1.2761114522e+02   2.0048483687e+01    0.1076127   0.07216343  66.76  0.000151036    1.039    0.037
       331 -10.3565      7.9031     21.7374   1.0150723205e+02   7.0401350763e+01    0.2721716    0.1473305  19.84  0.001672046    2.084    0.520
       332  -9.8204    137.9651    248.4841   1.0776286273e+02   5.0408737746e+00     0.192054   0.09531271  41.87 0.0008723193    1.578    0.366
       333 -10.2614     61.4974     23.6954   7.7127159209e+01   6.4101608327e+01     0.313548    0.2041211  -5.04  0.001688719    1.618    0.382
       334 -11.0748     18.5818     23.8810   9.6844708869e+01   6.9253199922e+01     0.225276    0.1745294 -37.48  0.000408126    1.167    0.143
       335 -10.2112    204.9382     24.3391   4.4506349642e+01   3.0716925188e+01    0.1950007    0.1670047  81.56 0.0005021411    1.090    0.083
       336 -11.1928    153.6410     22.9873   5.1539124626e+01   4.4015075323e+01    0.2535577    0.2310751  50.30 0.0002813772    1.048    0.046
       337 -11.0487      4.2563    247.4507   1.3102360968e+02   2.2689035882e+01    0.2193258    0.1291852  88.81  0.001400813    1.396    0.284
       338  -9.9595    124.3323     22.8829   5.7414508824e+01   5.1342758059e+01    0.4192905    0.2564862 -72.33  0.001650747    3.067    0.674
       339 -10.3155    231.5248     23.4225   4.1435157165e+01   2.4398709570e+01    0.3084699    0.1621369  84.23  0.001439893    2.041    0.510
       340 -10.8820    175.2780     22.2356   4.7815718152e+01   3.8520964296e+01    0.3224233    0.1942607  35.42  0.001442996    2.049    0.512
       341 -10.0706    169.9872     23.3244   4.8942938356e+01   3.9763569169e+01    0.2034777     0.173046  69.32 0.0004463363    1.087    0.080
       342 -10.4983    109.5130     20.9889   6.0293917957e+01   5.5031425449e+01    0.3968265    0.2269417   2.73  0.001306337    2.388    0.581
       343 -11.0382    105.0713     20.9779   6.1464777427e+01   5.6032136408e+01    0.2531925    0.2324163 -85.15 0.0003589716    1.392    0.281
       344 -10.4915     26.4293     21.9132   9.2093564013e+01   6.8893152755e+01    0.2963467    0.1790121 -14.25 0.0009505469    1.634    0.388
       345  -9.8595    132.2201     21.2144   5.5064155997e+01   4.9611114990e+01    0.1926366    0.1667143 -75.42  0.001067905    1.361    0.265
       346  -9.9568     41.0728     21.3843   8.4844719430e+01   6.7354151943e+01    0.1668644    0.1334419   5.71 0.0004102801    1.158    0.136
       347  -9.9699     36.1535     21.0519   8.6991606736e+01   6.7998402967e+01    0.1935128    0.1543512   1.69 0.0005297659    1.152    0.132
       348 -10.8534    182.1693     18.9452   4.5876187607e+01   3.7115221288e+01    0.3052249    0.2286495 -13.03    0.0014864    1.600    0.375
       349  -9.7313    210.9969    245.5235   9.3799766309e+01  -5.9875755781e+00    0.1683394    0.1372018  10.14   0.00044058    1.126    0.112
       350 -10.7292    163.0403     14.9791   4.7409538571e+01   4.2466136157e+01    0.2214828    0.1842415  70.28 -0.003769674    1.097    0.089
       351 -10.3424     14.5101     18.8140   9.6873294379e+01   7.0454381742e+01    0.2753289    0.1330962  -6.11  0.001348462    2.669    0.625
       352 -10.0007    199.3056     17.9962   4.3468686078e+01   3.2861462878e+01    0.1896601    0.1751008 -53.90  0.001149518    1.121    0.108
       353  -9.0245    192.9957     17.0415   4.3956001696e+01   3.4560776363e+01    0.1641648    0.1457921  87.40 0.0003512432    1.017    0.016
       354 -10.6391    148.1117    245.4458   1.0548669318e+02   3.9025420718e+00    0.3148167    0.2096331  75.87  0.001711547    2.382    0.580
       355  -8.9002     66.3167    246.3218   1.2067819121e+02   1.5838225146e+01   0.09274781   0.08930422   2.14 0.0007042232    1.663    0.399
       356 -11.2870    201.8962    244.4313   9.5290108848e+01  -4.4658659847e+00     0.241569    0.1891652   9.06 0.0003782196    1.199    0.166
       357  -8.9478    187.3421    245.2842   9.8098712054e+01  -2.3134043431e+00    0.1233102   0.07998348  16.80 0.0004695693    1.637    0.389
       358  -9.7380     46.0059     17.2041   8.0658319057e+01   6.7334393256e+01    0.1989153    0.1726812  42.38  0.001271254    1.634    0.388
       359  -9.7745    230.0328     15.9880   3.9806241536e+01   2.5620256164e+01    0.2103219    0.1268113 -61.86 0.0003145674    1.583    0.368
       360  -9.6228     73.1083    244.1275   1.1929969964e+02   1.5322946586e+01    0.1802145    0.1390191  81.49 0.0006467749    1.213    0.175
       361  -9.3599    112.4387     15.5105   5.7372648870e+01   5.4963759225e+01    0.1395775    0.1201224  31.68 2.989774e-05    1.041    0.039
       362 -10.9646     76.2900    241.3032   1.1849255551e+02   1.5389848283e+01    0.3579738    0.1830409  65.01 0.0006996301    1.926    0.481
       363 -10.0041    179.4723     13.4818   4.4642215065e+01   3.8393544510e+01    0.2033592    0.1249966  83.67 8.327719e-05    1.656    0.396
       364 -10.1686     31.9624    244.0549   1.2642557851e+02   2.0400053614e+01    0.1546026    0.1165199  68.70            0    1.096    0.088
       365 -11.9319     20.3141    244.6891   1.2836967346e+02   2.1550453719e+01    0.4814206    0.2158339 -75.04  0.002596592    2.121    0.529
       366  -9.2254    169.3385     14.2562   4.6256769593e+01   4.0918995340e+01    0.1434829   0.09451488  44.13 0.0001717506    1.577    0.366
       367  -9.4775     91.8495    242.1690   1.1570983335e+02   1.3058214812e+01    0.1807287    0.1250608  60.07 0.0004707137    1.195    0.163
       368 -10.3480    139.0970     13.9283   5.1092187300e+01   4.8671584853e+01    0.3031434    0.1734267  57.56  0.001436819    1.531    0.347
       369 -10.3532    109.5069    239.6354   1.1214309513e+02   1.0882404770e+01     0.299903    0.1874094  84.58  0.001565066    2.118    0.528
       370  -9.8247     55.1319    240.9413   1.2225905284e+02   1.8217750486e+01     0.171929    0.1090459  69.86  0.000460873    1.299    0.230
       371  -9.6807    119.7514    240.6125   1.1030074873e+02   9.1441691410e+00    0.1749228   0.09112463  47.68 0.0005263434    1.557    0.358
       372  -9.1934    154.5774     13.4880   4.8256179054e+01   4.4790543693e+01    0.1391044    0.1258775  58.16 9.204057e-05    1.029    0.028
       373  -8.8906     80.6439     13.7507   6.5615581099e+01   6.1976161332e+01    0.1373814   0.08480713  24.89 0.0001878521    1.600    0.375
       374  -9.8579     51.5277     13.0787   7.6245638472e+01   6.7109838426e+01    0.1888537    0.1078681 -29.57  0.001039491    1.619    0.383
       375  -9.6630     32.8879     12.8182   8.4703183483e+01   6.9636028106e+01    0.1559563    0.1448278 -45.04 0.0008727192    1.681    0.405
       376 -10.5549    103.9943    237.7521   1.1299320128e+02   1.2039870528e+01    0.3321333    0.2014993 -39.28  0.001651049    2.743    0.635
       377  -9.2279    206.9469    239.4850   9.3611266103e+01  -4.6104161267e+00    0.1744812   0.09773787  34.80 -0.0001463299    1.447    0.309
       378  -9.8327    148.5195    239.0919   1.0460055536e+02   4.8159722006e+00    0.1569135    0.1250796 -49.15 0.0007304641    1.552    0.356
       379  -9.6010    167.9415    237.7103   1.0068162780e+02   1.8662719060e+00    0.1775338    0.1371901  38.25 0.0006260099    1.062    0.058
       380 -11.2768    143.9961    237.8078   1.0530703036e+02   5.7511878833e+00    0.4312346    0.1658172  41.75 0.0008437957    2.087    0.521
       381  -9.3505     84.2677    237.8440   1.1671997247e+02   1.4898744376e+01    0.2027472   0.09017231  64.03  0.000757961    2.674    0.626
       382 -10.1226      5.1447    237.5615   1.3049361593e+02   2.4343256565e+01    0.1698719   0.09785096  78.08 0.0004074683    1.289    0.224
       383  -9.5272    221.3017    237.3649   9.0666270065e+01  -6.5315957674e+00    0.1260936   0.07777266   7.68 0.0007035147    1.732    0.423
       384 -11.2251     34.0149    239.1687   1.2580529657e+02   2.1044626678e+01    0.2038617    0.1576641  60.82  0.000344456    1.176    0.149
       385 -10.1438      2.3816    235.2183   1.3084072474e+02   2.5026877355e+01    0.2164745    0.1078835 -62.14  0.001381257    2.511    0.602
       386 -10.1095    133.0762    234.5877   1.0702008453e+02   8.0408718694e+00    0.1825514    0.1572632  75.27  0.001219943    1.267    0.210
       387 -12.3074     14.6554    233.7431   1.2877449990e+02   2.4099517549e+01    0.5275945    0.2210806  46.96  0.003276836    1.856    0.461
       388  -9.2275     41.3935    233.8127   1.2419964654e+02   2.1178116160e+01    0.1330146   0.09081204 -73.83 0.0002793751    1.533    0.348
       389  -9.3189    230.5493    232.5647   8.8226354808e+01  -7.3212870564e+00    0.1227612   0.09213532  14.23 0.0001449585    1.049    0.046
       390  -9.5121    219.3178    232.6716   9.0265725062e+01  -5.6414178464e+00    0.1076045   0.09443914  54.28 0.0007046499    1.681    0.405
       391 -10.2768    146.2128    231.8085   1.0408914236e+02   6.3577124050e+00    0.2635593    0.1701895  33.95 0.0007575667    1.395    0.283
       392  -9.6787    142.4785    232.4250   1.0490414944e+02   6.8704968560e+00    0.2243839    0.1439718  63.73 0.0006767488    1.903    0.474
       393 -10.7933     29.4026    230.6755   1.2610620758e+02   2.3117639431e+01    0.1921063    0.1452863  75.40 0.0004283792    1.085    0.078
       394  -9.3156    152.3036    230.2952   1.0268489380e+02   5.5955693068e+00    0.1217714   0.09216115  13.98 0.0001959855    1.579    0.367
       395 -11.3651     46.6646    230.1224   1.2301112766e+02   2.1242145684e+01    0.3745837    0.1717035  66.11  0.001366715    2.046    0.511
       396  -9.1616    175.0063    226.9683   9.7740646721e+01   2.3204185001e+00    0.1560062    0.1304033  30.94  0.000991967    1.013    0.013
       397  -9.5670     22.9884    227.0019   1.2701221887e+02   2.4494797187e+01     0.175425   0.08830235  64.91            0    1.582    0.368
       398  -9.2754     14.5085    227.5214   1.2849605524e+02   2.5265987427e+01    0.1088863   0.07615788  71.68 0.0001286329    1.007    0.007
       399 -10.1354    209.7074     13.9927   4.1277586048e+01   3.0719129098e+01    0.1850314    0.1623875 -62.41 0.0004174599    1.084    0.077
       400 -10.2136    164.7335    225.3004   9.9511168999e+01   4.3136228425e+00    0.2252057    0.1856733  26.50 0.0002312009    1.122    0.109
       401  -9.9053     73.1056    225.9910   1.1775427221e+02   1.8632564010e+01    0.2869208    0.1051694  55.08  0.001176317    2.612    0.617
       402 -10.6823      2.5801    224.7340   1.3037284649e+02   2.6934020141e+01    0.2213421    0.2031687  85.64  0.001364851    1.514    0.340
       403  -9.3014    206.3618    225.0992   9.1418043025e+01  -2.5928375588e+00    0.1574617    0.1164537 -47.65 0.0009329471    1.841    0.457
       404  -9.3930    108.7816    225.1689   1.1067910682e+02   1.3553552739e+01    0.1573452    0.1442294  18.55 0.0005325379    1.387    0.279
       405  -9.0507    112.5427    223.5414   1.0973522961e+02   1.3261084935e+01    0.1274962    0.1053682  54.92 9.317104e-05    1.004    0.003
       406  -9.3101     38.8151    223.4227   1.2397500669e+02   2.3438906067e+01    0.1340731    0.1022541  34.55 0.0007442102    1.626    0.385
       407  -9.6138      8.7556    223.6046   1.2928325091e+02   2.6565571768e+01    0.1446398   0.07070231  51.85 0.0004812881    1.607    0.378
       408 -10.4004     89.1030    221.5596   1.1419806772e+02   1.7211530270e+01    0.1990855     0.165006  87.27 0.0005326558    1.187    0.158
       409  -9.4440     54.4626    221.0769   1.2089153313e+02   2.2018363088e+01    0.1612817    0.1015728 -79.96 0.0004154776    1.516    0.340
       410  -9.3615    228.7002    219.9969   8.6421905726e+01  -5.4457263943e+00    0.1659826    0.1372446   4.53 0.0002330501    1.090    0.083
       411  -8.9390    110.2823    220.7029   1.0985033000e+02   1.4143142947e+01    0.1273366   0.08525977  66.26 0.0002806742    1.542    0.352
       412  -8.5812    183.3133    219.6594   9.4963381131e+01   2.0412335026e+00    0.1233869   0.09967993  66.77 0.0007046864    1.700    0.412
