#   1 NUMBER                 Running object number                                     
#   2 MAG_AUTO               Kron-like elliptical aperture magnitude                    [mag]
#   3 X_IMAGE                Object position along x                                    [pixel]
#   4 Y_IMAGE                Object position along y                                    [pixel]
#   5 X_WORLD                Barycenter position along world x axis                     [deg]
#   6 Y_WORLD                Barycenter position along world y axis                     [deg]
#   7 A_WORLD                Profile RMS along major axis (world units)                 [deg]
#   8 B_WORLD                Profile RMS along minor axis (world units)                 [deg]
#   9 THETA_WORLD            Position angle (CCW/world-x)                               [deg]
#  10 FWHM_WORLD             FWHM assuming a gaussian core                              [deg]
#  11 ELONGATION             A_IMAGE/B_IMAGE                                           
#  12 ELLIPTICITY            1 - B_IMAGE/A_IMAGE                                       
         1 -15.1251      6.4404     69.1500   1.1423103233e+02   6.0853686411e+01     1.555267    0.7145923 -58.60  0.005412832    1.574    0.365
         2 -12.3040    232.5954      2.2341   3.5676373918e+01   2.6607559055e+01     0.415184    0.2379502  63.66  0.001672372    1.753    0.430
         3 -15.4897    218.5367     16.7814   4.0329732437e+01   2.8314185129e+01     2.162566     1.182431 -29.90   0.01071216    1.883    0.469
         4 -15.0050    190.0294     19.8589   4.4305506280e+01   3.4992606697e+01     1.915224    0.9292902 -39.30  0.008571533    2.016    0.504
         5 -14.3463    121.8643     37.4680   6.2494118740e+01   4.9987372425e+01     1.017805    0.5472085  34.02  0.002534929    2.105    0.525
         6 -13.3403      2.6987     10.7662   9.8779664528e+01   7.2647864048e+01    0.7082786    0.3281917 -53.50  0.003990416    2.103    0.525
         7 -13.2090      8.1986      2.7624   9.1781939742e+01   7.3532327234e+01      0.49108    0.3888339  30.67  0.002184703    1.834    0.455
         8 -13.2848     16.9827     10.6372   9.0706852374e+01   7.1585436199e+01    0.4084362    0.2904393 -51.69  0.001176905    1.886    0.470
         9 -15.9715     13.9126     20.1308   9.6602272552e+01   7.0280699900e+01      1.89474    0.9446988 -31.84  0.009405319    1.644    0.392
        10 -14.5339     24.3048     13.9299   8.8396257846e+01   7.0376368254e+01    0.7263274    0.4624773  14.83  0.002004576    1.553    0.356
        11 -13.2883    139.5976     21.9980   5.2930246195e+01   4.7599702490e+01    0.7765248    0.3336515  60.06 0.0009882308    2.095    0.523
        12 -14.7309    166.6892     30.1439   5.0732409027e+01   3.9759638445e+01     1.172656    0.9980913  63.00  0.003823699    1.101    0.092
        13 -14.9055    147.3985     30.0454   5.4172299333e+01   4.4698512582e+01     1.446412    0.8754863  56.93  0.004854225    1.515    0.340
        14 -12.6302     71.5418     17.6818   6.9471280170e+01   6.3126230010e+01    0.4873125    0.3438147 -31.67  0.002310193    1.492    0.330
        15 -15.4166     97.8910     12.3907   5.8836784074e+01   5.8441418096e+01     1.654434    0.7565551  51.15  0.006044951    1.921    0.479
        16 -14.4573     42.7626      3.7764   7.4163428906e+01   6.9493302831e+01     1.236208    0.6350905 -19.80  0.005627429    1.834    0.455
        17 -12.3251     49.0093      3.4977   7.1271763713e+01   6.8588766977e+01    0.2111998    0.1587062  22.83 0.0003502734    1.182    0.154
        18 -15.1544    212.4582     40.9621   4.7171654883e+01   2.6791158745e+01     2.860584    0.8336791  70.56  0.008543787    4.418    0.774
        19 -11.8210    153.3318      8.6374   4.6014853448e+01   4.5490772125e+01    0.2606451    0.2171504  49.77 0.0006424819    1.133    0.118
        20 -11.2638     68.1864      5.2739   6.4748654325e+01   6.5143022905e+01    0.2321642    0.1534466 -45.23  0.001246969    2.222    0.550
        21 -12.4571    118.8750      3.0226   5.0093020248e+01   5.4493412869e+01    0.4946754    0.2893199  87.63  0.002198465    2.503    0.601
        22 -12.0360     60.0767     17.1241   7.3545380108e+01   6.5169893528e+01    0.3532892    0.1693008 -33.03  0.001737764    2.009    0.502
        23 -11.9889     78.2332      2.5932   6.0130148890e+01   6.3479848083e+01     0.375495    0.2242722  43.89  0.001401503    1.453    0.312
        24 -11.1523     82.9982      1.0000   5.7950435460e+01   6.2659005639e+01    0.2538558     0.130898  59.21  0.001234514    2.034    0.508
        25 -12.2375     61.6320      2.0069   6.5474634288e+01   6.6651228433e+01      0.31657    0.2024465  47.05  0.001286975    1.602    0.376
        26 -10.6169     33.0305      1.1850   7.7361009257e+01   7.1138357598e+01    0.1432513   0.07889956  31.28     0.000377    1.754    0.430
        27 -13.1996     40.5030    195.2335   1.2095716268e+02   2.8808401611e+01    0.4787764    0.1966821 -85.64  0.002148035    2.672    0.626
        28 -13.3915     28.3255    246.1529   1.2664380649e+02   2.0201164678e+01    0.4404145    0.2556678  65.82  0.003101023    1.290    0.225
        29 -11.9279      2.8609    249.7530   1.3085319737e+02   2.2181721266e+01    0.3051339    0.1518078  49.60  0.001778404    1.538    0.350
        30 -13.6994      8.9489    245.6337   1.2974418939e+02   2.2305733412e+01    0.6788131    0.3165832  59.35  0.003173834    1.549    0.354
        31 -10.7171    212.4748    200.4904   8.5197787839e+01  -3.2990562299e-02    0.1360438    0.1123876  10.29 5.945221e-05    1.048    0.046
        32 -13.3310    164.3297    194.7646   9.3932715035e+01   9.5667669794e+00    0.6460807    0.3851277 -62.47  0.002835464    2.504    0.601
        33 -12.6676    201.0064    192.2805   8.5884692936e+01   3.2869329204e+00    0.4057758    0.2890303 -21.22   0.00166721    1.473    0.321
        34  -9.7779    105.9882    194.0000   1.0663817998e+02   2.0003131760e+01    0.2275875    0.0714568  38.52 0.0008063046    2.969    0.663
        35 -11.5327    136.7698    211.4579   1.0250441852e+02   1.1369573542e+01    0.2247738    0.1901686 -60.16 0.0008851431    1.347    0.257
        36 -13.4956    198.4494    181.6208   8.4308033442e+01   5.5608144824e+00    0.4685614    0.3918968 -74.90  0.002409232    1.795    0.443
        37 -12.0178     49.1270    181.4972   1.1781727934e+02   3.0826617700e+01    0.3932401    0.2220761 -57.62  0.002104639    1.825    0.452
        38 -13.0241    124.5149    168.0122   9.8104856434e+01   2.2434047879e+01    0.4143756     0.260446 -74.02  0.001768114    2.162    0.537
        39 -13.5854      8.9348    210.7532   1.2810669325e+02   2.8835048646e+01    0.8474216    0.5142313  68.41  0.005854615    1.268    0.211
        40 -12.1239     77.3645    156.9429   1.0790807998e+02   3.2831639973e+01    0.4276986    0.2952925  32.01  0.001582084    1.622    0.383
        41 -13.4126     73.9447    153.3149   1.0821111398e+02   3.4189172754e+01     0.680032    0.4643211  33.97  0.002598429    1.607    0.378
        42 -11.0344    154.8176    157.6008   8.8819379871e+01   1.8807305630e+01    0.2260832    0.1384386  52.30 0.0009558898    1.755    0.430
        43 -10.7135    112.7774    157.4047   9.9006775137e+01   2.6966981579e+01    0.2063629    0.1416887  29.14 0.0009534062    1.656    0.396
        44 -12.8332    208.6730    154.4450   7.6488691141e+01   8.3952485010e+00    0.6907954    0.4523958  41.20  0.003314249    1.539    0.350
        45 -12.0936    121.7319    156.1593   9.6525125796e+01   2.5616353078e+01    0.2865579    0.2053461   7.88  0.001248086    2.111    0.526
        46 -11.3779     56.0132    156.0132   1.1317205354e+02   3.5908495856e+01    0.2069609     0.150578 -41.53 0.0008360464    1.681    0.405
        47 -11.8701     85.9264    152.7243   1.0501779124e+02   3.2558136120e+01    0.4770118    0.2293352 -49.81  0.001992418    2.114    0.527
        48 -11.3136    133.0717    152.7843   9.3024029301e+01   2.4211642447e+01     0.242129     0.212753 -55.45 0.0002869731    1.157    0.136
        49 -11.8346    103.1744    150.2289   1.0009239404e+02   3.0332714925e+01    0.4133788    0.2719635 -37.80  0.001877604    1.817    0.450
        50 -11.7787     24.1821    150.5863   1.2041486386e+02   4.0559516458e+01    0.3083128    0.2424416 -59.47   0.00200927    1.309    0.236
        51 -10.9598     60.3188    149.3132   1.1112483404e+02   3.6979998347e+01    0.1336018   0.09942666 -38.36 0.0004938194    1.648    0.393
        52 -10.4382     38.3058    146.2997   1.1639699109e+02   4.0224079144e+01     0.125473   0.08926426 -46.04 0.0002866397    1.592    0.372
        53 -11.3252     88.9732    140.0280   1.0190230492e+02   3.5135871480e+01    0.2350051    0.1790294 -24.77  0.001145793    1.726    0.421
        54 -14.6104    227.9204    130.9330   6.7483548721e+01   8.6720206809e+00     1.418979    0.8725736  75.21  0.005280386    3.525    0.716
        55 -14.3525    233.0340    127.3633   6.5762534461e+01   8.2534223569e+00     1.080646    0.8193979  81.96  0.005287833    2.039    0.510
        56 -12.2079     45.5166    135.0744   1.1296031944e+02   4.2174552359e+01    0.3339079    0.2816423 -89.88  0.002055092    1.099    0.090
        57 -12.8932    246.4368    133.3970   6.4924036145e+01   4.6431433817e+00    0.4938195    0.3699099 -35.46  0.002604208    1.213    0.175
        58 -10.4066     10.9990    134.2390   1.2202848139e+02   4.5460450238e+01    0.1308842    0.1034548  30.40 0.0008702192    1.572    0.364
        59 -11.2177    137.0088    133.1911   8.7667291135e+01   2.7835708038e+01    0.2573393    0.1858266  11.98 0.0008622182    1.931    0.482
        60 -12.6976    134.3197    103.0509   8.0587050988e+01   3.5118141681e+01     1.244332    0.3511344  48.57  0.003432016    3.859    0.741
        61 -13.3582    120.5321    102.2379   8.4114544316e+01   3.8252082820e+01    0.7341766    0.3484553  38.02  0.002536701    2.290    0.563
        62 -14.5335    106.0137    121.5693   9.3204282916e+01   3.6644710986e+01     1.678876     1.061824  33.68  0.007397825    1.730    0.422
        63 -14.9302    106.4857    105.7222   8.9084779003e+01   4.0261561433e+01     1.720347     1.370721   2.23  0.007176468    1.568    0.362
        64 -11.0228     25.4924    127.1015   1.1734744145e+02   4.6029644510e+01    0.2004778    0.1036195 -69.52 0.0008477005    1.564    0.361
        65 -11.0666     59.4595    125.5070   1.0746307077e+02   4.2890741771e+01    0.2076758    0.1404825  11.72 0.0006341432    2.057    0.514
        66 -12.3052    181.0263    121.2805   7.4282648359e+01   2.0664958973e+01    0.3707913    0.2648569  52.11  0.001340879    1.472    0.320
        67 -12.2441     28.0736    122.3596   1.1598388453e+02   4.6950348182e+01    0.2751509    0.1677157 -77.04  0.001495007    1.432    0.302
        68 -12.7427     77.2971    117.3873   1.0059279710e+02   4.2440330842e+01    0.5155403    0.3988048  89.34  0.002625212    1.520    0.342
        69 -13.2878     85.3597    115.3473   9.7732620424e+01   4.1689984801e+01    0.6501829    0.3907217  23.23  0.002105792    2.151    0.535
        70 -13.9060     17.5448    111.1770   1.1746866572e+02   5.0456332964e+01    0.8314939    0.5833345 -48.55  0.004229223    1.376    0.273
        71 -13.7562     10.8675    102.7306   1.1829561057e+02   5.2897927402e+01    0.7365143    0.5676493  89.97  0.004827107    1.258    0.205
        72 -13.3614      2.2489     97.2511   1.2019894512e+02   5.4661219103e+01    0.8357334    0.2452486 -75.65  0.003321878    3.032    0.670
        73 -14.3314     24.9577     94.4818   1.1249038701e+02   5.3868861872e+01     1.241367     1.010999 -26.75  0.007992284    1.371    0.270
        74 -11.8067     36.8719     93.1959   1.0826631336e+02   5.3159950689e+01    0.2991501     0.223769  -5.07  0.001729035    1.659    0.397
        75 -11.9270    176.9712    110.6472   7.2396895586e+01   2.3719828537e+01    0.4556396    0.3235301  -6.49  0.001899117    1.937    0.484
        76 -11.9807    121.1373    112.1079   8.6612381326e+01   3.5907208824e+01    0.3508985    0.1984295  56.74   0.00133183    2.240    0.554
        77 -12.5267     88.2229    109.5517   9.5499805479e+01   4.2611569438e+01     0.394628    0.3107382 -54.12  0.001544503    1.188    0.158
        78 -11.3194     45.9199    110.4043   1.0873099316e+02   4.8138080636e+01    0.2844692    0.1733411 -56.12  0.001466812    1.389    0.280
        79 -11.4444    223.0899    109.6778   6.3215645845e+01   1.3386332060e+01     0.269492    0.1941939 -44.37  0.001101481    1.339    0.253
        80 -11.9189      4.0654    119.8245   1.2235428663e+02   4.9296203664e+01    0.4427721    0.1847725  14.22  0.002151187    3.403    0.706
        81 -11.9134     32.9076    104.6351   1.1174262094e+02   5.0796382854e+01    0.3087136    0.2750101 -29.47  0.001799041    1.264    0.209
        82 -11.3676     64.5204    102.0092   1.0109430083e+02   4.7945089219e+01    0.2473551     0.215967  35.33 0.0004211296    1.281    0.220
        83 -11.8260     62.0229     98.5237   1.0108859934e+02   4.9101789100e+01    0.3682603    0.2924387  84.69  0.001549911    1.556    0.358
        84 -10.6652     48.5221    101.4905   1.0614355233e+02   5.0006307121e+01    0.3018173    0.1982116  51.61  0.001143348    1.858    0.462
        85 -12.5829     52.4569     98.0263   1.0411220095e+02   5.0390890561e+01    0.6485118    0.3397908  12.31  0.002718007    2.943    0.660
        86 -12.2955     49.3137     94.5243   1.0437224608e+02   5.1577090984e+01    0.4426576    0.3427825  73.56   0.00175677    1.638    0.389
        87 -13.1243    249.1929     96.9511   5.6095750128e+01   1.0017602807e+01    0.7531259    0.2233945 -37.58  0.002658952    2.809    0.644
        88 -12.8683    137.0199     95.8135   7.7815715824e+01   3.6057710065e+01    0.5037171     0.410477  71.24  0.001682368    1.471    0.320
        89 -11.2902    162.8850     97.3276   7.1901506417e+01   2.9706176096e+01    0.3235765    0.1501703  57.32  0.001096747    2.546    0.607
        90 -11.9502    125.2922     92.4411   7.9981314803e+01   3.9369394745e+01    0.3221576     0.226252 -74.48  0.001302061    2.176    0.540
        91 -11.2607     42.9113     91.0552   1.0576090683e+02   5.3075573152e+01    0.2702485    0.1750198 -72.33 0.0009592503    1.604    0.377
        92 -11.9105     90.0398     88.3672   8.9294382149e+01   4.7198246227e+01    0.4486744    0.3230506  49.81  0.002171989    1.591    0.371
        93 -13.4528    242.2901     84.1444   5.4025087516e+01   1.3489297860e+01    0.5221664    0.4350091  84.29  0.002958165    1.381    0.276
        94 -13.3904    237.3181     80.2339   5.3768902308e+01   1.5181009269e+01    0.5677035    0.3677869  74.80  0.002539524    1.926    0.481
        95 -13.1170    149.6735     84.8611   7.1387062775e+01   3.5322201456e+01     1.053887    0.5007114  33.36  0.003369491    3.102    0.678
        96 -14.6112    164.1819     71.4515   6.4022275716e+01   3.4237160107e+01     1.790549    0.6522763  49.63  0.005951713    2.674    0.626
        97 -13.1588    160.0559     68.2842   6.3942269092e+01   3.5817553294e+01    0.7181179    0.4491199 -50.21  0.002105905    1.768    0.434
        98 -13.9167    160.5861     81.0648   6.7702324404e+01   3.3395547211e+01    0.9439074    0.6744057  24.54   0.00328475    1.742    0.426
        99 -14.6940    169.4219     77.0081   6.4574053998e+01   3.1949183550e+01     1.528351    0.6381773  54.36  0.005097765    2.407    0.585
       100 -12.4160    127.0048     86.4459   7.7714360204e+01   4.0246515934e+01    0.4656673     0.432621 -14.67  0.002426936    1.075    0.069
       101 -12.5997    132.1595     85.8982   7.6154677163e+01   3.9204089897e+01    0.3446776    0.2748919  36.28  0.001357814    1.287    0.223
       102 -13.1549    135.8327     79.9582   7.3358543540e+01   3.9542907471e+01    0.7674057    0.4580701  41.20   0.00318435    1.725    0.420
       103 -11.1633     34.3682     86.8757   1.0778929094e+02   5.4869834511e+01    0.2246893    0.1818316 -16.12 0.0008934995    1.396    0.284
       104 -13.3878    188.3485     84.3400   6.2874675877e+01   2.5958475514e+01    0.8846116     0.407704  41.86  0.002791109    2.540    0.606
       105 -13.2719     65.9668     49.1054   8.4787233888e+01   5.9171967811e+01    0.5007865    0.4854703 -84.50  0.003144919    1.405    0.288
       106 -13.4031     59.2233     63.0393   9.2226739294e+01   5.7410772294e+01     1.780279    0.8852633 -25.00  0.006901799    2.944    0.660
       107 -12.8916     54.9631     81.8419   9.9320607961e+01   5.3864547513e+01    0.5049182    0.3681158 -40.91  0.001767563    1.222    0.182
       108 -13.8790     60.9141     75.5693   9.5452918910e+01   5.4511560988e+01    0.6821414    0.4289403 -38.50  0.001264225    1.463    0.317
       109 -13.3751    213.3539     78.4945   5.6905464988e+01   2.0922644710e+01     1.098019    0.6511249  77.52  0.004492506    2.349    0.574
       110 -12.9852    216.6862     73.5905   5.5106109034e+01   2.0933744920e+01     0.744427    0.4807962 -77.40   0.00320106    2.183    0.542
       111 -12.0755    114.1539     80.3865   7.9473486562e+01   4.4263889031e+01    0.3931476    0.3384129 -43.22  0.001134765    1.155    0.134
       112 -13.5696     86.9436     65.9161   8.3269072736e+01   5.2485158513e+01     1.679572    0.7443097 -27.77  0.004813664    3.494    0.714
       113 -11.3407     79.5069     69.5167   8.7002923581e+01   5.3034942987e+01    0.2615624    0.2316064 -15.99 0.0007737915    1.064    0.060
       114 -13.0849     70.5848     75.9473   9.2130758130e+01   5.3070992062e+01    0.5274394    0.4126322 -13.13  0.001208372    1.388    0.280
       115 -12.2037     77.1549     73.8507   8.9200688651e+01   5.2509901999e+01    0.3802952    0.2843646 -38.55  0.001124614    1.219    0.179
       116 -12.5254     16.7701     79.0436   1.1238838324e+02   5.8031277823e+01    0.3723443    0.1758062 -70.34  0.001279063    1.932    0.482
       117 -12.4337     23.3046     71.7620   1.0842737600e+02   5.9225065880e+01    0.2233947    0.2012641 -32.15 0.0003920767    1.167    0.143
       118 -11.5254    209.4959    249.5191   9.4002669430e+01  -6.3209053402e+00     0.120027   0.09107292  21.67 0.0002524421    1.004    0.004
       119 -13.1250      6.1390     43.8162   1.0847248920e+02   6.6280827630e+01    0.7233084    0.3284626  14.57  0.003943023    2.605    0.616
       120 -14.1117    198.8494     69.9015   5.6982293634e+01   2.5834765305e+01     1.208484    0.7071709  36.94  0.003715184    2.182    0.542
       121 -12.2158    199.7784     62.2167   5.4714642259e+01   2.6829154926e+01    0.3918545    0.2943073 -35.70 0.0009258053    1.303    0.232
       122 -11.0172     42.1575     76.7561   1.0261315962e+02   5.6445946069e+01    0.2113176    0.1676704  25.87  0.001263427    1.459    0.314
       123 -12.8679      7.5470     50.8664   1.0971155178e+02   6.4750186190e+01    0.8902351    0.3372944 -22.84  0.003760711    3.673    0.728
       124 -12.0906    242.1484     71.5612   5.1028012989e+01   1.5473009881e+01    0.4212149    0.2719206 -68.82  0.002018378    1.905    0.475
       125 -13.6135    133.7609     65.8614   6.9375733908e+01   4.2660654427e+01    0.8232046     0.709518  -1.89  0.002566308    1.240    0.193
       126 -11.8075    100.5213     64.8566   7.8494800242e+01   5.0126492994e+01    0.4932837    0.2628222 -27.09   0.00194676    2.225    0.551
       127 -12.2939     37.9486     68.3158   1.0196330064e+02   5.8740125439e+01    0.5709144    0.2209494  29.28  0.002504091    2.891    0.654
       128 -14.1021    178.0947     57.7145   5.7139271033e+01   3.2987194248e+01    0.9389828    0.7380851 -40.17  0.002729723    1.268    0.212
       129 -12.2506     79.8325     61.1019   8.4054054459e+01   5.4668027585e+01    0.4152823    0.3724115  11.19  0.001495846    1.113    0.102
       130 -12.9771     81.5551     54.7663   8.1194109252e+01   5.5572960107e+01    0.6638588    0.4444721  27.58  0.002851978    1.571    0.364
       131 -11.8875     24.4737     59.9049   1.0501320049e+02   6.1735767120e+01    0.3019458    0.1808235 -49.56  0.000789945    1.307    0.235
       132 -10.4848     38.4879     59.9795   9.9364555895e+01   6.0478383687e+01    0.1742061    0.1116897 -77.99 0.0008104183    2.569    0.611
       133 -14.6852    119.8028     54.6606   6.9253890347e+01   4.7831318042e+01     1.074363    0.6903057  39.74  0.002357264    1.550    0.355
       134 -12.9444    135.6907     50.2467   6.3636160057e+01   4.4803992661e+01    0.6025563    0.3506481  31.73  0.002453228    2.082    0.520
       135 -10.2538     47.6313     56.9323   9.4740219227e+01   6.0118766337e+01    0.2059952    0.1116353 -71.05 0.0007032656    4.465    0.776
       136 -13.0742    248.3093     51.7564   4.5623866781e+01   1.7028752170e+01    0.6799912    0.4059293 -33.40  0.003482583    1.560    0.359
       137 -11.7078    230.7025     55.4114   4.8546330000e+01   2.0438755802e+01    0.4273134    0.1604118  61.90  0.001657574    2.738    0.635
       138 -13.4224    103.1671     50.7039   7.2626800930e+01   5.2124910685e+01    0.7251684    0.4724666 -53.00 0.0008265021    1.989    0.497
       139 -12.4906     98.5904     50.8114   7.4081092672e+01   5.3048783776e+01    0.5614783     0.396641 -57.01  0.001432693    1.924    0.480
       140 -11.7119     25.3241     47.9093   1.0116388876e+02   6.4167286143e+01     0.507962    0.1919205 -31.06  0.002026437    3.260    0.693
       141 -14.3039    170.6631    243.0302   1.0026088585e+02   5.3477322595e-01      1.03006    0.6336412  29.53  0.005952828    1.444    0.308
       142 -13.6697     96.9108    238.8463   1.1387308293e+02   1.2718823028e+01    0.5632843    0.3623356  45.27  0.002512071    1.279    0.218
       143 -12.5373    147.4352    238.8867   1.0415573323e+02   4.8870006251e+00    0.2374183    0.1969336 -79.15  0.001047207    1.570    0.363
       144 -11.9060    134.5706     40.0235   6.0346931599e+01   4.6585008459e+01    0.6012696    0.2319624  55.34  0.001828117    2.422    0.587
       145 -13.3344    131.8760     32.6202   5.8332199491e+01   4.8236419333e+01    0.6206703    0.4623598  -5.53  0.002043109    1.512    0.339
       146 -12.2732     57.4418    246.7731   1.2174094555e+02   1.6678962406e+01    0.3461805    0.1219011  39.67  0.001761178    2.387    0.581
       147 -12.9633    109.9685     42.3673   6.7511517000e+01   5.1991044912e+01    0.5768898    0.2445986  47.20  0.001363405    2.238    0.553
       148 -13.2728    113.5221     38.1832   6.4945557704e+01   5.1810628273e+01    0.4084905    0.3750929  39.58  0.002272798    1.091    0.083
       149 -10.4568     55.5699     41.2269   8.5863976944e+01   6.2110039050e+01    0.1740729    0.1082531 -29.43  0.000284659    1.459    0.314
       150 -12.5095     75.8516     37.4134   7.6508974211e+01   5.9557381031e+01    0.3572186    0.2378291  37.14  0.000856863    1.504    0.335
       151 -12.2087     69.5646     36.7677   7.8563342096e+01   6.0733646994e+01    0.4098382    0.2197212  32.15 0.0009974784    1.917    0.478
       152 -13.7863    242.0486     34.6445   4.2297838149e+01   2.0705465546e+01    0.8277023    0.5918744  70.90  0.002925533    1.438    0.305
       153 -11.7764     58.6922     35.3155   8.2207626546e+01   6.2677337176e+01    0.4762989    0.2168317  34.64  0.002190906    2.278    0.561
       154 -12.3047     46.1837     33.9479   8.6888512109e+01   6.4626719244e+01    0.4745644    0.2708048 -26.45  0.002490569    1.654    0.395
       155 -11.5790     14.6100    224.0744   1.2780388099e+02   2.5694662267e+01    0.4055458    0.2073932  70.25  0.001743461    1.568    0.362
       156 -12.1338     24.8914    217.5793   1.2561171504e+02   2.5907367331e+01    0.4986685    0.3213161  79.03  0.003418512    1.229    0.186
       157 -12.6471      1.7786     21.7706   1.0365606413e+02   7.0772994301e+01    0.2786748    0.2004465 -61.12    0.0013377    1.561    0.359
       158 -13.7533     25.7835    227.5317   1.2604642907e+02   2.3888725181e+01    0.5980595    0.3233283 -61.50   0.00372858    2.166    0.538
       159 -13.3718     21.1001    225.1206   1.2673025156e+02   2.4838723441e+01     0.400664     0.330612  71.43  0.002605823    1.212    0.175
       160 -13.3099    237.3290    230.6304   8.5992973301e+01  -8.0916036665e+00     0.354258    0.2818878  39.91  0.002376935    1.577    0.366
       161 -11.6561     40.3999    243.6066   1.2447392666e+02   1.9295224692e+01    0.2423949    0.1189167 -85.79  0.001465485    1.987    0.497
       162 -13.8396     63.0185    214.5891   1.1812044250e+02   2.2029977142e+01    0.7116673    0.4001501  60.99   0.00400958    1.604    0.377
       163 -12.6918     94.5925    218.6971   1.1219292191e+02   1.6784785510e+01    0.3289628    0.2300004  55.66  0.001510931    1.229    0.186
       164 -10.5758     36.2921     34.3232   9.1436718034e+01   6.5723312141e+01    0.1308529    0.0791948 -20.98 0.0002658175    1.613    0.380
       165 -12.0968     29.6370     31.9030   9.3554875794e+01   6.6842201929e+01    0.4916896    0.2658683  -1.28  0.002227277    2.373    0.579
       166 -10.9628     89.1446     30.1616   6.8959161011e+01   5.8138410038e+01       0.2028    0.1628305  13.76 0.0002586672    1.160    0.138
       167 -12.9461     56.4600     27.5777   7.9806058103e+01   6.4245191998e+01    0.6237998    0.3009845  42.34  0.002073889    2.335    0.572
       168 -12.7898     67.9114     24.5884   7.3950896280e+01   6.2850161189e+01    0.6383881    0.3294729  37.57  0.003139848    1.881    0.468
       169 -12.5387    120.2653     26.6904   5.8857675767e+01   5.1764518830e+01    0.5602643    0.3622022  59.84  0.002686655    1.544    0.353
       170 -11.0169     91.5121     33.9806   6.9773840551e+01   5.7124683191e+01    0.1989775    0.1143145  -4.05 0.0008099209    2.497    0.600
       171 -10.7596     98.0732     27.4635   6.5092488211e+01   5.6659520244e+01     0.211446    0.1285263  49.18  0.001027675    1.583    0.368
       172 -12.0568     46.8072     20.9442   8.0922610579e+01   6.6630048270e+01    0.3684271    0.2664728   8.98  0.001624365    1.273    0.215
       173 -12.6850    185.6589    213.5291   9.2789157938e+01   2.5360254923e+00    0.2656602    0.2325854 -64.65  0.001627376    1.570    0.363
       174 -10.5160    154.3109    214.6360   9.9332865577e+01   7.7793539871e+00    0.1330709   0.09955071  70.50 0.0007039598    1.754    0.430
       175 -14.2005     22.3387    163.6931   1.2211588944e+02   3.7688094784e+01     1.410312    0.5617474  54.06   0.00663139    2.573    0.611
       176 -13.2270     16.6722    195.8244   1.2578098535e+02   3.1156708781e+01    0.9089313     0.253374 -69.56  0.004148575    2.916    0.657
       177 -13.6135     29.9569    169.4112   1.2091559783e+02   3.5655365981e+01    0.7460269    0.4301786 -47.45  0.003042488    2.194    0.544
       178 -13.6897     22.2989    181.2489   1.2360018963e+02   3.3751355726e+01    0.6138287    0.4546252 -67.08  0.002826791    1.374    0.272
       179 -14.9281      8.2203    183.5770   1.2665900867e+02   3.4521227985e+01     1.087166    0.8232627  76.68  0.007885861    1.063    0.059
       180 -15.2319     15.9181    175.6999   1.2452085946e+02   3.5565340625e+01      2.12645     0.711535  59.74  0.008985086    3.319    0.699
       181 -12.3771     42.0728    207.3529   1.2164123409e+02   2.6080689750e+01    0.3113018     0.161806  75.22  0.001683397    1.892    0.471
       182 -13.0453     66.1458    223.4858   1.1830844799e+02   1.9863391305e+01    0.6813257    0.5074537  38.68   0.00447747    1.429    0.300
       183 -11.4388    151.1127    206.9185   9.8789043126e+01   9.7152708537e+00    0.3283993    0.1652221  31.51  0.001429751    2.093    0.522
       184 -13.3377    157.7734     43.7644   5.6669950040e+01   4.0249936140e+01    0.8544221    0.5444593  32.61     0.003749    1.868    0.465
       185 -12.6789     57.3267    203.5438   1.1824343972e+02   2.5029832271e+01    0.4975613    0.2515125 -86.85  0.002489069    2.144    0.534
       186 -11.9545    169.5984     43.6290   5.4413782943e+01   3.7242830992e+01    0.3082978    0.2228548  49.52  0.001148374    1.360    0.265
