#   1 NUMBER                 Running object number                                     
#   2 MAG_AUTO               Kron-like elliptical aperture magnitude                    [mag]
#   3 X_IMAGE                Object position along x                                    [pixel]
#   4 Y_IMAGE                Object position along y                                    [pixel]
#   5 X_WORLD                Barycenter position along world x axis                     [deg]
#   6 Y_WORLD                Barycenter position along world y axis                     [deg]
#   7 A_WORLD                Profile RMS along major axis (world units)                 [deg]
#   8 B_WORLD                Profile RMS along minor axis (world units)                 [deg]
#   9 THETA_WORLD            Position angle (CCW/world-x)                               [deg]
#  10 FWHM_WORLD             FWHM assuming a gaussian core                              [deg]
#  11 ELONGATION             A_IMAGE/B_IMAGE                                           
#  12 ELLIPTICITY            1 - B_IMAGE/A_IMAGE                                       
         1 -14.1579     68.1305    144.3922   1.0477281765e+02   3.7381075817e+01     3.297153     1.512532  87.95   0.00283985    4.319    0.768
         2 -13.9335    228.6858     14.5925   3.7282330512e+01   2.6552332866e+01     1.334736    0.9886399  17.04  0.002699178    1.862    0.463
         3 -13.8648    202.0905     38.6726   4.6166486146e+01   2.9906123208e+01     1.687836     1.220504  -9.12  0.005421723    1.619    0.382
         4 -12.7037    217.4003     26.1549   4.1173974369e+01   2.7830681982e+01      0.59644     0.469247  31.25  0.001266439    1.611    0.379
         5 -13.4291    210.1656     33.1551   4.3754262826e+01   2.8684542555e+01     1.182601    0.7610544 -43.78  0.003659507    1.379    0.275
         6 -10.4261    136.4372     42.9258   5.8047790772e+01   4.5880735256e+01    0.2750905    0.2410562  74.44 0.0003476163    1.168    0.144
         7 -10.2365      2.1538      3.1500   1.0157994249e+02   7.7893345859e+01    0.1530039    0.1393422 -77.06  0.001084544    1.344    0.256
         8 -13.0712      4.3743    184.7859   1.2441346337e+02   3.4927413775e+01     1.383694    0.5565745  85.57  0.006308096    2.254    0.556
         9  -9.9145    174.1122    249.9211   9.4944719293e+01   3.6414501748e+00    0.2001589    0.1341468  53.39  0.001309426    2.209    0.547
        10 -12.5931     49.0072    220.8683   1.1650077302e+02   2.3664758907e+01    0.8361959    0.6093335  60.65  0.004344185    1.135    0.119
        11 -15.0070     83.2518    247.0819   1.1145385455e+02   1.5396498571e+01     8.945577     2.759243  24.60   0.02555157    8.299    0.879
        12 -13.6402     86.0945    226.8631   1.0933571201e+02   1.8270969304e+01     2.055434    0.6607031  40.63  0.004074156    2.245    0.555
        13 -14.4779      9.5923    207.5800   1.2401976181e+02   2.9980223185e+01     1.190316    0.9048487  27.41  0.007506412    1.489    0.328
        14 -12.0006     25.6746    228.1570   1.2152244002e+02   2.4756054845e+01    0.3584239    0.2380306  52.26   0.00106781    1.086    0.079
        15 -12.7818     20.3511    221.4103   1.2231568547e+02   2.6457031973e+01    0.5026276    0.3339596  60.61  0.001478854    1.144    0.126
        16 -15.8152     40.6743    196.2213   1.1678532406e+02   2.9242603438e+01     8.556752     2.731676  71.26   0.02749468    5.845    0.829
        17 -13.1823     31.9852    208.4542   1.1937425178e+02   2.7740972688e+01    0.4953705    0.3823357 -33.27 0.0009845272    2.049    0.512
        18  -9.8588     34.9610    238.9265   1.2017388828e+02   2.2006738828e+01    0.2297368     0.138448  73.08 0.0005728464    1.542    0.351
        19  -9.6380     37.4283    215.6852   1.1860181612e+02   2.5833517933e+01    0.2418033    0.1172678  56.73  0.000787054    1.681    0.405
        20  -9.5666     61.8046    200.2327   1.1232576595e+02   2.6073381064e+01     0.200716    0.1374369  72.57  0.001243366    1.428    0.300
        21 -10.8520    192.8798    193.0313   8.3576918366e+01   8.3321279086e+00    0.5335159    0.3544327 -50.16  0.003060498    2.148    0.534
        22  -9.3229     66.4563    194.2120   1.1076047199e+02   2.6696886032e+01    0.2045504    0.1230783  41.95 0.0006739841    1.373    0.272
        23  -9.3046     72.1059    188.3609   1.0889930952e+02   2.7163951036e+01    0.1792303    0.1318864  45.82 0.0005050405    1.147    0.129
        24 -12.0610     60.1346    180.4289   1.1100117599e+02   3.0301356986e+01    0.3894489    0.2805606 -30.88  0.001858593    2.095    0.523
        25 -12.0200     65.5598    174.7452   1.0910841071e+02   3.0844736355e+01    0.2895309    0.2611921 -31.31 0.0009298873    1.433    0.302
        26  -9.2365     99.3692    180.9448   1.0159758625e+02   2.4906455527e+01     0.171048    0.1615129  79.96 0.0005175218    1.130    0.115
        27 -10.2103     40.5323    247.0195   1.1947698366e+02   2.0124225038e+01    0.3046042    0.1620449 -79.20  0.002072578    2.159    0.537
        28 -11.5512     38.8434    173.4613   1.1565001271e+02   3.4206829090e+01    0.3296815    0.3188516 -24.90  0.002193538    1.365    0.267
        29 -12.2538     30.4733    249.0766   1.2140163106e+02   2.0798214163e+01    0.6689773    0.2801124  34.47  0.003617292    1.813    0.448
        30 -13.5085     62.6489    160.9992   1.0836745186e+02   3.4249683371e+01    0.5161506    0.3373048 -45.39  0.001975373    1.914    0.478
        31 -13.7014     81.1111    158.1822   1.0312678896e+02   3.2396889568e+01      3.04191     1.020029  51.95  0.009940088    3.840    0.740
        32 -15.0012      7.9226    239.3758   1.2520818558e+02   2.4460983819e+01     4.980449     1.325006 -84.63   0.02495752    3.901    0.744
        33 -11.6825     75.5391    164.8765   1.0545632165e+02   3.1687668969e+01    0.3159234    0.2779459  44.25 0.0004315785    1.105    0.095
        34 -11.0498     28.2118    156.4017   1.1711655418e+02   3.9096567534e+01    0.2174459    0.1812053 -53.36 0.0007246034    1.444    0.307
        35  -9.2949    174.5259    148.5387   7.8967072128e+01   1.8334099425e+01     0.237718    0.1281154 -50.74 0.0008634991    2.305    0.566
        36 -10.4805    133.8377    144.8821   8.7336309055e+01   2.6558578732e+01    0.8530769    0.2006567 -53.93  0.002047012    6.805    0.853
        37 -10.5831     90.7895    148.2722   9.9062904000e+01   3.3187508055e+01    0.3320723     0.121054  33.12  0.001205106    2.771    0.639
        38 -11.0468     97.1910    143.8210   9.6585121853e+01   3.3178667479e+01    0.3832934    0.3184885 -42.39  0.002106156    1.346    0.257
        39  -9.9058    100.1858    140.2471   9.5137044158e+01   3.3494140769e+01    0.3487626    0.2586226  -8.10  0.001205939    2.007    0.502
        40 -10.4869     34.6791    144.3300   1.1433298231e+02   4.1309370120e+01    0.3183637    0.1597478  62.77  0.001498781    2.010    0.503
        41 -11.1234     31.6913    143.3329   1.1509602262e+02   4.1838393607e+01    0.4155138    0.2769895 -48.04  0.002285154    1.795    0.443
        42 -12.3135     85.3945    142.3073   9.9583094042e+01   3.5385806287e+01    0.2917819    0.2644432 -48.69   0.00062661    1.217    0.179
        43 -10.0550     24.5701    134.0275   1.1636081250e+02   4.4734136585e+01    0.2959894     0.106424  44.46   0.00126824    2.477    0.596
        44 -10.8439    107.4660    131.6009   9.1489716838e+01   3.4196984371e+01    0.4994873    0.3420702  41.95  0.001799318    1.407    0.289
        45 -11.5953     46.2225    129.6852   1.0929901874e+02   4.3659349998e+01    0.4683332    0.2311756  39.22  0.002172813    1.916    0.478
        46 -10.5447     96.1346    128.0672   9.3969588987e+01   3.6974638144e+01    0.3155955     0.258413 -20.64 0.0009705971    1.543    0.352
        47 -10.1127    115.3568    125.9375   8.8152115926e+01   3.4028909870e+01    0.2643597    0.2122328   7.94  0.001099003    1.564    0.361
        48  -9.8431    106.1308    120.0858   8.9437465805e+01   3.7057604409e+01     0.208736     0.207341  15.50 0.0003413247    1.063    0.059
        49  -9.8670    236.6485    119.6777   6.1838115953e+01   1.1553777188e+01    0.1342279   0.08985497   6.43 0.0007048005    1.751    0.429
        50 -10.2511     23.5511    117.0975   1.1508633565e+02   4.9006888235e+01    0.1981545    0.1723154 -51.47  0.000661315    1.283    0.221
        51  -9.6227    168.2664    113.2799   7.2324122054e+01   2.5888177562e+01    0.2858248    0.2135047 -80.69  0.001066108    2.062    0.515
        52 -10.1536    205.2074    110.6060   6.4674144627e+01   1.8728971880e+01    0.3110197    0.2293149  28.31  0.001186755    1.471    0.320
        53 -10.5406    134.4950    103.5247   7.7682047271e+01   3.5031427972e+01     0.532589    0.1491193 -44.76  0.001558323    3.574    0.720
        54  -9.9701    138.2675    171.4399   9.1129794557e+01   2.0600453500e+01     0.224101    0.1754882 -88.56  0.001207983    1.810    0.447
        55 -11.8893    243.5338    102.5502   5.7097619452e+01   1.2673752333e+01    0.3258401    0.2406772  67.62  0.001910251    1.865    0.464
        56  -8.6974     71.3278     82.7160   9.1599606159e+01   5.2017593100e+01    0.1486652    0.1129427  73.17 0.0003139402    1.606    0.377
        57  -9.8105    160.5016     81.5126   6.5441490192e+01   3.3420444202e+01    0.1505127    0.1463251 -17.73 1.334416e-05    1.028    0.027
        58 -10.7850     13.5761     60.2966   1.1129304058e+02   6.4089857110e+01    0.2481373    0.2127052 -85.25  0.000516499    1.128    0.114
        59  -9.1834     42.6693     59.9582   9.7089305618e+01   6.1571788224e+01    0.2357076    0.1789301  58.65  0.000764133    1.570    0.363
        60  -8.9321     23.4995     57.5572   1.0577375863e+02   6.4073673115e+01    0.1319335    0.1175326 -66.91 0.0001140268    1.046    0.044
        61 -10.8143     53.4898    240.6991   1.1673141195e+02   1.9783056667e+01    0.3476867    0.2561902  -6.99  0.001246998    2.384    0.581
        62 -12.3193     41.5329    236.4225   1.1880854832e+02   2.1756779676e+01    0.2386679    0.1687195  58.30 0.0005621025    1.119    0.106
        63 -10.5628     62.1782    235.9185   1.1477195061e+02   1.9607316911e+01    0.2202206    0.1494202  62.01 0.0005425513    1.313    0.238
        64 -11.5695     38.8610    232.0326   1.1911899440e+02   2.2776416374e+01    0.2498186    0.1888471  32.62 0.0003465023    1.344    0.256
        65 -10.8711     34.0159    243.9916   1.2055815287e+02   2.1267785973e+01    0.3089518    0.1735801  40.60  0.001590712    1.306    0.235
        66  -9.8150    189.3272     15.0711   4.0662957806e+01   3.5744166352e+01    0.2003552    0.1672891 -41.59 0.0008265128    1.122    0.109
