#   1 NUMBER                 Running object number                                     
#   2 MAG_AUTO               Kron-like elliptical aperture magnitude                    [mag]
#   3 X_IMAGE                Object position along x                                    [pixel]
#   4 Y_IMAGE                Object position along y                                    [pixel]
#   5 X_WORLD                Barycenter position along world x axis                     [deg]
#   6 Y_WORLD                Barycenter position along world y axis                     [deg]
#   7 A_WORLD                Profile RMS along major axis (world units)                 [deg]
#   8 B_WORLD                Profile RMS along minor axis (world units)                 [deg]
#   9 THETA_WORLD            Position angle (CCW/world-x)                               [deg]
#  10 FWHM_WORLD             FWHM assuming a gaussian core                              [deg]
#  11 ELONGATION             A_IMAGE/B_IMAGE                                           
#  12 ELLIPTICITY            1 - B_IMAGE/A_IMAGE                                       
         1 -14.8776    162.3985     41.5513   8.1172523041e+01   3.9551557347e+01     1.476899     1.063204 -10.78  0.003988519    1.442    0.306
         2 -11.4332    189.8462     14.6812   6.7364793832e+01   3.5501262810e+01    0.2587994    0.2007476   0.54 0.0008187274    1.331    0.249
         3 -14.5639    176.1177      8.4802   6.7070576853e+01   3.9769092150e+01     1.267964     1.008698  38.39  0.004518346    1.232    0.188
         4 -12.5533    197.5043      6.9816   6.3883698504e+01   3.4187856599e+01    0.3407048    0.2100521 -83.42  0.001268221    2.003    0.501
         5 -10.2142    150.7508    245.2682   1.2586584208e+02   1.0246334277e+01    0.1214663   0.09220903  32.32 0.0003925944    1.253    0.202
         6 -20.0318     75.6525    174.7568   1.3179139738e+02   3.0886868086e+01     14.08837     5.669252 -68.38   0.07209138    2.625    0.619
         7 -12.7491    161.3572    197.7501   1.1849259336e+02   1.4534942921e+01    0.2989737    0.2749129  79.12  0.001482037    1.332    0.249
         8  -9.9698     22.2744    205.3261   1.4360866326e+02   3.1404731908e+01   0.07901244    0.0671569 -72.01 0.0006093106    1.584    0.369
         9 -11.1084    137.9558    198.5717   1.2278523252e+02   1.8104503907e+01    0.4721627     0.262008  66.12  0.002390235    2.719    0.632
        10 -11.0965    139.2576    248.7964   1.2797752880e+02   1.1419469398e+01    0.2583859     0.190354 -66.38  0.002133583    1.907    0.476
        11 -12.4763    155.6499    190.3902   1.1847891372e+02   1.6484025263e+01    0.2747064    0.2064177  66.28  0.001649945    1.581    0.367
        12 -12.5481    154.1849    185.5261   1.1804236290e+02   1.7428839300e+01    0.2481778    0.2277798  60.36  0.001133803    1.172    0.147
        13 -13.5696    210.3085    187.7324   1.0843623429e+02   7.6801894179e+00    0.7044308    0.3835697 -55.56   0.00280648    5.271    0.810
        14 -13.1515    206.8833    178.9509   1.0751446058e+02   9.3056505070e+00    0.4925883    0.2836166  30.52  0.001709643    1.559    0.359
        15 -12.0311    210.0000    176.0046   1.0645679272e+02   9.1213797992e+00    0.3454415    0.1935834 -46.67  0.001510831    2.655    0.623
        16 -10.9106     13.8103    238.6485   1.4618025633e+02   2.7133090059e+01   0.07026532    0.0534847 -84.50 0.0006697797    1.527    0.345
        17 -10.6986    126.4643    236.6125   1.2885542486e+02   1.4609110933e+01    0.1572417   0.09965977 -50.80    0.0011557    2.139    0.532
        18 -10.3222     25.6599    184.9902   1.4199750254e+02   3.4509070821e+01    0.1298619   0.09426898  79.46 0.0003369574    1.084    0.078
        19 -10.1577     24.9738    181.7891   1.4193877829e+02   3.5134593526e+01    0.1196833    0.1033387  82.59  0.001032042    1.275    0.215
        20  -9.8430     30.2882    182.9667   1.4104871295e+02   3.4428624783e+01    0.1427012    0.1193029  60.96 0.0002009339    1.242    0.195
        21 -11.3223    144.9434    178.9726   1.1880852546e+02   1.9944110322e+01     0.224587    0.1828863 -33.99 0.0009414563    1.488    0.328
        22 -12.2949      5.3169    177.8112   1.4525018713e+02   3.7523063243e+01    0.2805435    0.1715974  59.54  0.001243515    1.273    0.214
        23 -13.6791    195.5479    170.8349   1.0806555635e+02   1.2333024137e+01    0.6705076    0.3934641 -44.68  0.002849765    2.174    0.540
        24 -13.5589    177.5351    171.5220   1.1147030838e+02   1.5453556501e+01     0.470753    0.3746387 -57.80  0.002899997    1.684    0.406
        25 -11.6934    166.9875    173.5422   1.1378090464e+02   1.7018663846e+01    0.2109991    0.1800524 -69.28 0.0008841327    1.542    0.351
        26 -10.3222     11.7606    173.8888   1.4390910573e+02   3.7699233357e+01    0.1121274   0.06627014 -83.12 0.0002236833    1.428    0.300
        27 -11.8830    203.0754    172.3389   1.0700160321e+02   1.0796063062e+01    0.2188431    0.1855384 -32.10 0.0009635726    1.406    0.289
        28 -14.3567    141.4987    167.3608   1.1769552753e+02   2.2376295422e+01    0.9429428    0.3804915  49.16   0.00404086    2.369    0.578
        29 -10.5405    131.6264    235.6239   1.2793816842e+02   1.4027036076e+01    0.1449793    0.1074399  56.76 0.0003992984    1.198    0.165
        30 -14.4215    138.7613    171.7564   1.1891785365e+02   2.2115365996e+01     1.221093    0.3590994  47.51  0.004664621    3.192    0.687
        31 -11.4297    230.0034    166.5439   1.0132822827e+02   6.7298103781e+00    0.3102449     0.142244 -45.02  0.001283444    3.814    0.738
        32 -12.0332    122.7830    165.9517   1.2122871702e+02   2.5698447709e+01    0.3697445    0.1912958  58.24   0.00128946    2.248    0.555
        33 -11.6968    201.1192    165.0912   1.0601544503e+02   1.2085830882e+01    0.2565778     0.208653 -62.31  0.001064018    1.901    0.474
        34 -10.5996     25.3478    165.1110   1.4084321230e+02   3.8133703097e+01    0.1446309    0.1282077  65.38 0.0006000107    1.285    0.222
        35 -10.8105    222.8002    162.3319   1.0171908213e+02   8.5026682075e+00    0.2655452    0.1567777 -43.40  0.001079447    2.319    0.569
        36 -12.9462    164.4752    157.4442   1.1146292481e+02   1.9923560031e+01    0.3592305    0.2369446  41.22 0.0008572784    1.352    0.261
        37 -14.7618    134.3892    146.6153   1.1565312477e+02   2.7176033228e+01      1.61133    0.5081518 -55.91  0.005160644    4.871    0.795
        38 -10.7862     22.9748    156.1131   1.4070434191e+02   4.0052209783e+01    0.1563499    0.1239706  81.19 0.0005572579    1.067    0.063
        39 -11.7774    125.0799    243.5540   1.2969965746e+02   1.3937864520e+01    0.1419383    0.1289567  89.95 0.0005392469    1.388    0.280
        40 -11.6845     21.9313    243.3648   1.4518838804e+02   2.5734588235e+01      0.16258   0.09426517  86.73  0.001426492    1.541    0.351
        41 -14.2411    135.8174    127.2098   1.1158065855e+02   3.0490350685e+01     2.551142    0.3499185 -48.56   0.00543314    9.151    0.891
        42 -12.5267    174.0168    149.1889   1.0802640793e+02   1.9436644438e+01    0.3319598    0.2953926 -41.28  0.001631086    1.273    0.214
        43 -14.2214    143.5175    143.7267   1.1318223730e+02   2.6057093530e+01    0.8584735    0.4278042 -57.62  0.003672275    2.699    0.629
        44 -11.3772    174.4978    140.9489   1.0626878394e+02   2.0642801075e+01    0.1909123    0.1341788 -36.66  0.000475412    1.525    0.344
        45 -10.3155     25.6456    230.3627   1.4416015307e+02   2.7238357403e+01    0.1132044   0.06867665  89.62 0.0007303882    1.497    0.332
        46 -10.2935      1.8367    139.8999   1.4402547676e+02   4.4874947963e+01    0.1425159    0.1121414 -82.18 0.0004534639    1.209    0.173
        47 -11.2829      7.7823    138.1537   1.4265772956e+02   4.4797548383e+01     0.178956    0.1720677 -81.94  0.001116437    1.410    0.291
        48 -11.0592     25.3078    224.9478   1.4398933665e+02   2.8070828998e+01    0.1326054   0.09414777 -81.02 0.0006870897    1.513    0.339
        49 -12.8603    160.6192    127.8710   1.0631633266e+02   2.5563802519e+01    0.4106748    0.3315642 -55.53  0.001872989    1.435    0.303
        50 -10.5787    219.3541    224.2433   1.1258657931e+02   2.4474090564e+00    0.1190073   0.09841998 -25.99 0.0003564682    1.607    0.378
        51 -12.1211    140.7886    120.9045   1.0910476468e+02   3.0727228491e+01    0.3889373    0.2604002  81.02  0.001222568    2.612    0.617
        52 -10.8858    167.4202    112.2489   1.0125012664e+02   2.6855211390e+01    0.1993991    0.1349787 -47.67 0.0007340897    1.643    0.392
        53 -10.2706     22.4450    221.3861   1.4427884077e+02   2.8874779734e+01   0.08609562   0.06710457  66.55 0.0007898773    1.201    0.167
        54 -13.2003     11.7949    205.8288   1.4531982719e+02   3.2259781091e+01    0.3525823    0.2406185  28.71  0.002825214    1.997    0.499
        55 -10.8564    205.3314    110.2477   9.3315023020e+01   1.8963636554e+01    0.3064103     0.188234  42.13 0.0009558529    1.561    0.359
        56 -10.7151      8.0184    239.9857   1.4703690225e+02   2.7453946438e+01    0.0994083   0.04932413 -89.10 0.0008103843    1.801    0.445
        57 -12.1292    168.8417    202.5384   1.1784479773e+02   1.2701398889e+01    0.2908671    0.1941674  67.18  0.001174527    2.208    0.547
        58 -11.9167    154.4332    196.0276   1.1948900268e+02   1.5882804826e+01    0.3386178    0.2340399 -87.95  0.001904553    2.566    0.610
        59 -12.0580    157.6902    202.5357   1.1979165640e+02   1.4472663352e+01    0.4903639    0.2664829  63.19  0.002392069    2.948    0.661
        60 -12.3929    163.9297    203.2102   1.1879150686e+02   1.3396165919e+01    0.2630431    0.2478305  89.13  0.001156803    1.348    0.258
        61 -10.4891    143.8161     80.1896   9.7913242180e+01   3.7714278103e+01    0.2081325    0.1745506   4.63  0.000471885    1.309    0.236
        62 -14.4262    151.0902     56.2656   8.8634158696e+01   4.0156953325e+01     1.324643     1.137567  25.45  0.003118671    1.171    0.146
        63 -10.0075    159.8589    247.2542   1.2465779811e+02   8.7648958442e+00    0.1273588   0.09544341  27.22 0.0004757982    1.336    0.251
        64 -12.9879    166.2715     33.1147   7.7455239136e+01   3.9675084515e+01    0.4521441    0.3793989  -6.43 0.0009618223    1.172    0.147
        65 -10.9990     13.5105     59.9296   1.3253457283e+02   6.1196007744e+01    0.1856972     0.147766  66.87 0.0005665894    1.450    0.310
        66 -10.2728    144.9833     34.0030   8.2016186525e+01   4.5003221341e+01     0.226583     0.182225 -65.04  0.000344888    1.570    0.363
        67 -11.9660    133.8276    246.7077   1.2862362500e+02   1.2391572875e+01    0.1379889    0.1184368  53.95 0.0004232471    1.209    0.173
        68 -11.7933    168.0492    244.2975   1.2308280640e+02   7.9314854140e+00    0.1573746    0.1413137  46.92 0.0005214143    1.291    0.225
