#   1 NUMBER                 Running object number                                     
#   2 MAG_AUTO               Kron-like elliptical aperture magnitude                    [mag]
#   3 X_IMAGE                Object position along x                                    [pixel]
#   4 Y_IMAGE                Object position along y                                    [pixel]
#   5 X_WORLD                Barycenter position along world x axis                     [deg]
#   6 Y_WORLD                Barycenter position along world y axis                     [deg]
#   7 A_WORLD                Profile RMS along major axis (world units)                 [deg]
#   8 B_WORLD                Profile RMS along minor axis (world units)                 [deg]
#   9 THETA_WORLD            Position angle (CCW/world-x)                               [deg]
#  10 FWHM_WORLD             FWHM assuming a gaussian core                              [deg]
#  11 ELONGATION             A_IMAGE/B_IMAGE                                           
#  12 ELLIPTICITY            1 - B_IMAGE/A_IMAGE                                       
         1 -11.9947     90.2311     59.0764   1.0058738003e+02   5.2656675639e+01     1.033376     0.820969 -61.55  0.005664872    1.689    0.408
         2 -11.5490     25.5051     55.9725   1.2183875572e+02   6.1628330892e+01     1.581671    0.7600213  15.06  0.008398484    2.566    0.610
         3 -12.4006     60.5245     45.7324   1.0574842585e+02   5.9550583956e+01     1.004124     0.448252 -39.89  0.004836752    2.055    0.513
         4 -11.1620    120.1491     17.7623   7.8303526169e+01   5.2242967831e+01    0.8301278    0.4419422  68.43  0.003823665    2.233    0.552
         5 -12.3668    130.6998     13.8165   7.4784456174e+01   5.0273215200e+01     1.352169    0.6174619  74.15  0.005272831    3.135    0.681
         6 -12.5106    118.9786     58.3206   9.2189823401e+01   4.7163899680e+01     1.708044     1.204373 -67.52  0.007892715    2.173    0.540
         7 -12.8505    112.8138     24.9307   8.2483565268e+01   5.3060134985e+01     1.209336    0.4424538  47.99  0.005024364    2.356    0.575
         8 -12.9492    120.2969     39.0480   8.5499606199e+01   4.9717671964e+01    0.8043701    0.6002234 -85.06  0.002457047    2.060    0.515
         9 -10.4593    138.6390     34.4229   7.9816594675e+01   4.6173472786e+01    0.8438695    0.3869006 -18.49  0.003269998    3.046    0.672
        10 -11.7750    145.5387     48.0196   8.2607686161e+01   4.2732319787e+01     1.124171    0.5375769 -26.44  0.004346651    2.451    0.592
        11 -11.5689    182.5749     25.1770   6.9413592227e+01   3.6650474835e+01    0.6132337    0.3099259  49.44  0.002305948    1.993    0.498
        12 -11.4917    178.1603     21.3864   6.9030298755e+01   3.8167283750e+01    0.5617864    0.3422736  34.48  0.001868899    2.141    0.533
        13 -10.2633     60.3754     23.9374   9.7607341486e+01   6.2730302578e+01    0.5258655    0.2332374 -28.52  0.002152336    2.180    0.541
        14 -11.5076     26.3785     27.7720   1.1221144597e+02   6.6330479121e+01    0.4832533    0.4219492 -25.29  0.003137928    1.320    0.243
        15 -10.7310     22.5343     11.2383   1.0721148658e+02   6.9029872979e+01     1.028573    0.4331153  15.37  0.005078362    3.168    0.684
        16 -11.1077     14.2971      9.4351   1.1011245875e+02   7.0032053366e+01    0.3132125    0.1896809  21.05  0.002215343    1.672    0.402
        17 -10.8641     16.6895     13.5827   1.1077857378e+02   6.9263213832e+01     0.337156    0.1513867 -35.12  0.001693357    1.793    0.442
        18 -11.2822     19.8901     23.0885   1.1316322377e+02   6.7624840309e+01    0.5061867    0.2409004 -35.99  0.002992383    1.676    0.403
        19 -11.4346     14.9274     21.9549   1.1487219548e+02   6.8211379254e+01    0.8632402    0.4197159 -52.92  0.004720928    2.650    0.623
        20 -10.0216    149.5291     14.9549   7.1687056617e+01   4.5778726325e+01    0.2780132    0.1932732  15.90  0.001476669    1.824    0.452
        21 -11.3353    140.8542     20.4472   7.4946814246e+01   4.7263070446e+01     1.133373    0.2021675  53.75  0.003573685    3.834    0.739
        22 -11.5672     90.8146     20.3401   8.6560782182e+01   5.7998077374e+01    0.5436876    0.3780262 -13.52  0.002254127    1.458    0.314
        23 -11.3482     85.3194     15.1548   8.6129679652e+01   5.9580607680e+01    0.7835872    0.4159993  15.48  0.003699627    2.471    0.595
        24  99.0000     87.9492      7.4795   8.2399907774e+01   5.9834339326e+01    0.6475432    0.3246831  51.24  0.003420645    1.805    0.446
        25  -9.4638     32.1321     12.2216   1.0354500254e+02   6.7890161947e+01    0.1509852    0.1297266   3.09 0.0004993566    1.324    0.245
        26 -10.8180     47.3740     18.6307   1.0020106402e+02   6.5222608738e+01    0.3347008    0.2772602  12.60  0.002050903    1.196    0.164
        27 -11.8754     36.7011     19.1408   1.0458866671e+02   6.6475429925e+01    0.5832996    0.3395398 -34.48  0.002990793    1.571    0.363
        28 -12.1349     49.2081     12.9247   9.7109319849e+01   6.5667133222e+01    0.5544245    0.3050292  40.57  0.003194577    1.917    0.478
        29 -11.1653     77.3231      4.7351   8.4288738980e+01   6.2039039733e+01    0.5209329    0.3068359  -7.32   0.00301239    1.777    0.437
        30 -10.8373     71.5318      3.7141   8.5595163009e+01   6.3145702243e+01    0.4808144    0.3145365  -8.55  0.003033025    1.489    0.328
        31 -10.7289     66.3426     10.5031   9.0075065129e+01   6.3357514238e+01    0.4234394     0.195109  40.78  0.001998753    1.944    0.486
        32 -10.4030     62.7637      6.6316   8.9622779623e+01   6.4324937033e+01    0.3562514    0.2030975  -8.24  0.002057992    1.801    0.445
        33 -12.0155     68.8717     17.7326   9.2216445156e+01   6.2160585858e+01    0.7267967    0.4270335  51.41  0.004019219    2.055    0.513
        34 -11.4668    245.7559      8.4821   5.8606629839e+01   2.3703750472e+01    0.3929352     0.314395 -21.39  0.001757726    1.734    0.423
        35 -11.5955    244.2240     14.5600   5.9977414139e+01   2.3332390071e+01    0.3679812    0.3310588  33.52  0.001624769    1.616    0.381
        36 -12.0504    238.0948     15.2660   6.0668863692e+01   2.4613763634e+01    0.6070084    0.4572574  34.34  0.003417111    2.045    0.511
        37 -11.2247    165.2964     17.2028   6.9788455173e+01   4.1759346616e+01    0.3693381    0.2435689  40.31 0.0007265162    1.635    0.388
        38 -11.7770    240.3667      6.7622   5.8698648623e+01   2.5085312231e+01    0.4467366    0.4045822 -67.58  0.003150007    1.232    0.188
        39 -10.7317    205.6040      2.3726   6.0913859009e+01   3.3537443397e+01    0.4181693    0.2068364  85.21  0.001450027    1.993    0.498
        40 -10.7471    200.1396      6.0311   6.2348995073e+01   3.4468002498e+01    0.5086009     0.184293  72.57  0.001090208    2.484    0.597
        41 -10.4492    186.3286     15.3100   6.6302981151e+01   3.6835978311e+01    0.3534694    0.3155867  -2.29 0.0006916441    1.413    0.292
        42 -11.5447    192.3196      7.5819   6.3604731805e+01   3.6186539527e+01    0.6354778    0.4265556  49.32  0.002599563    1.581    0.368
        43  -9.9043    193.9664      1.2686   6.1865849896e+01   3.6408597618e+01    0.1906952    0.1153573  74.48 0.0003753837    1.409    0.290
        44 -12.3977    104.8335     12.7892   8.0083508701e+01   5.5994880134e+01    0.4758434    0.4423155   2.61  0.002330992    1.160    0.138
        45  -9.8344    218.8693     12.9276   6.1998265841e+01   2.9297196128e+01     0.359059    0.1568783  55.95  0.001643035    2.305    0.566
        46 -11.5527    211.5175      9.8821   6.2052848732e+01   3.1361784458e+01    0.4307853    0.3323998  19.04   0.00161608    1.964    0.491
        47  -9.8275    157.4577     10.3737   6.9039370534e+01   4.4331247852e+01    0.3933726   0.08798054 -32.47  0.001372912    4.132    0.758
        48  -9.0801      4.0098     10.7853   1.1543037930e+02   7.0659231251e+01    0.2992285    0.1610819 -22.77  0.001402237    1.512    0.339
        49 -10.5507    169.0267      9.9524   6.7209827261e+01   4.1585798376e+01     0.335461    0.2034986  45.18  0.001720181    1.692    0.409
        50  -9.4589    162.8526     10.1660   6.8162419568e+01   4.3055292638e+01     0.210254    0.1607964  50.07 0.0006961216    1.241    0.194
        51  -9.7325    157.9556      2.6936   6.6752625902e+01   4.4907363881e+01    0.3612791    0.2045281  57.06  0.001905791    1.488    0.328
        52 -10.1695    162.9504      5.5606   6.6848385915e+01   4.3460956583e+01    0.3582768    0.2343899   0.26  0.001872579    2.127    0.530
        53  -9.6253    162.5558      1.4248   6.5745284146e+01   4.3920141506e+01    0.2117267    0.1065571  69.42 0.0005048673    1.717    0.417
        54 -10.6368    151.4305      7.7808   6.9224201939e+01   4.6008325272e+01    0.4325074    0.2624609  66.57  0.001075003    1.447    0.309
        55 -12.4669    124.7705     27.5979   8.0604422111e+01   5.0153870593e+01    0.9979068    0.7810382  20.12  0.005466933    1.332    0.249
        56  -9.6237    122.7416      1.3675   7.2208561911e+01   5.3146000647e+01    0.4198998   0.08965785  60.06  0.001469759    3.518    0.716
        57 -11.2488    113.3058      1.9043   7.4280502576e+01   5.5160525988e+01    0.6395022    0.3019846  71.18   0.00262026    2.667    0.625
        58 -11.1245    105.9041      1.9394   7.5890567096e+01   5.6722857968e+01    0.6513826    0.2459204  63.92  0.002522367    2.887    0.654
        59 -10.1466      1.3094      7.2890   1.1527884432e+02   7.1335102640e+01     0.161869    0.0706454 -40.24  0.000222022    1.791    0.442
        60 -10.6426     42.5875      3.5772   9.5516828577e+01   6.7595586032e+01    0.4589763    0.2318902   3.52  0.002370815    2.553    0.608
        61 -10.9323    218.6331      3.2859   5.9862629263e+01   3.0394780649e+01    0.2935526    0.2322489 -81.32  0.001011756    1.060    0.057
        62 -11.4904    224.8929      2.3526   5.9093032573e+01   2.9050907319e+01    0.6873459    0.3227486 -87.87  0.003211462    2.259    0.557
        63 -11.1027     42.3675     14.2563   1.0029242610e+02   6.6412956058e+01    0.3199541    0.2060935  20.30  0.001436098    1.418    0.295
        64 -10.7154    173.8892      4.3420   6.5028814368e+01   4.0942324515e+01    0.5421224    0.2142592  72.86  0.002274944    2.376    0.579
        65 -12.1853    133.7625      2.6892   7.0615362227e+01   5.0561623829e+01     0.393801    0.2391332  58.95 0.0007003057    1.381    0.276
        66 -10.4562    141.8437      3.6718   6.9540317106e+01   4.8618404723e+01     0.437804    0.2083399  59.14  0.001578753    1.717    0.418
        67 -10.9861      2.6967      1.8400   1.1227377275e+02   7.1964581255e+01    0.3231699    0.1502885  10.69  0.002015137    2.282    0.562
        68  -9.5219    239.7711    146.6097   9.0068332479e+01   3.2781754445e+00    0.1849032    0.1378716  60.29 0.0009413607    1.617    0.382
        69 -10.7030     33.1302    144.2762   1.3718844268e+02   4.1865617923e+01     0.277446    0.2157795  87.53 0.0007845963    1.204    0.169
        70 -10.1225    133.4130    140.6989   1.1111066782e+02   2.7324299132e+01    0.3442924    0.2736293 -27.95  0.001175673    1.487    0.327
        71 -11.8561     29.9065    133.0054   1.3639684976e+02   4.4776257882e+01     0.610682    0.3370905 -77.25 0.0004532679    1.685    0.406
        72  -9.2885     26.2995    140.3311   1.3832400593e+02   4.3422410513e+01    0.1792519    0.1183855 -54.33 0.0006276411    1.406    0.289
        73 -11.8742     22.9564    135.7522   1.3853427926e+02   4.4767665430e+01    0.6941583    0.4214068  53.58   0.00401904    1.891    0.471
        74 -10.6793     82.2465    134.7330   1.2296161512e+02   3.7975763953e+01    0.4693868    0.3276007   3.55  0.001941244    2.361    0.576
        75 -10.5081     47.6658    134.7037   1.3207701037e+02   4.2564463043e+01    0.3413489    0.1671777 -56.63  0.001075513    1.713    0.416
        76 -10.8459     72.1961    133.9263   1.2546994139e+02   3.9644389228e+01    0.5251772    0.3419286 -25.33  0.002392409    2.353    0.575
        77  -8.9095    216.6844    134.7105   9.1522151281e+01   1.0258827788e+01    0.1479853    0.1172113   6.64 0.0004623803    1.592    0.372
        78  -9.9705     62.0969    132.1706   1.2782759587e+02   4.1420803542e+01    0.4057609    0.1938813 -50.13  0.001820267    1.921    0.480
        79 -10.8421     92.7183    129.1490   1.1899921372e+02   3.7618921725e+01    0.3913324    0.2847402 -72.84  0.001398768    1.491    0.329
        80 -10.4885     79.3211    127.4181   1.2224745239e+02   4.0140636046e+01    0.5134351    0.2966968 -38.35  0.001149269    2.013    0.503
        81 -11.0355     56.0571    123.2748   1.2779443771e+02   4.4256162685e+01    0.5981235    0.3712186  25.61  0.002495311    2.003    0.501
        82 -10.5568     45.7984    120.6232   1.3013187862e+02   4.6044063044e+01    0.3813971    0.2639361  85.56  0.001482651    1.750    0.429
        83  -9.8469     18.7954    124.4865   1.3802794191e+02   4.7674744197e+01    0.2884575    0.1241456 -59.15  0.001009999    1.770    0.435
        84  -9.8043      2.0946    125.2933   1.4238514957e+02   4.8683620289e+01    0.3058541    0.1313454 -70.93  0.001627494    1.752    0.429
        85  -9.7767      4.3016    121.4756   1.4135545334e+02   4.9387728060e+01    0.3100748    0.1758885  71.10  0.001736193    2.187    0.543
        86 -10.1739    239.2455    124.9823   8.5315656007e+01   7.2655139840e+00    0.1994993    0.1133038 -39.15 0.0007786058    1.609    0.378
        87 -11.6266    104.8408    121.0542   1.1388949369e+02   3.7387872300e+01    0.5458171    0.5022651 -59.57  0.001950313    1.032    0.031
        88  -8.7818     40.6607    122.2509   1.3183441120e+02   4.6209106407e+01    0.1221513   0.09079596  73.44 0.0006102326    1.569    0.363
        89  -9.2291    221.2325    120.4416   8.7347921186e+01   1.1961325428e+01    0.1966749    0.1458405  68.52  0.000502313    1.576    0.366
        90  -9.6758    148.4604    119.8421   1.0241088154e+02   2.8757377537e+01    0.2523267    0.2203483  13.48 0.0006378783    1.338    0.253
        91  -9.4363     72.5050    119.9965   1.2255808428e+02   4.2863752946e+01    0.2419938     0.195849  -0.86 0.0008048788    1.596    0.374
        92 -10.7453     34.4564    119.4868   1.3305678296e+02   4.7454518018e+01     0.318275    0.2909384  61.99  0.001891219    1.266    0.210
        93  -9.2438     37.4802    115.4807   1.3151637842e+02   4.8078133455e+01     0.129481    0.1047857 -57.38  0.000260142    1.054    0.051
        94  -9.6443     81.1524    117.9126   1.1967883581e+02   4.2074763637e+01     0.215347    0.1907837 -47.73 0.0005066952    1.068    0.064
        95 -10.1197    113.9289    115.9552   1.1020417909e+02   3.6841432997e+01    0.2368014    0.2193083  42.35 0.0003963406    1.129    0.114
        96  -9.7722     88.1244    114.6337   1.1696502824e+02   4.1730519096e+01    0.2812189    0.2039939  58.71   0.00127245    1.643    0.392
        97 -10.6307     67.1506    111.9070   1.2231870115e+02   4.5463146432e+01    0.5090334     0.289445 -63.22  0.002394326    1.744    0.427
        98 -11.7337     33.4045     94.1564   1.2856028830e+02   5.3212865652e+01     1.107034     0.745299  25.65   0.00667164    1.785    0.440
        99 -12.0745     37.3938     86.1718   1.2553239248e+02   5.4554270916e+01     1.401479    0.3890453  28.53  0.005490524    4.093    0.756
       100 -11.3419     44.5582     85.4591   1.2305573812e+02   5.3985970110e+01    0.6986953    0.5022548  67.20  0.003846004    2.133    0.531
       101 -11.7987     10.1131     97.6503   1.3625851166e+02   5.4244388231e+01    0.6834987    0.5252397  51.52   0.00429361    1.650    0.394
       102 -12.1398      7.4437     88.7595   1.3551178461e+02   5.6311024801e+01    0.5036658    0.4154519 -51.09  0.001064548    1.106    0.096
       103 -11.6972     24.8918     99.8883   1.3228664473e+02   5.2689002842e+01      1.44205    0.4256113  37.83  0.005968374    4.002    0.750
       104 -11.7626     18.8978    106.1565   1.3515145777e+02   5.1773559628e+01    0.2666238    0.1913818 -55.61 0.0002777975    1.126    0.112
       105 -12.7093     25.0537    108.6225   1.3381762203e+02   5.0741646493e+01     1.395264    0.6594591 -29.24  0.006090044    3.360    0.702
       106 -11.4767     28.2366    113.0135   1.3367582093e+02   4.9487866020e+01    0.5603729    0.3434801  -1.32  0.001656211    2.525    0.604
       107 -13.0569     18.8887     95.6231   1.3328775452e+02   5.4081084823e+01    0.3564498    0.2686294  -7.64 0.0005380193    1.650    0.394
       108 -12.1078     18.3437     90.5516   1.3248987387e+02   5.5212106100e+01    0.5008094     0.269916 -45.05 0.0006730511    1.573    0.364
       109 -11.6564      3.3590    105.0566   1.3935457905e+02   5.3052767286e+01    0.3662955    0.3060546 -41.72   0.00119484    1.285    0.222
       110 -11.8161      2.8936    112.2744   1.4050571832e+02   5.1504239234e+01    0.3989011    0.3120998  58.72  0.002196143    1.532    0.347
       111 -10.4705      5.6548    108.7053   1.3925611314e+02   5.2117615554e+01     0.189066    0.1267541 -56.74  0.000609357    1.194    0.163
       112  -9.4044    126.7230    114.0066   1.0634407957e+02   3.4713871776e+01    0.2173763    0.1964343 -46.48 0.0005208001    1.079    0.073
       113 -10.5037    107.9420    112.4172   1.1092955681e+02   3.8771467077e+01    0.4444042    0.3202079 -81.04  0.001441954    1.922    0.480
       114 -10.9173    102.6545    108.6919   1.1143807600e+02   4.0574799341e+01    0.6232685     0.492493 -18.74  0.003126011    1.511    0.338
       115 -11.3037    171.3894    109.7074   9.4521239589e+01   2.5612637876e+01    0.6943747    0.4733037  30.90  0.002443329    1.818    0.450
       116  -9.8919     49.0147    112.0261   1.2757795009e+02   4.7662602863e+01    0.2051613    0.1764923 -63.40 0.0009747946    1.049    0.047
       117  -9.3409     81.9373    102.8391   1.1586766624e+02   4.5361493115e+01    0.2673977    0.1792808 -36.05 0.0007173578    1.528    0.345
       118 -11.1472     79.3637    108.5252   1.1800941661e+02   4.4486498686e+01    0.5833435    0.4199384  48.63  0.002244845    1.575    0.365
       119 -11.2841     86.4470    105.1751   1.1514142205e+02   4.4131337208e+01    0.4481579    0.3419515  23.73  0.001454798    1.514    0.340
       120  -9.6329    119.6527    109.1715   1.0694260438e+02   3.7216390632e+01    0.2225739    0.1358953 -38.36 0.0008457321    1.691    0.409
       121  -9.5635     14.1801    108.8146   1.3691685520e+02   5.1528723222e+01     0.178808    0.1408695 -84.43 0.0006158499    1.256    0.204
       122  -9.3137    150.2920    108.6425   9.9066002527e+01   3.0731639807e+01    0.1620245    0.1233127 -78.11 0.0007029176    1.690    0.408
       123 -10.4826    157.7027    105.6172   9.6521087378e+01   2.9653875312e+01    0.3197839    0.2886471  -9.48 0.0006774726    1.243    0.196
       124 -10.2766    143.7460    105.9944   9.9942357978e+01   3.2762993448e+01    0.3797212    0.3192828  26.11  0.001573731    1.330    0.248
       125 -11.1080    145.7965    100.8134   9.8041650012e+01   3.3373482871e+01    0.5509808    0.4203547   0.77  0.002456467    1.817    0.450
       126 -10.7480     48.1675    103.0672   1.2596803487e+02   4.9775461621e+01    0.2808804    0.2249301 -27.97 0.0003791313    1.340    0.254
       127 -10.1678     52.4608     97.0788   1.2333209768e+02   5.0616874174e+01    0.5357717    0.1493717 -48.86   0.00197208    2.918    0.657
       128  -9.7818     57.3785    102.1913   1.2301281299e+02   4.8905031328e+01     0.317421    0.1458168 -59.52 0.0008868594    2.039    0.510
       129 -10.3983     57.7396     97.7171   1.2186569176e+02   4.9849400914e+01    0.2878283    0.2429123 -74.89 0.0009570142    1.302    0.232
       130  -9.0809    193.6223    101.3042   8.7761446766e+01   2.1968974442e+01    0.1633321     0.119171 -80.21 0.0007027144    1.772    0.436
       131 -11.1341     67.5285     97.2261   1.1876485581e+02   4.8692323825e+01    0.6127867    0.3584664 -47.86  0.002008032    1.502    0.334
       132  -9.2247    136.5985    100.4596   1.0021457718e+02   3.5501035364e+01    0.2937565    0.1404044  36.23  0.001029078    2.575    0.612
       133 -10.3054     98.6741     62.3057   9.9121856893e+01   5.0567480169e+01    0.3227394    0.2467456  -1.27 0.0008585489    1.462    0.316
       134  -8.8645    242.4925    249.0050   1.0952552185e+02  -1.2967794172e+01    0.1360264    0.1035132 -57.80 0.0007286328    2.451    0.592
       135 -10.0019     67.0646     54.9966   1.0667386196e+02   5.7081955104e+01    0.2206625    0.2083956   4.85 0.0007412795    1.199    0.166
       136 -10.3846     78.0363     97.0340   1.1554634220e+02   4.7228677377e+01    0.4523519     0.186614 -53.65  0.001779394    2.332    0.571
       137 -10.5526     93.8877     76.1593   1.0489893605e+02   4.8916322089e+01    0.5106056    0.3916319  19.78  0.001715304    1.426    0.299
       138 -11.6364     82.0398     93.2007   1.1333788535e+02   4.7437046630e+01    0.5695302    0.4034155  55.76  0.001322617    1.782    0.439
       139 -11.4118     89.4247     89.9778   1.1025096895e+02   4.6917934895e+01    0.7495507    0.4020312 -31.23  0.003100153    2.259    0.557
       140 -12.2972     74.3411     50.3882   1.0268078261e+02   5.6755073580e+01     1.132148    0.6959253 -47.14  0.005899182    1.824    0.452
       141 -11.5197     79.6235     82.4621   1.1110225278e+02   5.0045183412e+01    0.5553164    0.4801803 -72.69  0.002101684    1.415    0.293
       142 -11.3245     66.2638     81.8281   1.1512397521e+02   5.2123458632e+01    0.4705035    0.3959322  12.60  0.002847383    1.286    0.222
       143 -11.8839     73.6998     77.4410   1.1150886717e+02   5.1950021391e+01     0.837357    0.7035682  38.33  0.004983725    1.332    0.250
       144 -11.7204     85.3760     73.3368   1.0662288999e+02   5.0915074524e+01    0.5829369    0.5614461   8.27  0.002638085    1.117    0.105
       145 -11.5978     78.9107     67.1787   1.0673971204e+02   5.3117228725e+01    0.6689213    0.5304309  58.22  0.003741823    1.686    0.407
       146 -10.1409    210.9331     97.8320   8.3694887723e+01   1.8508422869e+01    0.4168582    0.3377243  21.45  0.001828495    1.585    0.369
       147  -9.5905    140.5323     96.1796   9.8051818599e+01   3.5502840049e+01    0.3129057    0.2044871  29.94  0.001313401    1.889    0.471
       148  -9.5081    138.2456     93.3278   9.7820600983e+01   3.6587218883e+01     0.396664    0.2547993  21.26  0.001558291    2.350    0.574
       149 -10.8574    125.2905     93.4493   1.0116933155e+02   3.9376903201e+01    0.6065997    0.3310404  43.09  0.001553176    1.877    0.467
       150 -10.2596    117.3829     93.0853   1.0317593142e+02   4.1086236290e+01    0.3591568    0.2481479  37.21  0.001384007    1.522    0.343
       151 -10.7365    122.2634     89.0844   1.0072483286e+02   4.0891815435e+01    0.4796745    0.3113456  20.54  0.001992334    2.190    0.543
       152 -10.6070    120.7695     85.3672   1.0004486724e+02   4.1938344425e+01    0.5299669    0.2394004  45.42  0.002037438    2.245    0.555
       153  -9.5419    160.5220     93.5010   9.2596046542e+01   3.1409395068e+01    0.2802067    0.1511736  63.04  0.001035055    2.291    0.563
       154 -10.5729    152.7116     91.8987   9.3936851867e+01   3.3560667385e+01    0.4055722    0.3704453  67.14  0.002112836    1.122    0.109
       155 -10.9645    102.5358     90.1024   1.0646309342e+02   4.4578584019e+01     0.606889    0.4705603   8.36  0.002033889    1.574    0.365
       156 -10.2394    183.9274     86.0518   8.5659901551e+01   2.7153687236e+01    0.6351518    0.2238901 -43.38  0.002099472    2.797    0.643
       157 -10.0083    104.1582     75.8019   1.0178477397e+02   4.7095149502e+01    0.3185535    0.2352089 -18.34  0.001064577    1.514    0.339
       158 -11.2773    113.3393     83.6373   1.0155448935e+02   4.3794269845e+01    0.7537435    0.3350183 -36.88  0.002760309    2.355    0.575
       159 -11.2705    108.2656     80.0826   1.0191218568e+02   4.5486899726e+01    0.6024466    0.5011795  65.36  0.003187476    1.452    0.311
       160  -9.2880     67.5860     88.1975   1.1643179022e+02   5.0620853809e+01    0.2009805    0.1094043 -40.86  0.000941935    1.704    0.413
       161  -9.5262    212.1753     87.0944   8.0816283948e+01   2.0139250232e+01    0.2161774    0.2025361   4.91 0.0005011033    1.259    0.206
       162 -11.3048    143.3654     83.4169   9.3737009603e+01   3.7351732585e+01     0.457956    0.3704848 -27.59  0.001573275    1.307    0.235
       163 -10.7508    165.5746     83.0031   8.8578104020e+01   3.2177302923e+01    0.4029172    0.3692151  72.99  0.001296786    1.100    0.091
       164 -10.4469    127.4737     83.3635   9.7691572817e+01   4.0905671143e+01    0.3763907    0.2553464  44.13   0.00175626    1.482    0.325
       165 -11.6864     53.0409     76.7306   1.1801980369e+02   5.4841226596e+01    0.7499784    0.4031057 -55.49   0.00373535    1.807    0.447
       166 -11.0284     58.2720     78.1132   1.1667840007e+02   5.3924895214e+01    0.4011867    0.3290012 -68.40  0.001340724    1.463    0.316
       167 -10.3216    121.1656     79.5315   9.8212560728e+01   4.2978565630e+01     0.384475    0.2537071  46.96  0.001033823    1.534    0.348
       168  -9.5134    142.4908    249.5124   1.2798852854e+02   3.2926841246e+00    0.2327191   0.09460726  50.46  0.001033794    2.219    0.549
       169  -9.9919     13.8120     54.1592   1.2568551566e+02   6.2847048935e+01    0.2149267    0.1452166 -37.93 0.0002975815    1.149    0.130
       170 -10.3264     52.1538     47.7720   1.0943421677e+02   6.0317683861e+01    0.3658684    0.2205421 -38.17  0.001785929    1.459    0.315
       171 -11.5207     32.6256     42.0938   1.1480822419e+02   6.3443394346e+01    0.6997431     0.411631  36.73  0.003523904    2.135    0.532
       172 -10.8815     27.7435     47.2699   1.1837987051e+02   6.3010041159e+01    0.4179451    0.2157568  -4.73  0.002079731    2.776    0.640
       173 -10.6908     21.1065     46.8727   1.2081340308e+02   6.3638163176e+01    0.2848767    0.2023841 -44.08 0.0008400193    1.192    0.161
       174 -11.8296     13.8716     74.3994   1.3059519392e+02   5.8891125652e+01    0.6651697    0.4545731  -1.19  0.004381555    1.765    0.434
       175 -11.9488     49.0031     59.9554   1.1452215639e+02   5.8553406031e+01    0.6610854    0.5700365  70.35   0.00379734    1.784    0.439
       176 -11.5847     40.1193     55.7571   1.1640675191e+02   6.0299936042e+01    0.4563413     0.410098  69.30  0.002934742    1.683    0.406
       177 -12.0276      2.0952     71.3738   1.3390144216e+02   6.0197826645e+01    0.6132304    0.1487563 -59.15  0.002563228    2.681    0.627
       178 -11.7633     46.0442     48.9691   1.1206021904e+02   6.0848935072e+01    0.4561161    0.3422627 -24.36  0.001508186    1.122    0.109
       179 -11.7946     41.7785     45.4965   1.1247292149e+02   6.1919764426e+01    0.2757047    0.2173702 -11.46 0.0003159971    1.123    0.109
       180 -11.8027     13.2386     66.0163   1.2889782514e+02   6.0610454228e+01    0.2745828     0.252667  61.78 0.0005223585    1.486    0.327
       181 -12.1317      8.7811     62.3464   1.2960031253e+02   6.1608237929e+01    0.5599742     0.409272  -2.81  0.003987559    1.555    0.357
       182  -9.4575      4.9164     78.1488   1.3432296268e+02   5.8669185500e+01    0.1646576    0.1312207 -68.00 0.0006529651    1.208    0.172
       183  -8.7280     46.6568     77.2847   1.2028879286e+02   5.5453926207e+01    0.1159715   0.09854538  80.41 0.0007017268    1.641    0.391
       184 -12.1531    186.2883     70.6272   8.1076441865e+01   2.9261890058e+01    0.8751021    0.6773227 -33.75  0.003450893    1.357    0.263
       185 -11.1656     32.4724     71.7860   1.2364791314e+02   5.7973129228e+01    0.4752814    0.2484373  25.24  0.002440926    2.229    0.551
       186 -10.1790     38.5381     73.5488   1.2203452440e+02   5.7049294693e+01    0.2162008    0.1927559 -39.16 0.0008972557    1.108    0.098
       187 -11.2450     40.9548     70.1925   1.2030941493e+02   5.7475632311e+01    0.3863659    0.2844041 -57.22   0.00169031    1.368    0.269
       188 -11.7548    122.6622     68.1289   9.4334868375e+01   4.4731931579e+01     0.667281    0.4668774  43.94  0.002443973    1.408    0.290
       189  -8.6631    109.2266     72.3043   9.9271613903e+01   4.6759538473e+01    0.1374452    0.1066113  -8.39            0    1.472    0.321
       190  -8.8874    151.3246     73.3364   8.8946147918e+01   3.7323996524e+01     0.156204    0.1177893  16.03 0.0007051224    1.717    0.418
       191 -10.0718    161.9184     70.4333   8.5796078168e+01   3.5281136791e+01    0.3655738    0.2772521  78.71  0.001747799    1.526    0.345
       192 -10.5480    172.1210     67.7089   8.2950594151e+01   3.3242333349e+01    0.4436168     0.318157 -54.79  0.001583732    1.500    0.333
       193 -10.1071    167.6358     63.1103   8.2533454223e+01   3.5094563975e+01    0.2619324    0.2030497  56.43  0.001091485    1.240    0.193
       194 -10.3529    129.3669     65.2926   9.1738277812e+01   4.3756396990e+01    0.5638151    0.3373153 -62.35  0.002206691    2.728    0.633
       195 -11.5421    219.6462     66.2073   7.4499559654e+01   2.1862146813e+01       0.6493    0.3649715  60.34  0.002343618    1.776    0.437
       196 -10.0108    208.1129     68.1771   7.6735761814e+01   2.4313430316e+01    0.4030295    0.1905518  52.29  0.001633237    2.148    0.534
       197  -9.2373     69.5796     66.9934   1.0969798863e+02   5.4565233076e+01    0.1918336    0.1161304 -41.04 0.0003036088    1.493    0.330
       198 -10.9118     58.3991     61.9377   1.1187250095e+02   5.7034821993e+01    0.5786499    0.3164586 -55.63  0.002089381    2.197    0.545
       199  -9.2479    213.3419    248.3228   1.1462829940e+02  -8.4086120334e+00    0.1275869   0.08309385  12.32 0.0007050624    1.727    0.421
       200 -10.7961     60.6731     36.6968   1.0242560544e+02   6.0926487105e+01    0.2909817    0.1874382 -28.97  0.001000429    1.405    0.288
       201  -9.6284     53.4700     66.0271   1.1481291429e+02   5.6887796716e+01    0.2231061    0.1720527  48.14  0.001183949    1.716    0.417
       202  -9.9843     21.0638     65.0934   1.2591219282e+02   6.0240187196e+01    0.1796443    0.1603837  -8.50 0.0008916325    1.251    0.201
       203 -10.2822    204.6987     63.6259   7.6120092901e+01   2.5872110223e+01    0.3182814    0.2239683  40.41  0.001530659    1.702    0.413
       204  -9.6752    198.1741     62.8265   7.6960315248e+01   2.7596753448e+01    0.3097225    0.1829041 -49.61  0.001174766    1.718    0.418
       205 -11.0032    105.9675     62.2907   9.7017024109e+01   4.9170290929e+01    0.4450229    0.3275087 -72.67  0.002107181    2.190    0.543
       206 -10.8070    159.4110     61.8543   8.3835707756e+01   3.7304651012e+01    0.4693408    0.3018634  39.78  0.002126652    1.681    0.405
       207  -9.5338    174.9969    246.4762   1.2146490730e+02  -1.7637627333e+00    0.2035817    0.1058727  41.52 0.0006683168    1.604    0.377
       208  -9.7256    198.9706    244.5044   1.1667168336e+02  -5.5259438272e+00    0.1994284    0.1056327  40.28  0.001036001    1.600    0.375
       209 -10.6885    127.4753    241.5092   1.2979233206e+02   7.1970259126e+00    0.2996321    0.1590807 -55.78  0.001552508    2.168    0.539
       210 -10.9229    106.0211     20.2914   8.2508642102e+01   5.4990874403e+01     0.302634    0.2001961 -19.41  0.000834417    1.604    0.376
       211 -11.6634    105.6641     32.7842   8.7065765087e+01   5.3610075001e+01    0.5436798    0.3071552  14.94  0.001386733    2.627    0.619
       212 -10.2659    150.1828    237.8191   1.2494975587e+02   3.9444524898e+00    0.1732684    0.1495417  19.57  0.001081537    1.352    0.260
       213 -12.9163    117.4688     43.1634   8.7586127720e+01   4.9767409111e+01    0.9549304    0.6737112  72.19  0.004510086    1.906    0.475
       214  -9.5580     15.3396    233.5678   1.4904728978e+02   2.4436337655e+01    0.2010562    0.1070081 -77.02  0.001312537    1.592    0.372
       215  -9.8791    147.4636     60.6645   8.6044885019e+01   4.0361019251e+01    0.3539206    0.1680425  55.86  0.001402797    2.068    0.516
       216  -9.3396    228.4080     59.1465   7.1591953595e+01   2.0901304904e+01    0.2249068    0.1629237  79.09 0.0005010513    1.389    0.280
       217 -10.4308    139.0033     44.1199   8.2809755127e+01   4.4814442296e+01    0.5934302    0.3372983  27.66  0.002456455    2.433    0.589
       218  -9.9433    133.5979     37.1740   8.1785292465e+01   4.6989558548e+01    0.3808789    0.2990244 -73.89  0.002025531    1.669    0.401
       219 -10.3769    197.9694    231.8181   1.1480865741e+02  -3.4620467155e+00    0.2215466     0.135501  18.95  0.001086304    2.017    0.504
       220 -11.2364    136.4789     56.1286   8.7156347402e+01   4.3636315109e+01    0.6635336    0.4467027 -28.09  0.002146838    1.587    0.370
       221 -10.6733    246.4682    231.1126   1.0576144698e+02  -1.1281630626e+01    0.3412249    0.1430419  35.30  0.001304989    2.188    0.543
       222 -10.6652    157.4838     56.5299   8.2670192928e+01   3.8606456831e+01    0.5092006    0.2464259  51.51 0.0008784845    1.939    0.484
       223 -11.3630    156.5217     53.4583   8.1958209499e+01   3.9305006131e+01    0.7267548     0.418653 -45.46  0.003231982    1.869    0.465
       224  -9.7117      2.0220     56.0610   1.3053960688e+02   6.3195815999e+01     0.169339    0.1235305 -41.82 0.0005122633    1.053    0.050
       225  -9.6929    188.1510     55.0950   7.6574622032e+01   3.1265628072e+01    0.2951628    0.1806677  57.16  0.001366788    1.557    0.358
       226  -9.2684    212.6935     54.0759   7.2527400455e+01   2.5398220418e+01    0.2019854    0.1755087 -54.04  0.001146142    1.121    0.108
       227  -9.8186    249.0795     53.0479   6.7680174638e+01   1.7133863332e+01    0.2144081    0.1776794 -69.64   0.00080154    1.041    0.039
       228 -11.2158    240.1134     50.4093   6.8126660861e+01   1.9516666702e+01    0.4167073    0.3604147  88.86  0.001840326    1.105    0.095
       229 -10.1214    244.5146     50.4984   6.7638445530e+01   1.8516129055e+01    0.2696175    0.2062493 -50.24 0.0009829217    1.188    0.159
       230 -10.9871    202.3403     47.6021   7.2395907366e+01   2.8863512632e+01    0.6217915    0.3496647 -29.76  0.002817302    1.999    0.500
       231 -11.1091    174.0465     48.2198   7.7112813418e+01   3.5770990652e+01    0.6416326    0.3637736  62.89  0.002175504    1.685    0.407
       232 -10.2328    176.7847     43.3035   7.5266289753e+01   3.5780911692e+01    0.3966371     0.287632  83.89  0.001738187    1.479    0.324
       233  -9.5176    192.1733     65.6431   7.8704596593e+01   2.8625996702e+01    0.2890325    0.2059631 -74.77  0.001055194    1.650    0.394
       234  -9.5805     90.7535     48.2660   9.6762349645e+01   5.4315287771e+01    0.2135866    0.2074033 -45.47 0.0009639532    1.271    0.213
       235  -9.3806      3.3024     48.9804   1.2828206904e+02   6.4449314604e+01    0.1771839    0.1395291  -8.61  0.001355566    1.356    0.263
       236  -9.8022     14.0410     46.4514   1.2343035119e+02   6.4239716235e+01     0.244077    0.1064412 -40.22  0.001356854    1.771    0.435
       237  -9.5455     17.7962     42.0183   1.2060827998e+02   6.4745787644e+01    0.2609436    0.1564547 -15.26  0.001631658    1.699    0.412
       238  -9.2680    193.0328     45.8484   7.3336564851e+01   3.1403318503e+01    0.2366186    0.1501853 -84.31 0.0008146972    1.947    0.486
       239  -9.3079    132.3696     45.2822   8.4675424270e+01   4.6178718230e+01    0.2589892    0.1514462  42.82 0.0006873577    1.652    0.395
       240 -10.5037    100.5383     43.5342   9.2250795732e+01   5.3180728905e+01    0.4242904    0.3128562 -75.98  0.002052067    2.481    0.597
       241 -11.2615     93.8472     41.3602   9.3414448502e+01   5.4769721108e+01    0.5457512    0.2924092  42.89  0.002104442    1.792    0.442
       242 -11.5576    156.1397     41.7778   7.8556082517e+01   4.1056917227e+01    0.4063759    0.3678817  62.65  0.000901807    1.034    0.033
       243 -10.7918    153.4740     36.3010   7.7425021728e+01   4.2418046502e+01    0.3178793    0.2841427 -51.62 0.0006654204    1.210    0.174
       244  -9.8193      4.4924     43.9108   1.2644384735e+02   6.5300825286e+01     0.337876    0.1747187 -15.88  0.001001543    2.153    0.536
       245  -8.5513     55.2819     51.2909   1.0950836364e+02   5.9326046061e+01    0.1250703    0.0843048 -14.42  0.000442706    1.530    0.346
       246 -10.1593    189.4720     38.0156   7.1813354363e+01   3.3351606760e+01    0.2548332    0.1431361 -25.09  0.001140603    2.153    0.535
       247 -11.2419     69.7945     32.7233   9.7791094260e+01   6.0125526623e+01    0.4645445    0.2855871  32.65 0.0008407974    1.566    0.361
       248 -11.0700     81.6414     39.4473   9.6439414519e+01   5.7232079582e+01    0.4857156    0.2912059  38.98  0.002489826    1.625    0.385
       249 -10.7965     77.8460     34.2329   9.5722323904e+01   5.8607373561e+01     0.376109    0.2790302  40.73  0.001145458    1.393    0.282
       250 -11.4367     82.3610     31.4783   9.3270267615e+01   5.8200354074e+01    0.3935621    0.3442108  45.36  0.002280092    1.338    0.253
       251 -10.1329    231.6139     39.0889   6.6558211034e+01   2.3059535578e+01    0.3362046    0.1702993 -47.38  0.001594353    1.823    0.452
       252  -9.5226    218.3586     38.9005   6.8092960914e+01   2.6198783187e+01    0.2318426    0.1740407 -89.94  0.000824792    1.263    0.208
       253 -10.7509    176.8449     36.9962   7.3507490951e+01   3.6607117996e+01     0.363024    0.3034099 -21.89  0.001485508    1.380    0.276
       254 -10.5248    172.3847     33.2545   7.3192200441e+01   3.8183772911e+01    0.4268674     0.302913  65.99   0.00189455    1.291    0.226
       255 -10.3758    176.0225     29.6528   7.1609619171e+01   3.7730327225e+01    0.3415388    0.2978734  28.55  0.001140703    1.331    0.248
       256  -9.2471     23.2346    231.6193   1.4762924233e+02   2.3957054016e+01     0.128713   0.09702688  45.97 0.0005405101    1.554    0.357
       257  -9.0212    189.9836    229.9625   1.1603275429e+02  -1.7757425706e+00    0.1585898    0.1347367  32.96 0.0004229698    1.020    0.019
       258 -10.9347      4.6456     35.9270   1.2403874742e+02   6.6686557245e+01    0.2655197    0.2039487  -7.30  0.001104538    1.311    0.237
       259  99.0000      6.1822     30.8740   1.2179183344e+02   6.7438563956e+01    0.3487353     0.182792   4.28  0.001842568    2.146    0.534
       260 -10.5995     22.0028     36.2422   1.1703137903e+02   6.5383112649e+01    0.4152976     0.227996  38.71  0.002415204    2.575    0.612
       261 -10.1541    206.7277     36.7649   6.9064685200e+01   2.9285017528e+01    0.2692526    0.2168449 -79.23   0.00101655    1.172    0.147
       262 -10.2447    161.9310     43.6973   7.8021812820e+01   3.9386325675e+01    0.3879338    0.2056981  57.92  0.001713724    1.734    0.423
       263 -10.2689    190.2222     32.8256   7.0337403963e+01   3.3837419252e+01    0.3434301    0.2526838 -72.79  0.001180575    1.429    0.300
       264 -10.3221    189.4597     27.6896   6.9102164924e+01   3.4660124985e+01     0.376512    0.3426253 -26.82  0.002012651    1.281    0.219
       265 -10.0727    160.5083     33.4805   7.5287183092e+01   4.1066997616e+01    0.4013216    0.2444973  52.13  0.001689443    1.505    0.335
       266 -10.5181    159.9924     29.0060   7.4065296994e+01   4.1734501943e+01     0.338087     0.305399  87.74 0.0007794191    1.118    0.105
       267 -11.2272    164.2537     27.4853   7.2896350214e+01   4.0875245539e+01    0.4310012    0.3045225 -82.90  0.001655231    1.671    0.402
       268 -10.5945    240.6658     31.4128   6.3879177101e+01   2.2021556064e+01     0.398022    0.3225943 -24.93  0.002408121    1.570    0.363
       269  -9.6776      9.0881    227.3106   1.4967963805e+02   2.6291001468e+01    0.1486991    0.1042888  70.74 0.0003383321    1.121    0.108
       270 -11.0783     56.6919     30.8024   1.0161408445e+02   6.2337091352e+01    0.4954196    0.2384926  29.81  0.001532913    2.136    0.532
       271 -11.7481     47.8119     30.4793   1.0476498681e+02   6.3561315528e+01     0.618929    0.2769879  27.98  0.003002099    2.378    0.579
       272 -11.0076    197.9049     28.8210   6.8244541425e+01   3.2452451108e+01     0.399423     0.372109  45.20  0.001746422    1.248    0.199
       273 -10.3300    199.7276     24.9757   6.7041126398e+01   3.2475611938e+01    0.2728317    0.2377291 -57.71 0.0005046512    1.163    0.140
       274  -9.4787    182.8337     32.1003   7.1233135655e+01   3.5750363271e+01    0.2118042    0.1728059 -78.44 0.0004461299    1.238    0.192
       275  -9.5544     36.1793     31.9153   1.0980278359e+02   6.4708199339e+01    0.1661632    0.1438952 -28.82 0.0007821771    1.305    0.234
       276  -9.5729    210.9409     29.9534   6.6864271739e+01   2.9148660079e+01    0.2293529    0.1716704 -44.85 0.0008392044    1.345    0.256
       277  -9.0145    134.6449     31.2937   7.9659591765e+01   4.7481354834e+01    0.1355359    0.1051532 -79.25 0.0007031218    1.688    0.408
       278  -9.8923    234.0970    222.9305   1.0651482042e+02  -8.2179978334e+00    0.2079229    0.1365589   8.50  0.001129155    1.685    0.407
       279  -8.8576    209.3191    223.3374   1.1119808777e+02  -4.1179183554e+00    0.1353808   0.09394114   7.30 0.0007049469    1.706    0.414
       280 -10.2666      9.9501    217.5340   1.4892639266e+02   2.8131268687e+01    0.1964351    0.1187412 -71.73 0.0005521241    1.513    0.339
       281  -9.7006    166.4570    213.4132   1.1793621584e+02   5.3494430499e+00    0.2987178    0.1925087 -82.61 0.0008803569    2.948    0.661
       282  -9.5513    152.7935    207.9527   1.1983339004e+02   8.9448077373e+00    0.2241772    0.1600702  89.55  0.001081751    1.955    0.488
       283 -10.8663      4.9564    202.5060   1.4879242978e+02   3.1662189841e+01    0.6511078   0.08128148 -66.20  0.002403548    4.695    0.787
       284  -9.8324    230.3784     27.1399   6.4004840753e+01   2.4918629986e+01    0.2612939    0.1516241 -54.88  0.001350463    1.619    0.382
       285 -10.4396    144.2984     24.9734   7.5707325192e+01   4.5962092832e+01    0.5250312    0.3010034  68.12  0.002498853    1.774    0.436
       286  -9.6377    145.6157     16.1914   7.2746219971e+01   4.6581942406e+01    0.3396264    0.2390945  67.81 0.0004420163    1.327    0.247
       287 -12.4389      5.4577    185.4907   1.4746719263e+02   3.5190178875e+01    0.8145108    0.4472954  88.16  0.004488394    1.478    0.323
       288 -10.1348    133.9670     24.7170   7.7674910764e+01   4.8398232874e+01     0.405449    0.2629301 -61.94  0.001950426    2.223    0.550
       289 -10.2913    245.3023    200.9702   1.0038080948e+02  -6.8046463860e+00    0.1838858    0.1526867 -15.03 0.0005448145    1.099    0.090
       290 -11.1664    154.7066     25.4629   7.3944246041e+01   4.3423766471e+01     0.744421    0.2995341  49.98  0.003061012    2.243    0.554
       291 -10.6106    157.3273     20.7913   7.2106940049e+01   4.3307827788e+01    0.5714727    0.2388387  56.23  0.002230338    2.021    0.505
       292  -9.7852    250.4918     25.2249   6.1622101752e+01   2.0644054822e+01     0.206876    0.1192553 -33.71 0.0004268649    1.871    0.465
       293 -11.1690    214.7371     23.4565   6.4870022418e+01   2.9044388648e+01    0.3890414    0.3591107 -16.40  0.001973228    1.390    0.281
       294 -10.6846    234.5836    196.8915   1.0152282702e+02  -4.3477806559e+00     0.425282     0.294373  12.30   0.00179588    1.605    0.377
       295  -8.7468      1.2812    199.6604   1.4925073540e+02   3.2581539423e+01    0.1166364   0.06084403  74.44 0.0007009645    1.626    0.385
       296  -9.4904     16.8783    192.3193   1.4584083891e+02   3.2672468211e+01    0.1550837     0.123459  83.45   0.00067799    1.106    0.096
       297  -9.9605    241.5038     22.3856   6.1861355522e+01   2.2986457726e+01    0.2161713    0.1758329  85.00 0.0005904759    1.138    0.121
       298  -9.2319     44.4352     23.5049   1.0331435098e+02   6.4961023981e+01    0.1158734   0.09284858  -8.98 9.568069e-06    1.056    0.053
       299  -9.9522    169.8702    191.1871   1.1325288715e+02   8.9378743064e+00    0.3986087    0.1851289  32.09  0.001197386    2.766    0.638
       300  -9.0509    239.6718    184.6976   9.8163161814e+01  -3.2650156535e+00    0.1392726   0.09820391   3.77 0.0003886067    1.645    0.392
       301 -10.2552    213.0706    182.0723   1.0261773429e+02   2.1273393089e+00    0.3028623    0.2993647  46.53  0.001823839    1.147    0.128
       302  -9.4715    250.4816    180.0138   9.5297394742e+01  -4.3922711395e+00    0.2125345    0.1204417 -34.14  0.001046552    1.637    0.389
       303  -9.5231    223.0524     22.2389   6.3676105985e+01   2.7229603257e+01    0.2345471    0.1747663  80.17 0.0007467388    1.198    0.166
       304 -10.0552    220.8796     19.0701   6.3185150293e+01   2.8118072711e+01    0.2233381    0.1844619  76.81 0.0004907105    1.141    0.123
       305  -9.4793    207.1972     20.7943   6.5104716608e+01   3.1164579951e+01    0.2841402    0.2114848  14.15  0.001513742    2.093    0.522
       306  -9.5151    205.6644     17.3089   6.4443484686e+01   3.1934395854e+01    0.2430421    0.1638951  86.44  0.001262667    1.379    0.275
       307  -9.5542     28.3248    176.3069   1.4208014861e+02   3.5034059306e+01    0.1146708     0.083022 -50.88 0.0007035559    1.648    0.393
       308  -9.0691     57.7621    175.1388   1.3557404334e+02   3.1894874124e+01    0.1643896    0.1462159 -57.51  0.000612109    1.311    0.237
       309  -9.5573     51.8289    173.8107   1.3672257934e+02   3.2949025553e+01    0.1862475     0.131367  81.47 0.0005918916    1.335    0.251
       310  -9.7138     39.5088    173.5068   1.3939032026e+02   3.4466778480e+01    0.2233501   0.08839829 -59.41 0.0009301442    2.206    0.547
       311 -10.3078     66.1663     21.8847   9.4789256969e+01   6.2103368189e+01    0.1855449    0.1378538   2.27 0.0004277397    1.200    0.166
       312  -9.5739    248.1977    173.3350   9.4320930518e+01  -2.9029757887e+00    0.2644296     0.114363  36.36   0.00108053    2.611    0.617
       313 -10.7764     35.3918    170.6436   1.3995831426e+02   3.5569168674e+01    0.3084291    0.1843831  82.19  0.001693292    1.667    0.400
       314  -9.8995      8.8861    155.8931   1.4416526351e+02   4.1377870854e+01    0.2188156    0.1586915 -59.22  0.001378525    1.364    0.267
       315 -11.8900      9.4667    166.3669   1.4505051830e+02   3.9005186581e+01    0.5340158    0.3452684 -68.58   0.00260603    1.289    0.224
       316 -10.5744    234.2106     16.3930   6.1268028167e+01   2.5357571958e+01    0.2816214    0.1889149  79.84 0.0003310922    1.332    0.249
       317  -9.3088      1.7586     20.4513   1.2014753453e+02   6.9379389577e+01    0.1411455   0.08085445  -7.51 0.0009489332    1.717    0.418
       318 -11.4207     13.7046    157.6745   1.4329217886e+02   4.0583241151e+01    0.4655777     0.181595 -72.74   0.00102568    2.012    0.503
       319  -9.6716    170.9324     17.6252   6.9056519644e+01   4.0343886102e+01       0.1877    0.1447309  72.80 0.0003729623    1.162    0.139
       320  -9.9195    225.5507     16.6760   6.2168498964e+01   2.7310944348e+01    0.2599874    0.1775383 -80.97  0.001483692    1.345    0.256
       321  -9.8676    191.7611     16.8750   6.6009806890e+01   3.5344350570e+01    0.2322708    0.2058346  72.36  0.001279487    1.089    0.081
       322  -9.2434    197.8425    167.8566   1.0267330079e+02   7.8423436271e+00    0.1982887    0.1776155 -74.98 0.0005772174    1.305    0.234
       323  -9.2897    149.2434    168.4087   1.1331541785e+02   1.7853943814e+01    0.2178004    0.1380546  54.21 0.0009488335    1.635    0.389
       324  -9.6879     40.1659    166.0354   1.3835891594e+02   3.6101594647e+01    0.2127932    0.1168612 -48.92  0.001082545    2.068    0.516
       325 -10.2685     18.8137    165.3385   1.4297228378e+02   3.8414892254e+01    0.2499819      0.21197 -43.60  0.001596947    1.548    0.354
       326 -10.0056    188.8611    164.3269   1.0376896280e+02   1.0417787932e+01    0.2941233     0.219683 -32.70 0.0008665767    1.407    0.289
       327 -10.2594    206.4063    162.6506   9.9821982997e+01   7.0746504218e+00    0.5227568    0.3394887  32.84  0.001549638    1.686    0.407
       328 -10.1810     28.0753    163.0473   1.4070454265e+02   3.8051969237e+01    0.3365353    0.1727214 -64.28   0.00182998    1.603    0.376
       329 -10.8540    246.4321    159.6137   9.1739359338e+01  -2.7006806603e-01    0.5560297    0.1268743 -37.61  0.001653625    4.146    0.759
       330 -10.1197     80.8499    160.1924   1.2798513557e+02   3.2155713589e+01    0.3289163    0.2744309  32.76  0.001869262    1.415    0.293
       331  -9.3371    224.4753    156.5113   9.4996775507e+01   4.5326029076e+00    0.1443384    0.1349208 -16.72 8.316391e-05    1.011    0.011
       332  -9.0416     94.5415     12.4762   8.2564078618e+01   5.8094431338e+01    0.1249453    0.1052022  26.66 0.0002310058    1.007    0.007
       333 -10.5889    104.7006    153.9015   1.2100603217e+02   2.9736844456e+01    0.4311753    0.2810908 -60.55  0.002035284    1.485    0.326
       334 -10.0373     14.1548    133.0098   1.4035500667e+02   4.6109553446e+01    0.2978987    0.2091681 -75.67   0.00103193    1.128    0.113
       335 -11.5864     12.8479    139.2726   1.4144382360e+02   4.4796710822e+01    0.7040798    0.3566038  79.22  0.003493338    2.447    0.591
       336 -10.8015     10.7073    127.1927   1.4046758939e+02   4.7676026254e+01     0.669768    0.1462093 -58.91  0.002736528    2.939    0.660
       337 -10.4148     31.4131    153.7471   1.3883841112e+02   3.9849681611e+01    0.3991125    0.2490393  79.36  0.002179931    1.676    0.403
       338 -10.6144     30.4726    148.9953   1.3845543389e+02   4.1036382102e+01    0.3354331    0.2031964  57.93 0.0007941299    1.817    0.450
       339 -12.1403     22.8083    149.4371   1.4031315910e+02   4.1652902282e+01    0.6959673    0.3627319 -47.77  0.003685937    2.104    0.525
       340 -10.7182     16.3282    148.1257   1.4166181977e+02   4.2514266334e+01    0.3723777    0.2285241  46.53  0.001422795    1.815    0.449
       341  -9.4979    140.9815    153.7633   1.1217221554e+02   2.2803619207e+01    0.2027392     0.127401  44.28 0.0003854918    1.591    0.372
       342 -11.9417      5.0350    148.0622   1.4422372349e+02   4.3418892105e+01    0.6059338      0.34327 -59.83  0.002947152    1.515    0.340
       343 -11.0431      2.4856    141.6222   1.4413264657e+02   4.5033924014e+01    0.3330743    0.2936177 -67.78  0.001829996    1.245    0.197
       344 -11.4617      3.9075    136.5806   1.4325540278e+02   4.6056491836e+01     0.249782    0.1860191 -66.18 0.0004744114    1.138    0.121
       345  -9.9982    214.6077    151.7704   9.5810884565e+01   7.4463001364e+00    0.2116416    0.1340148 -48.73 0.0006807054    1.639    0.390
       346 -11.2836     62.3788    149.8703   1.3081460600e+02   3.7203601970e+01    0.4766709    0.3887909  61.78  0.001699256    1.274    0.215
       347  -9.5905     42.1667    148.3247   1.3555270986e+02   3.9987135528e+01    0.2536393    0.2181696  46.47  0.001235208    1.342    0.255
       348  -9.7904     48.1190    151.6954   1.3459236794e+02   3.8530817471e+01    0.3164622    0.2144296  37.22   0.00131955    1.691    0.409
       349 -10.8220     46.9002    146.2704   1.3409115012e+02   3.9941191092e+01    0.5201668    0.2749953 -67.45  0.001180188    1.616    0.381
       350 -10.1815     56.4147    149.1057   1.3217124791e+02   3.8144365394e+01    0.2373278    0.1777453 -88.27 0.0008243122    1.294    0.227
       351 -10.8522    249.6404    142.8934   8.7588204610e+01   2.0182006509e+00    0.6444917    0.2409687 -39.12  0.002480683    2.399    0.583
