#   1 NUMBER                 Running object number                                     
#   2 MAG_AUTO               Kron-like elliptical aperture magnitude                    [mag]
#   3 X_IMAGE                Object position along x                                    [pixel]
#   4 Y_IMAGE                Object position along y                                    [pixel]
#   5 X_WORLD                Barycenter position along world x axis                     [deg]
#   6 Y_WORLD                Barycenter position along world y axis                     [deg]
#   7 A_WORLD                Profile RMS along major axis (world units)                 [deg]
#   8 B_WORLD                Profile RMS along minor axis (world units)                 [deg]
#   9 THETA_WORLD            Position angle (CCW/world-x)                               [deg]
#  10 FWHM_WORLD             FWHM assuming a gaussian core                              [deg]
#  11 ELONGATION             A_IMAGE/B_IMAGE                                           
#  12 ELLIPTICITY            1 - B_IMAGE/A_IMAGE                                       
         1 -14.5787     69.4316    146.2368   1.0784104603e+02   3.6671736133e+01     4.838864     2.441034  77.38  0.006993848    4.123    0.757
         2 -13.9385    220.4796     17.1250   4.0331889726e+01   2.7953308057e+01     1.147462    0.9411973  34.92  0.003060983    1.569    0.363
         3 -12.4190    212.9607     25.2846   4.3154835273e+01   2.8804042844e+01    0.5100821    0.4281686  32.35  0.001184649    1.490    0.329
         4 -13.7362    196.5088     39.5305   4.9012493423e+01   3.1062812388e+01     1.334937      1.00922  26.64  0.002026504    1.698    0.411
         5 -14.0845    205.0689     33.0914   4.6125210713e+01   2.9771273810e+01     1.881524     1.367168  -1.45  0.009234759    1.896    0.473
         6 -11.0275      2.4418      4.2769   9.5000618901e+01   7.3720848595e+01    0.3793921   0.09078833 -49.30   0.00157712    3.755    0.734
         7 -10.3697     47.9841      2.4814   7.0667730002e+01   6.8790360372e+01    0.1982824    0.1521506 -26.62 0.0005405897    1.425    0.298
         8  -9.9813     56.7782      1.7389   6.6760184906e+01   6.7444187678e+01    0.1495171    0.1373532  -5.55  0.001048609    1.336    0.252
         9  -9.6110     61.2462      1.5661   6.5009502820e+01   6.6691301236e+01    0.1762983   0.09476525  35.32 0.0009468515    1.649    0.393
        10  -9.7171    211.1446    202.1816   8.5742980032e+01   2.1287498231e-01    0.1615117    0.1535557  33.27 0.0003226876    1.297    0.229
        11 -14.0939    243.2378    225.9761   8.4182120582e+01  -8.0783026313e+00     1.104857    0.6638342  14.62  0.004235014    1.566    0.361
        12 -13.8495    248.3178    238.6452   8.5452052392e+01  -1.0271090688e+01    0.7980374    0.4974353  -5.60  0.004227555    1.518    0.341
        13 -14.0547    237.3893    247.1626   8.8685744584e+01  -9.7296628041e+00    0.7214745    0.5304775   2.52  0.003251772    1.159    0.137
        14 -13.1533    246.7783    248.7296   8.7342763517e+01  -1.1170444372e+01    0.5194665    0.3031798  34.29  0.003358337    1.523    0.343
        15 -15.5714     79.3056    246.1844   1.1744338054e+02   1.4171614951e+01     8.480843     2.577858  32.25   0.02492703    5.697    0.824
        16 -13.4773      6.8248    189.0795   1.2679020808e+02   3.3699442095e+01     0.892368     0.511845 -67.76  0.001115399    1.640    0.390
        17 -12.7315     27.8791    214.5697   1.2442433637e+02   2.6423686144e+01    0.6127377    0.2947454  78.66 0.0009338731    1.951    0.487
        18 -16.2638     43.9517    196.5222   1.1991683407e+02   2.8355958747e+01     9.505139     3.725394  75.38   0.03463467    4.239    0.764
        19  -9.5358     99.4773    180.7707   1.0586039711e+02   2.4119033883e+01    0.2352154    0.1785768  43.41 0.0006059273    1.282    0.220
        20 -13.3285     38.5657    207.9055   1.2192999721e+02   2.6595095884e+01    0.4945866    0.4031191  51.15  0.001606022    1.291    0.226
        21 -16.0009     11.6594    240.8041   1.2865837785e+02   2.3142987024e+01     2.080612     1.483973  63.21   0.01319929    1.126    0.112
        22 -13.5843     66.2931    160.5404   1.1081200933e+02   3.3686048567e+01     0.520899    0.3539458 -52.28  0.001706332    1.538    0.350
        23 -11.6523     78.7771    164.5824   1.0834096265e+02   3.0991552445e+01    0.2900545    0.2581506 -89.92 0.0003696797    1.013    0.013
        24 -12.4924     85.6870    157.7408   1.0555613794e+02   3.1562128298e+01    0.8836679    0.4805934 -42.75  0.001419199    2.269    0.559
        25  -9.9106    174.0525    248.5754   1.0022080466e+02  -4.9440057665e-01    0.1904308    0.1699561  79.09    0.0011277    1.543    0.352
        26 -11.1551     33.7320    156.5826   1.1824737655e+02   3.8431855261e+01    0.3000402    0.2225104  69.72  0.001067959    1.267    0.211
        27 -10.0167    174.7860    148.9544   8.2284321147e+01   1.6652023672e+01    0.2788466    0.2155849 -61.58 0.0007715265    1.553    0.356
        28 -10.8900    133.8509    144.2644   9.0802680574e+01   2.6136415180e+01     1.022182    0.2534414 -54.12  0.002387051    5.855    0.829
        29 -11.2660     54.4741    148.2343   1.1203314776e+02   3.8119007391e+01    0.3637214    0.1877971 -56.79  0.001746004    1.772    0.436
        30 -11.5518    193.1711    192.9979   8.7531876914e+01   4.8480237279e+00    0.7874793    0.4502654 -52.37  0.003592881    2.336    0.572
        31 -10.1319     99.4944    143.4862   9.9430584026e+01   3.2706288368e+01    0.3031048    0.2466572 -69.61  0.000859796    1.208    0.172
        32  -9.9793    102.1987    139.9566   9.8009219306e+01   3.3078285817e+01     0.366666    0.2428018 -32.29  0.001617836    1.959    0.490
        33 -12.3507     87.2490    142.0818   1.0239888158e+02   3.5048665649e+01    0.4620523    0.3016604  36.29 0.0006561189    1.642    0.391
        34 -10.3350     30.5019    137.2044   1.1677361405e+02   4.3325560764e+01    0.2047738    0.1757597  41.95  0.000567592    1.357    0.263
        35 -13.9127     45.6784    222.7893   1.2171058034e+02   2.2799700864e+01    0.9873831    0.8313761  54.58  0.003317356    1.274    0.215
        36  -8.9268    154.6842    132.3741   8.2984017881e+01   2.4409248710e+01    0.1628814    0.1251055 -84.04 0.0007031565    1.795    0.443
        37 -10.2386    110.1977    131.5951   9.4087011687e+01   3.3619032807e+01    0.3096844    0.2481617 -19.46 0.0007916448    1.564    0.361
        38 -10.0651    106.0213    131.0273   9.5085166384e+01   3.4515851672e+01    0.3678759    0.3005374  78.17  0.001252256    1.400    0.286
        39  -9.9775    150.1618    189.5423   9.5896751867e+01   1.3409443323e+01    0.2545846    0.2023155 -48.08  0.001057385    1.365    0.268
        40 -10.9329    135.3402    122.3034   8.5265763696e+01   3.0763295082e+01    0.6447513    0.1438662 -51.10  0.001399925    6.177    0.838
        41 -10.8802     97.5136    127.9047   9.6725100173e+01   3.6758115251e+01    0.2990219    0.2517076 -34.29 0.0008211458    1.293    0.226
        42 -11.3603     67.1612    126.6529   1.0502279886e+02   4.1728348430e+01    0.5156296    0.2905315 -71.54  0.002316544    1.860    0.462
        43  -9.0134    125.6673    127.3284   8.8999604805e+01   3.1621814378e+01    0.1600764    0.1227914  85.88 0.0007051774    1.718    0.418
        44 -10.0262    116.4958    126.1378   9.1143214967e+01   3.3704221458e+01    0.2903385     0.222896 -75.58  0.001358803    1.538    0.350
        45  -9.5742    145.7172    168.6480   9.3024419841e+01   1.8484208481e+01    0.1469173    0.1157322  -9.05  0.000701702    1.656    0.396
        46  -9.2234     91.4256    124.2681   9.7628915792e+01   3.8655892739e+01    0.2411825    0.1693248  62.40 0.0006389355    1.706    0.414
        47 -11.2385     26.4854    120.5157   1.1563459749e+02   4.7673227165e+01    0.3664183    0.1349586  45.59  0.001548551    3.180    0.686
        48  -9.8141    107.0998    120.0151   9.2249487165e+01   3.6911458777e+01    0.2152428    0.2073096 -48.84 0.0003240726    1.030    0.029
        49 -10.0660    168.4059    113.2495   7.4955117132e+01   2.5340790318e+01    0.3799346    0.2794138 -64.76  0.001095441    1.690    0.408
        50 -10.3228    134.7525    111.9147   8.2736170827e+01   3.3190381692e+01    0.3777644    0.1311732 -46.88  0.001178045    2.868    0.651
        51 -10.3159     39.8272    113.3139   1.1059994501e+02   4.8173681078e+01    0.1970274    0.1557565  63.51 0.0007942367    1.419    0.295
        52  -9.3720    114.0000    110.9914   8.8072380102e+01   3.7682489243e+01    0.2559824   0.08522411 -48.12 0.0004992755    2.890    0.654
        53 -10.0507    205.5001    110.1867   6.6560543519e+01   1.7390899932e+01    0.3154739    0.2169686  40.71  0.000918448    1.561    0.359
        54  -8.8238    204.6782    165.3352   7.9670340381e+01   7.4788646047e+00     0.137692    0.1171648 -81.68  0.000610467    1.707    0.414
        55 -10.9113     17.2241    109.5890   1.1676373713e+02   5.0998481656e+01    0.1922232    0.1210898  -6.18  0.000503943    2.328    0.570
        56  -9.8609    134.6972    102.7504   8.0257296685e+01   3.5192922311e+01    0.2786028    0.1901165 -40.10 0.0007763489    1.444    0.307
        57 -10.2340     41.0010    103.0151   1.0834406307e+02   5.0524530247e+01    0.2045925    0.1489824  76.84 0.0005679593    1.668    0.401
        58 -10.5860    242.7921    102.1918   5.8395691520e+01   1.0678585259e+01    0.2453991    0.1420092 -65.14 0.0009622031    2.889    0.654
        59 -11.1102      5.5261     98.4951   1.1873410326e+02   5.4344946503e+01     0.225558    0.1539751 -76.12  0.001365941    1.198    0.165
        60  -9.2042    121.5384     98.5499   8.2601105586e+01   3.8928055051e+01    0.1540366    0.1492829 -34.15 0.0001256463    1.004    0.004
        61  -9.2697    128.8036     95.6239   7.9790511366e+01   3.8002807263e+01    0.2228783    0.1488279  55.63 0.0007184762    1.672    0.402
        62 -10.5756     11.3102     92.8540   1.1606882673e+02   5.5310845754e+01    0.1806419    0.1586184  57.29 0.0005817563    1.372    0.271
        63 -10.2918    249.9734     88.0078   5.4047566159e+01   1.1463016897e+01    0.1697609    0.1476729 -40.24 0.0004150103    1.002    0.002
        64  -8.9507    115.0109     84.2450   8.0219759811e+01   4.3333065481e+01    0.2707324    0.1681316 -75.38 0.0008839594    3.601    0.722
        65 -10.0421    159.2905     81.0244   6.7955163885e+01   3.3820051055e+01    0.2228746    0.2087523 -35.83 0.0006664468    1.057    0.054
        66  -8.8810    184.3462     77.3288   6.1715680393e+01   2.8310466721e+01    0.1607467    0.1198607  18.67  0.000705009    1.754    0.430
        67  -9.6062    192.8801    165.1867   8.2013565956e+01   9.8199391915e+00    0.2124217    0.2051731  68.11  0.001060393    1.220    0.180
        68  -9.2927     61.9124     71.3547   9.3379180587e+01   5.5315420140e+01    0.1865267    0.1657384  -9.94 0.0006033489    1.137    0.120
        69  -9.7826     50.8603     63.8163   9.5146263957e+01   5.8328935010e+01    0.3184578    0.1558144  45.07  0.001390647    2.799    0.643
        70 -10.4379     13.6118     59.8750   1.0871655547e+02   6.2563721338e+01    0.2230064    0.1714567 -63.38 0.0004190943    1.212    0.175
        71  -8.6465     98.5257     57.4999   7.6295469980e+01   5.1887381114e+01    0.1444923    0.1352247 -10.38 0.0008098389    1.038    0.036
        72 -13.6074     87.9643    227.6983   1.1411784368e+02   1.6284856284e+01    0.9820734    0.5381088  58.55  0.001130038    1.689    0.408
        73  -8.6725     71.2578    185.3204   1.1289458678e+02   2.7335028557e+01    0.1187467   0.09730747 -44.96 0.0003847144    1.544    0.352
        74 -12.0571     64.5403    179.8427   1.1374431570e+02   2.9465941789e+01    0.4177155    0.2703496 -41.44  0.002151284    2.154    0.536
        75 -14.8720      9.5102    207.6631   1.2736725579e+02   2.9637236324e+01     1.161207    0.9653978 -73.61  0.007123578    1.436    0.303
        76  -9.5173    145.9716     42.9384   5.8790163159e+01   4.3400265718e+01    0.2337152    0.1762585 -72.52 0.0006095828    1.689    0.408
        77 -10.2696    141.5797     39.1271   5.8431809861e+01   4.5019592681e+01    0.3304309    0.2310809 -66.47  0.001110209    1.917    0.478
        78 -11.1492    140.6505     46.0900   6.1009808362e+01   4.4260568150e+01    0.3869868    0.2874545 -77.36 0.0009805876    1.826    0.452
        79 -10.4330    189.5769     15.2831   4.3159963717e+01   3.5716209472e+01    0.2473143    0.2032865  89.66 0.0006480703    1.133    0.117
        80  -9.2920    193.6769     15.7049   4.2794080707e+01   3.4644750953e+01    0.1362161   0.09748714  41.48 0.0003022199    1.619    0.382
        81 -11.9782     69.3818    174.4705   1.1196135735e+02   3.0033970903e+01    0.3244316     0.253958 -49.77   0.00102604    1.477    0.323
        82  -9.4543    156.6142    200.7854   9.6442560532e+01   1.0109725765e+01    0.1790363    0.1321246 -60.66 0.0005698293    1.645    0.392
        83 -12.1909    183.4827    215.4886   9.3437054623e+01   2.8747845463e+00    0.5305408    0.2765512  34.34  0.002589072    1.732    0.423
