#   1 NUMBER                 Running object number                                     
#   2 MAG_AUTO               Kron-like elliptical aperture magnitude                    [mag]
#   3 X_IMAGE                Object position along x                                    [pixel]
#   4 Y_IMAGE                Object position along y                                    [pixel]
#   5 X_WORLD                Barycenter position along world x axis                     [deg]
#   6 Y_WORLD                Barycenter position along world y axis                     [deg]
#   7 A_WORLD                Profile RMS along major axis (world units)                 [deg]
#   8 B_WORLD                Profile RMS along minor axis (world units)                 [deg]
#   9 THETA_WORLD            Position angle (CCW/world-x)                               [deg]
#  10 FWHM_WORLD             FWHM assuming a gaussian core                              [deg]
#  11 ELONGATION             A_IMAGE/B_IMAGE                                           
#  12 ELLIPTICITY            1 - B_IMAGE/A_IMAGE                                       
         1 -14.7952    158.6318     43.9596   8.4429255918e+01   3.9937539484e+01     1.366301      1.06077 -34.61  0.004688154    1.259    0.206
         2 -12.8426    189.4354     14.1291   6.9351949945e+01   3.5608489591e+01     1.230392    0.4176437 -51.90  0.003386953    4.752    0.790
         3 -14.1958    168.9252     14.8561   7.2450375399e+01   4.0993034232e+01     1.012823    0.8023477 -87.09  0.004840255    1.420    0.296
         4 -14.5592    171.3457      8.7876   6.9938923925e+01   4.0980931492e+01     1.246786    0.7917762  70.05  0.003689884    1.595    0.373
         5 -11.2692     59.3333      9.6661   9.7314209824e+01   6.6288033830e+01    0.1225778   0.09714234 -61.43 0.0007052235    1.733    0.423
         6 -10.4832     18.0662    221.9036   1.4447967689e+02   2.9798624616e+01    0.1084323    0.0895612  85.19 0.0003532186    1.441    0.306
         7 -19.7828     93.9225    231.4493   1.3333764694e+02   1.9848750852e+01     7.040026     4.252778  56.11    0.0492341    1.220    0.180
         8 -19.1733     75.5539     95.6418   1.2002739191e+02   4.6956773378e+01     17.49718     0.774168 -56.80    0.0259591   19.358    0.948
         9 -12.9377    180.4477    193.3671   1.1488049678e+02   1.1982212553e+01    0.3422656     0.278138  75.01  0.001565227    1.611    0.379
        10 -12.0070    169.6982    195.3204   1.1696810196e+02   1.3519545177e+01    0.2230516    0.1746673  56.52 0.0005690603    1.249    0.199
        11 -13.7051    166.0525    188.8844   1.1667579194e+02   1.4984524174e+01    0.6571525     0.295199  44.21  0.003308277    1.830    0.453
        12 -14.6763    174.8872    187.3207   1.1492761897e+02   1.3701013660e+01    0.9727746    0.4731972 -42.32  0.005189231    2.492    0.599
        13 -11.4748    160.0536    247.7616   1.2469925195e+02   8.8168828572e+00    0.2728678    0.1370582  38.00  0.001524515    1.611    0.379
        14 -12.1073    127.0520    249.7449   1.2977271831e+02   1.3150979365e+01    0.1433317    0.1227352  62.96 0.0005935801    1.256    0.204
        15 -11.9815    123.4555    184.9115   1.2371149993e+02   2.2520728246e+01    0.2865097    0.1828338  65.06 0.0006841017    1.606    0.377
        16 -13.8537    207.0197    177.9104   1.0802988769e+02   9.3307866946e+00    0.5201449    0.4355801   9.62  0.003063595    1.185    0.156
        17 -11.4871     30.7191    206.2505   1.4179678594e+02   3.0990749263e+01     0.177705    0.1486404  48.71 0.0009512081    1.497    0.332
        18 -13.9115    195.2030    169.9114   1.0864070757e+02   1.2428101256e+01    0.6435159    0.3887392 -47.59  0.002640858    2.139    0.533
        19 -13.7225    156.1004    199.0617   1.1978077813e+02   1.5243083110e+01    0.6475799    0.4208684 -83.09    0.0035863    2.814    0.645
        20 -12.1942    203.4125    171.5484   1.0753836491e+02   1.0745198697e+01    0.4038561    0.2303936  34.97  0.002099836    1.593    0.372
        21 -13.2159     11.7727    205.9467   1.4482281127e+02   3.2862767226e+01    0.4093266    0.1988254  36.23  0.002927718    2.182    0.542
        22 -13.7252    177.8176    170.1855   1.1170950844e+02   1.5524710497e+01    0.5874043    0.3584026 -56.60  0.003119811    2.331    0.571
        23 -11.3497    170.5054    185.4816   1.1540689136e+02   1.4693389569e+01    0.2333912    0.1490443  51.16 0.0007051745    1.392    0.282
        24 -10.6602     28.5908    239.9391   1.4364407700e+02   2.6147427805e+01    0.1186866   0.07286344  69.84 0.0003870849    1.162    0.139
        25 -11.7945    201.0396    164.6262   1.0671506864e+02   1.2053857367e+01    0.3536396    0.2544493 -56.58  0.001677491    2.021    0.505
        26 -11.1451    222.3771    161.5137   1.0261446693e+02   8.5504071336e+00    0.2544052    0.1899158 -57.01  0.001094717    2.115    0.527
        27 -12.9162    163.8614    157.9007   1.1214965110e+02   1.9878850357e+01    0.3964664    0.1912958  49.57  0.001056972    1.886    0.470
        28 -10.3350      3.7855    158.1638   1.4405661395e+02   4.1820306944e+01    0.1260913   0.09501524 -80.26 0.0004389168    1.328    0.247
        29 -14.2161    134.0747    146.3197   1.1594409877e+02   2.7226273966e+01     1.186592    0.3325729 -55.84  0.003630324    5.522    0.819
        30 -10.9590     29.0065    156.4938   1.3901362425e+02   3.9894713122e+01    0.1960926    0.1280523 -87.49 0.0004520374    1.255    0.203
        31 -10.0953     22.9647    156.0697   1.4018790424e+02   4.0552165021e+01    0.1272756   0.09391584  76.49 0.0004972675    1.018    0.018
        32 -11.4279     17.5249    153.4684   1.4109530464e+02   4.1542791181e+01    0.2881008    0.1999854 -42.98  0.001862983    2.363    0.577
        33 -11.0392     18.3499    148.6105   1.4059755002e+02   4.2402316989e+01    0.1905713    0.1857121  58.80  0.001440992    1.509    0.337
        34 -13.0001    155.5152    190.4075   1.1871842687e+02   1.6529440953e+01    0.4010932    0.2436055  66.05  0.002215474    2.128    0.530
        35 -12.8285    174.1929    148.8405   1.0857554620e+02   1.9330266149e+01    0.3191883     0.294326 -44.98  0.001202275    1.216    0.178
        36 -13.0653    153.9221    185.6076   1.1832717164e+02   1.7476652784e+01    0.3939285     0.219251  48.51  0.002253052    1.508    0.337
        37 -11.7295     27.3536    145.8064   1.3851897998e+02   4.2120061948e+01    0.2468067    0.2015277  62.71 0.0007643246    1.220    0.180
        38 -13.3980    152.4769    145.0273   1.1202345469e+02   2.4074963036e+01    0.3835296     0.302424  89.18  0.002191022    1.587    0.370
        39 -14.4163    143.8773    144.5137   1.1364127168e+02   2.5763631430e+01    0.8248511    0.4289594 -58.62  0.003721353    2.448    0.592
        40 -12.3419    163.6188    202.8466   1.1901041896e+02   1.3533767806e+01     0.310189    0.2318133  74.44  0.000793977    1.723    0.420
        41 -14.1400    135.8596    127.9412   1.1215367041e+02   3.0217257663e+01     1.414432    0.2820624 -50.33  0.003800789    6.098    0.836
        42 -12.8904    161.1404    197.7059   1.1874503713e+02   1.4608752394e+01    0.3210044    0.2659251 -83.72  0.001559012    1.569    0.363
        43 -11.7267    139.3928    201.2010   1.2290197525e+02   1.7596586102e+01     0.251977    0.2436593 -64.24 0.0006058265    1.307    0.235
        44 -11.6148    136.5062    197.0397   1.2289358664e+02   1.8641906296e+01    0.2767912    0.1869627  74.77  0.001733324    1.813    0.448
        45 -13.7900     46.4730    129.5190   1.3270113448e+02   4.3439665054e+01    0.4916106    0.2992756 -69.17  0.003055395    1.453    0.312
        46 -12.9143    160.5957    128.2692   1.0710241405e+02   2.5327506879e+01    0.3882096    0.3116992 -50.72  0.002092893    1.346    0.257
        47 -12.2200     38.7282    123.7465   1.3384686570e+02   4.5460315039e+01    0.2254315    0.2068899 -35.48  0.001233538    1.544    0.353
        48 -12.5362    134.6039    106.7975   1.0787533199e+02   3.4420788222e+01    0.5515262    0.1373307 -45.48  0.001684947    4.056    0.753
        49 -13.5722    119.7714    110.6376   1.1213685406e+02   3.6529261162e+01    0.4685468    0.3386138  89.56  0.002372622    1.776    0.437
        50 -10.7464    205.4086    110.1155   9.4588186882e+01   1.8732737067e+01    0.2417797    0.1802593  37.46 0.0006373697    1.297    0.229
        51 -11.7795     98.1707    109.6908   1.1709485566e+02   4.0505147007e+01    0.2127214    0.1580984  65.16 0.0009539424    1.405    0.288
        52 -11.9829     25.5149    106.4745   1.3510836041e+02   5.0366173008e+01    0.3158387    0.2149336  10.37  0.001975142    2.359    0.576
        53 -12.0725     40.5126     94.0830   1.2937519352e+02   5.1609344878e+01    0.4263046    0.3000991 -37.31  0.002463523    1.871    0.466
        54 -12.0646     48.9160     92.2489   1.2671542455e+02   5.1103686165e+01    0.3278345    0.2316024  11.31  0.001887079    2.213    0.548
        55 -11.5698      6.2476     89.0095   1.3829431058e+02   5.5588601296e+01    0.4386518     0.226966 -12.50  0.002101713    4.571    0.781
        56 -10.0549    104.8185     82.1459   1.0901146166e+02   4.5007141691e+01    0.1750114    0.1588867 -20.52  0.001009405    1.259    0.205
        57 -10.8386    142.7304     80.7240   9.9332012260e+01   3.7588218706e+01    0.2517193    0.1791539 -36.55 0.0007142341    1.406    0.289
        58 -14.4420    148.0318     58.9357   9.1575635977e+01   4.0182536536e+01     1.370179     1.040197  12.94  0.003689176    1.637    0.389
        59 -11.5614     21.8317    238.0783   1.4453985302e+02   2.7074004021e+01    0.1241403   0.08849249  69.24 0.0007634665    1.156    0.135
        60 -13.2429    162.5498     35.1257   8.0660548778e+01   4.0187850948e+01    0.4872273    0.4509724   3.33 0.0007999193    1.085    0.078
        61 -10.6808     13.5100     59.9124   1.3193483040e+02   6.1385469998e+01    0.1594795    0.1344329 -74.79 0.0004360883    1.096    0.088
        62 -12.2848    167.6077    245.7990   1.2338179313e+02   7.9518428411e+00    0.1901192    0.1616334   2.47 0.0008504349    1.574    0.365
        63 -10.5674     12.7403    243.0452   1.4598855905e+02   2.7240003177e+01   0.09886074   0.08898129  71.97  0.001028785    1.678    0.404
        64 -12.4251    168.8100    240.3989   1.2263547916e+02   8.3438672477e+00    0.3134988    0.1251367  45.72 0.0007825864    1.820    0.451
