#   1 NUMBER                 Running object number                                     
#   2 MAG_AUTO               Kron-like elliptical aperture magnitude                    [mag]
#   3 X_IMAGE                Object position along x                                    [pixel]
#   4 Y_IMAGE                Object position along y                                    [pixel]
#   5 X_WORLD                Barycenter position along world x axis                     [deg]
#   6 Y_WORLD                Barycenter position along world y axis                     [deg]
#   7 A_WORLD                Profile RMS along major axis (world units)                 [deg]
#   8 B_WORLD                Profile RMS along minor axis (world units)                 [deg]
#   9 THETA_WORLD            Position angle (CCW/world-x)                               [deg]
#  10 FWHM_WORLD             FWHM assuming a gaussian core                              [deg]
#  11 ELONGATION             A_IMAGE/B_IMAGE                                           
#  12 ELLIPTICITY            1 - B_IMAGE/A_IMAGE                                       
         1 -14.0459    161.2984     52.2448   7.8802991943e+01   3.8253776221e+01     1.767089     1.199471  21.64   0.00620566    2.090    0.521
         2 -13.7575    173.8547     36.7039   7.2188958206e+01   3.7287216083e+01    0.8795103    0.8173422 -88.41  0.003004747    1.053    0.050
         3 -11.8437    189.6423     14.5097   6.4126673843e+01   3.6010793581e+01    0.2767665    0.2233839 -81.73 0.0009244675    1.147    0.128
         4 -13.5828    191.4762      5.0184   6.1574781658e+01   3.6533707639e+01    0.9557678    0.5654283  69.42  0.004391735    1.432    0.302
         5 -10.8538    168.9439    234.7702   1.1935992440e+02   8.4188630721e-01    0.2044432    0.1927627 -62.53 0.0002454924    1.238    0.192
         6 -18.4541     65.2222    245.4823   1.4050888360e+02   1.5850763635e+01     6.731349     5.675498  77.00   0.03864658    1.178    0.151
         7 -11.3873    167.6790    189.8658   1.1180221700e+02   9.4728386952e+00    0.3817986    0.3193511  -9.10  0.001282364    1.443    0.307
         8 -19.0299     47.0076     96.6645   1.2325656891e+02   5.1642975414e+01     18.34719      1.30299 -56.93    0.0317899   13.469    0.926
         9 -11.0363    163.1236    210.3869   1.1652693079e+02   6.3069617283e+00    0.2603549    0.2103883 -58.48  0.001074454    1.385    0.278
        10 -11.8709     11.3734    206.1057   1.4699179432e+02   3.0332917959e+01     0.248997    0.2013591  47.57  0.001395803    1.487    0.328
        11 -11.9217    153.1676    184.6110   1.1396074513e+02   1.3464934915e+01    0.3648645    0.2780159 -81.86  0.001754581    1.650    0.394
        12 -12.1014     34.3077    184.2508   1.4055659364e+02   3.2725732402e+01    0.2131385    0.1848513 -76.56  0.000717751    1.219    0.179
        13  -9.2351    179.2598    206.2911   1.1245085897e+02   4.0181656825e+00    0.1333302    0.1067145   2.33            0    1.494    0.331
        14 -11.4500    205.5088    180.4887   1.0203849687e+02   3.7585217952e+00    0.4800017    0.3086925  42.19  0.001828385    1.546    0.353
        15 -11.3185    208.5354    178.5112   1.0102557014e+02   3.5331311017e+00    0.4031037     0.353815   5.08  0.002242211    1.158    0.137
        16 -10.7981    163.5063    204.2686   1.1536955724e+02   7.4176509453e+00    0.2784317    0.2722686 -76.01 0.0005118702    1.095    0.087
        17 -11.9785    196.0249    171.3522   1.0203111201e+02   7.4235249254e+00    0.7440011    0.4018483 -49.89  0.002253409    2.010    0.503
        18 -10.5036    194.1786    165.7485   1.0120165141e+02   8.9179089354e+00    0.3168629    0.2577329  87.00 0.0009469335    1.623    0.384
        19  -8.6745      3.3142    176.2364   1.4619792166e+02   3.7515183767e+01    0.1006837   0.07641581 -57.16 0.0006857396    1.501    0.334
        20 -10.9863    158.7454    204.9862   1.1650302512e+02   8.1886792703e+00    0.3752775    0.2056553  61.45  0.001489022    2.540    0.606
        21 -13.8143    137.2589    199.4782   1.2016560418e+02   1.3401487886e+01     0.847722    0.5137682  51.18  0.003844548    1.585    0.369
        22 -10.5569    122.0663    165.3140   1.1738415379e+02   2.3908061205e+01    0.2585475     0.210114 -73.07  0.000339772    1.258    0.205
        23 -10.8125    160.9939    198.2831   1.1482070615e+02   9.0898493061e+00    0.2880879    0.2124699  74.58  0.001387589    1.755    0.430
        24  -9.4299     25.8966    165.3843   1.4032553507e+02   3.7922148245e+01    0.3064482    0.1328429  21.92  0.001353219    3.680    0.728
        25  -9.9471    223.4991    163.5066   9.4940815537e+01   3.3743062815e+00     0.250298     0.128056 -49.25 0.0007294436    2.155    0.536
        26 -10.6544     18.2597    231.4135   1.4754884161e+02   2.4443614046e+01    0.1046648   0.07544094 -83.20 0.0003258838    1.247    0.198
        27 -12.0877    154.9587    196.7541   1.1584004686e+02   1.0574609094e+01    0.4445714    0.3055931 -87.24  0.001956352    2.233    0.552
        28 -13.0116    134.0436    145.6182   1.1030267306e+02   2.6096742850e+01     1.396401     0.339733 -53.89  0.003239832    5.606    0.822
        29 -12.2325    145.2049    146.5030   1.0779756003e+02   2.3553722704e+01    0.5850298    0.3851188  64.92  0.002433576    1.893    0.472
        30  -9.9956    198.9042    222.5213   1.1142625353e+02  -2.4342951203e+00    0.1912192     0.174596 -13.09 0.0005446703    1.139    0.122
        31 -13.0360    112.2230    139.7103   1.1448051238e+02   3.1799711661e+01    0.8345059    0.5783687   6.72   0.00340126    2.483    0.597
        32 -12.1848    103.1876    138.6604   1.1660281701e+02   3.3713909994e+01    0.3054487    0.2788968 -46.59 0.0004742793    1.115    0.103
        33 -12.6551    135.7456    124.9648   1.0496832614e+02   3.0444602149e+01     1.228479    0.2521737 -48.93  0.002878911    5.256    0.810
        34 -12.1572    106.1809    130.8324   1.1405619610e+02   3.5014682850e+01    0.4438294    0.3652004 -75.21  0.001352425    1.294    0.227
        35 -11.1844    107.2255    125.6001   1.1254981522e+02   3.6040373597e+01     0.301461    0.2585844  -6.38 0.0004576466    1.423    0.297
        36 -12.0070    118.7454    129.5760   1.1044898032e+02   3.2903915524e+01    0.4213055    0.3488088 -49.32  0.001104112    1.169    0.144
        37 -11.6347    143.1060    127.8836   1.0387228039e+02   2.8198842210e+01     0.390319    0.2988008  81.29   0.00117694    1.665    0.399
        38 -11.1122    160.3810    127.5102   9.9672978173e+01   2.4423018065e+01    0.3497916    0.2750274 -74.04  0.001237583    1.509    0.337
        39 -12.1508    123.7964    126.0311   1.0827826297e+02   3.2703122289e+01    0.6417276    0.4065655  85.51  0.002236777    3.124    0.680
        40 -11.5351     92.6006    124.1191   1.1619065577e+02   3.8990624816e+01    0.3166945    0.2300022  71.74  0.001489452    1.788    0.441
        41 -10.9280    113.1085    118.6356   1.0926253832e+02   3.6516186476e+01     0.298783    0.2637513  75.38 0.0003779338    1.250    0.200
        42 -10.8293    168.4492    113.3861   9.4254579616e+01   2.5543803909e+01    0.4758681    0.3207266  88.06  0.001574451    2.360    0.576
        43 -10.5646    163.0407    110.2138   9.4634423716e+01   2.7467072866e+01    0.2785718    0.2400628 -85.33 0.0003419266    1.294    0.227
        44 -11.1198    135.0000    105.5119   1.0008362458e+02   3.4849593545e+01    0.5380612     0.174606 -43.62  0.001666917    3.035    0.670
        45 -10.4269    205.4097    110.2775   8.5981749826e+01   1.7465894211e+01    0.3358033    0.2364572  40.42 0.0008806181    1.602    0.376
        46 -10.6423    174.9089    148.8589   1.0151891658e+02   1.6562684853e+01    0.2853989    0.2341652 -63.53 0.0006954209    1.323    0.244
        47 -11.9525     90.1015    108.8444   1.1320158148e+02   4.2915175262e+01    0.3086625     0.305211 -78.99 0.0007530485    1.078    0.072
        48 -12.7001     84.7594    108.3624   1.1462914298e+02   4.3904683617e+01    0.5322208    0.3383455 -52.21  0.002549739    1.460    0.315
        49 -10.9066    208.6963    197.0041   1.0474483570e+02   1.3889267226e-01    0.1931882     0.173439 -24.21 0.0003666499    1.116    0.104
        50 -10.6715     35.1238    212.6736   1.4311776898e+02   2.6386012620e+01    0.2411224    0.1251423  29.84  0.001250945    2.685    0.628
        51 -11.1096     88.4731     77.9918   1.0510444310e+02   4.9673310635e+01    0.2567373    0.2048336  36.97 0.0005639646    1.311    0.237
        52 -12.7165    193.4547    192.5209   1.0691369288e+02   3.8608001670e+00    0.8852236     0.513164 -52.91  0.002811988    2.052    0.513
        53 -10.0079     14.5030    248.5173   1.4921359926e+02   2.1564718297e+01    0.3224529   0.08697591  46.64  0.001649562    2.762    0.638
        54 -12.8327    178.2616     29.2699   6.9485771881e+01   3.7121420874e+01     0.509312     0.422075  15.66  0.001663878    1.556    0.357
        55  -9.7359     13.5143     59.8878   1.2559150788e+02   6.2164810142e+01    0.1688211   0.09137208 -52.93 0.0004125743    1.479    0.324
        56  -9.7768    180.0070    192.4705   1.0968746623e+02   6.5076489664e+00    0.2196567    0.1365654  44.50 0.0005243128    1.542    0.351
