#   1 NUMBER                 Running object number                                     
#   2 MAG_AUTO               Kron-like elliptical aperture magnitude                    [mag]
#   3 X_IMAGE                Object position along x                                    [pixel]
#   4 Y_IMAGE                Object position along y                                    [pixel]
#   5 X_WORLD                Barycenter position along world x axis                     [deg]
#   6 Y_WORLD                Barycenter position along world y axis                     [deg]
#   7 A_WORLD                Profile RMS along major axis (world units)                 [deg]
#   8 B_WORLD                Profile RMS along minor axis (world units)                 [deg]
#   9 THETA_WORLD            Position angle (CCW/world-x)                               [deg]
#  10 FWHM_WORLD             FWHM assuming a gaussian core                              [deg]
#  11 ELONGATION             A_IMAGE/B_IMAGE                                           
#  12 ELLIPTICITY            1 - B_IMAGE/A_IMAGE                                       
         1 -10.0955     10.4047     18.8251   9.9921196500e+01   7.0751734177e+01    0.9560916    0.3436634 -21.25  0.003290966    5.756    0.826
         2 -10.9261     37.0593      9.4443   8.2101678089e+01   6.9637506553e+01     1.150092    0.4173743 -44.19  0.004908834    3.399    0.706
         3 -11.2134     23.9512     32.1470   9.8323505046e+01   6.7310202782e+01     1.588147    0.4068214 -40.96   0.00406106    3.229    0.690
         4 -10.2859     25.8664     11.3329   8.8557074197e+01   7.0648118726e+01    0.6459486    0.3792229  22.33   0.00380292    1.758    0.431
         5 -10.2884     18.4181      5.1919   8.9438489960e+01   7.2306697844e+01    0.5726646    0.5285693 -35.26  0.003187045    1.601    0.375
         6  -9.8705      2.6145     14.7134   1.0245662810e+02   7.1964159151e+01     0.710375    0.2368388 -60.38  0.002944242    3.971    0.748
         7 -10.1372      6.2327      5.3922   9.6388216660e+01   7.3288464891e+01    0.3948202    0.2382038 -30.91  0.001484633    1.238    0.192
         8  -9.7882      2.5030      3.1418   9.7506561062e+01   7.3901577454e+01    0.2678355    0.1450006 -37.09  0.001209545    1.361    0.265
         9 -10.7682      6.4592     29.9166   1.0591273229e+02   6.8970128120e+01    0.6615685    0.3728496 -50.73  0.002210264    1.353    0.261
        10 -10.7788     34.1905     61.9944   1.0344483191e+02   6.0447281210e+01     1.544346    0.5563137 -35.54   0.00552619    3.523    0.716
        11 -10.3948     89.7134     38.4028   7.4436168752e+01   5.6969623557e+01     1.019412      0.37155  33.43  0.003241891    4.077    0.755
        12 -10.3699     69.5109     40.5292   8.2339269135e+01   6.0200355507e+01       1.3963    0.3939984 -40.47  0.003616806    3.303    0.697
        13  -8.3461     72.0655      8.6536   6.7379506279e+01   6.4275401160e+01    0.2317904    0.1654412  -8.85 0.0006320503    1.316    0.240
        14  -9.0602     78.3204      2.8678   6.2549310083e+01   6.3684807695e+01    0.3968347    0.2977045  11.49  0.001555125    1.209    0.173
        15  -9.6302     73.6240     19.7958   7.2024320065e+01   6.2643862817e+01    0.5097209    0.2392792 -32.43  0.001671035    2.064    0.516
        16  -9.4241     74.0975     12.4349   6.8470299525e+01   6.3471270138e+01    0.8533381    0.3614765  -8.69  0.002701692    5.133    0.805
        17 -10.2248     76.1158     32.0479   7.6472882291e+01   6.0461103628e+01    0.6378315    0.4984173  86.11  0.001234339    2.461    0.594
        18  -9.9643     79.2419     24.0966   7.1977093558e+01   6.1044312101e+01    0.6717762    0.2991835  29.25  0.002240706    2.929    0.659
        19  -9.0619    111.2855     23.7102   6.2239824830e+01   5.4460804365e+01    0.7158005    0.3325935 -13.80  0.002727695    2.953    0.661
        20 -10.2516     62.8595      3.1507   6.7953102587e+01   6.6515775024e+01    0.5404713    0.3990055 -20.05  0.003427424    1.323    0.244
        21 -10.0348     60.7887     31.9015   8.2171595347e+01   6.2991203674e+01    0.9828817     0.412527 -29.93  0.002945746    2.532    0.605
        22 -10.4935     45.6391     29.4021   8.7402729181e+01   6.5500725608e+01    0.4983567    0.4381506 -83.34  0.002917656    1.945    0.486
        23 -10.3711     50.5205     15.5080   7.9029500642e+01   6.6973925337e+01     1.305454    0.6781613   6.60  0.005572388    3.161    0.684
        24  -9.5701     63.0413     21.0560   7.6528908744e+01   6.4279056020e+01    0.4187323    0.2776921 -47.36 0.0008603334    1.995    0.499
        25  -9.9841     64.4462     13.5216   7.2469326622e+01   6.5047659860e+01    0.3891247    0.2932844  -4.03  0.002404202    1.181    0.154
        26  -9.5128    102.6769     21.9644   6.3836272662e+01   5.6583140682e+01     0.627538    0.3211789 -21.70  0.002083708    2.085    0.520
        27  -8.9323    128.6232     25.2616   5.8662104879e+01   5.0211226939e+01    0.4506264    0.2551452 -25.26  0.001600989    1.864    0.464
        28  -9.7547    119.1237     19.9692   5.8840067183e+01   5.3091968020e+01    0.7495591    0.3502549 -12.81  0.002277304    2.856    0.650
        29  -8.2978    125.1494     13.1332   5.4875078508e+01   5.2390061882e+01    0.2807204    0.2306121  31.28 0.0006790919    1.166    0.143
        30  -8.4770    126.5244      9.0095   5.3032311677e+01   5.2460249340e+01    0.2732897    0.1598093  46.75 0.0004992929    1.531    0.347
        31  -9.0250    125.5620      4.9634   5.1694586032e+01   5.3060705006e+01    0.4741356    0.2452339   9.06  0.001768914    2.773    0.639
        32  -9.1681     96.3511     15.0058   6.2682465634e+01   5.8751464983e+01    0.5630998    0.2497109 -14.08  0.002062853    2.895    0.655
        33  -9.1934    114.0799      9.9733   5.6078332469e+01   5.5321024120e+01     0.387744    0.2264333  27.52 0.0003308447    1.874    0.466
        34  -8.0126     80.3923     12.2644   6.6289122248e+01   6.2301120319e+01    0.2432023    0.1621138 -38.54  0.001325935    1.751    0.429
        35  -9.0106     89.1218      2.5869   5.9228105779e+01   6.1525904809e+01    0.4735627    0.3034917  39.24  0.002427962    1.357    0.263
        36  -9.5238     85.3539     13.0387   6.5069256570e+01   6.1238652507e+01    0.4774265     0.285578 -52.90  0.001462775    2.862    0.651
        37  -8.5054     85.1624      6.6432   6.2222875141e+01   6.1954413654e+01    0.4615202    0.2076029  23.75  0.001617033    3.143    0.682
        38  -9.8357    133.7725     11.9532   5.2695808594e+01   5.0406807048e+01    0.3182086     0.258377 -54.76  0.001476463    1.429    0.300
        39  -7.9877    141.5441     11.6375   5.1139143295e+01   4.8506672495e+01     0.257438     0.136909 -23.06 0.0007179244    2.042    0.510
        40  -9.1365     96.9170      4.9071   5.8158762397e+01   5.9655484241e+01    0.4094622    0.3245445 -46.48    0.0013131    1.599    0.375
        41  -9.1122    102.2537      8.2127   5.8204726840e+01   5.8174693395e+01    0.4071524     0.223548 -38.73  0.001247535    2.126    0.530
        42  -8.7559    106.1794      2.0362   5.4653956676e+01   5.7855321564e+01    0.5112654    0.1476295  52.56  0.001969759    2.658    0.624
        43  -7.7745    155.8662      8.5899   4.7735818425e+01   4.5176316475e+01    0.2254178    0.1601635 -31.10  0.001192941    1.516    0.340
        44  -8.0756     67.8393      8.8632   6.8971123504e+01   6.5015407441e+01    0.1579264    0.1388949 -22.31 0.0004474816    1.303    0.233
        45  -8.7919    110.3147      7.6721   5.6018826775e+01   5.6409476488e+01    0.2453399    0.1640739 -48.74 0.0008357849    1.922    0.480
        46  -8.6655    110.9821      4.5127   5.4578530234e+01   5.6543737049e+01    0.2584263    0.1694632  16.78 0.0008111515    1.656    0.396
        47  -8.5801    143.5662      5.7002   4.8718700183e+01   4.8555699981e+01    0.3467589     0.172443 -55.05  0.001125288    2.815    0.645
        48  -8.9224    130.9903      5.9469   5.1023311044e+01   5.1653652005e+01    0.2126568    0.1667536  36.54 0.0005504772    1.219    0.180
        49  -9.1811    115.4357      4.4381   5.3567940083e+01   5.5515863116e+01    0.2825951    0.2319168 -58.41 0.0006346294    1.519    0.342
        50  -7.2176    150.5776      1.4893   4.6186486733e+01   4.7155056128e+01     0.134776    0.1206255  61.58 0.0001476264    1.016    0.016
        51  -8.4562    136.9605      1.5090   4.8351066112e+01   5.0563867822e+01    0.2088326    0.1213122  66.18   0.00101923    1.552    0.356
        52  -9.7302    127.7014    102.5542   8.4331713328e+01   3.6829902111e+01    0.4673181    0.3736557 -66.80 0.0008795737    1.419    0.295
        53  -8.2728    212.3277    250.3031   9.5368075956e+01  -6.1529897133e+00    0.1190407   0.07341103  15.07 0.0002551626    1.646    0.392
        54 -10.2849    201.3540    248.2608   9.7007858218e+01  -4.2595894514e+00    0.4788236    0.2883426  24.15  0.002886058    1.512    0.339
        55  -9.5053    182.5253    249.7649   1.0059094318e+02  -1.5509889518e+00    0.3117637    0.1099219  45.73  0.001393274    2.562    0.610
        56  -7.8653     81.4357    249.7918   1.1883251281e+02   1.3727504388e+01    0.1285977    0.1017779 -66.95 0.0005806618    1.561    0.359
        57 -10.4246    130.4323    118.7516   8.7846449560e+01   3.2671422580e+01    0.8933362    0.5525081 -80.73  0.002797269    3.283    0.695
        58 -11.0051    133.6903    109.0098   8.4491643511e+01   3.4136718809e+01     1.140845    0.4722088 -45.00  0.003981653    2.377    0.579
        59  -9.7923     41.8514    122.6855   1.1346089624e+02   4.5709804143e+01    0.6371446    0.3092971  89.10  0.002519029    3.074    0.675
        60 -10.1338     27.2928    122.9327   1.1755634278e+02   4.7025095152e+01    0.8766823    0.3915018  77.36  0.003318206    3.772    0.735
        61 -10.1403     30.2974    109.5800   1.1475999498e+02   4.9927012241e+01    0.9238775    0.4188597 -31.85   0.00362247    3.862    0.741
        62 -10.7891     21.4320    101.9536   1.1624575909e+02   5.2438478427e+01     1.045933    0.4748843  76.95  0.003061312    4.439    0.775
        63  -8.3806    129.5017    123.4930   8.9252668597e+01   3.1800083391e+01     0.153329    0.1492797 -79.69 0.0008105799    1.019    0.019
        64 -10.9894    140.7647    117.2545   8.4826902150e+01   3.0803652945e+01     1.420839     0.655412 -38.94  0.001470503    2.328    0.570
        65  -7.4026     98.5215    119.9664   9.6782079875e+01   3.8524633156e+01    0.2169673    0.1175149 -34.46 0.0008099034    2.535    0.606
        66 -10.2336     91.7397    112.8121   9.7065062599e+01   4.1369673374e+01    0.6022092     0.412754 -77.25  0.001637782    1.821    0.451
        67  -8.8318     92.1387    104.0665   9.4827297164e+01   4.3346584097e+01     0.720288    0.4303828  12.18  0.002663951    3.155    0.683
        68  -8.4880      1.6621    116.8733   1.2382333846e+02   5.0282103098e+01    0.3517888    0.1286006 -85.59  0.001535869    2.708    0.631
        69  -9.2420    152.2070    116.1793   8.1732880457e+01   2.8507603559e+01    0.3774936     0.249679 -28.71  0.001584362    1.762    0.432
        70  -8.2714    238.5857    115.8048   6.4400182623e+01   9.2240982251e+00     0.214042    0.1198884 -43.33 0.0008625913    1.717    0.418
        71  -9.6240    207.8573    114.2668   6.9346740207e+01   1.6127736050e+01    0.2557001    0.2438241  -0.66 0.0003633551    1.049    0.047
        72 -10.2393     78.1395    113.0119   1.0109446577e+02   4.3478832352e+01    0.5516508    0.3196939 -76.58  0.001687553    2.337    0.572
        73  -9.7536     81.6026     99.1655   9.6794528665e+01   4.6207747983e+01     0.787665    0.2818285 -50.80  0.001874541    2.505    0.601
        74  -8.0075    167.3659    114.1292   7.7658502704e+01   2.5477843403e+01    0.2198852    0.1431712 -51.05  0.000485363    1.633    0.388
        75 -10.5120     63.1259     95.8757   1.0182811739e+02   4.9631409808e+01    0.7315316    0.4432345 -87.53  0.001822162    2.791    0.642
        76  -9.0472     64.7788     85.1218   9.8609236144e+01   5.1885717055e+01    0.6360897    0.4893195 -36.76  0.003525788    1.250    0.200
        77 -10.3541     65.9704    109.8138   1.0404365933e+02   4.5962701720e+01     1.001523    0.4634743 -62.51  0.001898377    2.048    0.512
        78  -9.6921     59.1802    109.8201   1.0609959134e+02   4.6834861093e+01    0.7517723    0.3308938 -45.25  0.002310376    2.334    0.571
        79  -9.9998      6.4426    104.0030   1.2102644972e+02   5.2961376103e+01    0.5555072    0.2936452  62.47  0.002232912    2.325    0.570
        80  -9.9027     14.4326    111.6670   1.1968782990e+02   5.0672518780e+01    0.4357009    0.2352304  78.03  0.001723437    2.168    0.539
        81  -8.6331     14.4616    105.0541   1.1880040276e+02   5.2211287468e+01    0.2789248    0.1335695 -48.85  0.001126039    1.947    0.486
        82  -8.2233    158.8672    112.0266   7.9065047714e+01   2.7866830987e+01    0.2386269    0.2082684 -67.27 0.0004822454    1.258    0.205
        83  -9.2647     36.2553    111.2055   1.1324942902e+02   4.9001605231e+01    0.3019605    0.1953839  78.57   0.00150908    1.826    0.452
        84  -8.3048    212.7544    110.8621   6.7597147370e+01   1.5637141639e+01    0.2456163    0.2011656  36.55 0.0003391377    1.294    0.227
        85  -8.3989    149.9733    109.9867   8.0650875905e+01   3.0322161876e+01    0.2426261    0.1915474 -76.26 0.0003451373    1.590    0.371
        86 -10.7910     44.8755    102.5515   1.0907020039e+02   5.0201150509e+01     0.786822    0.4210619  76.22  0.003011386    3.615    0.723
        87  -8.9983     40.3855    107.2520   1.1133026219e+02   4.9542541309e+01    0.2261388    0.1733266 -77.13 0.0007100347    1.199    0.166
        88  -8.5168    165.9675    104.2808   7.5356357557e+01   2.7793362239e+01    0.2970269    0.2095387 -54.38 0.0006331524    1.550    0.355
        89  -9.6253    149.3704    103.2493   7.8976175213e+01   3.1872291096e+01    0.4561238    0.3202898 -53.98 0.0009488155    1.528    0.346
        90  -8.1765     73.6871    102.6316   1.0008478241e+02   4.6592571527e+01     0.280421    0.1616054 -58.50 0.0006387816    1.611    0.379
        91  -8.6347    159.0369    101.0932   7.6074797173e+01   3.0067329260e+01    0.2381147    0.2233453 -61.80 0.0004935486    1.102    0.092
        92  -7.6605    235.3586     98.7952   6.0835511491e+01   1.2708141882e+01    0.1984552    0.1277392 -25.70 0.0003430358    1.572    0.364
        93  -9.5416     94.3792     97.2151   9.2381828062e+01   4.4532059642e+01    0.3595935      0.27858 -69.18 0.0006104861    1.447    0.309
        94  -9.0539     95.9352     90.9590   9.0197234118e+01   4.5661458634e+01    0.4996367    0.3229731 -12.64  0.001810616    2.590    0.614
        95  -9.0956    149.8178     96.9882   7.7122235321e+01   3.3059363788e+01    0.3642797    0.3402961 -62.32  0.001875871    1.110    0.099
        96  -9.4208    130.5429     96.6908   8.1940130828e+01   3.7479709111e+01    0.4715993    0.2626577  30.43  0.001748248    2.390    0.582
        97  -8.9121    239.7170     96.3082   5.9573785062e+01   1.2176849060e+01    0.2291452    0.1596916  10.09 0.0007991862    2.074    0.518
        98  -8.6412    164.5964     94.6504   7.3003532876e+01   3.0026021728e+01    0.3475681    0.2665736 -63.17  0.001032497    1.521    0.343
        99  -9.1020    157.8668     91.1153   7.3534651593e+01   3.2332383528e+01    0.5506999    0.2315574 -32.10  0.001657682    2.815    0.645
       100  -9.3834    138.7130     92.6402   7.8647674184e+01   3.6506954115e+01     0.376346     0.305381 -80.94 0.0006587307    1.550    0.355
       101  -9.4275    140.5867     82.6114   7.5199444726e+01   3.8093390774e+01    0.5686241    0.2753852 -39.14  0.001361859    2.049    0.512
       102  -8.6771    140.0534     75.6547   7.3194380795e+01   3.9558788403e+01    0.5167227    0.2390795 -42.13  0.001670317    2.152    0.535
       103 -11.0302     24.3088     79.7562   1.1134682331e+02   5.7347631933e+01     1.129429    0.5559232 -50.53  0.005824634    1.635    0.388
       104 -10.0830    193.8378    248.4207   9.8372178647e+01  -3.1287457076e+00    0.2958919    0.2138712  11.51  0.001942565    1.429    0.300
       105  -9.8886    177.1152    247.0610   1.0120556892e+02  -3.4540483803e-01    0.3990244     0.234038 -10.47  0.001884977    3.413    0.707
       106 -10.2395    163.7237    248.1447   1.0379141690e+02   1.6158292983e+00    0.3533381    0.2269896  13.03  0.001947055    2.231    0.552
       107 -10.1400    117.6099    245.3317   1.1193083348e+02   9.2338759980e+00    0.2061802    0.1767655  52.31 0.0002316134    1.116    0.104
       108  -9.4346    184.1622    245.0012   9.9640176357e+01  -1.1779091664e+00    0.1727025    0.1390862  80.90  0.001091332    2.017    0.504
       109 -10.0449     34.5544     90.6130   1.1004714037e+02   5.4007287114e+01    0.5478312    0.2562168 -77.41  0.001803781    2.732    0.634
       110 -10.2564     36.8601     81.1353   1.0724014593e+02   5.5974438807e+01    0.6558467    0.3538784 -16.81  0.002891351    3.012    0.668
       111 -10.2535     12.3783     45.4944   1.0786102124e+02   6.5554136796e+01    0.8026666     0.369458  -9.68  0.003336224    3.122    0.680
       112  -9.1488    149.5147    247.4421   1.0630735322e+02   3.9571213389e+00     0.175541    0.1373806  44.48 0.0008088879    1.032    0.031
       113  -6.9919    196.2819    239.6652   9.6667044262e+01  -2.3802248612e+00     0.108015   0.09004641  60.07 0.0006330331    1.617    0.381
       114  -7.4088    234.3187    237.6538   8.9605079157e+01  -7.9102544462e+00     0.100448   0.09117036  51.24 0.0007048943    1.727    0.421
       115  -7.7535    153.7169     91.3383   7.4571972373e+01   3.3278340886e+01    0.2702045    0.1459085 -39.14 0.0002909334    1.838    0.456
       116  -9.0565    150.4452     89.2221   7.4739196492e+01   3.4473026093e+01    0.3200704    0.2163831 -53.55 0.0008291347    1.628    0.386
       117 -10.4547      4.3294     85.8232   1.1919523720e+02   5.7234160565e+01     1.226987    0.3276436 -69.72  0.005067521    2.811    0.644
       118  -9.8158    187.8259    233.9729   9.7376478575e+01  -2.5862872677e-01    0.2661738    0.2331902   0.76   0.00140166    1.211    0.174
       119 -10.6204     48.3200     83.0074   1.0368910875e+02   5.4382646999e+01     1.182141     0.413407 -54.40  0.002737698    2.308    0.567
       120 -10.6650     55.2506     71.0093   9.8061284746e+01   5.6243548816e+01    0.6208613    0.4570397  71.34  0.002498319    2.097    0.523
       121  -9.5067     55.6103     63.0122   9.5542042196e+01   5.7898345907e+01    0.4529833    0.3101017   3.51  0.001724005    1.811    0.448
       122 -10.0155     62.1281     60.8372   9.2425662354e+01   5.7484422426e+01    0.6145504    0.3428006  28.18  0.001379145    2.021    0.505
       123 -10.3213     85.2537     86.4598   9.2262346202e+01   4.8505537669e+01    0.5393863    0.4040658  73.25 0.0009515328    1.893    0.472
       124  -9.6195     87.7975     78.6267   8.9157430786e+01   4.9782558631e+01     0.607231    0.3649024  18.35  0.001630203    2.425    0.588
       125  -8.2218    163.4983     87.4715   7.1201542447e+01   3.1677115865e+01    0.3173812    0.1531315 -38.90 0.0006304237    2.042    0.510
       126 -10.8775     21.7188     53.0378   1.0598491828e+02   6.3369500893e+01    0.8132856    0.4621042 -89.09  0.003037757    4.158    0.760
       127  -9.3022    109.7593     63.8934   7.7583487442e+01   4.8545814441e+01    0.3632106    0.2963544 -50.69 0.0006475735    1.323    0.244
       128  -9.0116    110.9302     58.1516   7.5264068208e+01   4.9346875033e+01    0.4008276    0.2791991  24.05 0.0009926318    1.662    0.398
       129 -10.2914    103.9355     82.6717   8.5353896517e+01   4.5966762379e+01    0.5199082    0.3192199 -55.65 0.0008010039    1.809    0.447
       130  -9.9271    104.7252     71.8675   8.1733191861e+01   4.8033418024e+01    0.8553715    0.3846135 -32.51  0.003057966    2.643    0.622
       131  -8.5829    157.6350     83.6298   7.1406069335e+01   3.3832722040e+01    0.2860119    0.2547171 -59.73 0.0004429987    1.184    0.155
       132  -7.7310    170.5227     83.5282   6.8529119278e+01   3.0695798112e+01    0.1554613    0.1521512 -64.58 -2.513246e-07    1.028    0.027
       133  -8.5510    149.9851     80.9539   7.2395397648e+01   3.6189038555e+01    0.3424772        0.216 -47.69 0.0004986168    1.652    0.395
       134  -8.8094    119.1335     80.5666   8.0285768807e+01   4.3306077376e+01    0.3526055    0.2481686 -67.56  0.001007351    1.947    0.486
       135  -8.1495    119.9673     75.9995   7.8623198001e+01   4.4042678260e+01    0.3406597    0.2367098  -6.68 0.0009596338    2.050    0.512
       136  -9.1076     74.0899     79.1432   9.3827337776e+01   5.1886644245e+01    0.6036032    0.2512599 -52.87  0.001785513    2.288    0.563
       137  -8.7108     68.7700     79.6316   9.5765822061e+01   5.2559904832e+01       0.3127    0.1721132 -51.32  0.001447473    1.634    0.388
       138  -8.4889    240.5262     79.0173   5.5267478408e+01   1.4746648080e+01    0.2132358   0.09685873 -51.68 0.0008095443    2.507    0.601
       139  -7.4295    158.6514     79.7336   7.0017069845e+01   3.4316756706e+01    0.1597161    0.1210211  21.98 0.0003834072    1.616    0.381
       140  -7.9285    184.2020     78.1730   6.4220749959e+01   2.8263773307e+01    0.2336783    0.2071917  18.22  0.000615463    1.262    0.208
       141  -7.3401    174.3144     78.7221   6.6344184202e+01   3.0628963802e+01    0.1556688    0.1216034 -76.08 0.0003623022    1.567    0.362
       142  -7.9265    166.2967     78.5978   6.7992724259e+01   3.2642437622e+01    0.2065185    0.1466558  45.31 0.0006896507    1.432    0.302
       143  -9.1800    130.1001     57.8786   6.9930765918e+01   4.5100573171e+01    0.6534886    0.2145435 -39.82  0.001840115    3.014    0.668
       144  -9.7514    127.5246     75.6755   7.6449176722e+01   4.2439928220e+01    0.5143928    0.2947322 -54.38  0.001498861    2.137    0.532
       145  -9.2341    129.9935     68.6454   7.3538384920e+01   4.3211897881e+01    0.6047084    0.3020648  29.97  0.001993527    3.183    0.686
       146  -7.9223    130.4690     64.9640   7.2207570749e+01   4.3773512784e+01     0.255317    0.2174097 -78.69 0.0006133856    1.445    0.308
       147  -8.4959    156.8929     76.6508   6.9488201098e+01   3.5316768058e+01    0.2588764    0.2115609 -26.56 0.0004702371    1.272    0.214
       148  -8.4253    119.7085    230.9172   1.0994296803e+02   1.1308425688e+01     0.246643    0.1447292  47.77 0.0007834237    1.395    0.283
       149  -9.9459     81.6225     72.3569   8.9256185212e+01   5.2149974048e+01     0.455395    0.3205352 -66.54 0.0009738657    1.851    0.460
       150  -9.0863     83.5450     64.5576   8.6088878292e+01   5.3419744719e+01    0.5535063    0.3467117  -9.80  0.002312792    2.477    0.596
       151  -8.2389      9.6731     60.2185   1.1262223662e+02   6.2624665209e+01     0.360719    0.1851378 -88.47   0.00161595    3.260    0.693
       152  -9.9781     15.8566     70.6793   1.1251283177e+02   5.9971615183e+01    0.5281322    0.1761901 -57.77  0.001231898    2.112    0.527
       153  -9.9284     16.9465     61.1005   1.0997268545e+02   6.1994122879e+01    0.6576575      0.24292 -54.10  0.003186687    1.945    0.486
       154  -9.2802    114.7451     72.7073   7.9050806231e+01   4.5808530717e+01    0.4993865    0.3698067 -78.33  0.002207925    2.051    0.512
       155  -8.0558    116.3053     68.3778   7.7191488277e+01   4.6311461616e+01    0.2390941    0.1850851 -10.71 0.0006329941    1.491    0.329
       156  -8.0389    162.8312     73.1096   6.7101263108e+01   3.4488809670e+01     0.238692    0.2040031 -69.75 0.0006673157    1.306    0.234
       157  -7.5898    175.5063     72.4887   6.4282755879e+01   3.1425920771e+01    0.1548596     0.148711 -70.66 0.0008100553    1.050    0.047
       158  -8.2656    169.5033     71.0314   6.5067382135e+01   3.3185448549e+01    0.2336777     0.150668 -37.39 0.0005792868    1.537    0.349
       159  -9.3687    147.0173     69.3510   6.9519481027e+01   3.9052926231e+01    0.4383281     0.285687 -55.84 0.0008932251    1.843    0.457
       160  -7.9311    147.2859     63.8483   6.7705190819e+01   3.9954870254e+01    0.3114854    0.1893041  29.92   0.00122879    2.142    0.533
       161  -8.5349    156.9391     68.9187   6.7110803544e+01   3.6692247088e+01    0.4755004     0.223443 -21.95  0.001159705    3.294    0.696
       162  -9.8001     94.7136     68.1133   8.3612075725e+01   5.0712764979e+01    0.4688542    0.2572387 -49.52 0.0009306714    1.897    0.473
       163  -9.4897     97.3644     58.4300   7.9470761348e+01   5.2064865891e+01    0.7546592    0.4768534 -28.29  0.003506258    1.642    0.391
       164  -9.2357    138.1838     65.1379   7.0307008827e+01   4.1929444739e+01     0.668956    0.3117686 -27.38  0.001644201    2.628    0.619
       165  -9.1069    208.2472     66.1224   5.6684374253e+01   2.4300222889e+01     0.354505    0.2510416 -27.37  0.001041527    1.466    0.318
       166  -8.3184    123.2443     40.8081   6.5673857580e+01   4.9414479985e+01    0.5072078    0.2612921  22.49  0.001666835    3.651    0.726
       167  -9.1154    118.0618     55.4291   7.2289980196e+01   4.8268953442e+01    0.4087468     0.314103 -74.49 0.0007367723    1.868    0.465
       168  -9.0678    120.9016     47.4945   6.8704116362e+01   4.8935770172e+01    0.5685075    0.3148493 -16.29  0.001394482    2.459    0.593
       169  -9.0052    121.0680     65.8996   7.5035998705e+01   4.5735138659e+01    0.3515602    0.2519009 -52.60 0.0006656668    1.568    0.362
       170  -8.4112    122.1853     61.0177   7.3087911639e+01   4.6370793284e+01    0.3257143    0.2419049  20.51  0.001072766    1.570    0.363
       171  -8.3373     75.4795     66.7473   8.9564834671e+01   5.4303311599e+01    0.2578152    0.1295462 -50.04  0.000848052    1.930    0.482
       172  -8.1863    170.5518     65.0270   6.3050749123e+01   3.3941101255e+01     0.228963    0.1497271 -35.19 0.0003590615    1.529    0.346
       173  -7.9984    157.7915     63.0811   6.5105494810e+01   3.7481852306e+01    0.2345793    0.2021195 -62.51 0.0005577969    1.261    0.207
       174  -8.2298    229.4943    221.0994   8.7710760455e+01  -5.1753391525e+00     0.181744    0.1409421  31.12 -0.0002639152    1.218    0.179
       175 -10.2172     85.2200     48.1110   7.9685054942e+01   5.6204124112e+01    0.4068471     0.328162 -76.29  0.001063457    1.925    0.481
       176  -8.7964     80.0936     46.5204   8.0844870048e+01   5.7394153843e+01    0.4146351    0.2167321 -34.27  0.001007829    1.835    0.455
       177  -9.8267     73.1201     59.2749   8.7913907193e+01   5.6175949756e+01    0.4597254    0.2790388 -56.81  0.000954158    1.982    0.496
       178  -9.4378     74.3138     51.7637   8.4840332118e+01   5.7422165205e+01    0.6841734     0.397467  -6.15  0.002675768    3.080    0.675
       179  -9.2288     49.4003     61.5034   9.7423101748e+01   5.8967517303e+01    0.3109974    0.1194965 -56.78 0.0007531435    2.670    0.625
       180  -8.1344    164.4981     60.2109   6.2801555424e+01   3.6267308130e+01    0.2448543    0.2081657 -82.95 0.0009622385    1.321    0.243
       181  -7.7680    152.5238     59.6121   6.5158141449e+01   3.9376148063e+01    0.3166334    0.1497439 -34.51  0.001197727    2.127    0.530
       182  -8.1788    146.5148     58.9989   6.6315460896e+01   4.0965856516e+01    0.2844138    0.2179953 -58.83 0.0008004778    1.511    0.338
       183  -8.4651    147.8301     54.2366   6.4458392364e+01   4.1417495244e+01    0.4228385    0.2338283 -26.01  0.001352749    2.013    0.503
       184  -8.7623    138.8931     56.7467   6.7365248229e+01   4.3199013081e+01    0.3132169    0.2074243 -44.10 0.0004601745    1.579    0.367
       185  -8.1938    139.2585     51.7661   6.5603179488e+01   4.3918598509e+01    0.3186835     0.194287  41.37 0.0009332269    1.680    0.405
       186  -8.4345    142.1259     48.6742   6.3892135018e+01   4.3699154830e+01    0.2713844    0.2139653 -20.49 0.0003975526    1.345    0.257
       187  -9.2447     44.2983     53.7225   9.6970014788e+01   6.1145579280e+01    0.3437813    0.1959658 -35.78 0.0001645727    1.599    0.375
       188 -10.0459     50.0476     54.6020   9.4979921942e+01   6.0304236343e+01    0.3946415    0.3207359 -79.06    0.0013619    1.745    0.427
       189  -9.9788     55.9004     43.7799   8.8846448345e+01   6.1638365276e+01     1.111258    0.5753302  -2.54  0.003623904    5.116    0.805
       190  -7.7722    169.0000     54.6240   6.0181281866e+01   3.6009829582e+01    0.3427032   0.08631971 -32.04 0.0009477228    4.040    0.752
       191  -7.7963    157.5726     55.2145   6.2664268216e+01   3.8821801603e+01    0.2151405    0.1497239 -17.79 0.0009585368    1.669    0.401
       192  -8.9954    162.8845     53.4195   6.1007137185e+01   3.7756328603e+01    0.3958592    0.2143833 -30.13  0.001234525    1.927    0.481
       193  -9.2014    105.5306     51.7798   7.4585482117e+01   5.1598507100e+01    0.6505747    0.2743118 -34.49  0.001903769    2.385    0.581
       194  -9.0184    139.3542     40.0661   6.1566465404e+01   4.5651886320e+01    0.4942941    0.3919839 -88.76  0.001799159    1.561    0.360
       195  -9.6749    130.5245     46.3213   6.5827566957e+01   4.6871532788e+01    0.9651468    0.3930719 -20.69  0.002490711    4.051    0.753
       196  -8.5535    133.0041     35.9840   6.1567098539e+01   4.7772933969e+01    0.3296898    0.2078055 -31.77 0.0006107173    1.630    0.387
       197 -10.8628    134.0375     31.0427   5.9562488890e+01   4.8175951075e+01    0.3656361    0.2801017   7.59            0    1.487    0.328
       198  -7.1342    172.4945     50.5092   5.8258737935e+01   3.5741622619e+01    0.1489386    0.1444645  83.69 -0.0001409216    1.007    0.007
       199  -8.4534    156.8603     45.1660   5.9574982892e+01   4.0529676649e+01    0.3210399    0.1975152 -44.91 0.0003452188    1.723    0.420
       200  -9.2165    149.9995     47.9902   6.1923286419e+01   4.1845395196e+01    0.3765161    0.2003496 -38.26   0.00101233    1.901    0.474
       201  -9.0244    153.3793     40.9449   5.8891076617e+01   4.2016757004e+01    0.3648689    0.2279954 -31.30  0.001294936    1.649    0.394
       202  -8.6488    111.9946     46.9574   7.0947434016e+01   5.1015101656e+01     0.260018    0.1982264 -30.15 0.0004766786    1.303    0.233
       203  -9.0666    113.5073     41.9844   6.8685406657e+01   5.1458704143e+01    0.3627314    0.1995073  21.29  0.001335414    2.915    0.657
       204  -7.2545    162.5012     46.5041   5.8893850339e+01   3.8895696694e+01    0.1517655    0.1402712 -77.51 0.0008076423    1.127    0.113
       205 -10.0521     10.2679    207.5507   1.2859916399e+02   2.9902385608e+01     0.427378    0.2833939  25.93  0.002914621    2.145    0.534
       206  -9.1325    227.9361    203.4987   8.4878850951e+01  -2.5751462856e+00    0.2618035    0.2297995  72.15 0.0009479434    1.851    0.460
       207  -8.4031    194.1757    198.5085   9.0335189556e+01   3.9927889284e+00    0.2888676    0.2028127 -59.70  0.001480589    2.102    0.524
       208  -8.7893    191.4434    193.0885   8.9888341688e+01   5.3747152392e+00     0.425624    0.2541848 -62.05  0.001787281    3.075    0.675
       209  -8.9458    216.0183    197.9900   8.6053634546e+01   2.2455611497e-01    0.2089997    0.1894458  12.90 0.0003811493    1.126    0.112
       210  -8.9550    216.9169    193.3260   8.5012110168e+01   7.6995832647e-01    0.2260461    0.1887853   8.63 0.0002429912    1.065    0.061
       211 -10.4682    247.2772    196.0025   8.0073070088e+01  -4.6606552595e+00    0.2278305    0.1937377   7.71 0.0001995052    1.108    0.098
       212  -9.0867     84.7891     21.7949   6.9125330237e+01   6.0295405514e+01     0.283504    0.2269815 -21.67 0.0006331244    1.228    0.186
       213  -8.9098     40.0002     34.7682   9.2039369050e+01   6.5243281467e+01     0.334442     0.259392  31.41  0.002140064    1.522    0.343
       214  -9.9531     37.7963     41.9708   9.5678805237e+01   6.4151562164e+01    0.3928767    0.3015515 -76.88  0.001666825    2.056    0.514
       215 -10.1651     35.8882     37.9968   9.5068310599e+01   6.5097932772e+01    0.3340014    0.1961844 -35.44 0.0003605182    1.437    0.304
       216  -9.2102    110.3146     33.1685   6.6208547173e+01   5.3448979878e+01    0.3987868     0.237772 -35.62 0.0009799412    1.725    0.420
       217  -8.5754    217.3951    188.5782   8.4015522594e+01   1.4114836865e+00    0.2443644    0.1988422  11.99 0.0003563079    1.116    0.104
       218  -9.2103    104.9586     41.2471   7.0834814590e+01   5.3432197186e+01    0.3647864    0.2620352 -58.22 0.0009086559    1.912    0.477
       219  -8.3328    106.0653     36.4603   6.8673423060e+01   5.3912570279e+01    0.3445034    0.2142497  21.88  0.001064596    1.975    0.494
       220  -8.8546     53.5453     37.5080   8.7378892225e+01   6.3081440568e+01    0.4331178    0.1670516 -37.62  0.001847136    2.370    0.578
       221  -8.9357    144.1835     36.5499   5.9303625673e+01   4.4939214841e+01    0.2804349    0.2129074 -49.79 0.0006163653    1.458    0.314
       222  -8.8626    118.9079     34.6685   6.4507783823e+01   5.1295036971e+01    0.3351227    0.2006168 -25.34 0.0008670206    1.744    0.427
       223  -7.4154    227.0542    188.7629   8.2264550047e+01  -3.0356572027e-01    0.1636965    0.1019973  38.80 0.0003804688    1.534    0.348
       224 -10.3108    185.1674    184.6193   8.9569450852e+01   7.9889870302e+00    0.2427687    0.2357316  22.39 0.0004621615    1.115    0.103
       225  -8.2678    137.6324    185.0376   9.9773487875e+01   1.6849575986e+01    0.2086122    0.1725028  55.55 0.0003594471    1.144    0.126
       226  -8.4088    243.8504    183.9193   7.8329461214e+01  -2.4366355775e+00     0.204984    0.1800689  29.70 0.0006396314    1.276    0.216
       227  -9.1427     70.4890    181.1942   1.1424471976e+02   2.8575044504e+01    0.2105412    0.1860758  70.31 0.0003299925    1.099    0.090
       228  -8.8106    205.9684    168.4672   8.2174990068e+01   6.8068239573e+00    0.2337051     0.196328 -29.81 0.0001461403    1.199    0.166
       229  -8.4446    153.0811     34.9406   5.6958543884e+01   4.2908787965e+01    0.3115112     0.191138  59.51  0.001061283    1.540    0.351
       230 -10.1684      4.8140     42.0193   1.1024049856e+02   6.6681422855e+01     0.553901    0.2602297 -56.15  0.002024796    1.572    0.364
       231  -9.2368    101.1854     32.0259   6.8341179719e+01   5.5588907366e+01    0.3984172    0.2101556 -41.84  0.000703994    2.118    0.528
       232  -7.9268    230.4807    167.4670   7.7354556302e+01   2.3559397122e+00    0.1362791    0.1211094  -1.09 -2.313132e-06    1.033    0.032
       233  -9.3601     87.8532     56.6736   8.1929526392e+01   5.4180187100e+01    0.8432421    0.3626462 -35.36  0.003289256    2.364    0.577
       234  -9.2384     91.3904     26.2292   6.8924811218e+01   5.8405861461e+01    0.4104162    0.2483059 -48.47  0.001390843    2.224    0.550
       235  -8.5513     92.2273     20.9790   6.6444817813e+01   5.8911915382e+01    0.3106494    0.1822602  29.12 0.0009007654    1.784    0.439
       236  -9.5088    150.7139     25.6276   5.4285655293e+01   4.4676335646e+01    0.3869323    0.2258142 -87.34  0.001526219    2.632    0.620
       237  -7.8714    191.4938    166.4570   8.4655967328e+01   1.0005502537e+01    0.1430578    0.1344613  20.03 2.970022e-05    1.036    0.034
       238  -9.0676    144.2257     25.0407   5.5319575612e+01   4.6386205781e+01    0.3533046    0.2102756 -21.95  0.001059371    1.843    0.457
       239  -8.4472    154.5413     22.5211   5.2554752185e+01   4.4061845976e+01    0.1423763    0.1318156  56.32 5.308361e-05    1.018    0.018
       240  -7.5621    140.2737     22.6597   5.5264093272e+01   4.7653054706e+01     0.141601    0.1062958 -61.68 0.0002956244    1.612    0.380
       241  -9.0001    139.3971     18.6045   5.4000249674e+01   4.8324221354e+01    0.3739233     0.235426  -2.40  0.001589054    2.005    0.501
       242  -8.7845     70.9119    165.7332   1.1217892974e+02   3.1996587044e+01    0.2183271    0.1686635 -82.61 0.0002679642    1.181    0.154
       243  -7.0697    133.7581    161.9959   9.6515551045e+01   2.2384490939e+01    0.1672576    0.1238108 -52.97 0.0001883537    1.399    0.285
       244  -8.3475    133.9551    146.5892   9.3362547687e+01   2.5722981302e+01    0.5253599     0.204322 -59.75  0.001552334    3.938    0.746
       245  -9.3253    237.0891    146.1978   7.1607095104e+01   4.5300810657e+00    0.3589936    0.1675646  36.65  0.001490919    2.391    0.582
       246  -8.9092    132.7877     17.1736   5.4796628416e+01   5.0113655539e+01    0.2335373    0.2163125  37.92 0.0007051993    1.030    0.029
       247  -8.3531    129.0069     16.0079   5.5145180657e+01   5.1160828555e+01    0.2528878    0.2169528 -68.89 0.0003653668    1.384    0.278
       248  -7.3011    225.0287    144.2136   7.3293681975e+01   7.2052871331e+00    0.1757643    0.1137144  43.64 0.0008411992    1.597    0.374
       249  -8.6964    112.4729     15.6168   5.8716068070e+01   5.5115827795e+01    0.2531081    0.2103128 -50.64 0.0006861147    1.459    0.315
       250  -9.3111     66.7515    143.9467   1.1003839977e+02   3.7666340870e+01    0.4747021    0.2795276  61.75  0.002256628    1.947    0.486
       251  -7.0106    163.3108    141.2642   8.5236379991e+01   2.0780051327e+01    0.1501501    0.1197666   9.30 0.0002065331    1.536    0.349
       252  -8.6077    112.4204    134.0881   9.6140579612e+01   3.2712224624e+01    0.3710772    0.2646779  79.25 0.0009573617    1.851    0.460
       253  -8.9529    135.7736    132.2508   8.9733240089e+01   2.8546472336e+01    0.5492601    0.2111139 -47.63  0.001873977    2.598    0.615
       254  -9.2291    132.4770    131.9410   9.0489903731e+01   2.9291861637e+01    0.4331963    0.2699972 -75.00  0.001626415    2.578    0.612
       255  -7.4969    189.5232     15.4724   4.5223312963e+01   3.5851494175e+01    0.1376439    0.1257672  73.97 0.0001305796    1.065    0.061
       256  -7.9637    167.7575     14.9827   4.8002009759e+01   4.1490937159e+01    0.1821248    0.1763624 -86.69 0.0002251317    1.068    0.063
       257  -8.7830     83.3877    131.9710   1.0350205856e+02   3.8146884274e+01     0.545341    0.3074748  67.75  0.002150508    2.708    0.631
       258  -7.9817    142.3609    132.1879   8.8085764311e+01   2.7187128258e+01    0.2810549     0.234685  51.85  0.001398239    1.206    0.171
       259 -10.6486     70.5508    126.1894   1.0596147241e+02   4.1409994728e+01    0.6682574    0.6330229 -51.14  0.001608608    1.144    0.126
       260 -10.1951     58.3462    124.6359   1.0912233903e+02   4.3379425854e+01    0.8128406    0.4255512  76.63  0.002508102    3.493    0.714
       261  -9.8105     98.5527    128.5916   9.8671702946e+01   3.6482349222e+01    0.6291041    0.3806292  75.11  0.002230293    2.797    0.643
       262  -8.1018    160.7640    129.0069   8.2925152759e+01   2.3892236593e+01    0.3599437    0.1821836 -46.75  0.001376971    2.012    0.503
       263 -10.7185    123.6218     90.6785   8.2077884274e+01   4.0250768723e+01     1.300482    0.6078427 -33.65  0.002835754    2.560    0.609
       264 -10.0935    109.0805    114.9620   9.2652263533e+01   3.7778996912e+01    0.8450543    0.5383361 -89.66  0.001872084    2.939    0.660
       265  -9.5851    110.5944     90.2043   8.5616732124e+01   4.3047134793e+01     1.028982    0.5586398  20.96  0.003358578    3.588    0.721
       266 -10.0517    117.0740    125.4539   9.2977911251e+01   3.3830969211e+01    0.7455832    0.4696079  72.63  0.001717981    2.541    0.606
       267 -10.8062    109.1545    101.0980   8.9075843438e+01   4.0927907074e+01     1.085887    0.8219002 -85.85  0.004983146    1.799    0.444
       268  -9.9851    139.4496    104.6061   8.1823669028e+01   3.3828022940e+01    0.7338864    0.4246844 -43.32 0.0007166352    1.705    0.413
       269 -11.3099    121.4115    109.5499   8.7896167023e+01   3.6593675412e+01     1.460474    0.7904817 -44.37  0.003910763    1.814    0.449
