#   1 NUMBER                 Running object number                                     
#   2 MAG_AUTO               Kron-like elliptical aperture magnitude                    [mag]
#   3 X_IMAGE                Object position along x                                    [pixel]
#   4 Y_IMAGE                Object position along y                                    [pixel]
#   5 X_WORLD                Barycenter position along world x axis                     [deg]
#   6 Y_WORLD                Barycenter position along world y axis                     [deg]
#   7 A_WORLD                Profile RMS along major axis (world units)                 [deg]
#   8 B_WORLD                Profile RMS along minor axis (world units)                 [deg]
#   9 THETA_WORLD            Position angle (CCW/world-x)                               [deg]
#  10 FWHM_WORLD             FWHM assuming a gaussian core                              [deg]
#  11 ELONGATION             A_IMAGE/B_IMAGE                                           
#  12 ELLIPTICITY            1 - B_IMAGE/A_IMAGE                                       
         1 -15.7029     27.5863     70.6548   1.0193601417e+02   5.9455002843e+01     3.148707     1.660273 -49.73   0.01636476    1.504    0.335
         2 -14.9395     48.4367     89.2098   9.8690366277e+01   5.3251911009e+01     2.289711      1.22516 -66.51   0.01015744    2.100    0.524
         3 -14.2138     82.8569     48.9117   7.3245729203e+01   5.6442803490e+01     1.569512    0.9121261 -46.56   0.00726365    2.003    0.501
         4 -15.1480     71.2303     43.7015   7.5408558096e+01   5.9342365402e+01     2.640741     1.581352 -33.90   0.01336543    1.589    0.371
         5 -14.0351     52.7198     46.8450   8.3932794654e+01   6.1605675463e+01     1.454116    0.8734226 -24.87  0.007459025    1.637    0.389
         6 -14.3141     16.8979      8.4648   8.4461552627e+01   7.1986953979e+01     1.496583    0.7945932  10.80  0.006763041    1.907    0.476
         7 -14.2473    186.9940     12.2184   3.8511636831e+01   3.7100737592e+01     1.773845    0.5957705  61.09    0.0073265    2.536    0.606
         8 -14.2031    163.5255      5.7085   3.9520945009e+01   4.3356129300e+01     1.734389    0.9380202  86.31  0.008211778    2.033    0.508
         9 -13.5594    193.9180      4.1084   3.5697837630e+01   3.6246107748e+01     1.578036    0.4990891  73.33  0.006253381    2.923    0.658
        10 -12.2680     54.8124     11.2333   6.7540666284e+01   6.6613600368e+01    0.4644187    0.3044902   6.12  0.002719558    1.453    0.312
        11 -12.7878     56.1038      3.9887   6.3423572224e+01   6.7176693430e+01    0.6931538    0.4061476  26.42  0.003959037    1.518    0.341
        12 -11.3009     89.2313      3.1543   5.2372525211e+01   6.0870400148e+01    0.5521176    0.1487747  47.21  0.002156684    2.805    0.644
        13 -11.5661    223.5476    219.7135   8.1330742698e+01  -3.6766790455e+00     0.260207    0.2084577   7.61  0.001685387    1.035    0.034
        14 -12.4564    186.2945    248.4192   9.3113259799e+01  -2.3392750904e+00    0.4524646     0.279632  33.54  0.002264801    1.351    0.260
        15 -10.7218     13.6766    210.5339   1.2387069333e+02   2.7989472074e+01    0.2299011    0.1467095  63.48 0.0008980375    1.303    0.233
        16 -10.5009      1.5253    205.5352   1.2592690089e+02   3.0082427608e+01     0.211429   0.08132763  86.01  0.001037382    2.445    0.591
        17 -10.5625    148.6126    202.4762   9.3648772048e+01   1.1357591880e+01    0.3486705    0.1860027  61.09    0.0012413    3.615    0.723
        18  -9.4594     26.3292    195.3091   1.2025772994e+02   3.0055627862e+01    0.1124244   0.08556141 -47.79 0.0007040334    1.663    0.399
        19 -10.0042     35.6169    192.2814   1.1799838538e+02   2.9794483168e+01     0.133285   0.07496018  62.46 0.0007007419    1.727    0.421
        20 -10.1033    190.9863    190.4803   8.2310034542e+01   6.2576313059e+00    0.2162607    0.1298885  37.05  0.001036115    1.604    0.377
        21 -11.8055      8.8099    186.5911   1.2333575597e+02   3.3550203901e+01    0.4146889    0.2521141 -67.88  0.002199969    1.499    0.333
        22 -15.3809     67.2339    195.4514   1.1122621094e+02   2.5397542317e+01     3.089819     1.525249  58.67   0.01396858    2.278    0.561
        23 -11.5723    151.6914    210.3773   9.4281471840e+01   9.3322284406e+00    0.3260074    0.2579858 -24.47  0.001842403    1.413    0.292
        24 -14.4024     72.5388    182.9765   1.0844615461e+02   2.7538058049e+01     1.474063    0.9268929  44.82  0.007362873    1.539    0.350
        25 -12.4010     20.7195    153.7042   1.1783437736e+02   4.0167402232e+01    0.6474235    0.5766769  80.66  0.003743312    1.124    0.111
        26  -9.9810    198.6710    149.6803   7.2121022425e+01   1.2428945095e+01    0.1543822    0.1111962  -0.02 0.0007047799    1.687    0.407
        27 -11.7835    108.1658    147.9928   9.3395628807e+01   3.0399167272e+01    0.4461397    0.2651218  31.82  0.001920255    1.812    0.448
        28 -12.5555    106.3470    141.8583   9.2606575334e+01   3.2181467949e+01    0.8007551    0.7154242  11.05  0.004251138    1.228    0.186
        29 -15.6446    136.4632     65.0450   6.3254774299e+01   4.2436097591e+01     2.745893     1.575696  45.38     0.011864    1.709    0.415
        30 -14.9137    148.0871    104.9154   7.2268793277e+01   3.2218820391e+01     2.161235     1.345463 -66.99  0.007931292    2.658    0.624
        31 -15.9968    135.0371     94.4810   7.2642304179e+01   3.7244678235e+01     3.052552     2.567218  23.40   0.01402944    1.257    0.204
        32 -10.2320      2.0340    250.5079   1.2787611946e+02   2.1341304245e+01    0.1469637   0.08158322  42.34  0.001035655    1.600    0.375
        33 -15.0885    134.7170    116.5480   7.8827457509e+01   3.2611272988e+01     2.418764     1.673551 -56.88   0.01062575    1.617    0.382
        34 -14.8877     40.7975    108.6844   1.0558010069e+02   4.9397522448e+01     2.096879     1.533446  37.12   0.01178803    1.570    0.363
        35 -11.9120    181.0363     88.1483   6.0303286548e+01   2.7897109094e+01     0.321593    0.2825434 -77.11  0.001675859    1.277    0.217
        36 -10.1834    182.5437    129.4818   7.0724677684e+01   1.9662576119e+01    0.1529132    0.1446384 -24.74 0.0002424252    1.028    0.027
        37 -10.4234      6.7845     83.9607   1.1274360349e+02   5.7788802643e+01    0.3475629   0.09140808 -58.34  0.001320409    2.433    0.589
        38 -13.3087    189.0391    115.9546   6.6001911359e+01   2.0911000127e+01     1.480448    0.6626326  31.52  0.004518464    3.886    0.743
        39 -14.2404    185.5539    109.9925   6.5190137835e+01   2.2818973104e+01     1.627515    0.9824707  22.07  0.006157568    2.615    0.618
        40  -9.9926     89.8541     83.8839   8.2784720986e+01   4.8504820576e+01    0.2341119    0.1906825 -21.22  0.001209771    1.220    0.180
        41 -13.4094    104.9645     76.3225   7.5611819425e+01   4.7222647916e+01     1.343248    0.8452474  39.61  0.006111798    1.612    0.380
        42 -13.1284    105.2024     69.6929   7.3369954844e+01   4.8450058910e+01     1.144589     0.672569  65.80  0.004156299    3.221    0.690
        43 -12.7376     98.9011     69.4641   7.5249167928e+01   4.9743227142e+01     1.031127    0.6551683  14.30  0.004365992    2.158    0.537
        44 -10.7445      1.8434    244.2954   1.2766000352e+02   2.2479597687e+01    0.1808272    0.1052749  77.80 0.0008869731    1.340    0.254
        45 -12.5339    177.0195     71.2432   5.6389199164e+01   3.1747999475e+01    0.5402065    0.3313488 -52.93  0.002356129    1.828    0.453
        46 -12.9581    176.5664     64.9582   5.4693865167e+01   3.2868379638e+01    0.7794211    0.3955076  57.88  0.003232952    1.979    0.495
        47 -14.8838    148.8100    130.2177   7.8701237553e+01   2.6660481763e+01     1.985301     1.670491 -22.58  0.009825559    1.235    0.190
        48 -10.2668    208.9816     70.5258   5.0796941230e+01   2.4380339519e+01    0.2124578    0.1383446  59.22  0.001035299    1.606    0.377
        49 -10.3564    240.0056    244.0000   8.2490617074e+01  -9.1571484758e+00    0.1833672    0.0557342  34.57  0.000801649    2.937    0.660
        50 -11.2961      3.3504    221.0365   1.2636930840e+02   2.6777108256e+01    0.3010838    0.2739897 -66.43  0.002455672    1.487    0.328
        51 -11.9843      7.1583    241.5633   1.2665502629e+02   2.2495122501e+01    0.2910381    0.1986937  87.47  0.001983508    1.237    0.191
        52 -10.0319    250.5453     62.9805   4.3655967413e+01   1.6621011103e+01    0.2035872    0.1094531 -37.67  0.001030697    1.600    0.375
        53 -12.2817      2.4615     51.5948   1.0774901239e+02   6.5145783209e+01    0.8131253    0.2080888 -58.39  0.003496724    2.615    0.618
        54 -12.8648      9.6684     46.8904   1.0320222198e+02   6.5743217808e+01    0.5557761    0.4057755 -29.94  0.002392873    1.150    0.130
        55 -11.5528    194.4070     55.5705   4.9108313678e+01   3.0018852884e+01    0.3284557    0.2094868 -72.41  0.001477076    2.037    0.509
        56 -12.2018    249.7887     50.3441   4.0971088342e+01   1.8520179360e+01    0.7045388    0.3452388 -26.42  0.003274955    2.351    0.575
        57 -12.1167    126.4997     43.0001   5.8320916133e+01   4.8155481791e+01    0.4157069    0.3674405  14.78  0.002025183    1.129    0.114
        58 -11.5511    123.4972     40.4989   5.8175123112e+01   4.9194923836e+01    0.4133607    0.2994273   9.65  0.002059186    1.622    0.384
        59 -11.4845     10.6095     21.7762   9.4052883391e+01   7.0412776614e+01    0.2330744     0.177321 -39.71   0.00102815    1.263    0.208
        60 -13.1355     14.2480    235.7529   1.2515521892e+02   2.2916736613e+01    0.5716627    0.4669222  -4.92  0.004150525    2.162    0.537
        61 -11.3312     23.9280     22.1083   8.7127738070e+01   6.9204681360e+01    0.3171928    0.1647047  16.30  0.001742896    1.997    0.499
        62 -13.6366     12.4673    228.0380   1.2507552351e+02   2.4573425911e+01    0.8975485     0.622412  37.17  0.006431015    1.554    0.356
        63 -11.0901    200.5170    238.1145   8.8799371524e+01  -2.9494330970e+00    0.2918525    0.1176114 -39.57  0.001361709    2.726    0.633
        64 -14.6918     92.8636    191.7285   1.0479271156e+02   2.2663554909e+01     2.096026     1.350631 -78.04   0.01039567    1.789    0.441
        65 -12.1452    205.7636    229.0834   8.6315717632e+01  -2.4170884439e+00    0.4346302    0.2210618  25.08  0.002161925    1.892    0.471
        66 -12.0850    216.6348    226.2715   8.3769675815e+01  -3.6112627637e+00    0.6405907    0.2377631  22.84  0.002153256    4.489    0.777
