#   1 NUMBER                 Running object number                                     
#   2 MAG_AUTO               Kron-like elliptical aperture magnitude                    [mag]
#   3 X_IMAGE                Object position along x                                    [pixel]
#   4 Y_IMAGE                Object position along y                                    [pixel]
#   5 X_WORLD                Barycenter position along world x axis                     [deg]
#   6 Y_WORLD                Barycenter position along world y axis                     [deg]
#   7 A_WORLD                Profile RMS along major axis (world units)                 [deg]
#   8 B_WORLD                Profile RMS along minor axis (world units)                 [deg]
#   9 THETA_WORLD            Position angle (CCW/world-x)                               [deg]
#  10 FWHM_WORLD             FWHM assuming a gaussian core                              [deg]
#  11 ELONGATION             A_IMAGE/B_IMAGE                                           
#  12 ELLIPTICITY            1 - B_IMAGE/A_IMAGE                                       
         1 -13.6773      3.4117    124.5894   1.2881842016e+02   4.8473030448e+01      1.29928     0.303523 -73.88  0.005665087    3.090    0.676
         2 -13.2967    204.2742     33.3952   5.5846329689e+01   2.9698367709e+01     1.355822     1.105704  44.66  0.006825794    1.279    0.218
         3 -13.5081      2.5311     16.9830   1.1269007451e+02   7.1730235873e+01     1.253921    0.4651744 -66.60  0.006129216    2.494    0.599
         4 -13.0157      4.0113      4.4227   1.0723704161e+02   7.4060335684e+01    0.8838148    0.4983547 -66.06  0.005306279    1.946    0.486
         5 -13.7434    221.0725     15.5074   4.8678607588e+01   2.7399281715e+01     1.136279    0.9130309  30.59  0.003371187    1.446    0.308
         6 -12.1751    165.6233    242.9781   1.0794027749e+02   6.1715536199e+00    0.3609107    0.2087644  47.65   0.00237104    1.368    0.269
         7 -11.4375    184.3841    249.9776   1.0567720541e+02   2.5762744623e+00    0.3814592    0.1261734  37.23  0.001814546    2.416    0.586
         8 -12.3407    179.9365    243.5137   1.0563905883e+02   3.9473770724e+00    0.5291438    0.1507942  38.79  0.002388312    2.777    0.640
         9 -10.9261    175.0210    250.2509   1.0722104574e+02   3.9331782020e+00    0.2565676   0.09556933  39.76  0.001383113    1.968    0.492
        10 -11.2252    161.9075    249.9569   1.0932060195e+02   5.9077214483e+00    0.3209344    0.1337022  43.46  0.001850812    1.720    0.418
        11 -11.0451    144.1387    249.6532   1.1219606495e+02   8.5549459171e+00    0.3318216    0.1438572  53.52  0.001837709    2.174    0.540
        12 -12.3516    135.5055    236.7689   1.1233973167e+02   1.1491022736e+01    0.8756547    0.3767776 -63.38  0.004512035    3.747    0.733
        13 -13.2008    125.8761    245.8639   1.1484427957e+02   1.1681465483e+01    0.9056196     0.541366  51.37   0.00577382    1.263    0.209
        14 -11.6700    116.2650    248.9987   1.1670572526e+02   1.2622815785e+01    0.4412451    0.3387954  64.70  0.003548261    1.221    0.181
        15 -11.0229    109.9074    247.7096   1.1763845999e+02   1.3678032467e+01    0.2942159     0.188822  49.87  0.002166216    1.110    0.099
        16 -11.5954    100.0298    247.8363   1.1926318461e+02   1.5004717245e+01    0.4956428    0.2587823  47.90  0.003023093    1.361    0.265
        17 -10.6444     96.9266    239.2307   1.1909750737e+02   1.6647144249e+01    0.2692532    0.1493109  60.63  0.001167878    1.557    0.358
        18 -11.5145    113.4831    230.9982   1.1555882109e+02   1.5537164494e+01    0.3744569    0.2982783  14.52  0.002592964    1.930    0.482
        19 -12.4217    102.4829    238.6268   1.1811553355e+02   1.5976315476e+01    0.4435331    0.4056106  56.13  0.001417212    1.341    0.254
        20 -11.5674     87.2868    248.4263   1.2137254282e+02   1.6601590353e+01    0.4433033      0.22657  49.82  0.001861476    1.376    0.273
        21 -10.2190     81.3776    248.0841   1.2229956662e+02   1.7407069220e+01    0.2371365    0.1493796 -81.25  0.001169245    1.805    0.446
        22 -10.6134     84.3400    229.9948   1.2050041385e+02   1.9716959097e+01    0.2350296    0.1797156 -61.87 0.0009903545    1.722    0.419
        23 -12.2574     88.4784    239.3080   1.2051354789e+02   1.7763890494e+01    0.6337443    0.3780189  68.50  0.003469697    1.563    0.360
        24 -10.4059     82.3728    239.6840   1.2155394364e+02   1.8504056725e+01     0.257245    0.1565682  76.73  0.001409806    1.645    0.392
        25  -9.7159     56.5610    250.2508   1.2634908945e+02   2.0104998556e+01    0.1570802    0.1394245  63.62  0.001152699    1.466    0.318
        26 -11.1622     60.1282    245.8579   1.2554930301e+02   2.0332601122e+01    0.4075987    0.1862106  57.01  0.002748667    1.602    0.376
        27 -11.0872     68.1617    245.4039   1.2424500179e+02   1.9438189347e+01    0.2833462    0.1466704  56.09  0.001084557    1.391    0.281
        28 -12.3157     29.2704    233.7663   1.2982379582e+02   2.5597939246e+01    0.9964587    0.5221332  31.29  0.006620532    2.460    0.594
        29 -12.0205     49.0722    217.2607   1.2569030712e+02   2.6132926413e+01     1.025829    0.4746074  63.70  0.003157343    1.822    0.451
        30 -13.1167      6.4511    215.0967   1.3274143116e+02   3.0838143040e+01     0.932924     0.623637  33.33  0.003963113    1.868    0.465
        31 -13.4389     11.7655    206.1033   1.3151884611e+02   3.1888272326e+01     2.489755     1.073086  33.89   0.01572176    2.455    0.593
        32 -13.0737     26.1811    247.4251   1.3085465597e+02   2.3823870537e+01    0.7905638    0.4256634  41.88  0.006101185    1.641    0.391
        33 -14.3130      6.7005    244.3053   1.3363306596e+02   2.6179838578e+01     2.435654    0.7880157 -84.62   0.01548531    2.866    0.651
        34 -13.1122     23.5632    225.0851   1.3036102874e+02   2.7566196086e+01    0.3124007    0.2753666  55.96 0.0008362083    1.506    0.336
        35 -14.3325     29.2657    218.6160   1.2913143961e+02   2.8054422591e+01    0.9903185    0.9010711  58.51   0.00865692    1.517    0.341
        36  -9.6874     53.6925    240.9672   1.2629901957e+02   2.1814928573e+01    0.1363423   0.09783781  70.19 0.0005859217    1.132    0.116
        37 -12.0392    118.6649    237.1787   1.1524885800e+02   1.3902921626e+01    0.5249993    0.3654574   9.80  0.002836883    3.000    0.667
        38  -9.5324     73.8463    237.8102   1.2283250832e+02   1.9869332807e+01    0.2148463    0.1068255  89.14   0.00131725    2.436    0.589
        39  -9.1904     60.9039    239.0000   1.2502639080e+02   2.1269660264e+01    0.1598086   0.04414725  39.82  0.000790844    2.863    0.651
        40  -9.1552     48.7816    237.4183   1.2689297178e+02   2.2918600267e+01    0.1979897   0.06106076  44.94  0.001126318    2.209    0.547
        41 -10.4284    129.8080    235.5086   1.1318518611e+02   1.2508847552e+01    0.1488103    0.1337195 -61.15  0.001195809    1.480    0.324
        42  -9.5436     54.8230    235.1750   1.2579085726e+02   2.2573442124e+01    0.1705938   0.09812211  61.23  0.001245718    1.277    0.217
        43 -11.9321    143.6324    241.8222   1.1148642187e+02   9.6153531781e+00    0.3200618    0.2919051  -3.47  0.002619819    1.516    0.340
        44 -10.6044    250.2731    230.1474   9.2588549758e+01  -5.1574738831e+00    0.2103418   0.08677726 -29.90  0.001203078    2.796    0.642
        45  -8.6015     45.6504    231.2858   1.2707169889e+02   2.4230371482e+01    0.1095437   0.05051881  60.71 0.0007020919    1.657    0.397
        46  -9.6390     56.5462    228.7219   1.2512258013e+02   2.3388331852e+01    0.1916269   0.08474313 -87.96   0.00111912    2.565    0.610
        47 -11.1012     79.6496    225.9456   1.2099559563e+02   2.0965990134e+01    0.3278331    0.2231636  86.95   0.00213309    1.479    0.324
        48  -9.6240     77.1681    220.8152   1.2103173546e+02   2.2112477266e+01     0.170382    0.1182174  72.57  0.000389927    1.254    0.203
        49 -10.7401    136.1420    224.8000   1.1095180384e+02   1.3056599222e+01    0.2603366    0.1744797 -47.41 0.0009873379    1.981    0.495
        50  -9.7287     92.1950    225.9592   1.1881436169e+02   1.9290968862e+01    0.1754688    0.1130935  62.11 0.0007245368    1.286    0.223
        51  -9.6974    117.3678    224.4496   1.1424039889e+02   1.5941276008e+01    0.2051029     0.179561  25.06 0.0009827357    1.474    0.322
        52  -9.5409     65.0207    224.3235   1.2340077644e+02   2.3076681410e+01    0.2557463    0.1453346 -53.16  0.001621184    2.650    0.623
        53  -9.1002     45.6610    225.2117   1.2673669801e+02   2.5204831774e+01    0.1186985   0.08125801 -79.52 0.0004156816    1.537    0.349
        54  -8.5517    164.4746    224.4584   1.0592723496e+02   8.6572758469e+00    0.1172622   0.08948106  43.47 7.869344e-05    1.036    0.035
        55 -10.9528     98.5988    222.7060   1.1740270781e+02   1.8913969961e+01    0.2513351    0.1782364  54.82 0.0008251651    1.064    0.060
        56  -9.4450     87.4528    223.6728   1.1945348521e+02   2.0293355945e+01    0.1959442    0.1223037  67.54  0.001256648    1.444    0.308
        57 -10.5284     70.4873    219.3117   1.2209267310e+02   2.3214184981e+01    0.3590829    0.1886674 -81.23  0.002261954    2.071    0.517
        58 -10.5346    246.2686    219.5505   9.1590023562e+01  -3.6116498027e+00    0.2624278   0.09113397 -23.49  0.001227298    3.645    0.726
        59  -9.3857    250.3180    220.3329   9.1083605167e+01  -4.2783029495e+00     0.117289   0.06558121  16.39 0.0007048113    1.692    0.409
        60  -9.8216     91.1272    219.6081   1.1845647258e+02   2.0443031674e+01    0.2950899    0.1206298  40.09  0.001321796    2.077    0.519
        61 -10.0202    116.8736    215.6040   1.1341461947e+02   1.7369838516e+01    0.2703604     0.179815  20.95  0.001541676    2.347    0.574
        62  -9.5379     87.4662    212.2588   1.1846678029e+02   2.2149289971e+01    0.2888685    0.1383331  60.65  0.001292893    1.996    0.499
        63 -10.9470     56.2384    209.2024   1.2389683801e+02   2.6671712720e+01    0.4750616    0.2212343 -88.93  0.002515699    2.348    0.574
        64 -10.4621     63.0436    208.9225   1.2264653005e+02   2.5896631715e+01    0.2794419    0.2558469  34.93  0.001478555    1.552    0.356
        65  -9.9773     63.6430    205.2339   1.2225592087e+02   2.6464824800e+01    0.2864448    0.1388982 -67.82  0.001526247    2.167    0.539
        66  -9.5648     99.5182    210.0405   1.1603665241e+02   2.0824994542e+01    0.2578368     0.103267  62.33 0.0008486475    3.609    0.723
        67  -9.7775    111.6095    215.2330   1.1433687845e+02   1.8214844394e+01    0.1251672    0.1081116 -59.29 0.0002733548    1.486    0.327
        68  -8.7439     74.2752    208.3138   1.2054583178e+02   2.4579973916e+01   0.08904166   0.08811904 -27.42 0.0003029582    1.561    0.359
        69 -10.6770    141.4843    219.4119   1.0938396131e+02   1.2998878904e+01    0.2531066    0.2277244  74.25  0.001510655    1.251    0.201
        70 -10.6016    106.8514    203.5371   1.1398368124e+02   2.0834885161e+01     0.211705    0.1707743  84.11 0.0002753866    1.263    0.208
        71  -9.2852     90.9208    204.8466   1.1713411840e+02   2.2924279587e+01    0.2862599    0.1256049  31.06  0.001288198    3.187    0.686
        72 -10.4488     74.7416    200.1374   1.1975714638e+02   2.5949089951e+01    0.1839437    0.1506484  64.14 0.0004321743    1.096    0.088
        73 -11.4973     21.8367    219.6711   1.3040951869e+02   2.8626889660e+01    0.1514047    0.1193231  72.84 0.0004832263    1.224    0.183
        74  -8.7312     83.5276    201.5241   1.1821528456e+02   2.4525871700e+01    0.1179626    0.0883437  63.25 -1.113307e-05    1.061    0.057
        75 -12.0311    103.0288    230.4183   1.1731648551e+02   1.7109591352e+01    0.6242743     0.309678  35.48  0.002070592    2.039    0.510
        76 -11.9843     53.6866    193.6596   1.2323030613e+02   2.9749114926e+01    0.3576303    0.2949691 -77.37 0.0007614359    1.365    0.267
        77 -13.2672     40.7729    243.3667   1.2845593707e+02   2.2898211074e+01     1.026388     0.550465  62.78  0.006834125    1.338    0.253
        78 -10.5016    250.1753    194.4157   8.6832372554e+01  -1.7057854798e+00    0.2141156    0.1502638 -14.79  0.001417834    1.406    0.289
        79  -8.4767     77.6812    193.7330   1.1860368967e+02   2.6710840655e+01   0.09681447   0.09048545  18.66 0.0001806674    1.556    0.357
        80  -9.9180     33.8909    192.8333   1.2690666110e+02   3.2098392718e+01    0.2999655    0.1420128  77.12  0.001114376    1.960    0.490
        81  -9.7463     30.5465    193.4353   1.2756331108e+02   3.2332681552e+01     0.152635    0.1171751  53.34 -3.974347e-06    1.263    0.209
        82  -9.8543     25.8178    192.6518   1.2838982081e+02   3.2951033070e+01    0.1994671    0.1375894  74.20  0.000860817    1.079    0.073
        83  -9.8604     21.6019    192.8501   1.2917239857e+02   3.3325378353e+01    0.2680564    0.1213387  70.17  0.001192927    1.866    0.464
        84  -9.4437    191.5580    191.7199   9.6346888246e+01   8.5023515749e+00    0.1886341    0.1638802   8.94 0.0006455278    1.183    0.154
        85 -10.4787    244.5261    241.4903   9.5110743669e+01  -5.3338210681e+00    0.1077849   0.07484213  24.39  0.000319438    1.002    0.002
        86  -9.2917     40.3262    188.6371   1.2541749522e+02   3.2193000553e+01    0.1478706   0.08835817 -73.89 0.0009772504    1.619    0.382
        87  -8.9212     15.0010    190.0107   1.3023182072e+02   3.4463778527e+01    0.1261809   0.08872031  74.35 0.0004326772    1.031    0.030
        88 -10.1572    250.6452    187.8550   8.5600499548e+01  -1.0860556195e+00    0.2263945    0.1010204 -18.49   0.00109052    2.611    0.617
        89  -9.4959     75.9285    186.8992   1.1828755717e+02   2.8207087538e+01    0.3249946    0.1607541  76.97  0.001389993    2.650    0.623
        90 -10.5931     71.0869    187.0894   1.1927278157e+02   2.8811580019e+01    0.2369462    0.1380678  44.97 0.0003653702    1.499    0.333
        91 -10.8801      9.6157    186.7960   1.3106246021e+02   3.5536485959e+01    0.3091206    0.1322775  77.02  0.001864919    1.972    0.493
        92 -11.8064     60.2076    185.5699   1.2129947227e+02   3.0475251719e+01     0.225398    0.1945105 -88.03 0.0004695907    1.244    0.196
        93  -9.3505    107.0497    185.6548   1.1187027121e+02   2.3931012971e+01    0.1703803    0.1299197  49.11 0.0003706169    1.142    0.124
        94  -9.6777     29.4177    184.4422   1.2723005218e+02   3.4120483472e+01    0.2513871      0.14878 -59.45  0.001089853    2.053    0.513
        95  -9.9537     24.6617    184.1055   1.2811716631e+02   3.4653215329e+01    0.1857979    0.1129498  55.90 0.0009896333    1.321    0.243
        96 -10.7848     37.1689    180.2245   1.2544188143e+02   3.4126826040e+01    0.2486306    0.1542694 -69.39 0.0004619724    1.624    0.384
        97  -9.7655     27.0398    179.7102   1.2739284955e+02   3.5256489446e+01    0.1834158    0.1255915 -85.61 0.0003096099    1.272    0.214
        98  -9.0437     47.3080    179.7725   1.2339007962e+02   3.3106035299e+01    0.1512918   0.09140292  25.79 0.0007376647    2.311    0.567
        99  -9.5907    105.3478    176.0319   1.1099405074e+02   2.5975788214e+01    0.2624968    0.1355217  42.83  0.001221875    1.720    0.418
       100 -11.7418    248.2658    172.1934   8.3088854059e+01   1.0487226120e+00    0.4575484    0.3228047   0.51  0.002817455    1.331    0.248
       101 -10.4775     71.6460    173.5376   1.1780059084e+02   3.1342494136e+01    0.2089381    0.1795603  68.48 0.0002959372    1.104    0.094
       102 -10.4413     56.7412    173.2645   1.2089883821e+02   3.3278015779e+01     0.292468    0.1525378  53.26  0.001681555    1.653    0.395
       103 -10.9577     12.2723    172.8713   1.2987249452e+02   3.7934899261e+01    0.3675923   0.09242925 -69.33  0.001749497    3.298    0.697
       104 -11.2343     12.3814    153.3994   1.2871726224e+02   4.1788696265e+01    0.2778966    0.1435248 -88.06    0.0013329    1.575    0.365
       105 -11.9377     10.1127    157.3855   1.2943912841e+02   4.1167957347e+01    0.5413072    0.1918493  79.50  0.002567776    2.926    0.658
       106 -11.6864      2.4199    172.1802   1.3174247989e+02   3.8884759873e+01    0.4204673    0.2030064  79.49   0.00262103    1.640    0.390
       107 -11.7412     13.0777    167.2116   1.2940153882e+02   3.8967649596e+01    0.3690835     0.208078  32.46  0.001765489    2.014    0.504
       108 -10.5548      4.9893    166.7710   1.3098634619e+02   3.9723968166e+01    0.2929573    0.1428202  32.79  0.001584421    2.231    0.552
       109 -11.3158      8.7384    165.3161   1.3016592965e+02   3.9704557697e+01    0.3148527    0.1453366 -69.26  0.001934229    1.987    0.497
       110  -9.8328     17.9398    172.3242   1.2872905587e+02   3.7540100467e+01    0.1889539    0.1148133  78.43  0.001276951    1.293    0.226
       111 -10.3913     27.5481    171.4841   1.2675598541e+02   3.6803185801e+01    0.2622663    0.1770602 -53.37 0.0005194219    1.977    0.494
       112  -9.5847     51.7601    171.0646   1.2173833888e+02   3.4303511142e+01    0.1879425     0.141542  54.69 0.0006117419    1.202    0.168
       113 -10.8216     44.0354    166.0838   1.2292655067e+02   3.6174572511e+01    0.4416823    0.1952912 -53.11  0.001902949    2.916    0.657
       114 -10.3654     38.8654    167.6606   1.2414690677e+02   3.6414266602e+01    0.1899017    0.1303248  86.26 0.0003522291    1.212    0.175
       115 -11.8546     79.8966    165.5673   1.1512783463e+02   3.1806654668e+01    0.5562782    0.3412836  33.61  0.003087939    1.828    0.453
       116 -10.1786     68.1247    166.2316   1.1776807108e+02   3.3260188604e+01    0.2167322    0.1642154  72.54  0.000450731    1.129    0.114
       117  -8.7129     64.6931    167.2600   1.1861984372e+02   3.3493476911e+01    0.1484485    0.1324784  68.63 0.0004382791    1.176    0.150
       118 -11.9007    245.2437    163.0991   8.1812554767e+01   2.6432541186e+00    0.4406302    0.2361567 -29.71  0.002314544    1.877    0.467
       119 -11.8352    248.9253    159.4044   8.0488904713e+01   2.4426972485e+00    0.6778108    0.2691339 -36.40   0.00302097    2.697    0.629
       120 -11.7567    243.4655    155.2727   8.0533296389e+01   3.9213702405e+00    0.3214061    0.2848926  70.36  0.002011832    1.665    0.399
       121 -10.1595     24.0094    161.9737   1.2682996769e+02   3.9033195918e+01    0.1665372    0.1268644  77.74 0.0003862026    1.013    0.013
       122  -9.1491     66.9369    161.2358   1.1747467980e+02   3.4430266130e+01    0.1620237    0.1404165  -3.86 0.0004212348    1.807    0.446
       123  -9.5015     28.5547    160.9682   1.2579862252e+02   3.8805903822e+01    0.1595628    0.0908289 -80.90 0.0001370247    1.500    0.333
       124  -8.5982     51.3671    158.7151   1.2065419994e+02   3.6853868262e+01    0.1276438    0.0713435  64.98 0.0004636658    1.696    0.410
       125  -8.7826     66.5953    157.2042   1.1708992646e+02   3.5305827439e+01    0.1473746    0.1053688 -65.00 0.0001437518    1.417    0.294
       126  -9.7618     81.2278    156.3834   1.1367598659e+02   3.3491035538e+01    0.1789346    0.1011944  50.60 0.0008322506    1.620    0.383
       127  -8.9052     46.3022    156.3149   1.2154221341e+02   3.7924204047e+01     0.106317   0.08593257 -50.11 0.0002008164    1.616    0.381
       128 -11.1586     26.9942    155.2850   1.2570135847e+02   4.0115536986e+01    0.3137507    0.1193258  49.49  0.001649667    2.290    0.563
       129  -8.6900    228.4103    155.4699   8.3080197008e+01   6.6734591080e+00    0.1304665    0.1137935  12.95 0.0001146928    1.036    0.035
       130 -11.1463    249.5600    151.0074   7.8684742074e+01   3.3524063920e+00    0.4081443     0.254463 -25.82  0.002261798    1.548    0.354
       131 -13.2218    248.0387    101.4578   6.7864506172e+01   1.0097578682e+01     1.427547    0.7120565 -19.37  0.006128906    2.150    0.535
       132 -12.2592    247.8674    142.5293   7.7179667971e+01   4.7215184370e+00    0.6985132    0.5492724  36.21  0.004243938    1.248    0.199
       133 -13.2142    248.0920    134.4827   7.5413292768e+01   5.7104433931e+00     1.418236     0.624073 -26.48  0.006279082    2.220    0.550
       134 -12.9032      9.3011    143.5686   1.2875329616e+02   4.4054248159e+01    0.6145202    0.2025234 -68.61  0.003145442    2.469    0.595
       135 -12.4226      2.9919    144.5913   1.3020679430e+02   4.4314811846e+01    0.5496096    0.2911765  86.20  0.003529012    1.493    0.330
       136 -11.4676      5.8656    141.6620   1.2939519280e+02   4.4708759485e+01    0.2712221    0.1524483  82.34  0.001228329    1.429    0.300
       137  -9.7635     54.1702    151.7731   1.1930126492e+02   3.7975329901e+01    0.2173143    0.1658811 -53.94  0.001398242    1.560    0.359
       138 -10.2324     29.8154    164.9135   1.2582648077e+02   3.7887101032e+01    0.1559602    0.1323555 -87.28  0.000529691    1.231    0.187
       139 -10.8239     93.7934    150.1861   1.0991482049e+02   3.2910383234e+01    0.2889003    0.2353871  42.84   0.00124855    1.263    0.208
       140  -9.7089     81.5736    148.5379   1.1253058500e+02   3.5079661491e+01    0.2860297     0.165109  49.84  0.001508009    1.619    0.382
       141 -11.9732     68.0956    144.0789   1.1511690492e+02   3.7881986816e+01    0.6564148    0.3892702  80.10  0.002634654    1.909    0.476
       142 -10.3814     58.7954    146.9020   1.1767515980e+02   3.8453990287e+01    0.3297447    0.2470405 -11.30   0.00185218    2.441    0.590
       143 -11.8528     21.7886    149.2327   1.2638086436e+02   4.1843028556e+01    0.4452987    0.1545963  43.38  0.002317243    2.502    0.600
       144  -9.6623    235.8124    146.1528   7.9900489530e+01   6.5135470362e+00     0.186967    0.1384424  13.61 0.0005931903    1.309    0.236
       145 -10.1473    133.2456    141.0286   9.9186365894e+01   2.7952253474e+01    0.2875511    0.2295239 -73.38 0.0008150038    1.408    0.290
       146 -11.7041     16.9462    139.9325   1.2676353513e+02   4.4205714551e+01    0.3053034    0.1826792  54.94  0.001221727    1.531    0.347
       147  -9.4781     37.1462    140.1740   1.2205583346e+02   4.2307735517e+01    0.1678621    0.1132816  72.80 0.0004917476    1.320    0.243
       148  -9.7361    107.2207    135.7749   1.0433360507e+02   3.3744667241e+01    0.3448266    0.2417296 -13.22  0.001406721    2.769    0.639
       149 -11.6476     12.9123    127.5373   1.2673519835e+02   4.7166623694e+01    0.2426589    0.1360205  74.75  0.001112086    1.605    0.377
       150 -13.2780      8.8713    111.3472   1.2636849216e+02   5.0970842558e+01    0.6817871    0.2849146 -73.52  0.002098915    1.849    0.459
       151 -10.8877    169.0640    248.9297   1.0804139393e+02   4.9650032058e+00    0.1764851    0.1405115  25.06  0.000685162    1.293    0.226
       152  -9.8618     44.4703    129.9748   1.1913655028e+02   4.3770003464e+01     0.180292    0.1038373 -74.58 0.0004834288    1.519    0.342
       153  -9.7960     58.9767    127.7555   1.1514688153e+02   4.2604375065e+01    0.1710358    0.1479104  83.23 0.0003552572    1.036    0.035
       154 -10.6580     33.2162    127.4679   1.2168869245e+02   4.5455135353e+01    0.3003308    0.1301711  72.49  0.001297552    3.052    0.672
       155 -12.8047     16.9313    121.0946   1.2517293086e+02   4.8255206640e+01    0.6267956    0.2666569  72.19  0.002983647    2.702    0.630
       156 -10.5477    238.5049    121.9794   7.4136437006e+01   9.2577383178e+00     0.273792    0.1667023 -12.64   0.00114607    1.814    0.449
       157  -8.7673     50.3336    122.6738   1.1668544721e+02   4.4748936956e+01     0.132736   0.08225246  71.52 0.0007051409    1.715    0.417
       158 -10.9667     31.5035    117.5015   1.2100453249e+02   4.7819934321e+01    0.3802284     0.110093 -50.53  0.001405976    4.257    0.765
       159 -10.8966    232.0423    116.7538   7.3969898780e+01   1.1319271270e+01     0.248528    0.1947728 -20.30  0.000793993    1.215    0.177
       160  -9.7204    167.7972    113.0093   8.5212137200e+01   2.6150460324e+01    0.3212929    0.2306775 -71.96   0.00139783    2.004    0.501
       161 -10.4694    249.7113    117.9104   7.1462611847e+01   7.5643068577e+00    0.4218856    0.2614943   9.56  0.001833902    2.003    0.501
       162  -9.2572     60.1011    107.8378   1.1170969357e+02   4.6945061641e+01    0.1719147    0.1416072 -47.26 0.0004025282    1.324    0.245
       163 -11.0725     19.2201    105.9997   1.2301577585e+02   5.1412652903e+01    0.1848956    0.1646003  57.18 0.0008008855    1.272    0.214
       164 -12.8621     14.1481    100.5255   1.2383040584e+02   5.3001046803e+01    0.4119348    0.3776089  56.37  0.002296956    1.289    0.224
       165  -8.6252     71.7211    100.2864   1.0692672364e+02   4.7132585188e+01    0.1308345   0.09733827  80.69 0.0002316797    1.517    0.341
       166 -12.2187    247.7325    113.1469   7.0663641953e+01   8.5917905364e+00    0.7373268    0.4992111  20.19  0.003810683    1.621    0.383
       167  -9.2904     94.0035    133.1442   1.0711293188e+02   3.6489602962e+01    0.1815377    0.1771107  -6.97 0.0003221952    1.266    0.210
       168  -9.2396    160.7027     79.3215   7.7675560561e+01   3.3966828327e+01    0.1559082    0.1216593 -72.38   0.00026221    1.620    0.383
       169 -11.6189    149.8665    247.0161   1.1098676772e+02   8.0387910775e+00     0.271001    0.2368497  11.06  0.001719669    1.486    0.327
       170 -10.9535     74.2169    244.0193   1.2318397463e+02   1.8896882075e+01    0.2527608    0.1976418 -75.86  0.002117417    1.571    0.364
       171 -11.2439    198.2863    245.7446   1.0292874729e+02   9.5689971946e-01    0.2378039    0.1117085  35.16   0.00139573    1.633    0.388
