#   1 NUMBER                 Running object number                                     
#   2 MAG_AUTO               Kron-like elliptical aperture magnitude                    [mag]
#   3 X_IMAGE                Object position along x                                    [pixel]
#   4 Y_IMAGE                Object position along y                                    [pixel]
#   5 X_WORLD                Barycenter position along world x axis                     [deg]
#   6 Y_WORLD                Barycenter position along world y axis                     [deg]
#   7 A_WORLD                Profile RMS along major axis (world units)                 [deg]
#   8 B_WORLD                Profile RMS along minor axis (world units)                 [deg]
#   9 THETA_WORLD            Position angle (CCW/world-x)                               [deg]
#  10 FWHM_WORLD             FWHM assuming a gaussian core                              [deg]
#  11 ELONGATION             A_IMAGE/B_IMAGE                                           
#  12 ELLIPTICITY            1 - B_IMAGE/A_IMAGE                                       
         1 -14.9317     10.6921    155.9838   1.3824913317e+02   4.1478711885e+01     7.249127     1.635535 -77.43   0.01878654    6.681    0.850
         2 -12.7043     65.3832    140.9425   1.2111292370e+02   3.9357047300e+01     2.217164     1.153262 -89.39  0.006575588    4.539    0.780
         3 -14.4622     44.5178    203.2730   1.3545873922e+02   2.6676871473e+01     6.596111     2.283215  61.76   0.01015418    5.263    0.810
         4 -13.0356    198.1245     33.6484   6.2408978802e+01   3.2235545050e+01     1.132997    0.9215563  70.10  0.007086893    1.181    0.153
         5 -13.7328    213.8400     16.9917   5.7060996039e+01   3.0707927806e+01     1.235581    0.9766211  34.27  0.007739745    1.978    0.494
         6 -11.5372      1.9124     13.2133   1.1006672171e+02   7.1131089250e+01    0.6503737    0.1378123 -44.67  0.002830613    4.008    0.750
         7 -12.5332     30.4178    224.5066   1.4040809113e+02   2.3512144253e+01    0.3463654    0.2911001 -60.76 0.0007831894    1.473    0.321
         8 -11.4904    139.8954    248.8336   1.2050072189e+02   2.2222017076e+00    0.3937509    0.3250394 -84.72  0.002363648    1.461    0.316
         9 -11.8697    126.5434    244.7708   1.2273176442e+02   5.2041465850e+00    0.4142929    0.2182704  36.45  0.001689854    1.754    0.430
        10 -11.3874    101.5639    246.7670   1.2818540579e+02   8.8560445409e+00    0.6743081    0.2114762 -53.09   0.00258722    3.577    0.720
        11 -11.3380    106.5106    243.4480   1.2675738823e+02   8.7357147959e+00    0.4258325    0.1937688 -52.76  0.001877643    2.479    0.597
        12 -11.7349     93.7543    250.1210   1.3016456791e+02   9.4030744657e+00    0.5931464    0.4136603 -37.58  0.002734986    2.177    0.541
        13 -10.6737     90.6275    246.7437   1.3042292886e+02   1.0560112261e+01     0.277901    0.1947587  82.99  0.001356644    1.496    0.332
        14  -8.8977     62.9294    250.5024   1.3630488349e+02   1.3836121050e+01    0.1836593    0.1050523  44.00 0.0004428735    1.547    0.354
        15 -10.9673     38.8024    246.2275   1.4052790297e+02   1.7873611695e+01    0.5739607    0.3496209  85.60  0.003455867    1.461    0.315
        16 -11.0768     30.5526    248.0891   1.4218494435e+02   1.8491181944e+01    0.4838758    0.4454887  66.14  0.003639454    1.389    0.280
        17 -11.2330     20.3247    244.3480   1.4377622681e+02   2.0434669768e+01    0.6587379    0.1723225  51.75  0.002540641    3.094    0.677
        18 -12.0674     12.4924    238.8029   1.4482308085e+02   2.2430996757e+01    0.6587891    0.3007531 -88.45  0.002688446    1.938    0.484
        19 -10.4529     17.6607    250.1515   1.4461966369e+02   1.9552689178e+01     0.377831      0.15459  38.67   0.00203054    2.332    0.571
        20  -9.2619      8.2447    250.5886   1.4626829440e+02   2.0482666561e+01    0.1291291    0.1022207  38.28 0.0003920976    1.633    0.388
        21 -10.0250      1.5132    238.9846   1.4677242965e+02   2.3515310830e+01    0.2948309   0.09031489 -83.62  0.001308627    3.030    0.670
        22 -10.3125      2.2508    249.5126   1.4722189969e+02   2.1316047366e+01    0.2421057    0.1946913  66.24  0.001480686    1.249    0.199
        23 -10.4769     19.3970    234.2969   1.4326376333e+02   2.2633864131e+01    0.2236442    0.1737666 -53.64 0.0007048462    1.758    0.431
        24 -10.9049    151.7615    229.3083   1.1506373022e+02   3.9380934260e+00    0.4345737    0.1713551  46.24  0.001669379    2.490    0.598
        25 -13.0090     10.5282    206.8821   1.4297877063e+02   2.9556770200e+01    0.7669556    0.5164855  34.72  0.002769386    1.745    0.427
        26  -9.5357    191.7436    192.4770   9.9787683874e+01   4.0926356339e+00    0.4608986    0.2450628 -68.95  0.001189756    6.606    0.849
        27 -11.4831     58.5006    192.4426   1.3099326880e+02   2.7473801044e+01    0.4072859    0.2670517 -44.73   0.00127514    1.872    0.466
        28 -10.5537    226.4765    201.8846   9.4692895484e+01  -3.7321463881e+00    0.4563537    0.2647519 -59.03  0.001297226    2.800    0.643
        29  -8.2161    181.4979    192.4750   1.0197325800e+02   6.0091226633e+00     0.144968    0.1399248   2.67 4.356301e-05    1.005    0.005
        30 -11.6014     64.7880    185.0582   1.2849519849e+02   2.8420774683e+01    0.3208268    0.2590416 -53.61 0.0005787596    1.318    0.241
        31 -10.7346     75.1286    173.3829   1.2414524172e+02   2.9830666222e+01     0.257301    0.2443573 -75.72 0.0003694965    1.100    0.091
        32 -13.1125     61.8326    170.6185   1.2713522760e+02   3.2410901074e+01    0.5779746    0.2875832 -45.75    0.0017028    2.302    0.566
        33 -11.6820     83.1748    164.9543   1.2061915459e+02   3.0710083658e+01    0.6514865    0.5713472  51.99  0.003567781    1.170    0.146
        34 -10.9739     23.4076    156.3821   1.3507266050e+02   4.0298137790e+01    0.2183217     0.201174 -69.92 0.0007971134    1.160    0.138
        35  -8.9635     56.1192    240.9163   1.3675791113e+02   1.6746990255e+01    0.1942265    0.1357041  68.94            0    1.214    0.176
        36 -11.8655     84.7558    148.3816   1.1707665471e+02   3.4613057474e+01    0.3259413    0.2524683 -47.38  0.000536874    1.276    0.217
        37 -14.5052     96.2876    228.5889   1.2706282424e+02   1.3480743210e+01     4.716789    0.6520192  41.59    0.0128795    5.179    0.807
        38 -13.6915     37.0997    216.5515   1.3836323183e+02   2.4506432608e+01    0.9277573    0.7361855  84.26  0.002594247    1.025    0.025
        39  -9.2459    108.5775    135.4496   1.0764394989e+02   3.3633674004e+01    0.3500405    0.2353808 -15.34  0.001365163    2.440    0.590
        40 -10.4151     95.6722    132.3969   1.1057851758e+02   3.6719788190e+01    0.2822545    0.2380588 -25.58 0.0009761595    1.326    0.246
        41 -10.4715     47.2659    235.4715   1.3801365592e+02   1.9069098996e+01    0.5841005    0.2261839  67.41  0.002180547    3.698    0.730
        42  -9.0119    106.0486    122.7077   1.0532094427e+02   3.7136348050e+01    0.1992841    0.1917889  28.91 0.0002894598    1.080    0.074
        43  -9.9006     96.5391    149.6293   1.1406967974e+02   3.2335551376e+01    0.2998559    0.2834184 -31.92 0.0007978071    1.145    0.127
        44  -9.8672    167.7657    112.7324   8.7139979560e+01   2.6119027517e+01    0.3571791    0.2685204 -81.44  0.001162086    1.664    0.399
        45  -9.1892    204.1383    111.0853   7.9525835600e+01   1.8230936047e+01    0.2981192    0.1851023  29.06  0.001187736    2.643    0.622
        46 -11.1138    242.6157     93.0290   6.9577629985e+01   1.3408398440e+01    0.3184585    0.1147609 -41.44  0.001259171    2.468    0.595
        47  -8.8451     99.4988    145.5641   1.1240277757e+02   3.2824032242e+01    0.2170715    0.1384499 -44.39  7.08642e-05    1.596    0.373
        48  -8.3051    184.3375     77.3111   7.4950513356e+01   2.8968951793e+01    0.1422348    0.1147205  24.94 0.0007044984    1.687    0.407
        49 -10.7156     13.2531     61.1292   1.2078730555e+02   6.2486276787e+01     0.286056    0.1286838 -51.48  0.001288674    1.793    0.442
        50 -11.5278    177.8781    249.4503   1.1276997172e+02  -4.1188071790e+00    0.6186214    0.1370509  36.79  0.001944939    4.187    0.761
        51 -11.6079      6.6909    225.4383   1.4502515871e+02   2.5846249062e+01    0.4192254    0.2211382  72.43  0.002075663    1.625    0.384
        52 -11.1058     16.8057     25.4770   1.0771293874e+02   6.8191977519e+01    0.2630119    0.1808691  31.63  0.001809808    1.787    0.440
