#   1 NUMBER                 Running object number                                     
#   2 MAG_AUTO               Kron-like elliptical aperture magnitude                    [mag]
#   3 X_IMAGE                Object position along x                                    [pixel]
#   4 Y_IMAGE                Object position along y                                    [pixel]
#   5 X_WORLD                Barycenter position along world x axis                     [deg]
#   6 Y_WORLD                Barycenter position along world y axis                     [deg]
#   7 A_WORLD                Profile RMS along major axis (world units)                 [deg]
#   8 B_WORLD                Profile RMS along minor axis (world units)                 [deg]
#   9 THETA_WORLD            Position angle (CCW/world-x)                               [deg]
#  10 FWHM_WORLD             FWHM assuming a gaussian core                              [deg]
#  11 ELONGATION             A_IMAGE/B_IMAGE                                           
#  12 ELLIPTICITY            1 - B_IMAGE/A_IMAGE                                       
         1 -11.5070    168.6283     36.9691   4.6593552328e+01   3.8254305359e+01    0.7936285     0.447362 -57.12   0.00353584    2.143    0.533
         2 -12.7402    166.7757     47.0840   4.9810653801e+01   3.7367094059e+01     2.611036     1.443743 -74.30  0.009451701    3.308    0.698
         3 -12.6809    181.4791     80.9223   5.6614156245e+01   2.8557117463e+01     2.192447      1.32015  25.47  0.008441107    2.730    0.634
         4 -11.9230    186.1006     52.4128   4.8128757230e+01   3.1962853876e+01     1.522042     0.908647  -7.50  0.005615727    2.909    0.656
         5 -13.2645    157.0767     71.2427   5.8741090218e+01   3.5992539771e+01     3.028668     2.187464 -23.36   0.01443256    1.533    0.348
         6 -12.4645    213.2673     61.8134   4.6597488777e+01   2.4301274379e+01     1.182768     1.014886 -15.26  0.004533943    1.376    0.273
         7 -11.2636    228.9134     23.7547   3.5999304166e+01   2.5908620343e+01     1.115403    0.3532737 -43.34  0.004815689    2.610    0.617
         8 -10.3041    210.3128     26.5941   3.8455771943e+01   2.9672621852e+01    0.7886728    0.4724659 -41.74  0.003368185    1.569    0.363
         9 -11.9641    223.3229      4.3177   3.2239972647e+01   2.9233344316e+01    0.6547009    0.5179084  17.79  0.003030307    1.967    0.492
        10  -9.1992    203.3434     39.7326   4.2448785234e+01   2.9639633140e+01     2.130334    0.3771904 -38.76  0.006710249    4.202    0.762
        11 -11.1978    209.8309     36.2720   4.0825257142e+01   2.8597861729e+01     0.610799    0.3611502 -15.67  0.002860628    2.457    0.593
        12 -11.9706    244.7303     33.0895   3.6599120115e+01   2.1475509127e+01    0.7868578    0.4440533 -61.55  0.004333947    1.675    0.403
        13 -11.7060    247.9673      9.5970   3.1555881689e+01   2.3563461313e+01    0.3966701    0.3076584 -11.74  0.002056767    1.909    0.476
        14 -12.4918    239.7973      4.2534   3.1043648930e+01   2.5782488675e+01    0.9261822    0.6909044  61.12  0.006278945    1.559    0.359
        15 -12.6319    216.8713     14.7383   3.5071047439e+01   2.9548052571e+01    0.6867855    0.4185156 -68.95 0.0009057691    1.590    0.371
        16 -11.8870    204.8071     11.2242   3.5367550474e+01   3.2623117312e+01     1.015524    0.6699183 -80.23  0.003775149    1.449    0.310
        17 -11.1244    241.8632     19.7732   3.4062334987e+01   2.3658499088e+01    0.6066128    0.4322274 -41.32  0.003916249    1.329    0.247
        18 -11.4730    150.6292     25.2471   4.6067764364e+01   4.4017306773e+01     1.236231     0.721964 -70.82  0.005363121    2.521    0.603
        19 -11.2003    113.2830     32.2664   5.6096862690e+01   5.2028529556e+01     1.166237     0.733045 -10.73  0.005461473    1.911    0.477
        20  -9.0442    127.3680     18.5159   4.8126685227e+01   5.0304972369e+01    0.3799552    0.2092672 -53.76  0.001689283    2.530    0.605
        21 -11.6611    117.0474     15.7637   4.9275417532e+01   5.2985274134e+01    0.9957845    0.5929043  77.48  0.004159677    2.131    0.531
        22 -11.4347    104.2581     33.6563   5.8942115102e+01   5.3855316740e+01    0.7712592     0.598932   1.33  0.001861564    1.361    0.265
        23 -12.4163    102.9715     22.8785   5.5212236289e+01   5.5422607529e+01     3.830323     1.337673  65.44    0.0109904    5.481    0.818
        24 -10.4220     89.7617      2.1874   5.0347883657e+01   6.0235548191e+01    0.3918535    0.2535589  51.39  0.001791811    1.316    0.240
        25 -12.4006     86.1365     17.1614   5.7552442810e+01   5.9612215270e+01     1.249318    0.6783406 -35.56  0.006273979    2.079    0.519
        26 -12.3719     80.4718      2.8678   5.3102446208e+01   6.2114364015e+01     1.646405    0.4447614  47.07  0.001664731    2.784    0.641
        27 -12.0435    185.1737     34.0715   4.3356067455e+01   3.4627432211e+01    0.5641536    0.4839486 -50.83  0.001288249    1.158    0.137
        28 -11.7100    218.6198     33.6010   3.9224164999e+01   2.6961687879e+01    0.7745139    0.5247548 -67.55   0.00437318    1.438    0.305
        29 -12.8212     99.1400      5.4235   4.9382077923e+01   5.7947820006e+01     1.149651     0.736668  61.55  0.002039267    1.481    0.325
        30 -11.9715    166.2062     26.5924   4.3995231491e+01   4.0085041816e+01    0.7167217    0.4011941 -73.91  0.003044499    2.568    0.611
        31 -11.7487    175.5939     16.9151   4.0003455015e+01   3.8869381651e+01    0.4541243    0.2258259 -47.19  0.002141525    2.098    0.523
        32 -10.2565    132.6823      3.6507   4.2191822123e+01   5.0389362393e+01    0.3949681    0.2596313  57.14  0.001115183    1.291    0.225
        33  -9.8404    136.1396     16.7093   4.5877436071e+01   4.8400910357e+01    0.3482676    0.2461516 -38.87  0.001145668    1.562    0.360
        34 -10.8245    141.8642      9.1773   4.2497929305e+01   4.7734039151e+01    0.8574324    0.5377135 -72.39  0.003967236    2.071    0.517
        35 -10.3665    132.1132     13.4058   4.5510493616e+01   4.9677230881e+01    0.3338093    0.2281529  60.63 0.0007869179    1.287    0.223
        36 -11.3305    134.4236      9.3384   4.3765265388e+01   4.9497049685e+01    0.7205659     0.302192  71.56  0.002544225    2.486    0.598
        37 -10.8520    118.8458      4.4374   4.4879820464e+01   5.3571234809e+01    0.4248361    0.3490038  -1.63  0.002663329    1.359    0.264
        38 -10.4047     50.8362     17.9959   7.0294904443e+01   6.5938751925e+01    0.3483519    0.3347425   9.94  0.001894941    1.456    0.313
        39 -10.6424    189.3118     12.6835   3.7289845902e+01   3.6050473910e+01    0.4525002    0.3914219  67.11  0.002931219    1.156    0.135
        40  -9.9286    155.5951     14.9166   4.2162501927e+01   4.3890981791e+01    0.3472431    0.2687057  37.12  0.001399894    1.401    0.286
        41 -11.1159    124.2458      6.3061   4.4532848610e+01   5.2160426622e+01    0.5713912    0.4417461   4.40  0.001968224    1.476    0.322
        42  -9.8190     30.9433     12.2023   7.6458508634e+01   6.9506397230e+01    0.2508622    0.1819004 -15.74  0.001675759    1.153    0.133
        43  -8.3430    161.0000     11.0166   4.0261191722e+01   4.2961462113e+01    0.1969731   0.07502322 -24.59 0.0008041339    2.954    0.662
        44  -8.9636    151.1654     10.1018   4.1372112762e+01   4.5415655969e+01    0.2662079    0.1978455  89.42  0.001518516    1.379    0.275
        45  -9.2696    152.4639      5.9757   3.9953249193e+01   4.5470562546e+01    0.2623965    0.1819317 -26.10   0.00108535    1.629    0.386
        46  -8.0720    183.0516     11.0060   3.7548577595e+01   3.7691924780e+01    0.2031214    0.1683535 -13.36 0.0009058187    1.487    0.328
        47  -8.8634    157.3953      7.4864   3.9725662248e+01   4.4152912712e+01    0.2071062    0.1904805 -70.66 0.0007081389    1.134    0.119
        48  -9.1261    193.1844      6.1064   3.5252212090e+01   3.5799023633e+01    0.1914184    0.1553263 -83.04 0.0006661272    1.082    0.076
        49 -10.3776     56.9700      5.6184   6.1989403285e+01   6.6323529872e+01    0.3451753    0.2490984  24.40  0.001709904    1.140    0.123
        50  -9.6012     64.9159      1.5305   5.7239474590e+01   6.5267672863e+01    0.2532464    0.1637746  47.41 0.0007341299    1.420    0.296
        51  -9.5903     60.5277      1.5156   5.8723338453e+01   6.6076761181e+01    0.2319919    0.1692377  45.02  0.000927492    1.335    0.251
        52  -9.6234     37.5607      5.7158   7.0054889202e+01   6.9409310484e+01    0.2735261     0.197831  44.68   0.00174427    1.794    0.443
        53 -13.5021    181.7873      2.9920   3.5617022075e+01   3.8747110887e+01    0.3546611    0.2693279  89.11   0.00074476    1.174    0.148
        54 -10.1206     46.7304      2.9147   6.4644957632e+01   6.8309864758e+01    0.2728481    0.1921365 -21.32  0.001078197    1.435    0.303
        55  -9.4262    171.7662      2.0931   3.6457800693e+01   4.1192562042e+01    0.4938355    0.1747072  63.82  0.002148009    2.305    0.566
        56 -10.0107    163.8706      1.4652   3.7194192773e+01   4.3124330699e+01    0.3025257    0.1208098  69.90 0.0009316767    2.151    0.535
        57  -8.9857    157.3461      1.6666   3.8048849834e+01   4.4665380252e+01    0.3360885   0.09623196  49.94  0.001238732    3.338    0.700
        58  -8.4714    143.8777      1.3471   3.9757255220e+01   4.7910132348e+01    0.1668798    0.1002726  60.66 0.0003417283    1.404    0.288
        59  -8.7739     41.7634      1.3766   6.5939055675e+01   6.9249575769e+01     0.198383    0.1010837  43.80 0.0007146588    1.951    0.487
        60  -9.0460    206.3371    128.1738   6.3872412280e+01   1.4444489262e+01    0.3539764    0.2386744 -24.02  0.001654694    1.577    0.366
        61 -10.1065     18.5814    246.9086   1.2371818209e+02   1.9969001007e+01    0.3589971    0.1581231 -67.90  0.002105334    2.286    0.563
        62 -11.5614      3.8544    248.0694   1.2628382179e+02   2.1198499111e+01     0.658081    0.3241301  48.59  0.003793634    1.594    0.373
        63  -9.6465      8.4765    245.5056   1.2538802607e+02   2.1232925140e+01    0.1740653    0.1009371  52.73 0.0008588714    1.361    0.265
        64  -8.7693    202.4936    129.7042   6.4960288203e+01   1.4940578937e+01    0.3158667    0.1943863  48.14 0.0008520507    1.763    0.433
        65 -10.4726    194.3170    124.6641   6.5344235206e+01   1.7600312159e+01    0.5278206    0.4343785 -46.85  0.001825659    1.205    0.170
        66  -9.1582    196.2237    120.1909   6.3884558713e+01   1.8052786325e+01     0.309643     0.238651   2.89   0.00148481    1.621    0.383
        67  -9.0698    154.2955    124.0049   7.3919966658e+01   2.6343363837e+01    0.2314031    0.2058981 -41.65  0.001166984    1.101    0.092
        68 -11.7558    176.0669    114.1842   6.6477789797e+01   2.3599536982e+01     1.233558    0.7238715  60.91  0.004459153    2.170    0.539
        69 -11.6680    174.6724     67.3655   5.4159274642e+01   3.2425514446e+01     1.195378     0.538102 -43.66  0.004680625    2.221    0.550
        70 -10.4843    140.6463    102.7094   7.1637779862e+01   3.3830070568e+01    0.5377038    0.3308381 -66.99  0.001952648    2.688    0.628
        71 -12.6612     32.7310    212.7293   1.1884708259e+02   2.5319764578e+01    0.9941707    0.6968099  79.28   0.00338506    1.229    0.186
        72 -10.3373    134.3268    108.0950   7.4743238690e+01   3.4067997554e+01    0.3626284    0.2117192 -28.13  0.001390391    2.109    0.526
        73  -9.9648    249.7199    101.7381   5.0879725449e+01   1.0538644170e+01    0.2302322    0.1972885 -32.35  0.000381898    1.089    0.082
        74  -9.8620    151.9072    100.0705   6.8149877958e+01   3.1848842349e+01    0.4171162    0.2254503  48.06  0.001243164    1.886    0.470
        75  -8.7669      4.0000     96.9658   1.1380961256e+02   5.4904099362e+01    0.2148063   0.05753939 -69.21 0.0008055313    2.964    0.663
        76  -9.2575    174.0548     95.9690   6.2124530370e+01   2.7573674786e+01    0.2311689    0.2208218 -64.33  0.000464027    1.074    0.069
        77  -8.5734    146.2796     95.6500   6.8263941395e+01   3.4005925320e+01    0.1570468    0.1229383 -72.61 0.0003706071    1.645    0.392
        78 -10.1246    202.4349     54.1168   4.6175291219e+01   2.7885997705e+01    0.7428399    0.5124946 -79.53  0.003762199    1.669    0.401
        79  -8.2449      7.3087     90.6728   1.1165548266e+02   5.6198998973e+01     0.119827    0.0886763  75.78 0.0003642583    1.657    0.397
        80  -8.8629    234.0056     89.0395   5.0183292889e+01   1.5630688071e+01    0.1997278    0.1785395 -43.93  0.000438478    1.030    0.029
        81 -10.9152    218.7079     73.5712   4.8690999657e+01   2.1306881136e+01     0.456674    0.3566744 -48.04  0.001328911    1.163    0.140
        82  -8.9722    236.9788     84.2750   4.8695889017e+01   1.5790833243e+01     0.215305    0.1682594 -39.93 0.0003707702    1.133    0.117
        83  -9.1097    233.0658     84.5191   4.9276672916e+01   1.6545857918e+01    0.2446043    0.1940604  76.31 0.0008107548    1.433    0.302
        84  -9.1071    125.9910     84.7980   7.0272900528e+01   4.0683487072e+01    0.3021834    0.2121331 -75.29   0.00122841    2.321    0.569
        85  -8.2937    123.6418     81.1819   6.9805681983e+01   4.1900378819e+01    0.2127935    0.1407592 -29.20 0.0006789713    1.606    0.377
        86  -8.9053    249.6579     82.8187   4.6763441025e+01   1.3524841242e+01    0.1983333    0.1789569  49.55  0.001157946    1.327    0.247
        87  -9.4055    126.7442     60.9375   6.2569773066e+01   4.4827525408e+01     0.418314    0.2778631  66.13   0.00169368    1.848    0.459
        88  -9.2821    127.1993     65.3792   6.3892364028e+01   4.3980270749e+01    0.4367237    0.3185086 -26.04 0.0006489793    1.439    0.305
        89  -9.5187    131.7329     78.4306   6.6828419934e+01   4.0623858173e+01    0.3144001    0.2502747  -0.77 0.0009450289    1.482    0.325
        90 -10.8371    139.3754     75.4401   6.4009933784e+01   3.9424573270e+01    0.9890459    0.4249553 -31.85  0.003492778    2.612    0.617
        91 -10.2798    135.2135     71.8141   6.3913207766e+01   4.1030442179e+01    0.5845594    0.4750247  -6.97  0.002925332    1.394    0.282
        92 -10.1678    129.6678     70.8470   6.5001929873e+01   4.2469231404e+01     0.485739    0.3262748  44.15  0.001536342    1.467    0.318
        93 -11.5945    245.6906     63.2059   4.2952935163e+01   1.7225560960e+01     1.008684    0.4232204 -53.40  0.004311725    2.497    0.600
        94  -9.3665    246.8308     75.6096   4.5529866461e+01   1.5169884159e+01    0.3150499    0.2262228  89.56  0.001282854    1.662    0.398
        95  -8.9382    244.6100     71.7466   4.4944511479e+01   1.6187647672e+01    0.2624707     0.150841 -49.28 0.0008563085    1.547    0.353
        96  -8.9960    242.1021     76.0147   4.6188779107e+01   1.6043929881e+01    0.2116456    0.1710339 -48.52 0.0009236229    1.063    0.059
        97  -8.9667    120.7763     74.4378   6.8483019771e+01   4.3801733251e+01    0.2799892    0.2082835 -39.93   0.00113279    1.351    0.260
        98  -9.0858      5.8591     69.0869   1.0804436584e+02   6.1175910984e+01    0.1659669    0.1480873 -80.45 0.0007091235    1.320    0.243
        99  -8.5873    240.6284     67.1925   4.4404423799e+01   1.7662815729e+01    0.3377456    0.1220203 -30.70  0.001268145    3.059    0.673
       100 -10.9214    117.5489     60.1515   6.4710973579e+01   4.7025041412e+01    0.8278635    0.6000625  14.85  0.003950624    1.656    0.396
       101 -10.2186    145.1254     57.9944   5.7311913352e+01   4.0997087101e+01    0.3148709    0.2711059 -41.01 0.0003531556    1.199    0.166
       102 -10.7743    143.4448     53.1705   5.6170058423e+01   4.2132934782e+01    0.5645266    0.3927629  51.63   0.00164801    1.371    0.270
       103  -8.8730    134.1089     59.1037   6.0170530953e+01   4.3423981470e+01    0.2331251    0.1987119  12.80  0.001227033    1.267    0.211
       104 -12.4629     49.4979    191.5527   1.1327265245e+02   2.8127255162e+01     1.258493    0.5063384 -64.70  0.005642857    2.257    0.557
       105 -10.5656    249.8214     52.6529   4.0252157325e+01   1.7888855815e+01    0.4062421    0.2378746 -33.01  0.002203346    1.659    0.397
       106 -10.1406    233.0656     32.7585   3.7590274304e+01   2.3936260619e+01    0.7653102     0.445114  68.32  0.004235749    1.732    0.422
       107 -10.3301    239.9279     53.0533   4.1356897663e+01   1.9829702794e+01    0.9449417    0.4236398  76.95  0.002428888    2.941    0.660
       108 -12.1241    228.5600     43.1762   4.0364752184e+01   2.3560166903e+01    0.9980281    0.5886013  79.42  0.004341473    1.822    0.451
       109 -12.0023    184.8903     96.7847   6.0174291683e+01   2.4943285117e+01    0.9933478    0.6241072 -39.66  0.002411004    1.516    0.341
       110 -11.5571    244.1433     93.2676   4.9761030927e+01   1.2949737840e+01      1.00173    0.7498559  84.99  0.005616669    1.693    0.409
       111 -10.2339    219.5379     46.2133   4.2070080276e+01   2.5119624547e+01    0.3917699    0.2432837 -38.82  0.001290601    1.503    0.335
       112 -11.2396    214.2496     43.0108   4.1929347668e+01   2.6726121624e+01    0.3987866    0.3237065 -59.93    0.0012895    1.121    0.108
       113 -11.1530    206.2630    118.7916   6.1656813987e+01   1.6202932661e+01    0.9591227     0.829415  29.87  0.005233848    1.255    0.203
       114 -13.4235    245.7736    173.9685   6.6835875888e+01  -6.2443591423e-01     3.255566     1.544782 -48.33   0.01392293    2.758    0.637
       115 -11.0151    244.9129     42.3375   3.8537185674e+01   2.0256097472e+01    0.5834109    0.3161248 -36.03  0.001369711    1.699    0.412
       116 -10.9637    231.6795     76.2009   4.7550498157e+01   1.8138286929e+01     1.119206    0.5717897  70.44  0.004956561    2.505    0.601
       117 -11.4952    229.9382     63.9519   4.4952867566e+01   2.0356223988e+01    0.8828495    0.7679152 -63.12  0.005489415    1.047    0.045
       118 -12.3057    245.9030    113.1029   5.3897395682e+01   9.3936174660e+00     1.592269    0.5159619 -43.38  0.004477524    2.730    0.634
       119 -12.1462    232.0012    101.4526   5.3315178776e+01   1.3993542638e+01     1.516704     1.159279 -51.21  0.005874404    1.251    0.200
       120  -9.7214     23.4959    249.7270   1.2301466056e+02   1.8937370914e+01    0.2585603   0.09732571  28.07  0.001214744    3.542    0.718
       121 -11.2078    248.5685     24.9845   3.4602486851e+01   2.1689766205e+01    0.3942705    0.2962499 -85.03  0.001526736    1.231    0.188
       122 -12.3710    244.2339    158.3951   6.3897680356e+01   2.1448030702e+00     1.515883     0.679063  52.35  0.006214993    3.343    0.701
       123  -8.3577     42.5069     56.5060   8.9315861627e+01   6.0768882483e+01    0.1341766    0.1097452 -23.58 7.865987e-05    1.023    0.022
       124 -10.3272    128.7557     52.6715   5.9359949344e+01   4.5670817991e+01    0.3594629    0.2799886 -32.39 0.0003939199    1.325    0.245
       125  -8.5848    106.9640     53.6502   6.5425260417e+01   5.0387516000e+01    0.1997463    0.1727413  40.63  0.000451855    1.134    0.118
       126  -9.2766    225.8104     53.1602   4.2958302930e+01   2.2792022991e+01    0.3160529    0.1795919  76.06  0.001136442    1.977    0.494
       127  -9.1085    119.5320     51.0545   6.1115432408e+01   4.8028081604e+01    0.2966829    0.2396045 -77.51  0.001233103    1.686    0.407
       128  -9.2050    120.9285     48.1179   5.9757890042e+01   4.8149774235e+01    0.3344592     0.232389  56.22  0.001656437    1.446    0.308
       129 -10.0251    140.1166     45.9902   5.4605559066e+01   4.3965480316e+01    0.2729084    0.2503282  61.94 0.0005031016    1.075    0.070
       130 -10.1216    140.1695     39.8210   5.2613342991e+01   4.4787412851e+01    0.4328626    0.2462632 -48.03  0.001306301    2.049    0.512
       131  -8.5189     26.3486     45.3129   9.2533104558e+01   6.4624125994e+01     0.135258   0.07754721 -22.69 0.0007046365    1.719    0.418
       132 -12.0881    192.5072    104.8115   6.0776766295e+01   2.1751885546e+01     1.304521    0.9170161   0.56  0.004065209    2.115    0.527
       133 -10.2046    128.2497     43.0415   5.6270870951e+01   4.7180671510e+01    0.5652795    0.2464629  52.64  0.002061754    2.100    0.524
       134  -9.4579    130.4452     39.0078   5.4421032383e+01   4.7206450155e+01    0.2757616    0.2356946  36.61 0.0005093088    1.123    0.109
       135 -11.1092    131.9056     33.4350   5.2241001816e+01   4.7567159814e+01       0.4927    0.3802328  50.67  0.002056769    1.186    0.157
       136  -9.3349    195.2375     39.7923   4.3501928153e+01   3.1519406769e+01    0.3670155    0.1861256 -28.59  0.001653729    2.143    0.533
       137 -11.6026    196.9016     87.0863   5.5460944554e+01   2.3940985222e+01     1.468631      1.11382 -45.19  0.007533025    1.250    0.200
       138 -11.3040     16.1520    241.3416   1.2384850743e+02   2.1263319019e+01    0.3761451    0.3231338 -28.32  0.002821477    1.958    0.489
       139 -11.8691    247.9039    128.7387   5.7007567490e+01   6.4454550465e+00    0.6845158    0.4010052 -30.53  0.001064758    1.538    0.350
       140  -8.6130     37.6367    239.6719   1.1984970097e+02   1.9302378362e+01    0.1018075   0.08708132 -35.76 0.0007039272    1.800    0.444
       141 -11.1056    187.6806     64.1207   5.1011684171e+01   2.9844821825e+01     0.702528    0.5391341  15.49   0.00175327    1.770    0.435
       142  -8.6205     21.3374    227.3051   1.2209672319e+02   2.3487825304e+01    0.1001656   0.08419289 -48.89 0.0007040109    1.673    0.402
       143 -11.2521    221.8671    119.0967   5.8993127916e+01   1.2971069821e+01    0.6850886    0.4457063  57.85   0.00242172    1.845    0.458
       144 -12.8686    241.8115    139.6474   6.0312292773e+01   5.6847539609e+00     1.411765    0.9229205 -39.48   0.00749864    1.349    0.259
       145  -9.3319      2.5986     39.7594   1.0195129566e+02   6.7443795921e+01    0.1620481      0.10029 -63.86 0.0009587864    1.736    0.424
       146 -10.2845    191.1436     36.0010   4.3062672190e+01   3.2968497682e+01     0.443636    0.2489677 -24.78   0.00209154    2.066    0.516
       147 -11.8804    231.5826    134.8819   6.0944220841e+01   8.3353013835e+00     1.358541    0.5602614 -34.61   0.00425691    2.231    0.552
       148  -9.1763    189.9025     27.1355   4.0921221277e+01   3.4335524273e+01    0.3712227    0.2611588 -59.13  0.001737942    1.421    0.296
       149 -11.1214    185.3009     26.3353   4.1290126114e+01   3.5519634899e+01    0.4400866    0.3464853 -24.62  0.001675744    1.442    0.306
       150 -10.4180     94.7198     37.9072   6.3260116389e+01   5.5311156142e+01    0.4474955    0.2664006  31.53  0.001442107    1.719    0.418
       151 -10.4676     89.1451     33.9495   6.3425330117e+01   5.6986876033e+01    0.6059192    0.2276847 -40.67  0.001304772    3.091    0.676
       152 -11.7888    241.4917    122.5079   5.6620856829e+01   8.6351790412e+00    0.6701378    0.4979415 -13.16  0.002418522    1.502    0.334
       153 -11.9077    234.9929    119.0609   5.6857634567e+01   1.0429840074e+01     0.603788    0.4370255   7.51  0.001770349    1.882    0.469
       154  -9.9765    120.6488     34.7037   5.5185796830e+01   5.0043728536e+01    0.3507741    0.2406247  40.85 0.0005487326    1.375    0.273
       155  -8.4427    123.5104     31.5519   5.3430579916e+01   4.9769105360e+01     0.192448    0.1351067  -8.16 0.0001067551    1.664    0.399
       156 -10.1951     76.0955     34.0632   6.7735205806e+01   5.9489380915e+01    0.3298613    0.2356413  44.78  0.000928535    1.448    0.309
       157  -9.2996     62.1390     33.9268   7.2774870015e+01   6.1937907731e+01    0.2720787    0.2009091 -55.03  0.001462744    2.090    0.522
       158 -10.3156     26.3707     30.5987   8.6988644615e+01   6.7256572975e+01    0.3806793    0.2366313  43.21  0.002089062    2.450    0.592
       159  -8.8462    160.0413     20.0118   4.3007137206e+01   4.2298165688e+01    0.2506406    0.1689893 -58.22 0.0008709132    1.657    0.396
       160 -11.8742    196.2081     68.6670   5.0828438820e+01   2.7140265503e+01     1.080337    0.8995278 -50.81  0.002803286    1.146    0.128
       161  -9.2663    175.9804     30.5286   4.3676877018e+01   3.7263026750e+01     0.305442     0.189241  44.98 0.0008489156    1.764    0.433
       162  -9.5378    173.6181     27.7573   4.3245605672e+01   3.8157767788e+01    0.2855201    0.1950446 -45.89 0.0008601413    1.496    0.332
       163 -10.2762     82.8949     30.8519   6.4165204325e+01   5.8636635999e+01    0.3310567    0.2002935  37.76   0.00130372    1.520    0.342
       164  -8.5420      9.4837     32.5186   9.6126428374e+01   6.8380469685e+01    0.1204474   0.08995663 -28.81  0.000102329    1.005    0.005
       165  -9.3475    125.7509     26.5889   5.1226175124e+01   4.9824264724e+01    0.3378358     0.278858 -48.97  0.001583073    1.390    0.280
       166  -8.6697    130.9179     25.5155   4.9790530537e+01   4.8725035536e+01    0.2698741    0.1133614  55.39 0.0009000548    2.053    0.513
       167  -8.7564     76.9935     24.9155   6.3652190742e+01   6.0530621692e+01    0.1876357    0.1657115 -68.50  0.001126742    1.711    0.416
       168  -9.5809     69.1767     25.0691   6.6410564543e+01   6.1956602331e+01    0.2002579    0.1508638 -53.47  0.001098063    2.044    0.511
       169  -8.6180    155.2705     21.3477   4.4130101289e+01   4.3313888052e+01    0.3239118    0.1878121  36.60  0.001188973    2.050    0.512
       170 -12.5358    220.4946    109.6915   5.7026488002e+01   1.4904033720e+01     0.598036    0.5047452 -88.28 0.0002042753    1.453    0.312
       171 -11.4834    211.9701    100.1452   5.6156164426e+01   1.8353896487e+01     1.127757    0.9459857 -11.13  0.006115664    1.342    0.255
       172 -11.6118    220.1551     84.4779   5.1095194973e+01   1.9251641132e+01       1.6431    0.4091272  55.36  0.005257549    4.170    0.760
       173 -12.0321    208.9442     74.9474   5.0447897891e+01   2.3243348727e+01     1.258983    0.6940748 -65.36  0.005019447    2.661    0.624
       174 -11.1207    225.6479    184.6135   7.2540219857e+01   8.2388479039e-01     0.459827    0.2316086 -28.20  0.001757839    1.973    0.493
       175 -11.6211     55.3273    193.0254   1.1209214156e+02   2.7088136010e+01    0.6696371    0.2486079 -72.21  0.002681846    2.811    0.644
       176  -8.7151     33.9793    182.9889   1.1597476400e+02   3.1829316174e+01    0.1889763    0.1396505 -43.66 0.0004770076    1.674    0.403
       177 -11.1666    246.0531    199.2892   7.1747925118e+01  -4.5628697697e+00    0.3159336     0.284391 -84.06  0.001972637    2.096    0.523
       178  -8.2011    126.3449    223.7145   1.0008429658e+02   1.0275256931e+01    0.1351111   0.09393767  60.53 0.0003661332    1.646    0.392
       179 -10.4416    100.9927    175.9983   9.8639939985e+01   2.4555341694e+01    0.2008921    0.1934063  75.25   0.00116062    1.002    0.002
       180  -9.1424     18.8672     17.0116   8.4899579009e+01   7.0189222712e+01    0.2731627    0.1659469  33.19  0.001662816    1.968    0.492
       181  -9.9990    166.4049     15.3177   4.0758576975e+01   4.1240896636e+01      0.25319    0.1889825  71.63 0.0006845961    1.204    0.169
       182  -8.4802    161.7285     15.6889   4.1506985877e+01   4.2332312823e+01    0.1290783   0.09348731  37.33 0.0003108217    1.549    0.355
       183  -8.9660     70.5142    172.9753   1.0586874202e+02   2.9835156411e+01    0.2053726   0.09813801 -43.69 0.0008104257    2.606    0.616
       184 -11.4792    228.4984    165.9740   6.8202951566e+01   3.4913770273e+00    0.4862775     0.360704   3.61  0.002170334    1.435    0.303
       185  -9.8553     49.2939    166.6110   1.1039653745e+02   3.4052465948e+01    0.2672324    0.1732583  68.09 0.0008406072    1.679    0.404
       186  -8.2820     72.6873    156.6812   1.0277567694e+02   3.3505382391e+01    0.1439273    0.1066119 -31.73 0.0004901448    1.647    0.393
       187  -8.3095    205.6602    155.3026   7.0193505639e+01   9.4907061887e+00    0.1380362    0.1174676 -79.79 0.0007038556    1.673    0.402
       188  -9.8991    223.7731    149.6878   6.5563113226e+01   7.1597391646e+00    0.5063856    0.2817459 -29.86  0.002267242    1.730    0.422
       189 -10.3871     61.9593     20.3298   6.6975972964e+01   6.3821243888e+01    0.4714085    0.2378596  35.45  0.001645949    1.825    0.452
       190 -10.4711    207.2889    148.5612   6.8378785151e+01   1.0440111860e+01    0.6055861    0.5245168  89.60  0.003242029    1.603    0.376
       191  -9.6497    211.5231    136.9966   6.4955336715e+01   1.1769825232e+01    0.5312162    0.2262634 -35.95  0.002044966    2.219    0.549
       192  -9.6326    211.7931    133.5229   6.4106909993e+01   1.2358087152e+01    0.3589218    0.2537992  37.95  0.001069825    1.535    0.348
       193 -10.8031    211.1676    144.1398   6.6645556162e+01   1.0518102977e+01    0.5188559     0.320494  41.28 0.0009615203    1.734    0.423
       194 -10.3636    207.7125    142.0132   6.6818186340e+01   1.1581821298e+01    0.3981242    0.2948199  21.69  0.001396253    1.536    0.349
       195  -9.9154    200.7400    138.0155   6.7246345455e+01   1.3716461273e+01    0.6702036    0.2531601  45.88  0.002401079    2.822    0.646
       196  -9.1822    188.1578    136.3139   6.9382992155e+01   1.6610580681e+01    0.2453024    0.1964966 -26.31 0.0004327193    1.225    0.184
       197  -9.1794    156.9822    134.5082   7.5880701224e+01   2.3516075433e+01    0.3278737    0.1959547 -10.49  0.001042017    3.514    0.715
       198  -9.6283    194.6337    132.3893   6.7133702974e+01   1.6041836332e+01    0.3736139    0.2364156 -32.71  0.001541805    1.544    0.352
       199  -7.9378    204.4150    133.4863   6.5481192755e+01   1.3836656752e+01     0.148243    0.1335692 -25.51 0.0001554341    1.018    0.017
       200 -10.6547    174.2781    132.0084   7.1315064171e+01   2.0385576048e+01    0.3994705    0.2734074  68.13  0.001676023    2.109    0.526
       201  -9.2743    219.5798    131.6278   6.2270084834e+01   1.1180032214e+01    0.2724422    0.2646821  11.25 0.0008431842    1.129    0.114
