#   1 NUMBER                 Running object number                                     
#   2 MAG_AUTO               Kron-like elliptical aperture magnitude                    [mag]
#   3 X_IMAGE                Object position along x                                    [pixel]
#   4 Y_IMAGE                Object position along y                                    [pixel]
#   5 X_WORLD                Barycenter position along world x axis                     [deg]
#   6 Y_WORLD                Barycenter position along world y axis                     [deg]
#   7 A_WORLD                Profile RMS along major axis (world units)                 [deg]
#   8 B_WORLD                Profile RMS along minor axis (world units)                 [deg]
#   9 THETA_WORLD            Position angle (CCW/world-x)                               [deg]
#  10 FWHM_WORLD             FWHM assuming a gaussian core                              [deg]
#  11 ELONGATION             A_IMAGE/B_IMAGE                                           
#  12 ELLIPTICITY            1 - B_IMAGE/A_IMAGE                                       
         1 -11.8876      2.3325     48.8555   1.3395204357e+02   6.4677519303e+01    0.9310767    0.1630422 -63.59  0.003219511    4.548    0.780
         2 -13.4640      4.8331     12.5540   1.2133352884e+02   7.1317574792e+01     2.201615    0.6010519 -47.92   0.01048463    2.581    0.613
         3 -13.2688    190.0115     27.9363   7.3068617886e+01   3.3820061353e+01     1.355688     1.179099  55.81  0.005590918    1.129    0.114
         4 -13.6883    203.0749      9.4594   6.6114819924e+01   3.2461029625e+01     1.630907     1.069296  40.93  0.008231695    1.721    0.419
         5  -9.9391     21.2795     57.7648   1.2904735338e+02   6.1624280303e+01    0.3783661    0.1394489  40.43  0.001693178    3.778    0.735
         6  -9.0015    156.4787    250.4666   1.2905939815e+02   4.7424377049e+00     0.113604   0.08697711  42.80 0.0008091916    1.028    0.027
         7 -11.4992    139.9396    248.7874   1.3163786959e+02   7.5152700419e+00    0.3758501    0.2749442  76.82   0.00259036    1.658    0.397
         8 -10.7872    125.8745    250.0003   1.3411493692e+02   9.4708842571e+00    0.3613131    0.1124882  44.92  0.001722969    2.434    0.589
         9 -10.0932     98.2887    249.4307   1.3860661196e+02   1.3543582633e+01    0.2061328     0.139897  48.29  0.001209007    1.200    0.167
        10 -10.7656    102.4879    247.7405   1.3776693173e+02   1.3206293447e+01    0.2319042    0.1512619  59.86 0.0007387774    1.252    0.201
        11  -8.9216     74.3245    250.3219   1.4253253042e+02   1.6630194630e+01   0.08674687   0.08058784  29.30 0.0006146369    1.682    0.405
        12  -9.3591     67.0704    250.0850   1.4365831662e+02   1.7590650506e+01    0.1750449   0.09068029  67.10   0.00113162    1.729    0.422
        13 -10.9322     29.4266    249.6910   1.4936964607e+02   2.2036482094e+01    0.3460455    0.1428334  53.81  0.002320256    1.738    0.425
        14 -11.2145     34.9028    246.1107   1.4836350770e+02   2.2010631809e+01    0.4747294    0.2934047  87.75  0.003717365    1.391    0.281
        15 -12.6734      6.1201    243.9508   1.5250029876e+02   2.5308359095e+01    0.8961838    0.5541247 -84.15   0.00388481    1.458    0.314
        16 -14.3799      6.9351    210.2515   1.5083465842e+02   3.0958890523e+01     3.272476    0.4983955 -67.73   0.01397457    4.778    0.791
        17 -15.0674     17.3843    166.5963   1.4611194644e+02   3.8427066037e+01     6.608628     1.837501 -84.69   0.02240394    5.384    0.814
        18 -13.8558     48.5501    226.4024   1.4497103471e+02   2.3736404269e+01    0.9576135    0.5729154  83.16  0.004569085    1.482    0.325
        19 -10.7845    197.4176    243.4432   1.2128641247e+02  -8.1685298053e-01    0.3765184    0.2212478 -58.15  0.001987949    3.446    0.710
        20  -9.2934     74.5185    243.0319   1.4194568957e+02   1.7745983019e+01    0.1391692   0.09267064 -83.92 0.0005418113    1.524    0.344
        21 -10.3559    156.0926    228.3415   1.2636214695e+02   7.8433460855e+00    0.2479061   0.09259612  38.02  0.001096952    2.476    0.596
        22 -10.1114     82.9317    243.7659   1.4063318604e+02   1.6517792210e+01    0.3149307    0.1476194  70.32  0.001670349    2.639    0.621
        23 -10.4927    173.1996    221.7977   1.2239079058e+02   5.9300535787e+00    0.3809148    0.2917231  86.38  0.002283088    2.021    0.505
        24 -10.6278    249.1399    243.8824   1.1293574599e+02  -8.6680233747e+00    0.2279682    0.1200341   7.42  0.001281738    2.282    0.562
        25 -13.1208      4.1741    177.3277   1.4943171955e+02   3.7411912384e+01     1.920538     0.477458 -76.38  0.008798933    3.198    0.687
        26  -8.8134    152.5037    212.9660   1.2489079957e+02   1.0769315648e+01    0.1530066    0.1246414 -55.05 0.0003711624    1.457    0.314
        27 -10.3018     32.3525    206.9913   1.4635785804e+02   2.9033781686e+01    0.3984376    0.1242632  56.07  0.001936043    2.904    0.656
        28 -12.3380     25.0458    202.3815   1.4731585784e+02   3.0653721962e+01    0.4019011    0.1834331  55.90  0.002472902    1.832    0.454
        29 -11.3956     66.9572    199.3630   1.3942744957e+02   2.6372442098e+01    0.2910132    0.2126159 -50.49  0.001128947    1.808    0.447
        30 -10.0004    193.0039    194.9313   1.1442783939e+02   6.3625747244e+00    0.6474316    0.3335714 -61.39   0.00206082    6.189    0.838
        31 -14.3472     55.8390    212.5161   1.4265707869e+02   2.5325238344e+01     7.204485          nan  46.90   0.02103099    7.393    0.865
        32 -11.6091     72.3567    191.3981   1.3755661752e+02   2.7194873502e+01    0.2446902    0.2081371 -69.49 0.0005247832    1.295    0.228
        33  -8.6855    104.5250    180.5311   1.2965806217e+02   2.4600466562e+01    0.1294817    0.1120083  71.19 0.0001337505    1.032    0.031
        34 -13.1655     68.9450    176.4052   1.3653138985e+02   3.0656523615e+01    0.4568282    0.2655715 -45.96  0.001761557    2.310    0.567
        35 -10.8022     81.5714    178.5406   1.3416956007e+02   2.8479194445e+01    0.2215739    0.1955862  83.48  0.000363835    1.067    0.063
        36  -8.4141    171.5521    173.5632   1.1464051685e+02   1.3845841754e+01    0.1366521    0.1249862  36.99 0.0001190205    1.010    0.010
        37 -11.7344     88.6101    168.9624   1.3137441185e+02   2.9415539545e+01     0.580204    0.5110245  60.47  0.003764733    1.114    0.103
        38  -8.7863    250.5552    171.5368   9.9791003465e+01  -7.4086585977e-01    0.1295999     0.107787   4.54 -1.921049e-05    1.005    0.005
        39  -8.9697    230.6642    167.3256   1.0227964513e+02   3.4166544174e+00    0.1234652    0.1092266 -76.65 0.0007051427    1.718    0.418
        40 -10.2912    192.6284    156.3841   1.0698776394e+02   1.2590015674e+01    0.4267485    0.3041644 -74.47  0.001654043    2.450    0.592
        41 -11.6932     31.3571    156.3778   1.4226964343e+02   3.9241427515e+01    0.3982429    0.2586555 -45.22  0.002416645    2.031    0.508
        42  -9.8842    100.3311    152.5893   1.2616696612e+02   3.1033084540e+01    0.3008305     0.257037 -52.87 0.0008107237    1.230    0.187
        43  -9.0514    103.1069    148.2004   1.2474711967e+02   3.1513867490e+01    0.2309386    0.1784927 -44.82  0.001099151    1.409    0.290
        44 -11.8865     89.1358    152.1552   1.2867804205e+02   3.2896828994e+01    0.2608109    0.2355128 -46.43 0.0005635336    1.275    0.215
        45 -12.5372     66.9199    143.9997   1.3260082594e+02   3.7846608251e+01    0.8160948    0.5085089  80.13  0.004172297    1.930    0.482
        46 -11.7083     57.7513    132.2642   1.3300899493e+02   4.1620099283e+01    0.7886062    0.2901058 -72.71  0.002817753    3.615    0.723
        47  -9.7313    183.1914    238.4145   1.2299682145e+02   2.0581756860e+00    0.1669543   0.09079278  48.21 0.0004653839    1.627    0.385
        48  -8.3636    192.0022    144.0328   1.0439868878e+02   1.4838394711e+01    0.1722815    0.1596238 -14.67 0.0004284696    1.072    0.067
        49  -9.6256    110.8397    137.6525   1.2089738229e+02   3.2452910718e+01    0.3349312    0.2405346 -22.41  0.001386993    2.043    0.510
        50  -8.5394    173.9692    137.2430   1.0650977049e+02   1.9911422607e+01    0.2046367     0.163513 -70.42 0.0004928355    1.605    0.377
        51 -10.5281     98.4913    135.0448   1.2337645748e+02   3.5135067025e+01    0.2775129     0.228514 -37.50 0.0008060173    1.375    0.273
        52 -12.5186     42.2035    234.1262   1.4652233555e+02   2.3156289805e+01    0.2792692    0.2257506 -74.57 0.0007858508    1.504    0.335
        53  -9.4174    167.1604    131.0999   1.0651655145e+02   2.2537413426e+01     0.258914    0.1936158  80.79  0.000690953    1.895    0.472
        54  -9.5982     70.2220    124.3242   1.2847152341e+02   4.1793944101e+01    0.2296074    0.1851966 -83.15 0.0003566115    1.210    0.174
        55  -9.4254    107.8489    124.1929   1.1879423280e+02   3.5900093301e+01    0.1980411    0.1806491  88.46 0.0002870829    1.116    0.104
        56  -8.9755    181.8060    144.7241   1.0659432652e+02   1.6873849326e+01    0.1928797     0.170829  81.00 0.0006461559    1.369    0.270
        57  -9.1545    154.2897    119.9724   1.0665098963e+02   2.7497644997e+01    0.2703067    0.2084412  78.66  0.001047289    1.697    0.411
        58  -9.1116    233.3782    236.6773   1.1433942906e+02  -5.6386330561e+00    0.1028147   0.08596027  57.56 0.0007024767    1.828    0.453
        59 -10.4074    168.0520    113.2662   1.0191057940e+02   2.5731875230e+01    0.3439577    0.2975235 -85.26 0.0008343798    1.398    0.285
        60  -9.1154    203.5779    111.2429   9.4270160502e+01   1.7944923399e+01    0.2122854    0.1410818 -20.00 0.0009418515    1.657    0.397
        61  -9.7110     53.0000    109.9759   1.3041183571e+02   4.7198969616e+01    0.2225385   0.06382302 -60.78 0.0008081608    2.982    0.665
        62  -9.2911     32.6522     92.1260   1.3289138037e+02   5.3298052615e+01    0.1857727    0.1601444  62.51 0.0005198739    1.352    0.260
        63 -10.0582    241.8491     82.1660   8.0621479816e+01   1.3818311823e+01    0.1995776    0.1661715  12.87 0.0008000763    1.340    0.254
        64  -9.5442    155.6053     75.8099   9.4114644640e+01   3.5548396783e+01    0.2184615    0.1392284 -44.58 0.0005871163    1.613    0.380
        65  -9.3426     17.9663     66.7108   1.3237129590e+02   6.0005228810e+01    0.1504003    0.1352126 -52.00 0.0004020289    1.153    0.133
        66 -11.4255      2.5219     61.4553   1.3664377811e+02   6.2078448519e+01     0.345255    0.2191524 -69.95   0.00226051    1.334    0.250
        67 -11.2418      9.0758     54.0596   1.3263994933e+02   6.3231956613e+01    0.2788588    0.2110706  26.32 0.0004638903    1.690    0.408
        68 -10.3117     94.6170    242.0558   1.3855568906e+02   1.5184785811e+01     0.214581     0.100613 -63.95  0.001257168    2.465    0.594
        69  -9.9918     81.4770    248.4954   1.4125139836e+02   1.5975816612e+01    0.2320674    0.1322319  72.95  0.001213724    1.751    0.429
        70  -9.9999     46.4426    248.6091   1.4675532624e+02   2.0311901009e+01    0.2638665    0.1148551  71.52  0.001113196    2.280    0.561
        71 -10.5562    238.6331    247.6346   1.1516428814e+02  -7.5168236252e+00    0.1818074    0.1338323  -9.99   0.00134719    1.416    0.294
