#   1 NUMBER                 Running object number                                     
#   2 MAG_AUTO               Kron-like elliptical aperture magnitude                    [mag]
#   3 X_IMAGE                Object position along x                                    [pixel]
#   4 Y_IMAGE                Object position along y                                    [pixel]
#   5 X_WORLD                Barycenter position along world x axis                     [deg]
#   6 Y_WORLD                Barycenter position along world y axis                     [deg]
#   7 A_WORLD                Profile RMS along major axis (world units)                 [deg]
#   8 B_WORLD                Profile RMS along minor axis (world units)                 [deg]
#   9 THETA_WORLD            Position angle (CCW/world-x)                               [deg]
#  10 FWHM_WORLD             FWHM assuming a gaussian core                              [deg]
#  11 ELONGATION             A_IMAGE/B_IMAGE                                           
#  12 ELLIPTICITY            1 - B_IMAGE/A_IMAGE                                       
         1 -12.3033      1.4932     25.5558   8.3577661939e+01   7.1976502921e+01     0.481142    0.1983387 -59.24  0.002183479    3.115    0.679
         2 -14.9243    245.3095     11.4482   1.9006774015e+01   2.6377721613e+01     1.560298    0.5697677 -45.85  0.009481076    2.012    0.503
         3 -12.2567     13.1125     13.0924   6.9948663915e+01   7.2887981057e+01    0.3219627    0.1653131 -25.26  0.001444998    2.024    0.506
         4 -12.7147     16.0528      6.6883   6.4629674240e+01   7.3391843100e+01    0.4167481    0.2647018   1.52  0.002257528    1.506    0.336
         5 -13.6628      6.7100     10.7703   7.3208169126e+01   7.3933798428e+01     0.852838    0.4943363 -25.03  0.005101127    1.611    0.379
         6 -12.6436     10.6759      2.0221   6.5636005642e+01   7.4676094377e+01     1.054247    0.1794833  32.53  0.003375582    5.385    0.814
         7 -12.5654     19.7182     14.2140   6.6255977900e+01   7.1905563983e+01    0.4008045    0.1916144 -23.71  0.001959069    2.460    0.593
         8 -12.6865     25.7361      3.7755   5.7135503528e+01   7.2335047679e+01    0.3823575    0.2460191 -12.15  0.002264324    1.636    0.389
         9 -13.9519     12.0796     23.3602   7.5507966994e+01   7.1421605532e+01    0.7354875     0.332858 -27.55  0.003494347    2.382    0.580
        10 -10.4916    159.6646      3.3278   2.3556738212e+01   4.3781101475e+01    0.1253672   0.07184899 -69.45  0.000705184    1.723    0.420
        11 -11.9455     26.2184     16.2951   6.3410687173e+01   7.0722758056e+01    0.2892753    0.1472762 -20.38  0.001417615    2.395    0.583
        12 -11.9692    108.1443    241.3541   8.7471892037e+01   8.8791439895e+00    0.3741019    0.1831801  41.73  0.001688966    2.060    0.515
        13 -13.1785    246.8905    226.4355   5.6455319874e+01  -4.7093512621e+00    0.7692173    0.3209687 -23.43  0.003855552    2.461    0.594
        14 -13.2035    234.3286    244.1357   6.1306355278e+01  -6.0688321857e+00     0.748943    0.2555466 -32.46  0.003674026    2.486    0.598
        15 -12.8803    241.6469    237.7784   5.9090969642e+01  -5.8410165515e+00    0.6847256    0.2814811 -17.08  0.003041837    3.339    0.700
        16 -12.6090    242.7126    246.5740   6.0265439720e+01  -7.1556877782e+00    0.6206286    0.2760242 -23.61  0.003498944    1.969    0.492
        17 -12.4424    247.1116    239.4411   5.8451956169e+01  -6.5609966693e+00    0.4978284    0.2273768 -25.68   0.00269295    1.808    0.447
        18 -11.8607    249.5617    233.1698   5.7085882426e+01  -5.9065449420e+00     0.350918    0.1500099 -35.01  0.002017464    1.813    0.449
        19 -11.3069    249.5000    249.9978   5.9669623010e+01  -8.1927229803e+00    0.3447919    0.1631448  14.09  0.002103376    2.080    0.519
        20 -11.3427    248.8554    245.8502   5.9148509733e+01  -7.5849268358e+00    0.2849522     0.175922 -12.38  0.001275858    1.235    0.190
        21 -12.0678    225.6672    248.4037   6.3468472413e+01  -5.8698743577e+00    0.3048578    0.1834019  -8.44   0.00195054    1.398    0.284
        22 -11.4528     74.9000    250.1096   9.6458429701e+01   1.1149840382e+01    0.5240917    0.1082666  32.87  0.001814932    3.315    0.698
        23 -11.9500     65.3536    248.9903   9.8626979651e+01   1.2468380095e+01    0.4641875    0.2319785  36.92  0.002178671    1.668    0.400
        24 -11.3001     50.5976    250.0263   1.0219948360e+02   1.3872439920e+01    0.5026459    0.1400817  29.86  0.001982015    2.735    0.634
        25 -11.4601     45.3708    245.3263   1.0306365085e+02   1.5404161908e+01     0.444066    0.2295203  47.78  0.001847672    1.771    0.435
        26 -11.8855     36.5199    248.5944   1.0536743888e+02   1.5622536893e+01    0.5064536    0.2334217  47.32  0.002503078    1.919    0.479
        27 -11.8507     20.2099    249.1095   1.0910537507e+02   1.7076596666e+01    0.4016178    0.2131705  41.39  0.001880945    1.539    0.350
        28 -11.2237      3.8833    250.2313   1.1273649096e+02   1.8269759082e+01    0.3215872    0.1596111  19.93  0.001718724    2.076    0.518
        29 -12.3964      3.2735    243.5365   1.1258126748e+02   1.9710940706e+01     0.491795     0.269695  67.43  0.002001169    1.710    0.415
        30 -12.2253     72.7184    240.7267   9.6055159988e+01   1.3342403627e+01    0.4392681    0.2144137  46.71   0.00200443    2.060    0.515
        31 -10.8249     38.5611    241.0828   1.0435897493e+02   1.7008385404e+01    0.2992839    0.1745785  61.18  0.001274708    1.782    0.439
        32 -10.9452     64.6818    239.9936   9.7952981975e+01   1.4427218012e+01    0.2615546    0.1536547  46.68  0.001331162    1.625    0.385
        33 -11.5444     82.0866    237.1502   9.3364649056e+01   1.2981367242e+01     0.334306    0.1624469  49.80  0.001432786    2.365    0.577
        34 -11.3916     95.1227    236.2514   9.0028179282e+01   1.1559406220e+01    0.2552286    0.1726897  67.52  0.001254196    2.107    0.525
        35 -12.9334    231.4231    233.9675   6.0221884230e+01  -4.3326207036e+00    0.4364167    0.2235429 -11.76    0.0023692    2.074    0.518
        36 -12.3723    236.1981    227.5251   5.8385351567e+01  -3.8489214099e+00    0.3516103    0.1622231 -27.55  0.001924443    1.853    0.460
        37 -12.3711    226.0583    240.8207   6.2232078191e+01  -4.8156864720e+00     0.294727    0.1432739 -25.45  0.001650321    1.781    0.439
        38 -11.4705     14.2882    232.4037   1.0952983753e+02   2.1188885083e+01    0.4382334     0.245251  54.34  0.002375754    1.619    0.382
        39 -11.2378     11.1833    226.2066   1.0991474868e+02   2.2838431745e+01    0.3946996    0.1927619  53.05  0.001503384    1.874    0.467
        40 -12.1291     60.2313    231.8015   9.8269986746e+01   1.6714951685e+01    0.4050332    0.2096111  55.80  0.001812124    2.232    0.552
        41 -10.9526     48.6298    230.8329   1.0108539509e+02   1.8210184648e+01    0.3575916    0.1820738  66.08  0.001549526    2.548    0.608
        42 -12.1237     26.0109    228.6984   1.0649963417e+02   2.0962639460e+01    0.5612015    0.3076829  80.40  0.002784907    2.042    0.510
        43 -11.9363      4.6969    228.5232   1.1156216610e+02   2.2848664559e+01    0.4582503     0.247273  63.12  0.002036204    1.744    0.427
        44 -11.8039      2.1998    221.0758   1.1177840540e+02   2.4722927407e+01    0.4573641    0.2082228  85.58  0.001749183    2.261    0.558
        45 -10.5491     32.3353    229.5464   1.0501501457e+02   2.0167702841e+01    0.2711427    0.1610305  61.43  0.001288133    1.719    0.418
        46 -11.3651     44.9826    237.4600   1.0253847537e+02   1.7132478093e+01    0.3516008    0.1644212  47.86  0.001636221    2.011    0.503
        47 -11.3681     18.6176    222.3590   1.0788586145e+02   2.3078055844e+01    0.3688755    0.1951135  72.18  0.001623397    2.037    0.509
        48 -11.2871     39.7699    231.5142   1.0333832594e+02   1.8984482726e+01    0.3457425     0.224835  78.46  0.001851986    1.710    0.415
        49 -10.7236     44.3398    221.3546   1.0133564848e+02   2.0826246048e+01     0.294559    0.1541405  55.16  0.001341945    2.037    0.509
        50 -11.4372     35.0869    217.7284   1.0340360133e+02   2.2618002740e+01    0.4028996    0.1983007 -83.08  0.001800296    2.304    0.566
        51 -11.7734    238.5170    217.9719   5.6457518096e+01  -2.6547387402e+00    0.3066823    0.1444508 -28.11  0.001677836    1.808    0.447
        52 -11.9787     12.2912    217.1968   1.0912044725e+02   2.4813676888e+01    0.4823821    0.2569924  48.11  0.002198176    1.695    0.410
        53 -11.7852      2.4152    212.7276   1.1129664923e+02   2.6636194809e+01    0.4193029    0.2128009  81.50  0.001745448    1.987    0.497
        54 -10.9211      1.4833    206.4935   1.1119162887e+02   2.8177831986e+01    0.3090571    0.1107629 -76.39  0.001304188    2.586    0.613
        55 -10.1326     45.6418    213.3232   1.0025546540e+02   2.2578845100e+01    0.1516011   0.08915679  54.72 0.0007044419    1.772    0.436
        56 -10.8627     28.2486    211.8900   1.0470138201e+02   2.4661972327e+01    0.2765306    0.1719768  82.16  0.001399312    1.731    0.422
        57 -11.2698     21.1104    211.8860   1.0654685006e+02   2.5312270731e+01    0.3241925    0.1740505  85.53  0.001535704    2.032    0.508
        58 -12.8515     12.5495    205.0209   1.0828021865e+02   2.7685636840e+01    0.5537046    0.3071539  57.52  0.002764963    1.768    0.434
        59 -10.9333    250.0904    201.0945   5.1844773939e+01  -1.2853265467e+00    0.2595021    0.1139089 -36.68  0.001425008    1.753    0.430
        60 -12.6353    247.9575    215.3360   5.4507571551e+01  -3.1963900536e+00    0.5425785    0.1912908 -34.07  0.002681765    2.284    0.562
        61 -12.4015      3.4762    197.2831   1.1015008687e+02   3.0260258971e+01    0.4680029    0.2640012  72.20  0.002119315    1.776    0.437
        62 -12.3034      3.8307    188.7232   1.0951618828e+02   3.2354062662e+01     0.535322    0.2463613  58.73  0.002362749    2.273    0.560
        63 -10.9570     11.4851    191.4885   1.0762173459e+02   3.1103462599e+01    0.2396936    0.1157176  85.33  0.001031611    2.261    0.558
        64 -11.5624     17.1256    190.4206   1.0598555143e+02   3.0926279679e+01    0.2878165    0.1600054  76.32  0.001324788    1.976    0.494
        65 -12.0404     11.8023    183.8307   1.0695856942e+02   3.3014604779e+01     0.319743    0.1711064 -88.93  0.001477384    1.905    0.475
        66 -11.7946      1.9576    178.5324   1.0935250605e+02   3.5051831649e+01    0.4932342    0.2418305  83.69  0.002202607    2.130    0.531
        67 -10.6390      5.3975    183.2372   1.0871348419e+02   3.3626912258e+01    0.2855619    0.1505683  83.59  0.001241958    1.960    0.490
        68 -10.9802     23.1824    180.0299   1.0335184514e+02   3.3079740832e+01    0.2450102    0.1380668  67.09  0.001083892    2.031    0.508
        69 -12.6882      6.2414    172.3880   1.0767035776e+02   3.6348178358e+01    0.5103827     0.199243 -84.42  0.001985255    2.640    0.621
        70 -11.2089     11.2982    172.8479   1.0621677429e+02   3.5878715380e+01    0.2267057     0.156211  73.96 0.0009934093    1.481    0.325
        71 -10.8384      1.5422    170.7332   1.0892140095e+02   3.7076627347e+01    0.2623093    0.1115439 -71.29  0.001095183    2.061    0.515
        72 -10.5274     17.6605    170.3162   1.0408257279e+02   3.6063181150e+01    0.1499225   0.09336774  57.15 0.0006636818    1.704    0.413
        73 -12.1301     10.5818    167.3677   1.0596198147e+02   3.7358230266e+01    0.3223568    0.1801601  62.29  0.001475858    1.970    0.492
        74 -11.8868      2.2436    165.4359   1.0831787715e+02   3.8404944059e+01    0.2843636      0.24679  63.44  0.001724028    1.144    0.126
        75 -13.3780      9.4750    156.5322   1.0532440191e+02   4.0283549478e+01     0.528688    0.2668179 -68.27  0.002407218    1.756    0.430
        76 -11.7291      2.3153    143.4963   1.0643048161e+02   4.4156977123e+01    0.2530994    0.1794495 -85.90  0.001350033    1.350    0.259
        77 -12.4914      3.3256    154.0441   1.0705337978e+02   4.1320428845e+01    0.3873129    0.2230513 -75.78  0.001890999    1.573    0.364
        78 -11.8744      4.3743    136.9875   1.0508885089e+02   4.5765039393e+01    0.3237115    0.1194758 -74.13  0.001245067    2.439    0.590
        79 -11.3087      2.4975    127.4678   1.0473818994e+02   4.8373642496e+01    0.2527932    0.1224562  89.39   0.00103924    2.361    0.576
        80 -11.4407    248.4021    119.1968   3.7789070690e+01   1.1699843315e+01    0.1745207   0.08558449 -48.02 0.0008324561    1.699    0.411
        81 -10.5813      2.0000     94.9930   1.0069397063e+02   5.6760030423e+01    0.2273141   0.06966268 -70.53 0.0008077847    2.980    0.664
        82 -12.3830    248.5517     75.2788   2.9869536809e+01   1.8112347516e+01     0.333124   0.06607586 -43.94  0.001316841    3.550    0.718
        83 -11.8316    248.8583     65.1376   2.8038598777e+01   1.9434553810e+01    0.1805113    0.1176501 -60.15  0.001163474    1.284    0.221
        84 -11.4410    250.3534     56.4900   2.6393144371e+01   2.0323653736e+01    0.1917867   0.08124575 -41.03  0.001039741    1.916    0.478
        85 -12.6746      3.7247     49.8692   9.0294782785e+01   6.7118679193e+01    0.4940624    0.2862817 -50.92  0.002708063    1.535    0.348
        86 -12.4898      2.2118     40.3474   8.8348011939e+01   6.9146226187e+01    0.4530494    0.2097851 -59.97  0.002212348    2.282    0.562
        87 -12.6325    212.0905    246.8932   6.5703215517e+01  -4.3342892414e+00    0.5024362    0.2422576  -0.88  0.002437785    2.551    0.608
        88 -11.9159     18.9219     30.4373   7.4255913580e+01   6.9510350354e+01    0.3211677     0.165484 -24.75  0.001575733    2.086    0.521
        89 -10.6225    110.4813    248.9875   8.7857699883e+01   7.0949626053e+00    0.1663147    0.1144402  76.18 0.0008098728    2.508    0.601
        90 -11.7958     12.0145    249.1044   1.1092076985e+02   1.7809983370e+01    0.4495617    0.1850282  40.67  0.002207701    1.901    0.474
        91 -12.5374     97.7826    244.7774   9.0390144699e+01   9.4860106138e+00    0.4375301    0.2175864  41.62  0.002035353    1.945    0.486
        92 -12.5130     85.0072    244.5875   9.3461414349e+01   1.1080047901e+01     0.414486    0.2300044  42.34  0.002059521    1.698    0.411
        93 -11.6195    116.3559    244.8457   8.5948053368e+01   7.1625354668e+00    0.2703978    0.1498342  43.33  0.001299298    1.942    0.485
        94 -12.0826     57.1702    242.5940   1.0001856325e+02   1.4716040590e+01    0.5519494    0.2634709  48.48  0.002568706    2.059    0.514
        95 -11.9213     29.7589    241.0059   1.0643048005e+02   1.7893845198e+01    0.4731343    0.2843073  66.14  0.002131048    1.712    0.416
        96 -12.2156     15.9217    240.6886   1.0961190568e+02   1.9240607693e+01    0.6756876    0.2524995  41.16  0.002780672    2.122    0.529
        97 -11.6508      6.3460    236.4099   1.1156933855e+02   2.0981407636e+01    0.3674493    0.2215724  63.51   0.00137246    1.519    0.342
