#   1 NUMBER                 Running object number                                     
#   2 MAG_AUTO               Kron-like elliptical aperture magnitude                    [mag]
#   3 X_IMAGE                Object position along x                                    [pixel]
#   4 Y_IMAGE                Object position along y                                    [pixel]
#   5 X_WORLD                Barycenter position along world x axis                     [deg]
#   6 Y_WORLD                Barycenter position along world y axis                     [deg]
#   7 A_WORLD                Profile RMS along major axis (world units)                 [deg]
#   8 B_WORLD                Profile RMS along minor axis (world units)                 [deg]
#   9 THETA_WORLD            Position angle (CCW/world-x)                               [deg]
#  10 FWHM_WORLD             FWHM assuming a gaussian core                              [deg]
#  11 ELONGATION             A_IMAGE/B_IMAGE                                           
#  12 ELLIPTICITY            1 - B_IMAGE/A_IMAGE                                       
         1 -15.2974     11.4493    143.5435   1.3906642388e+02   4.4334645210e+01     10.32648     3.361503 -82.82   0.03328001    4.774    0.791
         2 -13.3202      2.2059     42.2499   1.2289615482e+02   6.6334258928e+01       1.5006     0.359473 -57.91  0.005715278    4.508    0.778
         3 -13.3788    200.5142     29.3780   6.3995598014e+01   3.1918179411e+01      1.17974     1.120988  52.81  0.007293077    1.303    0.233
         4 -13.3553    216.6776     12.0751   5.8376432378e+01   3.0214674389e+01    0.8707856    0.7423658  67.00  0.004606687    1.311    0.237
         5 -12.3898      3.1067     20.2634   1.1517068035e+02   6.9821810978e+01     1.996662          nan -40.67  0.005756139    8.060    0.876
         6 -11.7707      2.3473      6.3628   1.0993580932e+02   7.1803170756e+01    0.5632876    0.2393479 -36.99  0.003512892    1.916    0.478
         7 -11.1179     63.4407    246.5459   1.3856163635e+02   1.5276064858e+01    0.3271784    0.2065507  78.28  0.000625473    1.461    0.315
         8 -12.4711    139.0404    248.3864   1.2406601444e+02   3.0461917548e+00    0.5085332    0.4743473 -61.00  0.003387416    1.253    0.202
         9 -13.3433     34.3759    246.3987   1.4379102744e+02   1.9093311291e+01     1.600629    0.7099171  44.09  0.008922725    1.981    0.495
        10 -12.8617      9.4574    207.2284   1.4548905946e+02   2.9992883381e+01    0.7190314    0.6739984  14.03  0.004328371    1.660    0.397
        11 -12.6905      5.5389    227.4823   1.4755798466e+02   2.6103585854e+01    0.7514077    0.5803446  71.28    0.0056689    1.160    0.138
        12 -13.3821      6.3480    246.6012   1.4853211925e+02   2.2209108980e+01     1.307517     1.061671 -85.50   0.01038474    1.369    0.270
        13 -11.5922     12.0853    239.3273   1.4715919579e+02   2.3035063549e+01    0.4949718    0.2821915  57.80  0.002070787    1.425    0.298
        14 -10.5360    226.0949    248.7935   1.0715884028e+02  -1.1197575024e+01    0.2408055    0.1428222  -8.31  0.001255094    2.127    0.530
        15 -10.6844    197.9858    247.0010   1.1219164450e+02  -6.5931198190e+00    0.2079988    0.1417653   8.28  0.000775216    1.702    0.412
        16 -11.9126     97.5213    244.6933   1.3185080222e+02   1.0568812796e+01    0.5195516    0.1554352  49.78  0.001957922    3.061    0.673
        17 -11.3683    121.3359    249.6845   1.2775023638e+02   5.7698082439e+00    0.3012212    0.2296974  63.45  0.001827664    1.225    0.184
        18 -10.3290    248.5182    234.9958   1.0071412460e+02  -1.2500094849e+01    0.2086488    0.1232203  40.20  0.001181246    1.826    0.452
        19 -10.3687    249.0127    249.6442   1.0315545942e+02  -1.4537389293e+01    0.2653836   0.09648085  36.02  0.001258569    2.545    0.607
        20 -12.7050     28.4828    229.2419   1.4358059482e+02   2.3277055366e+01    0.3236367    0.2437287 -74.04 0.0007426598    1.355    0.262
        21 -13.7271     33.9171    222.3426   1.4201672724e+02   2.4099806445e+01    0.7349525    0.5360521  79.29  0.002550727    1.072    0.068
        22 -11.7148     63.4544    188.2031   1.3220197106e+02   2.8049833510e+01    0.2675735    0.2435546 -71.70 0.0004891113    1.193    0.162
        23 -11.2585      3.8240    183.4119   1.4476446089e+02   3.5771605974e+01    0.4542929    0.1684632  58.50  0.002074485    2.959    0.662
        24 -12.8200    107.4361    230.6006   1.2814103497e+02   1.1779365456e+01     1.046544    0.2033208  42.96  0.003225704    4.155    0.759
        25 -10.6100     74.3414    175.6644   1.2784519189e+02   2.9497595968e+01    0.2489607    0.2210506 -86.06  0.000376125    1.019    0.019
        26 -13.0503     60.7468    173.4335   1.3081839074e+02   3.1957254345e+01    0.5508248    0.2798046 -46.61  0.001952631    2.312    0.568
        27 -12.5334     43.9947    212.0835   1.3911436191e+02   2.5113474945e+01    0.7070311    0.5375775 -65.26  0.003343457    1.392    0.282
        28 -11.6659     82.3215    166.8620   1.2444732710e+02   3.0426317166e+01    0.6229484    0.6067444 -31.64  0.003691607    1.222    0.182
        29 -11.7470     85.5159    225.3337   1.3202730538e+02   1.6396988331e+01    0.9183671    0.1306902  47.19  0.002372986    6.279    0.841
        30  -9.7876     95.6161    151.4215   1.1816517099e+02   3.2029610230e+01     0.276529    0.2589479 -45.62 0.0008309392    1.139    0.122
        31 -11.7973     84.0582    150.1479   1.2098526471e+02   3.4249337999e+01    0.3160104    0.2501294 -47.48 0.0006050681    1.281    0.219
        32  -8.8201     98.8271    147.2116   1.1645963611e+02   3.2499175600e+01    0.1961105     0.172712 -30.62 0.0003343069    1.287    0.223
        33 -11.9667     67.4108    143.5049   1.2423119771e+02   3.8358455261e+01    0.6938177    0.4380605  61.38  0.003244988    1.938    0.484
        34  -9.4788    108.4437    136.5912   1.1157932967e+02   3.3316892249e+01    0.3749968    0.2401188 -21.51  0.001428078    2.608    0.617
        35 -10.2795     95.1827    133.7897   1.1457716759e+02   3.6380644515e+01    0.2535142    0.2258284 -35.30 0.0003604241    1.187    0.157
        36  -8.6450    105.7813    123.3865   1.0921585975e+02   3.6931377038e+01    0.1833158    0.1469548  27.52 0.0002014931    1.392    0.282
        37  -9.6191    167.3477    112.4393   9.0892649769e+01   2.6099575800e+01    0.3081677    0.2467077 -74.84 0.0007268955    1.429    0.300
        38 -10.1893    241.5060    102.4998   7.5059623941e+01   1.1292661392e+01    0.1404488    0.1226912 -57.19 0.0008106656    1.004    0.004
        39  -9.3213    159.3956     77.7993   8.3410358018e+01   3.4665512524e+01    0.2035289    0.1461045 -26.75 0.0005326297    1.618    0.382
        40  -8.8703    152.5486    213.0157   1.1587511860e+02   7.3946125887e+00    0.1912963    0.1411744 -52.49 0.0003249552    1.468    0.319
        41 -11.5441    238.3766    248.3427   1.0483656162e+02  -1.2904617741e+01    0.3436235    0.1891774  14.48  0.001798633    2.060    0.515
        42 -10.5783     53.6244    203.5261   1.3622645778e+02   2.5809143939e+01    0.4120671    0.2155962  70.00  0.001766419    2.139    0.532
        43 -11.2474    217.4584    248.7229   1.0875720398e+02  -9.8964274579e+00    0.3213997    0.1994186  48.45  0.001761439    1.937    0.484
        44 -11.9688    160.5385    249.1435   1.1988816050e+02  -7.2400107476e-01    0.6208206    0.1876198  38.33  0.002308945    2.963    0.662
        45 -11.4846     56.7226    196.3399   1.3473258412e+02   2.7053827774e+01    0.2987512    0.2409097 -56.87 0.0004615167    1.393    0.282
        46 -11.2092     81.7531    249.1653   1.3537341607e+02   1.2119295832e+01    0.3227964    0.1455986  47.52  0.001511517    1.835    0.455
