#   1 NUMBER                 Running object number                                     
#   2 MAG_AUTO               Kron-like elliptical aperture magnitude                    [mag]
#   3 X_IMAGE                Object position along x                                    [pixel]
#   4 Y_IMAGE                Object position along y                                    [pixel]
#   5 X_WORLD                Barycenter position along world x axis                     [deg]
#   6 Y_WORLD                Barycenter position along world y axis                     [deg]
#   7 A_WORLD                Profile RMS along major axis (world units)                 [deg]
#   8 B_WORLD                Profile RMS along minor axis (world units)                 [deg]
#   9 THETA_WORLD            Position angle (CCW/world-x)                               [deg]
#  10 FWHM_WORLD             FWHM assuming a gaussian core                              [deg]
#  11 ELONGATION             A_IMAGE/B_IMAGE                                           
#  12 ELLIPTICITY            1 - B_IMAGE/A_IMAGE                                       
         1 -13.8695    244.9054     60.1725   3.5568472396e+02   2.0808675791e+01     1.390476     1.033226 -17.19  0.009360288    1.735    0.424
         2 -11.8495      3.9138      9.4753   4.4126007752e+01   7.7994395679e+01    0.4169124    0.3717402 -25.63  0.002668285    1.135    0.119
         3  -8.7935     90.4874      7.4322   3.5912765336e+02   6.0986916656e+01     0.133124    0.1172833  83.37 6.602381e-05    1.055    0.052
         4  -9.8380    247.6674    248.6643   2.8401930306e+01  -4.9342067319e+00    0.1060533   0.05348475 -10.27 -0.000222102    1.736    0.424
         5 -11.2365     28.2918    250.0082   7.1682772795e+01   1.6888546770e+01    0.3098115     0.194488  34.38  0.001960891    1.247    0.198
         6 -12.5189     29.2495    157.4338   6.5297173573e+01   3.8223439536e+01    0.8816066    0.5335892 -22.08  0.001487651    2.335    0.572
         7 -15.2731      6.9512    239.0795   7.5980898895e+01   2.0871328124e+01     13.21716     2.004863 -81.97   0.04122405    7.032    0.858
         8 -14.3909      8.5404    207.0243   7.4468740845e+01   2.7616061722e+01     3.744465     1.790626  -7.58   0.01465567    4.010    0.751
         9 -14.0262      4.8001    193.8568   7.4896686037e+01   3.0993115849e+01     2.485243     1.481337 -14.80   0.01212464    2.489    0.598
        10 -14.9049      3.5062    170.0722   7.4189944365e+01   3.7002617093e+01     7.185894    0.6695688 -79.26   0.01633218    7.977    0.875
        11 -14.3403     13.4915    164.5907   7.0857703933e+01   3.7689700010e+01     2.480945     1.176634  64.24   0.01060167    2.131    0.531
        12 -12.7069     28.3967    237.0450   7.1049954029e+01   1.9412320136e+01    0.5905929    0.3392293  60.42   0.00226085    1.621    0.383
        13  -8.5168    155.0000    230.0490   4.1825890030e+01   6.6023516827e+00    0.1800508   0.06566872 -48.35  0.000804967    2.960    0.662
        14  -9.3463     72.7673    229.0371   6.0057418946e+01   1.6468835772e+01    0.1508856    0.1074324 -71.30 0.0007259763    1.642    0.391
        15 -10.6766     27.9447    231.3194   7.0868162837e+01   2.0623124796e+01    0.2055122    0.1474444  67.67 0.0005692883    1.328    0.247
        16 -10.6153     61.9718    222.9125   6.2120629285e+01   1.8924739328e+01    0.3621548    0.1711461  50.94  0.001306832    2.129    0.530
        17 -10.7338     61.7359    229.7300   6.2744377544e+01   1.7546335427e+01    0.2953292     0.171214 -86.62  0.001424822    2.182    0.542
        18 -10.7240     73.9482    219.6452   5.8889572519e+01   1.8253143433e+01    0.3543822    0.1015591  28.63  0.001320552    2.864    0.651
        19 -11.5617     57.0230    211.2784   6.2346614507e+01   2.1977583767e+01    0.3681566    0.2392971  45.18  0.001395103    1.370    0.270
        20 -10.5059     51.0000    245.9645   6.6408961024e+01   1.5477729087e+01    0.2503836    0.1841654 -81.95 0.0009114001    1.591    0.372
        21 -10.5965     51.0000    241.4729   6.6116368355e+01   1.6340081203e+01    0.2890503    0.1714701 -79.55   0.00135894    1.994    0.499
        22 -10.4793     76.0756    182.9413   5.4183516368e+01   2.6236218294e+01    0.4199772    0.2449604  77.32  0.001720447    2.548    0.607
        23 -10.2785     99.0148    181.0246   4.7681739021e+01   2.3528296039e+01     0.300094    0.2606943  17.32 0.0008157059    1.136    0.120
        24 -11.2346     70.5128    176.8509   5.4953893563e+01   2.8444865394e+01    0.3141889    0.2332161 -49.02  0.001079711    1.439    0.305
        25 -10.7480     71.4977    241.7096   6.1444800497e+01   1.4145344222e+01    0.2467914    0.1799869  53.56  0.001168766    1.367    0.268
        26 -11.6319     68.8515    168.6935   5.4337119069e+01   3.0700158429e+01    0.4555059    0.3732147 -31.18   0.00238953    1.396    0.283
        27 -12.2673     70.5627    160.7611   5.2679728756e+01   3.2490880797e+01    0.6941035    0.5039678  75.66  0.003317833    1.593    0.372
        28  -8.5626    144.6605    169.8072   3.4466151807e+01   1.9067064422e+01    0.1885769     0.127016 -56.04 0.0005344383    1.653    0.395
        29 -11.2128     88.6122    166.2620   4.8226757894e+01   2.8538788936e+01    0.3667871    0.3199472  70.25  0.001977148    1.230    0.187
        30 -11.2385     78.2086    158.0663   4.9947574767e+01   3.2102431260e+01    0.4297134    0.3026483 -79.45  0.001537284    1.609    0.378
        31 -11.5475     38.8462    152.6197   6.1651039965e+01   3.8549076855e+01    0.3393208     0.303681   4.83 0.0005537709    1.256    0.204
        32 -10.7247    238.1836    151.9745   1.4318806136e+01   8.7080448349e+00    0.1991167    0.1094037 -20.45 0.0008892168    1.983    0.496
        33 -13.2090     66.1966    143.1184   5.1244208969e+01   3.7712427309e+01     1.091146    0.8282954  68.22  0.005254297    1.448    0.310
        34 -10.7332     58.8231    147.9662   5.4443125829e+01   3.7423049591e+01    0.4231516    0.3029404 -85.25  0.001579555    1.502    0.334
        35 -12.2344    249.2785    140.6154   1.0819627024e+01   8.9699149791e+00    0.6859435    0.1452739 -37.53  0.002618226    3.596    0.722
        36 -10.6077    238.5109    145.0136   1.2995852560e+01   9.6940496619e+00    0.1884552   0.09054488 -36.93  0.001037093    1.603    0.376
        37 -12.7940     37.4958    140.2799   6.0582981421e+01   4.2060308028e+01    0.6067626     0.359777  -2.22  0.002141943    2.364    0.577
        38 -10.5182     54.3153    137.9657   5.4388682230e+01   4.0705458931e+01    0.3816563    0.2455188  85.36  0.001443138    1.863    0.463
        39 -10.3445     83.1835    132.8801   4.3807404658e+01   3.7808987685e+01    0.3127605    0.2912301 -23.46 0.0008979636    1.154    0.133
        40 -12.6611    246.9069    124.8688   8.1825747982e+00   1.1536773095e+01    0.4803154    0.3975674 -33.04  0.003591252    1.110    0.099
        41  -9.5221     87.9793    130.2616   4.1737568748e+01   3.7681391908e+01    0.3487427    0.2028577 -47.21  0.001445331    1.737    0.424
        42 -11.7500     69.5328    129.2086   4.7583536607e+01   4.0923502766e+01    0.4069024    0.3376873 -60.57 0.0003181386    1.181    0.153
        43  -9.3501    100.2536    125.1077   3.6821605521e+01   3.6811268100e+01    0.3915418      0.21194  19.00  0.001320627    3.088    0.676
        44 -10.1795     85.6148    119.8173   4.0184036869e+01   4.0742343013e+01    0.3134844     0.258293  42.15 0.0007914405    1.225    0.184
        45  -9.2598     63.9531    119.1484   4.7505233062e+01   4.4446432498e+01     0.333739    0.1948544  87.08  0.001188349    2.721    0.633
        46 -10.3593     25.0547    118.4952   6.2298521499e+01   4.9347205895e+01    0.4247422    0.1775248  82.20  0.001301773    3.771    0.735
        47 -10.6675     17.4792    117.1372   6.5146903591e+01   5.0365141218e+01    0.2456771    0.2072404  20.42 0.0005520945    1.282    0.220
        48  -9.0789    100.0408    114.9921   3.4478280894e+01   3.9310690602e+01    0.2201479    0.2169895  74.79 0.0003105963    1.025    0.025
        49 -11.4279     54.0504    146.4302   5.5787192610e+01   3.8448996846e+01     0.548566    0.3752874 -52.19 0.0006131059    1.488    0.328
        50  -9.0937    204.4681    110.8631   1.0878562193e+01   2.0138733255e+01    0.2428183    0.1661046  29.44  0.001323402    1.997    0.499
        51  -8.9807     25.4604    109.5149   6.0823724662e+01   5.1812872313e+01    0.1477019    0.1361109  86.19  0.000808552    1.055    0.052
        52  -9.1181    105.2648    130.5857   3.6587125103e+01   3.4571583645e+01    0.2840621      0.19101 -64.89  0.001244944    1.651    0.394
        53 -11.7919    243.9725     95.1794   2.7660622879e+00   1.6205518580e+01    0.2711234    0.2124003 -83.76  0.001899087    1.652    0.395
        54 -11.2805     15.7522     93.2008   6.2549476667e+01   5.7131848577e+01    0.4874395     0.265269  57.73  0.001180619    2.183    0.542
        55  -9.0654     26.2077     83.0191   5.5579503585e+01   5.8969485768e+01    0.2455161    0.1563438  74.26  0.001066641    2.041    0.510
        56  -9.9913    112.0704    248.3721   5.3062199265e+01   8.4735428702e+00    0.2141065    0.1717184 -50.92  0.000640906    1.502    0.334
        57 -13.2065    226.9806     68.5134   3.5897604474e+02   2.2692956481e+01    0.9454864     0.623328 -32.20  0.005824915    1.405    0.288
        58  -8.7836     82.6616     68.3242   2.6504349987e+01   5.3496343197e+01    0.1561836    0.1195347  88.03 0.0007051164    1.722    0.419
        59  -8.8884     79.8227     63.7638   2.5897535218e+01   5.5035220472e+01    0.2126903    0.1883629  54.85 0.0004756559    1.128    0.114
        60  -8.9507     82.8574     61.8489   2.4128510065e+01   5.4777806447e+01    0.2037741     0.191525 -50.37 0.0002830403    1.075    0.070
        61  -9.7164     73.8344     62.6106   2.7697116056e+01   5.6509965552e+01    0.2729563    0.2294009 -73.00 0.0006617742    1.358    0.263
        62  -8.8290     27.6688     63.7333   4.9850031827e+01   6.3757283479e+01    0.1458788    0.1018166 -24.71 0.0002274311    1.580    0.367
        63 -11.3252     13.4390     60.5366   5.7176331970e+01   6.5915533921e+01    0.3416143    0.2549295 -89.64 0.0008727384    1.540    0.351
        64 -11.0273      2.0035     48.3478   6.1435439252e+01   6.9680715839e+01    0.3763875    0.1623679 -69.93 0.0005411271    2.187    0.543
        65 -10.9039      8.5087     49.0078   5.7201751547e+01   6.9116909988e+01    0.2438368    0.1727398  58.20  0.001277224    1.776    0.437
        66 -11.5525      3.5270     23.7230   5.2081682743e+01   7.5207226539e+01    0.3463747    0.2936211  10.69   0.00223621    1.183    0.155
        67  -9.1508     60.2293     21.1872   1.4737225123e+01   6.6587789271e+01    0.1770551    0.1583048 -85.26 0.0005089889    1.305    0.234
        68 -10.7614      9.9169     14.1637   4.1359692309e+01   7.6493070173e+01    0.2202135    0.1676433  43.96  0.000842015    1.602    0.376
        69  -9.6446     58.1626    249.0509   6.5006843721e+01   1.4172512596e+01    0.1989956    0.1097646  59.82 0.0009148943    1.984    0.496
