#   1 NUMBER                 Running object number                                     
#   2 MAG_AUTO               Kron-like elliptical aperture magnitude                    [mag]
#   3 X_IMAGE                Object position along x                                    [pixel]
#   4 Y_IMAGE                Object position along y                                    [pixel]
#   5 X_WORLD                Barycenter position along world x axis                     [deg]
#   6 Y_WORLD                Barycenter position along world y axis                     [deg]
#   7 A_WORLD                Profile RMS along major axis (world units)                 [deg]
#   8 B_WORLD                Profile RMS along minor axis (world units)                 [deg]
#   9 THETA_WORLD            Position angle (CCW/world-x)                               [deg]
#  10 FWHM_WORLD             FWHM assuming a gaussian core                              [deg]
#  11 ELONGATION             A_IMAGE/B_IMAGE                                           
#  12 ELLIPTICITY            1 - B_IMAGE/A_IMAGE                                       
         1 -14.0207     37.8625     33.4128   8.4161796756e+01   6.6059293905e+01     1.212243    0.4172848  26.80  0.004907273    3.377    0.704
         2 -12.3364     28.3558      9.9958   7.7915571957e+01   7.0724764549e+01    0.8235345    0.2321645 -39.44  0.003429613    3.535    0.717
         3 -13.7240     19.2127     22.3026   8.8562893778e+01   6.9900138266e+01     1.092718    0.5528758   2.92  0.005577519    2.457    0.593
         4 -11.8368     64.4584     18.0337   6.6122300982e+01   6.4253946398e+01    0.4468176    0.2567001  40.68  0.001735674    1.600    0.375
         5 -12.8005     95.2550      3.6079   5.0391586769e+01   5.9486237765e+01    0.5011174    0.2093461  48.08  0.002326839    1.942    0.485
         6 -12.8116     86.4757      2.0940   5.1960540357e+01   6.1504650549e+01     1.048094    0.2694692  60.37  0.003668595    3.779    0.735
         7 -12.9717     75.6943     13.4222   6.0134503276e+01   6.2667637412e+01    0.4745354     0.286979  41.12 0.0008243158    1.444    0.307
         8 -13.4650     85.4725     11.0036   5.6097333520e+01   6.0931823165e+01    0.9095523    0.7779312  55.57  0.005791527    1.259    0.206
         9 -12.3004    124.1011     10.4308   4.6827594559e+01   5.2261613042e+01    0.2954709    0.2101359  55.11 0.0003427159    1.215    0.177
        10 -10.3191    242.2199      9.9884   3.2882507291e+01   2.4269600852e+01    0.1462439   0.08676552 -38.62 0.0008456598    1.579    0.367
        11 -11.7541    138.5781      5.2474   4.2560501962e+01   4.9205323218e+01    0.5676101    0.1652197  62.64  0.002162338    2.666    0.625
        12 -10.5768    188.2369      5.5674   3.6412484323e+01   3.7006152071e+01    0.1691844    0.1061278  64.82 0.0004294438    1.454    0.312
        13 -11.8966    104.1129      4.3138   4.8633140653e+01   5.7449580879e+01    0.2252689     0.166972  17.08  0.001321823    1.409    0.291
        14 -11.7254    112.1461      3.2756   4.6545679130e+01   5.5686266636e+01     0.297388    0.1936345  47.40  0.000851742    1.317    0.241
        15 -14.5958      7.5546     21.9712   9.4692972537e+01   7.0925619014e+01      1.68702    0.6044779 -38.63  0.008480346    2.178    0.541
        16 -11.4359     73.3616      1.5135   5.5407268527e+01   6.4245625834e+01    0.2233111    0.1225751  50.16 0.0005945881    1.583    0.368
        17 -11.5588    140.8772     97.3129   7.1427095192e+01   3.4975771052e+01    0.4101575     0.211046 -27.38  0.001393304    2.715    0.632
        18 -12.6597    188.1362     94.5800   6.0278683805e+01   2.4369280428e+01    0.4067049    0.3185315  53.95 0.0007995535    1.324    0.245
        19 -11.6357    176.0285     94.0046   6.2504235293e+01   2.7340914805e+01    0.2977096    0.2150079  53.90  0.001381762    1.420    0.296
        20 -11.6545     70.9868     94.0039   9.1326636714e+01   4.9397318367e+01    0.2431988    0.1701634 -20.51  0.001146106    1.729    0.422
        21 -13.3867     28.0682     81.1937   1.0357221176e+02   5.7414167473e+01    0.3437792    0.2924503  15.42  0.001521371    1.356    0.263
        22 -14.1705     30.8714     88.5623   1.0420269368e+02   5.5468275091e+01    0.6807676    0.3439649 -57.45  0.003331603    1.620    0.383
        23 -12.9955      4.9554     84.8254   1.1290535743e+02   5.8157632150e+01    0.3875429    0.2225961 -54.44  0.002237757    1.344    0.256
        24 -13.8861     41.3525     82.2387   9.8812897136e+01   5.5905605601e+01    0.4400988    0.3644632  18.10  0.002651513    1.351    0.260
        25 -15.2882     47.3004     67.1340   9.2247895238e+01   5.8543051825e+01     1.154333    0.8549818  83.86  0.005750757    2.401    0.584
        26 -15.2584     59.9170     71.4086   8.8710214957e+01   5.5999881434e+01      1.01037    0.6515132  29.14  0.004014701    1.660    0.398
        27 -13.2993     61.1105     67.0540   8.6865308809e+01   5.6732426163e+01    0.5416964    0.2586333  30.27  0.001941111    2.282    0.562
        28 -14.1049      8.8987     63.6931   1.0709270179e+02   6.2676430081e+01    0.5674895    0.3073201 -40.36  0.003202738    1.543    0.352
        29 -13.5713    138.0983     73.3790   6.4968118835e+01   4.0279509348e+01    0.4945788    0.3232988  53.09  0.001703416    1.528    0.345
        30 -13.6269     96.1292     71.1542   7.6013745034e+01   4.9914249280e+01    0.5662512    0.4978489 -81.96  0.001478183    1.472    0.320
        31 -13.0862    119.2015     72.3464   6.9556711250e+01   4.4829221578e+01    0.3801183    0.2846711  22.35   0.00178934    1.540    0.351
        32 -11.6911    160.0416     72.2904   5.9662702964e+01   3.5157419461e+01    0.2155132    0.1909633  58.81 0.0002933529    1.120    0.107
        33 -13.3575    118.3079     66.7601   6.7972978197e+01   4.6049869143e+01    0.5825388    0.3229992 -21.10  0.002213398    2.497    0.599
        34 -12.6695    130.4404     62.9614   6.3539167970e+01   4.3917947983e+01    0.3314894    0.2917851  79.05  0.001739057    1.280    0.219
        35 -10.9649    169.8539     63.0338   5.5007082061e+01   3.4274612304e+01    0.2320259    0.1954024 -74.18 0.0004817393    1.264    0.209
        36 -14.8896     68.7307     54.6100   7.9671441504e+01   5.7970650826e+01    0.9255112    0.7554802 -81.48  0.003286917    2.009    0.502
        37 -14.1785     73.9465     51.8025   7.6712162600e+01   5.7595940732e+01    0.8429733    0.4153407  45.25  0.003692058    2.218    0.549
        38 -13.3794     84.4489     59.7211   7.5918815906e+01   5.4299628816e+01     0.414615    0.3795771   8.78  0.002412653    1.046    0.044
        39 -14.9630     36.3669     57.8291   9.3793778842e+01   6.1696175693e+01    0.8787113    0.5042377 -44.56  0.004675057    1.468    0.319
        40 -10.4259    246.7892    183.7581   7.0059628499e+01  -2.9865725190e+00    0.1570569    0.1401326 -28.31 0.0002488667    1.284    0.221
        41 -13.5983     41.9387     47.7212   8.7932654146e+01   6.3040038265e+01    0.4826214    0.3584804  -7.88  0.001214378    1.305    0.234
        42 -14.7366     41.9405     42.4344   8.5944817052e+01   6.4004253384e+01     1.012737    0.4464898  20.88  0.004380668    2.836    0.647
        43 -11.9254     93.1005     57.0555   7.2107804597e+01   5.3113409497e+01    0.2661313    0.1924809 -40.32 0.0009835215    1.412    0.292
        44 -11.4551    174.8548     56.7461   5.2294068784e+01   3.4013669373e+01     0.230979    0.2216521  83.36 0.0004680834    1.027    0.026
        45 -11.8216    125.0510     57.0027   6.2922442948e+01   4.6170257674e+01    0.2996262    0.2111425  51.44 0.0005511058    1.379    0.275
        46 -12.4477    153.0618     53.1809   5.5317752451e+01   3.9980977813e+01    0.4684591    0.2641166  34.54  0.001506883    2.311    0.567
        47 -11.8343    133.1966     53.5938   5.9786259723e+01   4.4781433488e+01    0.3385341     0.261152  60.30   0.00129753    1.301    0.231
        48 -14.2063     25.3079     47.4691   9.5253008631e+01   6.4834161605e+01    0.6022798    0.3207287 -20.05  0.003014122    2.147    0.534
        49 -14.0667      3.9419     47.7963   1.0523497453e+02   6.6288300703e+01    0.7036476    0.5256873  77.32  0.004027738    2.105    0.525
        50 -12.3078    202.9227    172.1236   7.5779063265e+01   6.4273860867e+00    0.3090737    0.1856813 -42.02  0.001444313    1.661    0.398
        51 -13.1700    240.0156    155.7245   6.5457590285e+01   2.6143079939e+00    0.7706811    0.3604765 -33.42  0.003419023    1.936    0.483
        52 -11.8279    145.3996     50.7710   5.6141209780e+01   4.2237677943e+01    0.2975957    0.2756338 -46.49 0.0008198268    1.124    0.110
        53 -10.6956    137.6997     48.5743   5.7097263344e+01   4.4449038742e+01     0.202129    0.1390175  69.97  0.000938764    1.605    0.377
        54 -11.4609    121.5629     44.0722   5.9352550386e+01   4.8960576775e+01    0.3029149    0.2271424  53.36 0.0007576366    1.275    0.216
        55 -11.2255    116.1010     45.5002   6.1246236719e+01   5.0019196541e+01    0.2144476    0.1352486  51.26 0.0003743179    1.508    0.337
        56 -10.8059    182.0023     43.6286   4.7430767144e+01   3.4129896028e+01    0.1997471    0.1724023  73.36 0.0006136314    1.102    0.093
        57 -11.4552    156.9753     43.7939   5.1664261190e+01   4.0357555012e+01    0.2533853    0.2133368  61.83 0.0004704184    1.123    0.109
        58 -12.5536     80.1824     43.0653   7.1149431121e+01   5.7923254864e+01    0.4066932    0.2730014  46.80  0.002104443    1.571    0.363
        59 -11.8891    218.0133     38.2595   4.1373649158e+01   2.6206138600e+01    0.2442406    0.2106766  87.33 0.0002133733    1.112    0.100
        60 -12.9005     61.5737     34.7633   7.4617739490e+01   6.2464902966e+01    0.4125431    0.2612623  33.92  0.001898527    1.536    0.349
        61 -12.3187     78.0980     30.7623   6.6873178045e+01   6.0118077056e+01    0.3849635    0.3189107 -39.24  0.002291237    1.414    0.293
        62 -12.0721     83.6419     23.0021   6.1787819721e+01   6.0018437903e+01    0.3311098    0.2715887  35.01 0.0007982028    1.104    0.095
        63 -10.7036    241.8834     22.6246   3.5565189292e+01   2.2884087050e+01    0.1730259     0.133711 -78.99 0.0004592265    1.131    0.116
        64 -13.6332     52.9102     34.7876   7.8137123142e+01   6.3806637039e+01    0.6699525    0.4271448   5.27  0.003526866    1.781    0.439
        65 -11.9951    193.3691    155.8885   7.4212159903e+01   1.1332142350e+01    0.4407426    0.2483609  12.89  0.001415185    3.875    0.742
        66 -13.7338    247.2868    144.4526   6.1861410794e+01   3.2302277997e+00     1.441506    0.6725067 -34.43  0.006492313    1.878    0.467
        67 -11.8916     58.6468    144.1860   1.0587370742e+02   3.8803961651e+01    0.3122931    0.2029622  63.41  0.001503889    1.773    0.436
        68 -12.7455     51.5098    141.9862   1.0753356951e+02   4.0235757003e+01    0.5555165    0.2503428 -63.40  0.002387819    1.937    0.484
        69 -13.0255     47.0382    142.0000   1.0879812498e+02   4.0753463203e+01    0.4324083    0.2628047  18.52  0.002092651    2.153    0.536
        70 -12.5424    195.1926    136.5087   6.9395371277e+01   1.4740310805e+01    0.5645642    0.3898625  50.07  0.002651977    1.557    0.358
        71 -11.1025     33.5073    135.5283   1.1168762018e+02   4.3790910420e+01    0.1344506     0.113603 -79.65 0.0001743611    1.036    0.034
        72 -10.9681    138.5209    152.5053   8.5956180417e+01   2.3235802818e+01     0.151909    0.1513304  51.63 0.0001206642    1.003    0.003
        73 -12.9804    204.6481    123.6624   6.4491388899e+01   1.5200678872e+01      0.78168    0.3690512 -33.45  0.003006967    2.158    0.537
        74 -11.7762    222.8856    125.0070   6.1546093383e+01   1.1164450061e+01    0.4135743     0.159565 -47.37  0.001460996    2.779    0.640
        75 -11.1695    122.1215    127.1267   8.4347185988e+01   3.2430470587e+01    0.2489518    0.2226108  -8.97  0.001104404    1.251    0.201
        76 -10.4871    176.8529    100.8425   6.4176632016e+01   2.5841433045e+01    0.2080722    0.1805579 -73.90  0.000281426    1.271    0.213
