#   1 NUMBER                 Running object number                                     
#   2 MAG_AUTO               Kron-like elliptical aperture magnitude                    [mag]
#   3 X_IMAGE                Object position along x                                    [pixel]
#   4 Y_IMAGE                Object position along y                                    [pixel]
#   5 X_WORLD                Barycenter position along world x axis                     [deg]
#   6 Y_WORLD                Barycenter position along world y axis                     [deg]
#   7 A_WORLD                Profile RMS along major axis (world units)                 [deg]
#   8 B_WORLD                Profile RMS along minor axis (world units)                 [deg]
#   9 THETA_WORLD            Position angle (CCW/world-x)                               [deg]
#  10 FWHM_WORLD             FWHM assuming a gaussian core                              [deg]
#  11 ELONGATION             A_IMAGE/B_IMAGE                                           
#  12 ELLIPTICITY            1 - B_IMAGE/A_IMAGE                                       
         1 -18.0508    239.0515    120.1047   6.9470572720e+01   7.9943402062e+00     5.472464     2.116351 -31.25   0.02035255    2.493    0.599
         2 -14.3312    195.5117     34.2996   5.3368732250e+01   3.1781768857e+01     1.741471     1.250115  28.39  0.006339558    1.731    0.422
         3 -14.5715    206.0615     21.5410   4.8318410220e+01   3.0620995126e+01     1.594979     1.166152   6.75  0.004618321    1.824    0.452
         4 -12.8572     19.2475     34.4605   1.0409015287e+02   6.6756629882e+01    0.3821929    0.3122492 -30.31   0.00205394    1.110    0.099
         5 -11.2961     40.5092      2.8637   8.0540318907e+01   6.9705769653e+01    0.2058799    0.1386613   5.76  0.001148066    1.377    0.274
         6 -10.2040     61.2890      1.5548   7.1390917545e+01   6.6720708683e+01    0.1701224   0.09978382  31.92   0.00094657    1.587    0.370
         7 -10.4061    162.7430    213.9464   1.0286042010e+02   7.5416903775e+00    0.3697017    0.2427222 -74.17  0.001869102    2.540    0.606
         8 -15.6953     66.7615    241.5713   1.2329761815e+02   1.7824679747e+01     4.103087    0.8650874  42.46   0.01761824    3.493    0.714
         9 -16.6313     54.0701    203.4059   1.2251179336e+02   2.6376513152e+01     9.724234     3.220229  49.62   0.02913452    2.513    0.602
        10 -10.1407    209.2976    178.6706   8.7777095376e+01   4.5633270937e+00    0.3209278    0.1935344  47.63  0.001357965    1.660    0.397
        11 -12.1244     72.4949    179.4673   1.1641602755e+02   2.8852109653e+01    0.3926744    0.2774583 -38.97  0.001805143    2.161    0.537
        12 -11.9159     76.5768    174.1757   1.1489173122e+02   2.9410285388e+01    0.2840411    0.2533422 -38.59  0.001816457    1.533    0.348
        13  -9.9063     99.6539    180.8140   1.1080043629e+02   2.4510606945e+01    0.2041536    0.1704425  44.00   0.00055441    1.256    0.204
        14  -9.5425    144.3127    179.3493   1.0101287020e+02   1.6985001969e+01    0.1363748    0.1098027   0.80 0.0007046181    1.720    0.419
        15 -13.6648     53.8562    109.8980   1.1064927391e+02   4.7085466558e+01     2.290842    0.7733832 -69.64  0.007632997    3.763    0.734
        16 -13.0756     84.6955    164.2858   1.1174590143e+02   3.0379094542e+01     1.261579    0.4333422  53.01 0.0005452955    3.483    0.713
        17 -13.7611     73.1469    160.0019   1.1377535652e+02   3.3004293948e+01    0.6230931    0.5140394 -56.07  0.003834058    1.342    0.255
        18 -14.8084     67.9577    144.1251   1.1269774133e+02   3.7321036540e+01     4.667027     1.936882  62.14   0.01558868    4.362    0.771
        19 -10.7695    137.2038    170.6171   1.0101195548e+02   2.0045405352e+01    0.2273537    0.2237103  26.09  0.001023958    1.134    0.118
        20 -10.9207    195.3208    168.9706   8.8527723300e+01   8.8768442414e+00    0.3252855    0.3019219  28.53 0.0006893749    1.049    0.047
        21 -13.9942     24.3713    194.7837   1.2735915956e+02   3.1437054901e+01    0.9914776    0.2781977  46.50  0.004891521    2.805    0.644
        22 -10.4960    204.4040    199.7567   9.2654782754e+01   2.2696073096e+00    0.1728052    0.1198681 -20.10 0.0009513705    1.633    0.387
        23 -10.1700    190.1750    160.6360   8.7825923623e+01   1.1371715488e+01    0.2373052     0.195585 -47.25 0.0005414699    1.336    0.251
        24 -12.2393     91.2185    157.2855   1.0917988615e+02   3.0929800934e+01    0.5652842    0.4175884 -30.90  0.002594629    1.988    0.497
        25  -8.9835    140.5891    157.5096   9.7811787361e+01   2.2077690184e+01    0.1433964    0.1350491  73.68 0.0001032084    1.036    0.035
        26 -10.8151    189.6898    154.5551   8.6622547575e+01   1.2563564065e+01    0.4284792    0.3745021  54.62  0.002340378    1.213    0.176
        27 -11.7792    193.3899    193.8335   9.3671997407e+01   5.1767635779e+00    0.7573605    0.4484318 -56.78  0.003507374    2.599    0.615
        28 -11.4599    133.9383    144.7931   9.6774521561e+01   2.6079227694e+01     1.041189    0.2565461 -52.88  0.002774956    4.853    0.794
        29  -9.8421    174.8986    149.0811   8.8501940677e+01   1.6710124043e+01    0.2273152    0.2041441  83.74 0.0005330945    1.291    0.226
        30 -10.0867     87.1386    145.8861   1.0828249425e+02   3.4142760690e+01      0.21129    0.1692899  80.02            0    1.233    0.189
        31 -11.0118    104.3634    141.5092   1.0325469554e+02   3.2315971706e+01    0.5426506    0.3265885 -30.97  0.002205236    2.713    0.631
        32 -12.3133     91.8988    141.9174   1.0641588783e+02   3.4301788205e+01    0.2689117    0.2414593 -57.13 0.0004006716    1.166    0.143
        33 -14.8083     39.0889    247.1412   1.2808377002e+02   2.0283892736e+01    0.8352263    0.6547943  80.37   0.00284609    1.255    0.203
        34 -10.3502    112.7654    131.4425   9.9115499746e+01   3.3096410310e+01    0.3240355    0.2526202  14.31 0.0008359531    1.752    0.429
        35 -10.3771    106.0794    130.7995   1.0067702653e+02   3.4454155374e+01    0.3286979    0.2822156 -82.91  0.001194228    1.171    0.146
        36 -11.5254    135.3078    122.2027   9.1365615038e+01   3.0710731684e+01    0.7660076    0.2064314 -52.17  0.001964316    4.751    0.790
        37 -11.4286    118.6498    126.5313   9.6547476020e+01   3.3096398345e+01    0.8157603    0.3380009 -43.14  0.002918799    2.608    0.617
        38 -17.6590      5.9786    239.6455   1.3274303029e+02   2.5044396108e+01     12.76697      1.29535 -77.20   0.04488758    7.678    0.870
        39 -11.1641    100.1612    127.8369   1.0158085603e+02   3.6169048059e+01     0.293422    0.2409774 -28.59 0.0005336264    1.490    0.329
        40 -10.1710    161.1418    127.7462   8.6598932372e+01   2.3949570388e+01    0.3134434    0.1764822 -55.05  0.001223659    2.100    0.524
        41  -9.7795    125.5518    127.3343   9.4994033186e+01   3.1569190808e+01    0.3234731    0.2293209 -88.09 0.0008987184    1.972    0.493
        42  -9.9731    108.8861    119.9954   9.7580907311e+01   3.6413072349e+01    0.2114373    0.2012464 -78.34 0.0003777986    1.016    0.016
        43 -12.3934     40.9077    107.6650   1.1395119784e+02   4.9012541704e+01    0.3759272    0.2387975 -56.42  0.001732417    1.345    0.256
        44 -12.9599     37.3212    117.6678   1.1656281174e+02   4.7041005575e+01    0.5453803    0.3316532 -31.39  0.002794533    2.425    0.588
        45 -11.0044     24.3043    120.5624   1.2042642570e+02   4.7556967973e+01    0.1958857     0.110041  37.40   0.00111689    2.032    0.508
        46 -10.4321    134.7170    112.6985   8.9147520195e+01   3.2900406133e+01    0.4332606    0.1346667 -44.26  0.001315849    3.182    0.686
        47  -9.6449    107.7916    113.6944   9.6395183535e+01   3.8048403910e+01    0.4296767    0.2550083  75.84   0.00148522    3.420    0.708
        48 -10.0724    167.5770    112.3812   8.1273754963e+01   2.5598931028e+01    0.3365922    0.2420197 -72.39   0.00127993    1.938    0.484
        49 -12.0295    120.1040    110.3946   9.2311609364e+01   3.6422901000e+01    0.5017721     0.360119 -71.49  0.002278098    1.706    0.414
        50 -10.1810    205.6173    110.1273   7.2871859041e+01   1.7097700815e+01    0.2808756    0.2198158  41.16  0.000641689    1.312    0.238
        51 -15.0949     11.0076    206.4248   1.3041824716e+02   3.0494524723e+01    0.6490816    0.5721374  40.88  0.002554559    1.648    0.393
        52 -10.2965    134.5281    102.9751   8.6631466990e+01   3.5030808386e+01    0.3972276    0.1500221 -44.26  0.001107901    2.587    0.613
        53 -12.3849     38.9541    112.5526   1.1531697267e+02   4.8069945512e+01    0.3853813    0.2283362  57.59  0.002046063    1.992    0.498
        54  -9.4358     67.5015    104.4670   1.0560744025e+02   4.6640754606e+01    0.1377995    0.1206618 -60.15  9.29873e-06    1.023    0.022
        55  -9.6816     86.9626     99.9135   9.8857964349e+01   4.4808805356e+01    0.2119466    0.1924621 -74.10 0.0003658371    1.108    0.097
        56 -11.7039     19.3149    110.9875   1.2050071729e+02   5.0153016816e+01     0.335745     0.161514  34.12  0.001291453    2.407    0.585
        57  -9.2879    115.3459     94.3090   8.9308866154e+01   4.0906699524e+01    0.1545297    0.1202784  -3.58 0.0007044463    1.702    0.413
        58 -10.6460     62.2881     69.9698   9.8584871954e+01   5.5093170492e+01    0.3443215    0.2055807 -44.57  0.001593557    1.453    0.312
        59 -10.4510    156.5636     58.8498   6.8012176333e+01   3.8290369720e+01     0.280275    0.2380024  84.24 0.0005996249    1.345    0.256
        60 -10.3411    158.9384     52.7073   6.5511015226e+01   3.8677182482e+01    0.2883433    0.2480072 -76.36 0.0005643931    1.325    0.245
        61  -9.2284    164.4005    205.5085   1.0124971906e+02   8.6096339534e+00    0.1287874    0.1127426  42.90 7.448441e-05    1.022    0.021
        62 -13.1829    186.0345     41.2586   5.6895723156e+01   3.3326203991e+01    0.7904922    0.5766402  27.57  0.001101462    1.662    0.398
        63 -10.7084    196.6503    245.8889   1.0133277035e+02  -2.5618209191e+00    0.1768896    0.1327198   7.67  0.001200997    1.466    0.318
        64 -10.0715    170.1836    239.7935   1.0512221996e+02   2.4764036503e+00    0.1561111    0.1214114  22.86 0.0004128844    1.338    0.253
        65  -9.7200    189.5240     15.0138   4.8481039017e+01   3.5637675399e+01    0.2037376    0.1407215 -24.83 0.0005796685    1.548    0.354
        66 -10.8776    183.8990    234.1468   1.0191077177e+02   9.8443418551e-01    0.3845203    0.1240547  50.03  0.001460494    3.528    0.717
        67 -10.7190    205.9659    180.7996   8.8825764441e+01   4.8624017109e+00    0.3758228    0.2809071  60.22  0.001997922    1.693    0.409
