#   1 NUMBER                 Running object number                                     
#   2 MAG_AUTO               Kron-like elliptical aperture magnitude                    [mag]
#   3 X_IMAGE                Object position along x                                    [pixel]
#   4 Y_IMAGE                Object position along y                                    [pixel]
#   5 X_WORLD                Barycenter position along world x axis                     [deg]
#   6 Y_WORLD                Barycenter position along world y axis                     [deg]
#   7 A_WORLD                Profile RMS along major axis (world units)                 [deg]
#   8 B_WORLD                Profile RMS along minor axis (world units)                 [deg]
#   9 THETA_WORLD            Position angle (CCW/world-x)                               [deg]
#  10 FWHM_WORLD             FWHM assuming a gaussian core                              [deg]
#  11 ELONGATION             A_IMAGE/B_IMAGE                                           
#  12 ELLIPTICITY            1 - B_IMAGE/A_IMAGE                                       
         1 -12.2103    202.1357     31.6656   4.9291433273e+01   2.9896433419e+01     1.081684     0.856923  -3.57  0.005504592    1.292    0.226
         2 -10.8300    210.3905     23.6253   4.5794193811e+01   2.8636441836e+01    0.5703396    0.3668672  22.98  0.001182471    1.859    0.462
         3 -11.8746    216.4645     16.3987   4.2939632444e+01   2.7806516138e+01    0.7941411    0.6739197 -33.68  0.002902189    1.093    0.085
         4  -9.5068     83.3163     12.4992   6.5594990863e+01   6.2797568351e+01    0.2655652    0.1215515 -30.71   0.00108383    2.017    0.504
         5  -8.7823     67.0000      3.9791   6.6633786746e+01   6.7372390386e+01    0.2341871   0.07066513 -31.58 0.0008085411    2.985    0.665
         6  -9.7080     49.9187    233.8489   1.1714827016e+02   2.4804283438e+01    0.1670413   0.09702145  63.60 0.0006253448    1.315    0.240
         7 -10.7259    100.2002    250.0351   1.1016124232e+02   1.6920864137e+01    0.4108286    0.1120201  37.24   0.00205483    3.153    0.683
         8 -11.1715     83.4747    248.8065   1.1266725260e+02   1.9063287634e+01    0.5265029    0.1538066  34.84  0.002534903    3.737    0.732
         9 -10.3033     71.8735    249.6544   1.1450199857e+02   2.0287152860e+01    0.3374735    0.1231434  51.41  0.002232705    1.877    0.467
        10  -8.8644     52.9838    250.5726   1.1742531799e+02   2.2230748445e+01    0.1329929   0.06088992  43.41  3.10089e-05    1.497    0.332
        11 -12.6869     41.0770    209.3291   1.1743822600e+02   2.9381676853e+01     1.177005    0.7705039 -36.47  0.007198617    3.888    0.743
        12 -14.5527     44.6189    195.8875   1.1607939784e+02   3.1178986013e+01     6.407312     1.883015  65.06   0.02606285    4.669    0.786
        13 -11.2078     84.2771    223.2640   1.1086853139e+02   2.2344567816e+01    0.4637132    0.1777574  53.26  0.002716092    2.100    0.524
        14  -9.5436     84.5065    218.4950   1.1048242213e+02   2.2993619672e+01    0.2161971   0.07790386  39.79    0.0012053    2.147    0.534
        15 -10.3663    127.9187    231.4891   1.0429322000e+02   1.5604545827e+01    0.2242992    0.1268201 -38.93  0.001474808    2.938    0.660
        16 -10.0882     45.2443    220.5660   1.1727987006e+02   2.7221066674e+01    0.1952724    0.1615067  65.17  0.001189156    1.271    0.213
        17  -9.4246     48.0395    216.9675   1.1662815153e+02   2.7462967144e+01    0.2262418   0.08768656  49.00 0.0009964097    1.758    0.431
        18 -10.8305    143.0305    230.4038   1.0173800775e+02   1.3671608900e+01    0.3109893    0.2108376   9.68  0.002080371    2.413    0.586
        19 -13.2503      4.6396    247.6650   1.2451745382e+02   2.7268331379e+01     0.799094    0.3135941  78.68  0.005048092    2.197    0.545
        20  -9.6523     53.4821    230.2307   1.1639835580e+02   2.4930344987e+01     0.218113    0.1092643  84.55  0.001231215    2.147    0.534
        21  -8.8151     83.3980    194.7135   1.0876543498e+02   2.6753588784e+01    0.1824625   0.09993844 -76.56  0.001131342    2.130    0.530
        22 -10.2452    247.0108    190.4705   8.0097030519e+01   2.4763590046e+00    0.2557057    0.2122549 -16.51  0.002001398    1.490    0.329
        23  -9.0235    120.4900    230.4870   1.0541646218e+02   1.6722954701e+01    0.1032953   0.07428927  46.21 0.0008103472    1.024    0.024
        24 -10.4703    141.0165    240.0806   1.0298599687e+02   1.2846912919e+01    0.2833384    0.1026063  33.84  0.001453544    2.826    0.646
        25 -11.5568    249.7106    176.7218   7.7405492308e+01   3.2760521934e+00    0.9194733    0.2124968 -26.53  0.003735876    4.451    0.775
        26 -10.2422     66.5540    181.1131   1.1084226052e+02   3.1172011159e+01    0.2709715    0.2407112 -34.02  0.001615323    1.769    0.435
        27 -10.3516     71.3953    175.5341   1.0938198937e+02   3.1549236099e+01    0.2631608    0.2410759 -22.01 0.0008665737    1.694    0.410
        28 -14.0057      2.1509    129.3648   1.2134165784e+02   4.7655457621e+01     7.453717    0.2902755 -79.95   0.01280491   12.606    0.921
        29  -8.0532    134.6569    172.3264   9.6330144393e+01   2.2819934332e+01    0.1241179   0.08484428  67.89 0.0007050956    1.740    0.425
        30  -8.3017    195.0782    168.3190   8.4570839503e+01   1.3096889692e+01    0.1791911    0.1348036  35.54  0.001149242    1.112    0.101
        31 -14.1433     19.3802    246.4349   1.2232312822e+02   2.6112391722e+01     1.377924    0.8384511  51.97  0.007308671    1.113    0.102
        32 -10.1294     80.5373    165.4701   1.0648350375e+02   3.2165536783e+01    0.2515914    0.2048523  57.30 0.0005263338    1.073    0.068
        33 -11.7680     86.1592    159.3597   1.0458777040e+02   3.2515935042e+01     0.730889    0.5781983  24.11  0.003038055    1.651    0.394
        34 -11.7414     68.0971    161.7770   1.0874709593e+02   3.4490470054e+01    0.3698356    0.3384237 -33.80  0.001091113    1.608    0.378
        35 -12.5965     68.9297    145.2782   1.0676591705e+02   3.7592292156e+01     0.992759    0.5399261 -88.63  0.005156836    2.122    0.529
        36 -11.2651     32.7726    108.9783   1.1173656688e+02   4.9515098812e+01    0.7008695    0.1075752 -70.55  0.002211939    5.002    0.800
        37 -10.1049     71.5797    243.5324   1.1421426843e+02   2.1105442724e+01    0.2598399    0.1058477  59.16  0.001686581    2.122    0.529
        38  -7.8732     39.3067    146.6691   1.1374840463e+02   4.0811399722e+01     0.123497   0.06659226  66.35    0.0007039    1.661    0.398
        39 -10.8873     88.0873    142.8423   1.0201821472e+02   3.5404859212e+01    0.4259939    0.2715405  30.37  0.002318991    1.880    0.468
        40  -9.7812    133.6361    142.2476   9.1759126017e+01   2.8011970910e+01    0.3597961    0.1222132 -55.70  0.001252507    4.155    0.759
        41  -9.5354    100.9031    143.2007   9.9137901046e+01   3.3375021426e+01    0.3244207    0.2526344 -13.71  0.001806987    2.140    0.533
        42 -10.4318     32.8933     88.6868   1.0907594606e+02   5.4128784889e+01      1.23035   0.09226637 -70.20  0.002159142   14.738    0.932
        43 -10.3450     32.7721    137.5912   1.1452213665e+02   4.3337029602e+01    0.4328196   0.07685035 -74.32  0.001466661    5.109    0.804
        44  -8.3157    110.5587    132.1755   9.5118086411e+01   3.3926011698e+01    0.1722409    0.1225555 -43.11 0.0005497438    1.649    0.394
        45  -8.4724    105.7663    130.5733   9.5959701389e+01   3.5048653819e+01    0.1930515    0.1113343  53.10 0.0009520716    1.683    0.406
        46  -9.3334     98.0885    128.2129   9.7385622601e+01   3.6783977121e+01    0.2395742    0.2190033  22.48 0.0008063486    1.344    0.256
        47 -10.3463     65.5846    240.7453   1.1500496101e+02   2.2148903908e+01    0.2552618    0.1848317 -60.35  0.001032686    2.034    0.508
        48 -11.0625     32.6700    119.0106   1.1284205362e+02   4.7306245592e+01    0.5169712    0.1227225 -69.89  0.002042932    3.384    0.704
        49  -7.8493    107.4832    120.0210   9.3614346219e+01   3.6866530330e+01     0.181931    0.1298136 -56.24 0.0003357402    1.433    0.302
        50 -14.7800      9.1072      9.0612   1.0049465294e+02   7.4297099934e+01     2.797298     1.441313 -62.28  0.009314237    1.570    0.363
        51 -10.3392    134.6845    110.8003   8.5185742430e+01   3.3582604701e+01    0.5609854    0.1289984 -44.33  0.001631431    4.542    0.780
        52  -7.9040    167.6812    112.3593   7.8411674559e+01   2.6473035949e+01    0.1421924    0.1124231 -79.39 0.0007043758    1.762    0.433
        53  -9.9104     92.0105    234.2143   1.1036547381e+02   1.9903541653e+01    0.1874079    0.1320557  72.84 0.0004683034    1.427    0.299
        54  -9.3294     41.3276    105.1420   1.0883075167e+02   4.9508656687e+01    0.2564112   0.08251885 -62.51  0.001090664    2.602    0.616
        55  -9.6169    134.4506    102.2384   8.3221406671e+01   3.5256362899e+01    0.3459397    0.1380205 -46.77  0.001289654    2.588    0.614
        56  -8.1859     24.5487     82.4809   1.1089849369e+02   5.6321468354e+01    0.1239711   0.09908058 -84.47 9.023965e-05    1.009    0.009
        57 -13.1239      2.2582    174.4976   1.2309922585e+02   3.8912112100e+01     0.831821    0.2786228 -84.94  0.002012984    2.586    0.613
        58  -8.4874     73.6420     60.3101   8.8916862587e+01   5.5489195294e+01    0.1430095    0.1063184  85.59  0.000472189    1.736    0.424
        59 -15.2319      5.0769    207.5838   1.2354518833e+02   3.3089445726e+01     1.627765    0.7297949  86.12  0.006022825    1.932    0.482
        60  -9.8239    146.1200     50.4902   6.5108575347e+01   4.1944950633e+01    0.5506938    0.3303513 -72.95  0.001920063    3.073    0.675
        61  -9.4073     53.4764    238.5583   1.1680483327e+02   2.3772737811e+01    0.1467751   0.08229706 -82.76 0.0007778166    1.992    0.498
        62  -9.0315    147.7563     43.9622   6.2435723614e+01   4.2556937314e+01    0.2686409    0.2287064  79.41 0.0005142943    1.313    0.238
        63 -11.6753    194.5760     37.8187   5.2260985874e+01   3.1139717801e+01     0.645644    0.4801442  27.42  0.002436393    1.479    0.324
        64 -11.1083    134.8438    244.3206   1.0433388609e+02   1.3193784893e+01    0.4583105    0.1438825 -49.30  0.002558552    4.556    0.781
        65 -11.0500    127.4244    243.9605   1.0546276736e+02   1.4203563098e+01    0.3122445    0.1323187  36.81   0.00194425    1.906    0.475
        66 -10.5203    115.3635    246.4341   1.0754728620e+02   1.5465298535e+01    0.2233218    0.1236081  28.82  0.001497667    2.126    0.530
        67 -11.3224    134.8733    235.1262   1.0350378366e+02   1.4235561391e+01    0.2440448     0.193493 -61.84   0.00207833    1.756    0.430
        68 -10.7543     96.9912    225.7205   1.0891466744e+02   2.0411329039e+01    0.4040622    0.1940799  65.11  0.002296779    2.475    0.596
