#   1 NUMBER                 Running object number                                     
#   2 MAG_AUTO               Kron-like elliptical aperture magnitude                    [mag]
#   3 X_IMAGE                Object position along x                                    [pixel]
#   4 Y_IMAGE                Object position along y                                    [pixel]
#   5 X_WORLD                Barycenter position along world x axis                     [deg]
#   6 Y_WORLD                Barycenter position along world y axis                     [deg]
#   7 A_WORLD                Profile RMS along major axis (world units)                 [deg]
#   8 B_WORLD                Profile RMS along minor axis (world units)                 [deg]
#   9 THETA_WORLD            Position angle (CCW/world-x)                               [deg]
#  10 FWHM_WORLD             FWHM assuming a gaussian core                              [deg]
#  11 ELONGATION             A_IMAGE/B_IMAGE                                           
#  12 ELLIPTICITY            1 - B_IMAGE/A_IMAGE                                       
         1 -16.9081    239.3891     99.5019   6.8677446303e+01   1.2188969575e+01      9.25276     3.768963 -24.72    0.0353217    2.565    0.610
         2 -14.0475    167.7636     66.2174   7.2206389412e+01   3.4477401151e+01     1.122819    0.7421001 -31.24  0.002235154    1.529    0.346
         3 -15.7668    184.1419     87.1373   7.5011909509e+01   2.6899386662e+01     7.799669     2.717208 -47.16   0.02305514    3.760    0.734
         4 -17.6375    235.8200     14.5846   4.7017296160e+01   2.3820065480e+01     9.034081     1.474896  61.54   0.02748149    4.504    0.778
         5 -14.1651    181.0873     32.6654   5.9030502099e+01   3.5934733378e+01     2.084911    0.7669318 -42.50  0.007066223    2.842    0.648
         6 -10.0147    189.9551     14.2712   5.1844852326e+01   3.5693720336e+01    0.6547297    0.3001558 -50.50  0.002487267    2.492    0.599
         7 -10.6046    192.2110     10.9686   5.0524185724e+01   3.5430727095e+01    0.2832569    0.1823027 -38.78 0.0007994375    1.538    0.350
         8 -12.2785    195.8150      8.4780   4.9326405898e+01   3.4717343694e+01    0.3027198    0.2688303 -33.30 0.0005268579    1.149    0.130
         9 -12.3254    151.2199     10.9680   5.6440026975e+01   4.6453128704e+01    0.2984961    0.2506795 -14.17 0.0005092408    1.246    0.198
        10 -12.6349    150.8537      5.6908   5.4524580729e+01   4.7077432373e+01     0.492008    0.2305971 -23.12  0.002011698    2.185    0.542
        11 -11.3619    141.8663     10.9785   5.8123429274e+01   4.8911870118e+01    0.2820763    0.2713245 -78.74 0.0004527974    1.120    0.107
        12 -11.3069    138.9885      6.8586   5.7042471951e+01   5.0081995346e+01    0.3167396    0.2161761 -27.38 0.0004816905    1.509    0.337
        13 -10.5572    208.1946      8.1433   4.7883526340e+01   3.1478974851e+01    0.2389947    0.1807971  -2.53  0.001089533    1.539    0.350
        14 -10.6769    199.8406      6.3094   4.8216995097e+01   3.3859185333e+01    0.4376287     0.175267 -22.35  0.001470607    2.550    0.608
        15 -10.7193    208.2287      2.0535   4.6099815704e+01   3.2055781649e+01    0.3630688    0.1872794  29.57  0.001425188    2.846    0.649
        16 -10.4347     56.6636      2.6822   7.8567472252e+01   6.8499211999e+01    0.1322553   0.08615167   5.50 0.0007048739    1.701    0.412
        17  -9.6240    178.7033      1.4282   4.9087419657e+01   3.9981245587e+01    0.2119337    0.1204115  59.04 0.0009512638    1.619    0.382
        18 -10.8331    189.4079    148.1946   8.8714878649e+01   1.5419586381e+01    0.1856124    0.1311593 -49.63 0.0007374629    1.690    0.408
        19 -10.1472    143.6532    145.9756   9.7803770965e+01   2.4994417876e+01     0.222514    0.1145467 -69.54 0.0007049644    4.429    0.774
        20 -13.4169    186.5050     68.0619   6.9094684420e+01   2.9428805328e+01    0.9167405    0.4292483  35.93   0.00307769    2.963    0.663
        21 -14.0534    225.4366     32.0850   5.2831160993e+01   2.4436130495e+01     1.037939    0.5853754  60.70  0.004571605    1.777    0.437
        22 -15.1118     20.2847    195.9846   1.2957173483e+02   3.2882142425e+01    0.8785645    0.6715515  79.76  0.003749334    1.146    0.127
        23  -9.3681     98.4431    136.4611   1.0659285712e+02   3.5064263179e+01    0.1330805    0.1219806  80.24 0.0001622969    1.025    0.024
        24 -10.2380    165.9561    134.5022   9.0591309948e+01   2.2619882372e+01    0.2146574    0.1347928  45.87 0.0003767571    1.493    0.330
        25 -12.1528    134.7974    108.0282   9.1604318688e+01   3.4303952961e+01     1.143476    0.3072154 -45.91  0.003413383    3.783    0.736
        26 -11.3036    135.7418    128.8860   9.6145203998e+01   2.9887254090e+01     0.755266    0.1758425 -50.04  0.002107453    4.813    0.792
        27 -11.4547    135.1089    121.1077   9.4597736055e+01   3.1582052470e+01    0.6082458    0.1988116 -49.99  0.001752547    3.299    0.697
        28 -12.5903    160.6808    128.3297   9.0367635988e+01   2.4865684427e+01    0.4512247    0.3960048 -41.97  0.001485431    1.202    0.168
        29 -13.5898    166.8412    114.4254   8.5766723749e+01   2.6103764444e+01    0.8520302    0.5477057 -20.64  0.001279896    2.056    0.514
        30 -11.1538    127.7569    111.7485   9.4243300403e+01   3.4980295120e+01    0.2546259    0.2440668 -53.80 0.0009361745    1.067    0.063
        31 -10.6324    134.2985    148.1748   1.0029840009e+02   2.6354647390e+01    0.4298381    0.1887777 -59.16  0.001648882    2.991    0.666
        32 -11.6098    152.5093    120.3514   9.0366331620e+01   2.8115322871e+01    0.4253337    0.2663231  25.61  0.001774012    2.190    0.543
        33 -12.5966    154.7911     92.0724   8.2651478335e+01   3.3026618642e+01    0.5916989    0.4786628  17.09  0.002883572    1.456    0.313
        34 -12.6411    155.6320    100.6751   8.4777330850e+01   3.1204907988e+01    0.6583773    0.3881846 -59.00  0.002606984    2.282    0.562
        35 -12.2595    159.9637     98.5128   8.3223291996e+01   3.0621886445e+01    0.3676189    0.3155262  -3.92 0.0003311536    1.323    0.244
        36 -10.7908    140.7383    103.6644   8.9061641679e+01   3.3923098998e+01    0.2843918    0.2654915  27.64 0.0006394626    1.117    0.104
        37 -10.1678    111.9478    103.9802   9.6471991772e+01   3.9697807247e+01    0.1736296    0.1665483  71.72 0.0007191659    1.035    0.034
        38 -11.3843    123.1601    101.6499   9.2955177103e+01   3.8006206484e+01    0.3612521    0.2312171  16.43  0.001398934    2.786    0.641
        39 -10.9775    132.6568     95.9672   8.9055383898e+01   3.7206162606e+01    0.2929221    0.2655173 -46.25 0.0007810363    1.105    0.095
        40  -9.5441    113.4725     95.0271   9.3834383429e+01   4.1316301223e+01    0.2113775    0.1404153 -48.34 2.123487e-05    1.475    0.322
        41 -11.8726    146.2930     99.8753   8.6745933712e+01   3.3456545133e+01    0.5756451    0.3898412 -66.87  0.001574178    1.998    0.500
        42 -11.8140    139.3283     88.6940   8.5398078114e+01   3.7199918721e+01    0.3498811    0.3139413  70.98 0.0006483496    1.186    0.157
        43 -11.2612    212.6626     87.3813   6.9870391923e+01   1.9993070401e+01    0.4130657    0.2268611 -27.62  0.001156019    1.825    0.452
        44 -10.4311    132.3553    139.1013   9.9015697791e+01   2.8503698916e+01    0.2699836    0.1953541 -68.50  0.001371653    1.604    0.377
        45 -13.4760    214.1405     47.2506   5.8538815127e+01   2.5385967018e+01    0.7455473    0.3667452  38.76  0.002820295    2.582    0.613
        46 -11.3981    216.1133     81.4221   6.7715076487e+01   2.0070112442e+01    0.6331167    0.3272595 -45.61  0.002564683    2.114    0.527
        47 -11.4566    221.5101     79.0527   6.6225346273e+01   1.9137748726e+01    0.5716147    0.3862979  76.46  0.001795285    1.926    0.481
        48 -10.5116     87.9274     77.3886   9.6503279176e+01   4.9738297642e+01    0.4108863    0.1911619 -65.47  0.001361086    3.674    0.728
        49 -10.4267    130.8859     66.3165   8.0798470444e+01   4.3397890513e+01    0.2607303    0.2068411 -48.98 0.0007602599    1.299    0.230
        50 -13.8641    201.3471     57.2907   6.3359365207e+01   2.7263788509e+01     1.096998    0.8316155  27.71  0.005293209    1.499    0.333
        51 -12.8788     68.5067    144.9376   1.1513179945e+02   3.7643926046e+01     2.232723    0.9950221 -86.48  0.007032639    3.683    0.729
        52 -10.8742    146.6091     56.4572   7.3698782745e+01   4.1399207417e+01     0.288958    0.2504822 -64.70 0.0004830997    1.294    0.227
        53 -10.4953    193.4802     54.9655   6.3960597378e+01   2.9620900086e+01    0.2299023     0.195171 -50.86 0.0005193689    1.217    0.178
        54 -12.5671    100.0860     53.5803   8.5203405664e+01   5.2368121954e+01    0.4782196    0.3114864 -48.62  0.001545017    1.564    0.361
        55  -9.3480    134.2463     54.6971   7.6073057234e+01   4.4694440528e+01     0.146182    0.1165534 -63.78 0.0001700869    1.495    0.331
        56 -11.9744     93.5895     51.9529   8.6671501356e+01   5.3928960508e+01    0.3225043    0.2048088  39.18  0.001384621    1.674    0.403
        57 -11.7095     91.1213     41.9039   8.3759377986e+01   5.6254183002e+01    0.3034208      0.17693 -42.20  0.001411682    1.644    0.392
        58  -9.4366    212.6914     42.3944   5.7344882107e+01   2.6387305017e+01    0.2034428    0.1317799  53.71 0.0009389485    1.557    0.358
        59 -10.1391    190.4986     40.9326   6.0158657843e+01   3.2355332638e+01    0.2428673    0.1961916  27.19  0.001203254    1.370    0.270
        60 -10.0378    190.1154     36.1789   5.8736197865e+01   3.3080379523e+01    0.2011395    0.1620394 -51.03  0.001003995    1.278    0.218
        61 -12.1661    118.8658     29.8111   7.0773317990e+01   5.2291268677e+01    0.3436932    0.2583752 -35.37    0.0010688    1.339    0.253
        62 -12.1167    133.8698     22.8719   6.4410581043e+01   4.9580864340e+01    0.4799121    0.2907515  28.50 0.0004737403    1.960    0.490
        63 -12.4799    124.1394     24.9331   6.7486275787e+01   5.1715155347e+01    0.3940889    0.3454334 -25.55  0.002158498    1.148    0.129
        64 -10.2825     86.9038     25.8919   7.8587574474e+01   5.9753189850e+01    0.2874878    0.2301844  23.34  0.001613728    1.265    0.210
        65 -11.9514      5.6834    170.5162   1.3103474659e+02   3.8941991330e+01    0.2257954    0.1490801  36.05     0.001384    1.707    0.414
        66 -11.1031    152.8873     19.0799   5.9151230889e+01   4.5120285741e+01    0.2242899    0.2061795 -21.12 0.0003454165    1.121    0.108
        67 -10.4737     38.9937     19.2292   9.4905950031e+01   6.8327312541e+01    0.1466691   0.09979168  26.49 0.0008793656    1.652    0.395
        68 -11.5850    129.9381     17.8141   6.3269189164e+01   5.1192039695e+01    0.3730229    0.2209868  50.20  0.001625853    1.583    0.368
        69 -11.4773    192.8079    194.9427   9.6645057335e+01   7.8458589479e+00    0.8131733    0.4458535 -64.31  0.002660576    7.149    0.860
        70 -14.6806     37.1550    183.7329   1.2569047268e+02   3.3457516072e+01     1.531154     1.190101  85.00   0.01168376    1.137    0.121
        71 -13.7417     49.5116    174.3615   1.2249450315e+02   3.3910516636e+01    0.4243923    0.3808178  66.20  0.001499375    1.258    0.205
        72  -9.5896     84.4693     14.9590   7.4422885759e+01   6.1836958286e+01    0.2029548    0.1241575 -29.65 0.0008885986    1.549    0.354
        73 -14.3126     55.9950    169.2656   1.2067957704e+02   3.4163062817e+01    0.9412919     0.612317  49.96   0.00289518    1.368    0.269
        74 -14.1261     60.8196    164.0892   1.1912716994e+02   3.4620809061e+01    0.7197452    0.6153402  73.99  0.001586593    1.090    0.083
        75 -13.2842    153.0892     81.6837   8.0091109250e+01   3.5363900252e+01     1.063666    0.6192701  63.16  0.001232393    2.069    0.517
        76  -9.9298    202.0881    248.2866   1.0263693287e+02   1.3792947533e-01    0.1510905    0.1015506  36.86 0.0002777851    1.080    0.074
        77  -9.6572    205.1964     11.2735   4.9126091137e+01   3.1950579426e+01    0.1262865    0.1041931  21.56 0.0002826777    1.397    0.284
        78 -10.9350    108.0123    233.2903   1.1671337844e+02   1.5981951987e+01     0.159392    0.1092858  49.63 0.0004160552    1.093    0.085
        79  -9.8451     93.5261    219.4479   1.1801357290e+02   2.0137811459e+01    0.1128487   0.08462557  57.68  7.84678e-05    1.004    0.004
        80 -13.4485      3.5011    208.6151   1.3299768037e+02   3.2194571834e+01    0.9431227    0.3516537 -86.81  0.005866863    2.294    0.564
        81 -11.8111    246.1734    163.8257   8.1805774296e+01   2.3930376547e+00    0.4427304     0.239287  12.12  0.002043969    2.465    0.594
