#   1 NUMBER                 Running object number                                     
#   2 MAG_AUTO               Kron-like elliptical aperture magnitude                    [mag]
#   3 X_IMAGE                Object position along x                                    [pixel]
#   4 Y_IMAGE                Object position along y                                    [pixel]
#   5 X_WORLD                Barycenter position along world x axis                     [deg]
#   6 Y_WORLD                Barycenter position along world y axis                     [deg]
#   7 A_WORLD                Profile RMS along major axis (world units)                 [deg]
#   8 B_WORLD                Profile RMS along minor axis (world units)                 [deg]
#   9 THETA_WORLD            Position angle (CCW/world-x)                               [deg]
#  10 FWHM_WORLD             FWHM assuming a gaussian core                              [deg]
#  11 ELONGATION             A_IMAGE/B_IMAGE                                           
#  12 ELLIPTICITY            1 - B_IMAGE/A_IMAGE                                       
         1 -12.5703    204.3357     39.4794   4.1767071442e+01   2.9503750059e+01     1.370415     1.019858  41.20   0.00755856    1.711    0.416
         2 -12.2615    216.9818     27.4447   3.7537073493e+01   2.8134997526e+01    0.8740519     0.753143  33.42  0.005525623    1.593    0.372
         3  -9.8988      6.8566     15.0182   8.9511229019e+01   7.2206643874e+01    0.2938686    0.0931711 -32.40  0.001266642    3.189    0.686
         4 -11.1396    242.5444      3.7709   3.0439094224e+01   2.5334773381e+01    0.7005593    0.3740279  81.66  0.004123991    1.727    0.421
         5  -8.9710      8.0272      2.0047   8.2347297664e+01   7.3993364071e+01    0.1390079     0.101768  -7.66  0.001018789    1.024    0.023
         6  -7.8853     56.6898      1.3317   5.8734971817e+01   6.7220689943e+01    0.1041193   0.09503668 -60.10 0.0003869053    1.671    0.402
         7  -9.2674    195.0727    198.7802   8.0331335103e+01   3.3438548149e+00    0.2577275    0.1785693 -67.97  0.001180103    2.604    0.616
         8  -8.7324    116.9864    249.7462   1.0429689734e+02   6.9889384727e+00    0.2113325    0.1769836  68.79   0.00140204    1.254    0.203
         9  -8.9399    116.6677    246.3295   1.0396467875e+02   7.6364440266e+00    0.2468707    0.2053511  85.27  0.001045395    1.375    0.273
        10 -12.0308      5.3026    188.0708   1.2203369386e+02   3.3925168205e+01     1.081752    0.7789952 -21.77  0.003411516    2.306    0.566
        11 -14.5368      4.1699    151.8817   1.1950137490e+02   4.2466483016e+01     11.97945     1.548282 -75.52    0.0306289    6.925    0.856
        12  -7.5549    146.6783    172.3372   8.5738746383e+01   1.7380065272e+01    0.1525016    0.1189886  80.39  0.000366934    1.712    0.416
        13 -11.4314     78.6064    160.6702   1.0086011662e+02   3.2076647752e+01    0.9594473    0.4863242  56.62 0.0005667988    2.458    0.593
        14 -11.8218     66.2291    156.8134   1.0357628730e+02   3.4814945679e+01    0.5696076    0.3446284 -42.97  0.001247264    1.903    0.475
        15 -12.6353     68.5134    144.3088   1.0082828937e+02   3.7623500620e+01     2.066991     1.087671  82.68  0.006598974    4.113    0.757
        16 -14.2330     31.4881    249.5774   1.2076272510e+02   1.8423370659e+01     8.475902     2.798511  24.59   0.01685286   13.293    0.925
        17  -9.1494     24.0244    148.7684   1.1396909547e+02   4.1622738724e+01    0.3070177    0.1875978   6.08   0.00154738    2.434    0.589
        18  -9.1156    133.5377    142.6415   8.2625351065e+01   2.6651054256e+01    0.6940902    0.1537007 -54.49  0.001197747   10.012    0.900
        19 -12.6808     57.0582    238.9932   1.1518878611e+02   1.7402576215e+01    0.8817878    0.7177818  79.07 0.0008300679    1.120    0.107
        20  -9.2666     99.4809    141.0073   9.1384684976e+01   3.3523341436e+01    0.3374467    0.2764148 -36.27  0.001311985    1.314    0.239
        21  -8.0956    102.3445    137.9833   8.9931311850e+01   3.3750582037e+01    0.3898401    0.2007304 -34.98  0.001193856    2.699    0.629
        22 -10.5918     87.6904    139.6131   9.4428419812e+01   3.5871769929e+01    0.3095675    0.2578681 -44.68 0.0003812496    1.215    0.177
        23  -8.0976    198.4693    140.0445   6.7384450883e+01   1.3713019014e+01    0.2295123    0.1372085 -43.09  0.001017607    1.586    0.370
        24  -9.6577     77.7602    138.2431   9.7018406249e+01   3.7784275454e+01    0.2585813    0.2353739 -70.59 0.0002362621    1.033    0.032
        25  -8.3231    106.1057    131.3612   8.7384109205e+01   3.4663293444e+01     0.356979    0.2762274 -41.86  0.001387378    1.305    0.234
        26  -8.9360    110.1412    130.3159   8.6009001673e+01   3.4154158111e+01    0.3018732    0.2488539  -6.45  0.001106987    1.505    0.335
        27  -8.2725     44.3124    130.3096   1.0552171152e+02   4.4190182758e+01    0.1410414   0.09605338 -38.43 0.0004810489    1.627    0.385
        28 -13.2432     19.4208    220.1136   1.2121962143e+02   2.5599361364e+01     1.517679    0.9230169  40.68  0.006209304    1.581    0.368
        29  -9.4484     97.4082    126.4811   8.8741967540e+01   3.7425971855e+01    0.2997359    0.2638167 -21.93 0.0008668753    1.255    0.203
        30 -10.7068     85.9189    154.4022   9.7784482777e+01   3.2495569819e+01    0.6062184      0.43204 -26.61  0.001770534    1.908    0.476
        31  -8.1861    107.1151    119.0827   8.4140468359e+01   3.7392564109e+01    0.2203958    0.2002878 -15.07  0.001133965    1.192    0.161
        32  -9.5779     21.3191    118.8604   1.1077682076e+02   4.9227435678e+01    0.2120423    0.1752269  49.02 0.0008853116    1.376    0.273
        33  -8.3808     39.9431    113.2842   1.0384649637e+02   4.8884441674e+01    0.1864488    0.1732197 -55.02 0.0005579148    1.073    0.068
        34  -8.4895     83.2466    117.6029   9.0899139546e+01   4.2003357256e+01    0.2750677    0.1784982 -66.37 0.0006130571    1.701    0.412
        35 -10.1162     52.0996    108.5398   9.8851018485e+01   4.8670720677e+01    0.5202727    0.2095863 -70.74  0.001669268    3.763    0.734
        36  -8.1089    205.7870    110.3580   5.9038689404e+01   1.7795029728e+01    0.1929686    0.1359534  42.61 0.0003575844    1.578    0.366
        37  -8.4868     33.0038    108.9876   1.0533109953e+02   5.0624461411e+01    0.1662651    0.1377736 -60.55 0.0003656516    1.033    0.032
        38 -12.4626     38.5456    201.0942   1.1579213250e+02   2.7673428197e+01    0.9094131    0.7391242 -77.24  0.001844133    1.200    0.167
        39  -8.7611     32.8016     96.5246   1.0292273653e+02   5.3640107698e+01    0.2607271    0.1638529 -61.46  0.001033424    1.387    0.279
        40 -13.9601     48.3364    191.1152   1.1259758965e+02   2.8811119186e+01     4.275453     2.236945  77.83   0.01944798    2.268    0.559
        41  -8.7236     53.4685     91.0066   9.4217632695e+01   5.2653932088e+01    0.2233699    0.1244689 -53.47  0.000882888    1.606    0.377
        42  -9.0287     73.1405     83.6177   8.5197706329e+01   5.1484573703e+01    0.3200921       0.2385  66.04  0.001086952    1.923    0.480
        43 -10.4589     64.5017    175.2131   1.0674475522e+02   3.0525752451e+01    0.4729611    0.3139479 -43.32   0.00173911    1.810    0.447
        44 -10.3671     13.2594     59.9044   1.0195302387e+02   6.3430128580e+01    0.2595944    0.2225874 -50.28 0.0007592441    1.143    0.125
        45 -10.3109     69.4333    170.1916   1.0477210714e+02   3.1068399531e+01    0.3439415    0.2849088 -28.06 0.0009904758    1.546    0.353
        46 -11.6930    195.1726     45.5767   4.4455925698e+01   3.0835900281e+01    0.6238813     0.482536 -26.46  0.002221162    1.470    0.320
        47  -8.3319     86.8792    249.1704   1.1022175605e+02   1.1463806837e+01    0.1848059    0.1360984  62.64 0.0004247935    1.218    0.179
        48  -9.2660    119.5018    220.3411   1.0005695961e+02   1.2073412995e+01    0.2551186    0.2118677  15.44  0.001487731    1.386    0.278
        49  -8.0798    140.5225     38.0534   5.1189366032e+01   4.5148931568e+01    0.2149488    0.1733991  61.30  0.000527048    1.154    0.134
        50 -14.4773      7.0554    246.0940   1.2490403542e+02   2.1662849498e+01     2.788971     1.850871  21.11   0.01848229    2.283    0.562
        51  -9.9092     59.5866    220.9791   1.1309001934e+02   2.0751141980e+01    0.3296518    0.2747849  27.90  0.001910825    1.455    0.313
        52 -13.7023      9.5885    207.5059   1.2238687663e+02   2.9245322496e+01     2.205074     1.219779 -46.93   0.00809144    2.696    0.629
        53  -8.9247    107.9537    204.0266   1.0032955604e+02   1.7318060533e+01    0.2191419    0.1538805  68.42 0.0005397394    1.621    0.383
