#   1 NUMBER                 Running object number                                     
#   2 MAG_AUTO               Kron-like elliptical aperture magnitude                    [mag]
#   3 X_IMAGE                Object position along x                                    [pixel]
#   4 Y_IMAGE                Object position along y                                    [pixel]
#   5 X_WORLD                Barycenter position along world x axis                     [deg]
#   6 Y_WORLD                Barycenter position along world y axis                     [deg]
#   7 A_WORLD                Profile RMS along major axis (world units)                 [deg]
#   8 B_WORLD                Profile RMS along minor axis (world units)                 [deg]
#   9 THETA_WORLD            Position angle (CCW/world-x)                               [deg]
#  10 FWHM_WORLD             FWHM assuming a gaussian core                              [deg]
#  11 ELONGATION             A_IMAGE/B_IMAGE                                           
#  12 ELLIPTICITY            1 - B_IMAGE/A_IMAGE                                       
         1 -14.4468      6.2021     73.1594   8.8312722670e+01   5.8600668233e+01     1.602258    0.4931362 -62.59  0.006948892    2.273    0.560
         2 -14.7686     14.1892     60.2684   8.3098265251e+01   6.0768777560e+01    0.7572332    0.3854831 -57.83   0.00218684    1.496    0.332
         3 -15.1493    172.8276     59.0761   3.6580238364e+01   3.3820373932e+01     1.291192     1.120983   0.20  0.004247365    1.265    0.209
         4 -15.5132    193.4958     34.1190   2.5685601433e+01   3.2100748616e+01      1.77356    0.9843332  64.11  0.006626579    1.729    0.422
         5 -13.9140    189.2180     13.8566   2.0493360796e+01   3.5552667282e+01    0.5725712    0.3164547 -56.63  0.002529587    2.146    0.534
         6 -12.7930    215.8283      4.5478   1.4899577628e+01   2.9834975690e+01     0.265742    0.2064973 -63.46  0.001368571    1.243    0.196
         7 -12.2453    206.3819      2.7196   1.5400039914e+01   3.2351778013e+01    0.2581652    0.1546503  87.19 0.0007936848    1.696    0.410
         8 -13.9726    184.6391    216.7788   7.0148420646e+01   3.7064276260e+00    0.5105904    0.3262403 -58.84  0.001358495    2.345    0.573
         9 -15.3476    182.2352    239.5578   7.3922681217e+01   9.7700055325e-01     1.101371    0.8058314  32.47  0.005483754    1.173    0.147
        10 -18.7570     68.3631    200.0057   9.0032228813e+01   2.5487235478e+01     7.213971     5.415523 -61.82   0.04509821    1.499    0.333
        11 -11.4266    162.9257    197.8597   7.1244573368e+01   1.0565334389e+01    0.2398011    0.1751992 -40.18 0.0007722739    1.588    0.370
        12 -10.2651     17.2726    192.3930   9.8777496614e+01   3.2783627681e+01    0.2208262    0.1029147 -71.65  0.001356627    1.833    0.454
        13 -11.7434    181.4745    197.9526   6.7669243440e+01   7.1336028267e+00    0.2370941    0.2219344 -75.41 0.0008529531    1.307    0.235
        14 -13.4452    179.7470    217.8938   7.1219464103e+01   4.3999679954e+00    0.3462116    0.3076811  24.04 0.0009971757    1.123    0.109
        15 -14.4259    238.3159    162.0604   5.0202669759e+01   1.9107072695e+00     0.642681    0.5821906  57.94  0.003929316    1.396    0.283
        16 -12.9423    235.0931    171.8625   5.2784857490e+01   1.0802474351e+00    0.3050333    0.2465914 -47.40  0.001120352    1.565    0.361
        17 -11.8274    211.0282    198.6870   6.2260588637e+01   1.6140865592e+00    0.2346579    0.1997547  23.22  0.000530468    1.010    0.010
        18 -11.1950     25.1554    172.0845   9.5752380380e+01   3.6056481841e+01    0.3553606    0.1682297  71.21  0.001907086    2.219    0.549
        19 -15.0789    171.3412    225.2512   7.3848201310e+01   4.7802720003e+00     1.068009    0.6905416  40.86  0.006027114    1.270    0.213
        20 -10.6853      9.0577    169.2405   9.8650537618e+01   3.8094155012e+01    0.1445906    0.1073111  77.26   0.00108816    1.103    0.094
        21 -11.5706      7.9616    166.4450   9.8653987981e+01   3.8750928622e+01    0.1452279    0.1130264  73.25  0.001119096    1.154    0.134
        22 -12.0891     25.1433    164.8839   9.5119103294e+01   3.7540116119e+01    0.1827679     0.158847  72.47  0.001398497    1.212    0.175
        23 -11.1480     18.8242    158.4286   9.5827813661e+01   3.9466244081e+01    0.1455386    0.1095316  -0.82 0.0009561448    2.306    0.566
        24 -11.5695     23.0642    156.0464   9.4725348059e+01   3.9582015101e+01    0.2077506    0.1627978 -82.73  0.001132603    1.070    0.065
        25 -12.4636    236.0329    176.5528   5.3562594066e+01   2.3634912989e-01    0.3242212    0.1863736 -37.92   0.00101446    1.856    0.461
        26 -12.4336     36.8759    142.2728   9.0193845956e+01   4.1204653317e+01    0.2872992    0.1621962 -74.58  0.001616052    1.514    0.340
        27  -9.8165    132.3272    230.2680   8.1578530824e+01   1.0538718817e+01    0.1109161   0.08654955  25.54 0.0002630409    1.575    0.365
        28 -10.7181     28.3476    139.5790   9.1833556252e+01   4.2615672714e+01    0.1186871     0.114946 -27.54 0.0003925042    1.394    0.283
        29 -13.8608    230.5189    166.3495   5.2466865027e+01   2.7471309570e+00    0.4625301    0.4411316 -70.55  0.002798655    1.396    0.284
        30 -11.9110    160.2553    128.2982   5.8080027120e+01   2.4110052290e+01    0.3443685    0.2867602 -44.33  0.001767003    1.225    0.184
        31 -10.6903    110.3744    222.8001   8.4676544375e+01   1.5243531605e+01    0.1648361    0.1368155 -61.61 0.0003632071    1.433    0.302
        32 -12.4566    149.0623    227.1355   7.8159323670e+01   8.2744496643e+00    0.3167029     0.235086 -44.30 0.0009664538    1.683    0.406
        33 -11.2060     19.2193    108.5728   9.0134854155e+01   5.0151842207e+01    0.1571421    0.1447743  72.15 0.0004692816    1.245    0.197
        34 -11.0363     25.7369    108.4558   8.8387296600e+01   4.9655327430e+01    0.1836351    0.1229859  21.44 0.0008987709    1.943    0.485
        35 -12.1782     24.2093    104.7790   8.8242836864e+01   5.0586274033e+01    0.2688964     0.207603 -62.02 0.0009959515    1.085    0.079
        36 -11.4204      7.8122    101.9203   9.2255996357e+01   5.2396227088e+01    0.2201868    0.1715165  69.46  0.001585212    1.411    0.291
        37 -11.0700    106.0215    228.7549   8.6109845903e+01   1.4905876118e+01    0.1550118    0.1295791  50.96  0.000507876    1.180    0.153
        38 -12.6830     92.4562     99.7049   6.8089466365e+01   4.3422315519e+01    0.3487056    0.2712519 -33.25 0.0005677033    1.354    0.262
        39 -11.6802    207.9917    218.0004   6.6116208222e+01  -5.1267732236e-01     0.190211    0.1570813  27.76 0.0004236467    1.017    0.017
        40 -12.1401    164.0806    215.7058   7.3793536624e+01   7.4717312960e+00    0.2274602    0.1990328  60.63 0.0007949924    1.182    0.154
        41 -11.4580    146.0697    210.7668   7.6473288450e+01   1.1407167305e+01    0.2946262    0.1732016 -53.59 0.0006842295    2.001    0.500
        42 -13.1918    187.3573    208.1401   6.8262620077e+01   4.4944256760e+00    0.3611953    0.2662976  38.95 0.0009411323    1.152    0.132
        43 -19.0292     48.9774     83.0206   7.6879776750e+01   5.2990648663e+01     15.76065    0.7586794 -57.25   0.02438112   17.905    0.944
        44 -11.0301     12.8226     94.0650   8.9764086113e+01   5.3756398866e+01    0.1667147    0.1509114 -64.61 0.0003881515    1.171    0.146
        45 -12.4910     76.8529     86.8262   6.9337363443e+01   4.8615250322e+01    0.2404963     0.213278 -42.41 0.0007106017    1.029    0.028
        46 -11.9090     92.2170     88.9892   6.5423624093e+01   4.5748237045e+01    0.2777793    0.2223375  62.86 0.0002840687    1.509    0.337
        47 -11.9265    178.8497    203.7800   6.9146216931e+01   6.6963727630e+00    0.2402102    0.1895342 -34.65 0.0007532637    1.464    0.317
        48 -13.2467     23.3014     57.1402   7.9162381713e+01   6.0749686655e+01    0.3107163    0.1706197  15.25  0.001186186    2.300    0.565
        49 -13.2965    211.6031    245.8167   6.9765183878e+01  -4.5258766086e+00    0.3319069    0.2292801  50.20  0.001555757    1.557    0.358
        50 -12.2429    214.2596    242.9906   6.8904133587e+01  -4.6222804262e+00    0.2168762    0.1660306  -7.58 0.0006777891    1.448    0.310
        51 -12.2225     85.7687     81.2176   6.5198007756e+01   4.8423176508e+01    0.3952896     0.194549 -41.44  0.001179026    1.938    0.484
        52 -12.5330     79.4872     79.1469   6.6508130087e+01   4.9831456084e+01    0.5988985    0.2095139  48.57  0.001999969    4.213    0.763
        53 -11.0770    113.8969    224.2559   8.4201821515e+01   1.4449744200e+01    0.1870477    0.1545146 -60.04 0.0007604847    1.451    0.311
        54 -14.5088    159.8609     71.2517   4.2897963385e+01   3.5020037386e+01     1.084882    0.7996349  31.70  0.002585313    1.490    0.329
        55 -11.2075    161.0732    245.9603   7.8435623933e+01   3.5768260627e+00    0.1719337    0.1368624  42.93 0.0003654155    1.036    0.035
        56 -13.7591    179.5361     51.7449   3.3136620081e+01   3.3241210808e+01    0.5504295    0.4989584 -20.50 0.0009028735    1.148    0.129
        57 -11.3545    149.6514     86.7726   4.9741452078e+01   3.4628678121e+01    0.2754892    0.1953633 -47.85 0.0009417881    1.467    0.318
        58 -12.7787     67.4505     73.3600   6.8632864915e+01   5.2757050910e+01    0.4135316    0.2427002  43.37  0.002090551    1.990    0.498
        59 -11.3948     87.7191     69.8261   6.1322428440e+01   5.0399193455e+01    0.2379994    0.1812357  72.59 0.0007703945    1.966    0.491
        60 -11.6710    129.0386     62.2796   4.7379118416e+01   4.3735659646e+01    0.3205136    0.2549979  75.55  0.001570875    1.614    0.380
        61 -12.6477    192.7723    194.8106   6.4968423450e+01   5.5329323834e+00    0.8884069    0.4530313 -61.94  0.002836564    5.863    0.829
        62 -11.8775     71.7241     52.9440   6.1045380009e+01   5.6123294501e+01    0.2150762    0.1894382  32.57 0.0002850784    1.273    0.215
        63 -11.2083    170.1558     84.9163   4.4632966444e+01   3.0133006433e+01    0.2339571    0.2072527 -69.83 0.0005273263    1.264    0.209
        64 -11.7704     87.4694    238.4574   9.0267909500e+01   1.6001759280e+01    0.1241384   0.09983009 -83.17 0.0009245783    1.320    0.243
        65 -12.5049    151.5522    196.2154   7.3217019754e+01   1.2919511121e+01    0.2838355    0.2394964 -12.93  0.001000765    1.533    0.348
        66 -10.9131     83.9725     10.0000   4.0529518986e+01   6.0496874948e+01    0.2016054   0.06769429  50.51 0.0006547835    2.924    0.658
        67 -11.5832     90.0687    250.5143   9.0883328283e+01   1.3718555168e+01    0.1553693   0.08429047  46.81 0.0008760027    1.464    0.317
