#   1 NUMBER                 Running object number                                     
#   2 MAG_AUTO               Kron-like elliptical aperture magnitude                    [mag]
#   3 X_IMAGE                Object position along x                                    [pixel]
#   4 Y_IMAGE                Object position along y                                    [pixel]
#   5 X_WORLD                Barycenter position along world x axis                     [deg]
#   6 Y_WORLD                Barycenter position along world y axis                     [deg]
#   7 A_WORLD                Profile RMS along major axis (world units)                 [deg]
#   8 B_WORLD                Profile RMS along minor axis (world units)                 [deg]
#   9 THETA_WORLD            Position angle (CCW/world-x)                               [deg]
#  10 FWHM_WORLD             FWHM assuming a gaussian core                              [deg]
#  11 ELONGATION             A_IMAGE/B_IMAGE                                           
#  12 ELLIPTICITY            1 - B_IMAGE/A_IMAGE                                       
         1  -8.8251    111.8614     34.5410   5.6689078814e+01   5.2491780272e+01    0.2999025    0.1936765 -41.68   0.00114861    1.732    0.422
         2  -8.5002     97.2317     14.7544   5.2914541856e+01   5.8016197604e+01    0.2126455    0.1560401 -23.16  0.000922082    1.490    0.329
         3  -7.6871     83.3981     11.2074   5.5218154939e+01   6.1313748002e+01    0.1679541    0.1137876 -33.64 0.0007789413    1.695    0.410
         4  -8.5366     55.7762      9.9942   6.3968375439e+01   6.6699608184e+01    0.1991319    0.1607885 -36.88  0.000849057    1.595    0.373
         5  -8.0831     47.5171     10.0352   6.7353123458e+01   6.8065356862e+01    0.1718429    0.1079027 -26.58  0.001020634    1.590    0.371
         6  -8.5763     90.9454      8.9790   5.2207106266e+01   5.9926939985e+01     0.188603     0.152416 -69.24 0.0006036754    1.729    0.422
         7  -8.2702    101.3878      8.1400   4.9301287354e+01   5.7706169859e+01    0.1610675    0.1159729 -35.63 0.0003936778    1.613    0.380
         8  -7.7894     12.5576      8.5259   8.4254108289e+01   7.2761780361e+01    0.1138219   0.08523864 -11.92 7.563837e-05    1.024    0.023
         9  -8.5787     33.3766      5.0085   7.1207231856e+01   7.0754413935e+01    0.2659313    0.1580026 -45.21  0.001451836    2.670    0.625
        10  -8.4725     79.0771      3.7991   5.3248252293e+01   6.2870744820e+01    0.2072392    0.1628071 -46.33  0.001157215    1.695    0.410
        11  -7.6473     44.7010      3.3278   6.5140549639e+01   6.9237811347e+01   0.09967947   0.09471907 -41.46 0.0003942118    1.637    0.389
        12  -7.7965      5.6800      8.3146   8.8252900069e+01   7.3402505313e+01   0.09116025   0.08691376   6.47 0.0003548067    1.654    0.395
        13  -8.1912     62.4765      1.4629   5.7372535180e+01   6.6323309214e+01    0.1845927    0.1120328  61.52 0.0005887834    2.036    0.509
        14  -7.6294     39.4368      1.5172   6.6497026667e+01   7.0247584569e+01    0.1163073   0.09273683  10.41  0.000239838    1.064    0.060
        15  -7.9068    158.2956    244.3080   9.5691081879e+01   1.1264997036e+00    0.1243082   0.09093335   4.78 0.0001618028    1.588    0.370
        16 -10.0068    248.7448    241.9752   7.8177801420e+01  -1.1314772858e+01    0.4151706      0.19236 -36.08  0.001884216    2.174    0.540
        17  -8.0302    191.7297    249.8126   8.9874120248e+01  -4.7297141721e+00     0.159446     0.132702  42.58 0.0009501716    1.424    0.298
        18  -8.7574    132.4852    248.3040   1.0147824722e+02   4.4309620320e+00     0.317518    0.1961373  66.96  0.001136194    2.395    0.582
        19  -8.7038     93.6209    249.0542   1.0943622694e+02   1.0080745098e+01    0.2716031    0.1574655  74.25  0.001085444    2.246    0.555
        20  -8.4045    139.3992    244.2288   9.9540498684e+01   4.0662269029e+00    0.1583361    0.1232276 -75.56 0.0006357036    1.716    0.417
        21  -9.5169     77.7618    242.8108   1.1201526830e+02   1.3487506142e+01    0.3328484    0.1973344  82.98  0.001361851    1.997    0.499
        22  -8.0156     34.4711    244.4613   1.2056524885e+02   1.8637263980e+01    0.1159432   0.08836447  66.32 0.0002464418    1.015    0.015
        23  -8.5356      9.4908    243.4780   1.2504853277e+02   2.1500087999e+01    0.2481928   0.06819092  82.73 0.0008100129    6.055    0.835
        24  -8.2457    214.0861    242.8495   8.4539481853e+01  -6.9144193564e+00    0.1929885    0.1577349 -43.71   0.00127477    1.677    0.404
        25  -8.7048    168.9159    243.2492   9.3392084996e+01  -3.3737399457e-01    0.1848147    0.1517374  40.63 0.0005206689    1.219    0.180
        26  -9.4616    160.3292    240.6541   9.4753752296e+01   1.4111442647e+00    0.3552737     0.246696 -78.68  0.001558925    2.674    0.626
        27  -9.2585    183.1478    240.2813   9.0099138633e+01  -2.0415992804e+00    0.3889982    0.2529578  59.86  0.001916551    2.662    0.624
        28  -8.2079    153.2375    242.2244   9.6428222875e+01   2.2550825967e+00    0.1707624    0.1423283  59.33  0.001062186    1.399    0.285
        29  -8.3389     88.1645    242.1799   1.0984441324e+02   1.2149038018e+01    0.1703675     0.124753  71.46 0.0004864792    1.355    0.262
        30  -8.5280    240.5270    240.0655   7.9287719725e+01  -1.0052808489e+01    0.2358606     0.100849 -34.31  0.001226603    2.270    0.559
        31  -8.5014    242.6488    236.6654   7.8347205182e+01  -9.8808501897e+00    0.2165426    0.1186792 -14.43  0.001063728    1.874    0.467
        32  -8.5282    194.0644    239.7913   8.7874142769e+01  -3.6021493912e+00    0.1789185    0.1516626  30.77 0.0004867397    1.227    0.185
        33  -8.1081    145.8521    239.7693   9.7606102409e+01   3.8277422567e+00    0.1692368    0.1396325  56.59 0.0005854354    1.317    0.241
        34  -9.1862    135.8054    239.1697   9.9612080311e+01   5.5101932189e+00    0.2684157    0.1521005  48.22  0.001366982    1.677    0.404
        35  -8.6353    128.9128    238.9229   1.0101849118e+02   6.6329420166e+00    0.2021964    0.1421056  63.86 0.0007758867    1.671    0.401
        36  -8.6728     67.5388    244.9576   1.1424632525e+02   1.4455820634e+01    0.1670543    0.1116023 -77.19 0.0008024339    1.574    0.365
        37  -8.3585     40.6304    239.2381   1.1905193341e+02   1.8949397072e+01     0.151589   0.09776218 -71.03 0.0008427042    1.606    0.377
        38  -8.9634    230.9780    237.1944   8.0508532700e+01  -8.4354612766e+00    0.2485591    0.1843659 -47.42   0.00112646    2.007    0.502
        39  -7.7013    209.2777    238.6536   8.4764927411e+01  -5.6476577440e+00    0.1047504   0.09893882  58.80 0.0004297305    1.633    0.388
        40  -8.9112    217.6166    236.3125   8.2812258099e+01  -6.4920447134e+00     0.214643    0.1833311  39.52 0.0008260137    1.525    0.344
        41  -9.4995    213.8571    232.0536   8.2806987301e+01  -5.3482531954e+00    0.3155864    0.2705676 -86.90  0.001304026    2.310    0.567
        42  -8.3894     25.6967    237.1991   1.2175996205e+02   2.1045914758e+01     0.241878   0.08043186  62.84  0.001027838    3.153    0.683
        43  -8.8737    203.0740    234.6927   8.5304077922e+01  -4.1701255994e+00    0.2328224     0.177077 -51.64 0.0008900156    1.854    0.461
        44  -9.7884    175.8138    233.5268   9.0520748900e+01   1.6155786922e-01     0.467763    0.2790166 -60.69  0.002230885    2.765    0.638
        45  -8.3412    170.3585    236.1266   9.2033077753e+01   5.8995617388e-01    0.1584208    0.1230209 -59.50 0.0004731026    1.740    0.425
        46  -9.2013    109.1538    234.5341   1.0462686818e+02   1.0510171527e+01    0.5362213    0.2511804  54.43  0.001768436    2.356    0.575
        47  -7.8699     57.9807    237.0000   1.1547430683e+02   1.7263739255e+01    0.1928231   0.06044394  35.22 0.0007952625    2.893    0.654
        48  -8.7110    247.9610    234.6790   7.7089629513e+01  -1.0291313146e+01    0.2170242    0.1391783 -19.65 0.0007326757    1.352    0.261
        49  -8.3756    122.9792    234.2730   1.0166355124e+02   8.4168665064e+00    0.2264251    0.1676856  72.05 0.0006694822    1.623    0.384
        50  -8.3693     99.7750    234.6779   1.0662575518e+02   1.1900738286e+01    0.2392009    0.1490754  75.99  0.001066388    2.065    0.516
        51  -8.9321     78.5513    234.3858   1.1103904240e+02   1.5031731332e+01     0.270179    0.1557219  68.72 0.0009084535    1.910    0.477
        52  -8.4135      8.2563    234.9767   1.2486080965e+02   2.3287462788e+01    0.1402729   0.07833143 -86.99 0.0008805385    1.536    0.349
        53  -8.6047     92.4879    232.1846   1.0788419870e+02   1.3472053610e+01    0.3790205    0.2020722  85.91  0.001606351    3.101    0.678
        54  -9.7031     68.2771    232.2997   1.1296556355e+02   1.6861005822e+01    0.4846145     0.210864  67.08  0.001949596    3.256    0.693
        55  -8.7289    140.2243    230.3219   9.7457027237e+01   6.4047036464e+00    0.3354599    0.1893007  57.66  0.001083464    2.325    0.570
        56  -8.7120    132.6153    232.8675   9.9431016194e+01   7.1552088844e+00    0.2356291    0.1703777 -81.90  0.001273775    1.925    0.481
        57  -9.4011    186.2654    230.6907   8.7957752594e+01  -1.0092444589e+00    0.2947773    0.2223144 -73.09  0.001085917    2.424    0.587
        58  -9.0854    235.9948    230.3200   7.8444742638e+01  -8.1683207674e+00    0.3057874    0.1515703 -33.19 0.0005623646    1.928    0.481
        59  -8.7246      1.8033    231.1098   1.2584696474e+02   2.4674885981e+01    0.1817756    0.1071573  67.77 0.0008018884    1.295    0.228
        60  -9.4726    246.7802    228.2888   7.6199403400e+01  -9.3016473793e+00    0.4875391    0.1970302 -28.24  0.002351639    2.432    0.589
        61 -10.0730    149.7156    226.2819   9.4839710748e+01   5.6026757151e+00    0.6172429    0.3891316 -87.80  0.002432506    3.881    0.742
        62  -8.7957    162.0995    227.6835   9.2436755574e+01   3.3361969995e+00    0.2478796    0.2021497  75.96 0.0007996763    1.743    0.426
        63  -9.0029    127.9129    227.3396   9.9677676781e+01   8.9456623520e+00    0.3275467    0.2101749  64.38  0.001141496    2.001    0.500
        64  -8.1041    120.2001    228.1422   1.0145260611e+02   1.0022462856e+01    0.1848575    0.1434406  65.28 0.0007529812    1.378    0.274
        65  -8.3234      8.3172    228.6477   1.2453252701e+02   2.4554422851e+01    0.1259774   0.05986958  64.75 0.0007046908    1.739    0.425
        66  -9.1449    205.7968    226.0650   8.3334466420e+01  -3.2676744050e+00    0.2695153    0.1935872  -5.45  0.001393742    1.381    0.276
        67  -8.3774     49.1995    226.8183   1.1640960205e+02   2.0449644764e+01    0.2642386    0.1436666  69.23  0.001394412    1.812    0.448
        68  -8.0677    200.4429    226.5170   8.4453718732e+01  -2.5285977139e+00    0.1276552    0.1090003  10.94 0.0001378442    1.049    0.047
        69  -9.0436     94.2438    224.4410   1.0662025744e+02   1.4776442548e+01    0.4376756    0.2191147  65.53  0.001599603    2.864    0.651
        70  -8.3669    194.6169    232.9488   8.6666462786e+01  -2.6441238068e+00    0.2072045     0.166774  50.25 0.0007585499    1.598    0.374
        71  -9.0743    216.5380    223.9243   8.0912419350e+01  -4.5339631386e+00    0.2752855    0.2145457 -47.81 0.0009587461    1.726    0.421
        72  -8.7493    180.7120    224.2014   8.8018674554e+01   9.3160277211e-01    0.2733363    0.2281775 -71.10  0.001161716    1.776    0.437
        73  -9.0479    104.8085    223.8686   1.0424540100e+02   1.3283982259e+01    0.3673933    0.2348873  77.54  0.001728747    2.073    0.518
        74  -8.1707     38.5241    224.7382   1.1841882135e+02   2.2160424636e+01    0.1663098   0.09730496  84.13 0.0009376305    1.607    0.378
        75  -8.2254    113.9847    224.0361   1.0225926051e+02   1.1814128629e+01    0.2141916    0.1463274  65.83 0.0007372682    1.673    0.402
        76  -8.3360    144.9977    233.4871   9.6899502781e+01   5.0660129789e+00    0.2195391    0.1356794  68.20 0.0009665142    2.820    0.645
        77  -9.5947    192.0496    221.0468   8.5187812383e+01  -3.4923486106e-01    0.3392727     0.288663 -46.93  0.001237033    1.451    0.311
        78  -8.5114    172.9700    223.1300   8.9439208100e+01   2.3636150223e+00    0.1926267     0.172888  52.90 0.0005972348    1.320    0.242
        79  -8.1889    140.0767    222.8129   9.6392247154e+01   7.8291256779e+00    0.2218422    0.1363193  57.50 0.0007654033    1.979    0.495
        80  -8.9258    239.0364    221.0738   7.6293714453e+01  -7.2900071555e+00    0.3130733    0.1569683 -31.92  0.001455355    1.850    0.459
        81  -9.6876    224.1110    221.3265   7.9042347998e+01  -5.2438163608e+00    0.4022344    0.2259158  44.46  0.001657237    2.184    0.542
        82  -9.0805    159.6895    220.9395   9.1880291338e+01   4.9330467243e+00    0.3914469    0.2298517  58.35  0.001560183    2.515    0.602
        83  -9.3679      7.1323    221.5023   1.2438352713e+02   2.6137544141e+01    0.3898891   0.08004792  46.14  0.001682519    3.234    0.691
        84  -9.2669    120.4144    219.4058   1.0021278100e+02   1.1712405680e+01    0.4500734    0.2610573  66.74  0.001935492    2.566    0.610
        85  -8.9258     82.8558    220.7126   1.0867444791e+02   1.7229774956e+01    0.3169454    0.1572646  61.42  0.001390299    2.362    0.577
        86  -8.1259     73.1487    220.7433   1.1079090110e+02   1.8598224468e+01    0.2236338    0.1063494  65.58 0.0005771413    2.697    0.629
        87  -8.1728     27.6165    221.2084   1.2036168579e+02   2.4126855484e+01    0.1624396   0.09503613 -69.25 0.0009509737    1.677    0.404
        88  -8.1997    202.8122    220.1855   8.2902953345e+01  -1.8924325122e+00    0.1781751    0.1340966  -3.25 0.0005751747    1.287    0.223
        89  -8.1726    210.0799    219.2499   8.1326907449e+01  -2.8566920443e+00    0.1761367    0.1501313  11.48 0.0004323359    1.077    0.071
        90  -7.9765    229.5893    228.7675   7.9331802404e+01  -7.0870804238e+00    0.1549275    0.1088072 -38.56 0.0007297062    1.630    0.386
        91  -8.3280    248.8587    218.1768   7.4066094440e+01  -8.1935321386e+00    0.3145418    0.1574906  50.30   0.00131639    4.314    0.768
        92  -9.3331    132.8366    215.9529   9.6952989971e+01   1.0360757786e+01    0.4822701    0.3017726  76.72  0.002016037    2.893    0.654
        93  -8.5183    111.9054    217.4082   1.0182927342e+02   1.3488514724e+01    0.2574096    0.1754027  81.41  0.001277421    1.932    0.482
        94  -8.7105     51.4882    217.0341   1.1509025041e+02   2.2248958304e+01    0.2982698     0.173843  83.88   0.00081568    1.755    0.430
        95  -7.9117    179.4622    217.5390   8.7157210614e+01   2.2726117530e+00     0.133322    0.1186292  20.70 0.0008074914    1.058    0.055
        96  -8.5662    169.2615    216.1734   8.9063433772e+01   4.2029221080e+00    0.2771869    0.2037413 -75.60 0.0009542796    2.242    0.554
        97  -8.7585    143.0741    216.6293   9.4794898950e+01   8.5155389228e+00    0.2690818    0.2061874  79.05  0.001144902    1.793    0.442
        98  -8.4576     61.7691    216.9264   1.1286934049e+02   2.0956159255e+01    0.2443177    0.1506977  79.63  0.001105895    1.688    0.408
        99  -8.7447     18.5336    216.0703   1.2184102807e+02   2.6171150202e+01     0.266975   0.09886958 -85.70  0.001206293    2.666    0.625
       100  -8.9338    232.3097    214.6390   7.6349075020e+01  -5.4244737074e+00     0.253641    0.2022495 -46.45  0.001224153    1.692    0.409
       101  -8.3060    154.1262    215.0687   9.2129886902e+01   6.9519791686e+00    0.2069184    0.1626637  69.81 0.0006787095    1.680    0.405
       102  -8.2756    185.5180    214.0330   8.5301905221e+01   1.8866529882e+00    0.1893454    0.1304461 -41.19 0.0005723982    1.553    0.356
       103  -9.0767     92.8389    213.9219   1.0565152735e+02   1.7196924974e+01    0.3058501     0.180072  62.22  0.001392702    1.880    0.468
       104  -9.5189     73.4463    212.2460   1.0980803722e+02   2.0392197354e+01    0.6612194       0.2397  57.82  0.002208183    4.020    0.751
       105  -8.1015    224.6772    212.4736   7.7354949520e+01  -3.9919874336e+00    0.2064548    0.1075094 -35.97 0.0005211426    1.851    0.460
       106  -9.4190    213.7773    212.0738   7.9335910659e+01  -2.2885611408e+00    0.2930937    0.2786227  77.91  0.001480788    1.594    0.372
       107  -8.3717    161.6846    212.5345   9.0072286742e+01   6.1476484647e+00    0.2079834     0.173481 -89.16 0.0007189857    1.678    0.404
       108  -8.0692    106.4626    212.9627   1.0244751526e+02   1.5284161719e+01     0.190455    0.1341285 -69.50 0.0008901137    1.569    0.362
       109  -9.0857    204.1789    211.1926   8.1039794833e+01  -6.4820440021e-01    0.2648464    0.2017837 -35.34  0.001045604    1.358    0.264
       110  -8.5770    192.4981    210.9465   8.3330233665e+01   1.2744436177e+00    0.2730467    0.1296579 -49.01  0.001173118    2.560    0.609
       111  -9.4488    175.5919    210.2046   8.6700425248e+01   4.2183971279e+00    0.4023086     0.278189  66.10  0.001500968    2.405    0.584
       112  -8.9747    148.0326    210.6839   9.2751261460e+01   8.8318771620e+00     0.302401    0.2295385  78.64  0.001534854    1.879    0.468
       113  -9.3406      7.1400    210.1141   1.2375477207e+02   2.8549736317e+01    0.4730916    0.1369959  70.70  0.001550789    5.299    0.811
       114  -9.0837    116.2790    210.3763   9.9852628921e+01   1.4243945274e+01     0.355257    0.2379581  73.90  0.001285874    1.979    0.495
       115  -8.5307     32.9524    210.9776   1.1851601788e+02   2.5752922908e+01    0.3218928    0.1283917  62.48  0.001396841    2.685    0.628
       116  -8.5501     85.2974    209.0674   1.0675731178e+02   1.9383876322e+01    0.3459644    0.1959652  80.13  0.001282412    2.476    0.596
       117  -7.9909     46.6505    209.9165   1.1549106211e+02   2.4404097858e+01    0.2422096   0.08787807  59.63 0.0009033709    3.356    0.702
       118  -8.9836    236.3770    208.4646   7.4493531586e+01  -5.0833335522e+00    0.2306347    0.2015457 -44.11 0.0009315077    1.556    0.358
       119  -9.3835    246.4369    207.3911   7.2531220074e+01  -6.3339920135e+00    0.2364814    0.1848658 -24.73 0.0005530141    1.202    0.168
       120  -8.4137    139.0356    208.0139   9.4326471046e+01   1.0904850962e+01    0.2184216    0.1650898  70.70 0.0005618609    1.683    0.406
       121  -8.1247    126.2110    208.2837   9.7275870195e+01   1.3030229231e+01    0.1939328    0.1533279  65.80 0.0006714172    1.391    0.281
       122  -9.2069     99.4321    206.0848   1.0311737645e+02   1.7878762169e+01    0.4036225    0.2457698  73.37  0.001422474    2.211    0.548
       123  -8.4279     56.1229    205.2077   1.1294364362e+02   2.4282952270e+01    0.2513608     0.139006  76.39 0.0008313761    2.031    0.508
       124  -8.3053    108.9121    205.2108   1.0079635349e+02   1.6551675473e+01    0.2192193    0.1730413  64.94 0.0008566749    1.292    0.226
       125  -7.9212     92.4650    204.9777   1.0458353836e+02   1.9206744765e+01     0.189275    0.1120066  83.67 0.0008073375    2.393    0.582
       126  -8.4687     25.0272    205.0415   1.1974054956e+02   2.7917082303e+01    0.2302581   0.09971726  77.67 0.0009876834    2.572    0.611
       127  -9.4464    250.1316    202.4149   7.0979625306e+01  -6.1132016233e+00    0.4351974    0.1550535 -36.24  0.001655941    2.502    0.600
       128  -9.6847    246.1014    194.0107   7.0085185457e+01  -4.2867558046e+00    0.4505636     0.301004 -60.07  0.002172571    2.998    0.666
       129  -9.3449    192.3659    197.2673   8.0840835209e+01   3.7027035735e+00    0.3342775    0.2360358 -43.57 0.0008481799    1.501    0.334
       130  -8.8524    183.6779    203.9276   8.3879240012e+01   3.9833462202e+00    0.2753677    0.2105909  56.66 0.0009883508    1.682    0.405
       131  -9.5355    163.9476    203.1304   8.7957104877e+01   7.5439755615e+00    0.4654439    0.2652814  53.82  0.001173615    2.234    0.552
       132  -8.5298    131.0516    203.7273   9.5451677400e+01   1.3157618342e+01     0.287517    0.2057999  81.15 0.0009987974    1.970    0.492
       133  -7.8087     41.2857    202.9238   1.1603741957e+02   2.6608832102e+01    0.2102102   0.08270793  83.88 0.0007021333    4.193    0.762
       134  -9.1970    243.0509    200.9419   7.1920769857e+01  -4.9034693353e+00    0.3253564     0.163429 -36.44  0.001035154    1.822    0.451
       135  -8.4771    210.9619    201.9926   7.8020075971e+01  -2.0319705120e-01    0.1867394    0.1690612 -80.80 0.0005231434    1.697    0.411
       136  -8.9951    140.4188    200.9212   9.2841920705e+01   1.2116237393e+01    0.4021618    0.2685853  87.06  0.001398774    2.659    0.624
       137  -8.7337     79.8743    201.2191   1.0703291752e+02   2.1938182639e+01    0.3562137    0.2045758  76.85  0.001568722    2.283    0.562
       138  -8.6270     48.2011    201.6695   1.1437477570e+02   2.6073534642e+01    0.3196891    0.1560299  75.16  0.001389604    2.503    0.600
       139  -8.3331     10.3090    202.5785   1.2265764231e+02   2.9904476554e+01    0.2056335   0.09697893  38.03  0.001027169    2.028    0.507
       140  -8.0025    221.7927    201.0400   7.5777369342e+01  -1.7547011696e+00    0.1765991   0.09648833 -37.04 0.0008725727    1.752    0.429
       141  -9.3667    237.0425    198.6644   7.2547485758e+01  -3.6846539985e+00    0.3003515    0.1676819 -41.74  0.001145501    1.846    0.458
       142  -9.4658    149.4241    198.3019   9.0339908799e+01   1.1065291492e+01    0.4552283    0.3009064 -71.95  0.001136534    2.266    0.559
       143  -9.0320    123.9962    199.2267   9.6363208934e+01   1.5325719413e+01    0.3368263    0.2275884 -81.38  0.001317662    2.049    0.512
       144  -9.3705    112.9039    198.5775   9.8870043554e+01   1.7345922115e+01    0.4800442    0.2873963  69.48  0.001593869    2.448    0.591
       145  -9.1763     88.7202    198.7821   1.0463176554e+02   2.1172793050e+01    0.3624328    0.2353072  84.55  0.001426369    1.878    0.467
       146  -8.6243    176.9156    198.9770   8.4399760490e+01   6.0652635503e+00    0.2287064    0.1951937 -50.17 0.0005470083    1.335    0.251
       147  -8.2195    202.2639    197.8041   7.8939297432e+01   1.9340282930e+00    0.2264818    0.1602731 -40.35 0.0007331216    1.455    0.313
       148  -9.1487     61.4998    197.1490   1.1084676116e+02   2.5429478484e+01    0.4173106    0.2206812  69.37   0.00166047    2.261    0.558
       149  -8.4256     12.6234    197.3875   1.2183212353e+02   3.0849086663e+01     0.318143    0.1184747  83.67  0.001309748    3.044    0.671
       150  -8.6395    215.8239    195.5777   7.5866864587e+01   8.9461781243e-02    0.2439636    0.1674136 -51.76 0.0008111585    1.884    0.469
       151  -8.8386    185.2739    194.9455   8.1873531778e+01   5.3560536956e+00    0.2561749    0.2103111 -64.57 0.0006840752    1.626    0.385
       152  -8.1887    133.1678    196.1861   9.3716771609e+01   1.4385764815e+01    0.1960357    0.1639843  70.79  0.000477846    1.349    0.259
       153  -8.0891     53.2204    196.2029   1.1267174213e+02   2.6713844348e+01    0.2086847   0.09711476 -84.05 0.0006248226    2.493    0.599
       154  -8.7746    224.3943    194.0467   7.3959849066e+01  -1.0215648305e+00    0.2641399    0.1461487 -42.47  0.000980887    1.851    0.460
       155  -8.8859    160.8301    194.3177   8.7055568218e+01   9.8304419607e+00    0.3018469    0.2285389  64.22 0.0008261881    1.711    0.415
       156  -9.0512     43.7102    193.5286   1.1460072132e+02   2.8488439811e+01    0.4217025    0.2031364  74.68  0.001808267    2.549    0.608
       157  -8.2874    230.7946    194.3756   7.2850401950e+01  -2.0688670678e+00     0.175403    0.1460577 -22.95 0.0005492615    1.130    0.115
       158  -8.8091     76.9252    193.9354   1.0680211010e+02   2.4043278887e+01    0.2301501    0.1876188 -86.45 0.0006935215    1.180    0.152
       159  -8.2859    198.6749    191.5803   7.8464796780e+01   3.6446840937e+00    0.2553225    0.1628507 -42.17 0.0006545643    1.597    0.374
       160  -8.0870    179.1423    191.4469   8.2506648141e+01   7.1018407960e+00    0.2286779    0.1612653 -46.53 0.0006560993    1.511    0.338
       161  -8.4743    172.3371    191.8273   8.4050012143e+01   8.2500572147e+00    0.2544349    0.2196147  88.29  0.001365769    1.573    0.364
       162  -9.0913    139.4008    190.5178   9.1272999659e+01   1.4490769610e+01    0.3779317    0.2745664 -85.16 0.0007939386    1.978    0.494
       163 -10.5223     92.1748    188.8076   1.0238770721e+02   2.2939978569e+01     1.037215    0.2844527  47.08  0.003139532    3.960    0.747
       164  -8.5926     21.2263    191.3690   1.1951759711e+02   3.1403061779e+01    0.2863849   0.08983947  51.89  0.001161056    3.070    0.674
       165  -8.6717    237.1012    188.4234   7.0572588088e+01  -2.0781698260e+00     0.269007    0.1486362 -39.18 0.0008283182    1.704    0.413
       166  -9.1859    155.9041    187.5332   8.6904601288e+01   1.2111808057e+01    0.3791578    0.2492616 -63.25  0.001139117    1.970    0.492
       167  -8.8989    129.2467    188.5114   9.3322882573e+01   1.6748854370e+01    0.2920776    0.2364993  80.72 0.0008158488    1.476    0.322
       168  -9.8824    120.8436    186.5726   9.5012191261e+01   1.8669052897e+01    0.5670549    0.3174562 -75.70  0.002118607    2.919    0.657
       169  -8.8126     34.1608    188.1202   1.1629267550e+02   3.0831029062e+01    0.3257281    0.1668862  81.98  0.001072041    2.092    0.522
       170  -8.2105    230.6899    187.5656   7.1548801837e+01  -9.4708395101e-01    0.2116522    0.1522978 -50.29 0.0008519635    1.744    0.427
       171  -8.7924    216.5017    187.7987   7.4225123916e+01   1.3005889466e+00    0.2421902    0.2104211 -41.27 0.0007515395    1.306    0.234
       172  -9.1277    191.4441    187.4327   7.9134039900e+01   5.6683177576e+00    0.3010357    0.2391468 -61.17 0.0008963793    1.649    0.394
       173  -9.0073     54.6918    186.8602   1.1129179690e+02   2.8728865457e+01    0.4614526    0.2289052  69.87  0.001903843    2.606    0.616
       174  -8.9218    164.8956    186.7472   8.4723364326e+01   1.0617672530e+01    0.2671504    0.2137474 -59.65 0.0007979606    1.462    0.316
       175  -9.2303    109.6036    186.2700   9.7707767476e+01   2.0679143497e+01    0.3935987    0.2663632  72.15  0.001398674    1.887    0.470
       176  -8.8721    249.3001    185.6627   6.7939992157e+01  -3.4628902579e+00    0.2295803    0.1936021 -51.81 0.0008222802    1.616    0.381
       177  -8.5454    182.9442    185.2359   8.0486607338e+01   7.6111923269e+00    0.2341771    0.1935087 -50.32 0.0005591618    1.349    0.259
       178  -8.7510    210.1360    184.3741   7.4771407796e+01   2.9672610558e+00    0.2461729     0.186609 -42.50 0.0004836125    1.378    0.274
       179  -8.8257    202.9350    184.9520   7.6305602964e+01   4.1047775392e+00    0.2491429    0.2167561 -85.49 0.0008749999    1.710    0.415
       180  -9.0939     66.5231    184.4731   1.0811052476e+02   2.7746814818e+01    0.3882852    0.2250419  66.53  0.001299739    1.972    0.493
       181  -8.6780    148.7043    189.8023   8.8979239776e+01   1.2956098224e+01     0.269201    0.2079971 -76.63   0.00132398    1.704    0.413
       182  -8.1881    224.1363    183.7253   7.1987717089e+01   7.4211588455e-01    0.2220692     0.165006 -39.78 0.0005985353    1.357    0.263
       183  -8.3757    197.2215    183.8091   7.7229168918e+01   5.3173299004e+00    0.2134527    0.1583835 -88.75 0.0009342175    2.707    0.631
       184  -8.8948    174.3212    183.7209   8.2048838588e+01   9.4873068509e+00     0.277351    0.2340529  89.00 0.0008765946    1.644    0.392
       185  -7.9006      1.7674    183.8004   1.2327317755e+02   3.4873317613e+01       0.1707    0.1092175  67.62  0.001049767    1.351    0.260
       186  -9.4343    194.9162    203.4559   8.1477360049e+01   2.1723397507e+00    0.3895012    0.2578419 -32.58  0.001125036    1.515    0.340
       187  -9.1778     44.5406    182.4844   1.1325881492e+02   3.1007630867e+01    0.3748623    0.2048895  65.99  0.001074004    1.969    0.492
       188  -9.2412    147.4374    180.5910   8.7545840409e+01   1.5155119149e+01    0.3552949    0.2592272 -73.46 0.0007877005    1.829    0.453
       189  -9.3772     25.6906    179.2605   1.1746032659e+02   3.3806614097e+01     0.629759    0.2495859  77.70  0.002270667    3.725    0.732
       190  -8.0782    235.2895    181.6725   6.9566476399e+01  -7.0187031392e-01    0.1202357    0.1033408 -58.63 0.0003872494    1.616    0.381
       191  -8.7204    137.6615    179.3645   8.9639070020e+01   1.7246185199e+01     0.308756    0.2340055  76.60  0.001057975    1.741    0.426
       192  -9.3384    191.5853    178.4744   7.7312181050e+01   7.3352651272e+00    0.3000702    0.2553798  65.22 0.0007030623    1.531    0.347
       193  -8.1616    169.4583    178.9334   8.2170605607e+01   1.1359620145e+01    0.2167827    0.1437602 -46.60  0.001010822    1.554    0.356
       194  -9.2630     36.1953    177.1970   1.1472767124e+02   3.3218221004e+01    0.5405077    0.2271427  79.73   0.00189543    3.764    0.734
       195  -9.5441    248.3775    176.3600   6.6272155802e+01  -1.8600743894e+00    0.4145086     0.257981 -50.99  0.002125957    2.068    0.516
       196  -8.5147    250.5445    172.8687   6.5222555841e+01  -1.6301058986e+00    0.2353781    0.1552233 -37.38 0.0005711338    1.359    0.264
       197  -8.7128    231.0263    176.9017   6.9370055610e+01   7.7406025557e-01     0.284759    0.1774005 -44.76 0.0008227793    1.670    0.401
       198  -8.5926    217.6692    177.4733   7.1938335269e+01   2.9006404643e+00    0.2505005    0.2014172 -61.96 0.0008849841    1.724    0.420
       199  -8.9832    204.9960    177.5508   7.4403424607e+01   5.0918577494e+00    0.2602511    0.1892995 -50.62 0.0006432058    1.573    0.364
       200  -8.8113    129.1084    177.3737   9.1344847367e+01   1.9272138745e+01    0.3078602    0.2230871  81.01 0.0009848917    1.910    0.476
       201  -8.3398     97.3288    177.7984   9.9385350160e+01   2.4718639986e+01    0.2617218    0.1806308  21.63   0.00116578    1.782    0.439
       202  -9.0332    183.0775    176.3374   7.8669267348e+01   9.3234180909e+00    0.2639932    0.2454006  76.38 0.0004659372    1.326    0.246
       203  -9.5419    104.6030    175.0231   9.7065044004e+01   2.4167320320e+01    0.6110709    0.3225024  64.13  0.001946835    3.052    0.672
       204  -9.2639     88.9726    176.8803   1.0136868815e+02   2.6280961931e+01     0.302549    0.2152829  84.02 0.0009428894    1.626    0.385
       205  -9.9855     57.3890    173.3499   1.0896463337e+02   3.1661574117e+01    0.8709599    0.3968169  78.75  0.002706087    4.532    0.779
       206  -9.2497     12.9542    176.6510   1.2023095662e+02   3.5606035310e+01    0.3266054    0.1484337  74.04  0.001501409    2.349    0.574
       207  -8.1452    211.4341    176.2345   7.2875577030e+01   4.1975775721e+00    0.1893836    0.1268793 -47.24 0.0009378488    1.611    0.379
       208  -9.1869    158.8265    175.0759   8.3805429952e+01   1.4182735111e+01    0.3713285    0.2809687  89.23  0.001241778    2.000    0.500
       209 -10.7837     75.7969    170.1450   1.0373413367e+02   2.9929076823e+01     1.349591    0.5090423 -75.42  0.003746368    4.981    0.799
       210  -9.8059     81.2878    155.6717   9.9876047656e+01   3.2715063264e+01    0.5941985    0.5296245 -34.41  0.002034704    1.265    0.209
       211  -8.4666    224.2717    174.3369   7.0072217077e+01   2.3301722025e+00    0.2351245    0.1760985 -36.75 0.0007410588    1.260    0.207
       212  -9.2722    175.8293    172.5020   7.9449929491e+01   1.1462446513e+01    0.3221813     0.279106 -62.76 0.0008792242    1.353    0.261
       213  -8.6389    142.9032    172.6245   8.7070629817e+01   1.7760529820e+01    0.2870507    0.2031329 -70.69 0.0007177026    1.824    0.452
       214  -8.7598    205.8261    170.8330   7.2852897324e+01   6.1829959125e+00    0.3153447     0.180871 -47.52 0.0009313585    1.852    0.460
       215  -8.7004    134.5533    171.8677   8.8954632774e+01   1.9512852356e+01    0.2818237     0.229287  70.91 0.0006784234    1.435    0.303
       216  -9.6128    121.4352    170.4658   9.1956721040e+01   2.2272790412e+01    0.4635466    0.3102359 -75.90  0.001149876    1.957    0.489
       217  -9.2402     45.0410    170.7281   1.1179393352e+02   3.3810092390e+01    0.4655289    0.2167701 -82.85  0.001553862    2.397    0.583
       218  -8.4527    198.2525    170.4427   7.4284081520e+01   7.6420194828e+00    0.2592929    0.1874717 -38.28 0.0005865829    1.330    0.248
       219  -8.5610    237.1756    169.7345   6.6838011017e+01   9.8174274222e-01    0.2305312    0.1594115 -41.96 0.0006011469    1.415    0.293
       220  -8.8759    230.4256    169.3155   6.7933838871e+01   2.1651558149e+00    0.4203933    0.1977465 -50.25  0.001694927    2.738    0.635
       221  -8.6910    149.7990    169.7092   8.4831902127e+01   1.7081698510e+01    0.2858655    0.2108821 -64.75 0.0007403099    1.611    0.379
       222  -8.5356    244.4591    169.1370   6.5480513310e+01  -8.4553841458e-02    0.1933446    0.1715097 -37.97 0.0004477069    1.253    0.202
       223  -8.4280    218.7857    168.3006   6.9841455117e+01   4.3357699288e+00     0.230987    0.1710421 -43.08 0.0005814891    1.355    0.262
       224  -9.0123    166.9268    168.5336   8.0608263808e+01   1.4002691961e+01    0.2964061    0.2413408  85.17  0.001005525    1.686    0.407
       225  -8.7754    111.9463    167.9179   9.3902083653e+01   2.4587626053e+01    0.4393897    0.2590534  73.63  0.001550585    3.062    0.673
       226  -8.4263     88.7733    168.8720   1.0012135339e+02   2.8263814488e+01     0.270806    0.1939054  89.85 0.0008698583    1.610    0.379
       227  -7.9736    211.3827    168.2250   7.1226661299e+01   5.6624476288e+00    0.1991781    0.1247887 -48.04 0.0005240183    1.710    0.415
       228  -8.9479    191.8929    166.5037   7.4756746437e+01   9.5947254580e+00    0.3126733    0.2040809 -50.37 0.0007958032    1.666    0.400
       229  -8.8168    185.1377    166.6915   7.6216345375e+01   1.0849032992e+01    0.2522685    0.1931424 -51.57 0.0006776693    1.417    0.294
       230 -10.0182     95.0786    162.5326   9.7349047215e+01   2.8800555172e+01    0.9567094    0.5728407 -88.05   0.00314759    2.604    0.616
       231  -9.4209     20.5392    165.9898   1.1746783468e+02   3.7490214433e+01    0.4271382    0.2020908  72.80  0.001302715    2.444    0.591
       232  -9.8330    136.8002    164.5274   8.6930863681e+01   2.0760534218e+01    0.6697952    0.3258387  56.62  0.002251314    3.012    0.668
       233  -8.5511    233.9005    165.1147   6.6457881311e+01   2.3053125943e+00    0.1967221     0.170107 -42.92  0.000475538    1.258    0.205
       234  -8.6661    159.4538    164.4038   8.1453771246e+01   1.6350962456e+01    0.3057825    0.2473737  83.91 0.0009434433    1.656    0.396
       235  -9.6028     33.2199    163.3340   1.1396990045e+02   3.6921655638e+01    0.5551365     0.260987  59.19  0.002391106    2.448    0.591
       236  -9.1324    245.9684    163.1345   6.4012628201e+01   6.6584758878e-01    0.2279319    0.1664079 -32.14 0.0004334426    1.170    0.146
       237  -8.4167    239.9946    164.3069   6.5247067440e+01   1.4353678857e+00    0.1834602     0.161987 -16.64 0.0005562172    1.060    0.057
       238  -8.5184    213.0290    163.7582   6.9970200686e+01   6.1852426745e+00    0.2492192    0.1842269 -38.67  0.000649179    1.275    0.216
       239  -8.3674    204.8796    162.7831   7.1337938729e+01   7.8649313545e+00    0.2540588    0.1803093 -62.39 0.0006741477    1.956    0.489
       240  -9.4035      3.3043    162.3877   1.2138856966e+02   3.9767894594e+01    0.3727549    0.1697681  55.68  0.001712713    2.229    0.551
       241  -9.0829    177.5167    160.7264   7.6579047257e+01   1.3548746526e+01    0.3204245    0.2553504 -74.63 0.0009328468    1.688    0.408
       242  -8.8929    151.5284    160.9809   8.2595828356e+01   1.8672701652e+01    0.3425131    0.2560424 -81.23 0.0008043977    1.892    0.471
       243  -8.9141     60.6604    160.2685   1.0628044655e+02   3.4493929565e+01    0.3642963    0.2148695  75.91  0.001201041    2.179    0.541
       244  -9.2122    242.2216    160.0052   6.3989064512e+01   1.7947018716e+00    0.3751035    0.2129804  25.78  0.001771059    2.267    0.559
       245  -9.2886    242.9777    155.2907   6.2888331588e+01   2.4651168051e+00    0.2283954    0.1710218 -51.65   0.00058947    1.515    0.340
       246  -9.8176    250.1566    157.8042   6.2247501917e+01   8.7725788595e-01    0.3380802    0.2290465 -36.48 0.0007976117    1.267    0.211
       247  -9.1225    246.7189    155.6724   6.2359929726e+01   1.7852555808e+00    0.3505903    0.1841316 -20.59  0.001350592    2.424    0.587
       248  -8.5858    237.2555    159.3618   6.4688755202e+01   2.7283996457e+00    0.2390704    0.1491878 -50.55  0.001176905    1.830    0.454
       249  -8.5039    227.2385    158.9495   6.6340017808e+01   4.5186997276e+00    0.2852266    0.1702302 -48.58 0.0009111512    1.800    0.444
       250  -9.7421    105.7471    157.9456   9.3632159115e+01   2.8099542516e+01    0.5361315    0.3518515 -86.61  0.001298989    2.192    0.544
       251  -8.4572    128.1655    159.0618   8.7980321437e+01   2.3690301807e+01    0.2894065    0.1954555  66.37 0.0007396257    1.967    0.492
       252  -8.5044    196.6663    158.0744   7.1959841811e+01   1.0328201808e+01    0.2306759    0.2066805  62.87 0.0006692587    1.336    0.251
       253  -8.2035    188.3483    158.1586   7.3694561043e+01   1.1932761556e+01    0.2124675    0.1328276 -51.02 0.0004508212    1.732    0.423
       254  -9.1450    167.6550    157.4318   7.8059315155e+01   1.6211746183e+01    0.3411057    0.2774157 -82.60  0.001003736    1.636    0.389
       255  -8.4967    218.0111    156.5390   6.7495267826e+01   6.6020875240e+00    0.2656985    0.1807026 -50.91 0.0006687607    1.621    0.383
       256  -8.8466    157.9267    155.8523   7.9962891172e+01   1.8520504555e+01    0.4489129    0.2202132 -48.02  0.001411727    2.056    0.514
       257  -9.3818    119.6361    155.3911   8.9431492447e+01   2.6182442601e+01     0.461001    0.2992248 -86.66  0.001420573    2.531    0.605
       258  -9.6656     49.8004    155.2956   1.0852214650e+02   3.7102687502e+01    0.5470389    0.2952037  77.50  0.001801354    2.547    0.607
       259  -7.7796    204.8347    155.5710   6.9786556885e+01   9.2428841749e+00    0.1813113    0.1407439  57.16  0.000447159    1.570    0.363
       260  -8.7999    144.4828    154.8553   8.2983315067e+01   2.1457108305e+01    0.2933766    0.2407836  78.82 0.0009834088    1.505    0.335
       261  -9.7353    132.7398    152.9278   8.5511169169e+01   2.4239208267e+01    0.4914818    0.3493297  73.77  0.001370716    1.967    0.492
       262  -9.4768    133.5008    148.0384   8.4242511368e+01   2.5231570912e+01    0.4244132    0.2279537 -42.96  0.001575745    1.911    0.477
       263  -9.8186     68.0318    153.8245   1.0324370379e+02   3.5123467572e+01    0.5022156    0.3044075  75.28  0.001489471    2.221    0.550
       264  -8.0221    232.5243    153.9740   6.4364505141e+01   4.4705185791e+00    0.2093796    0.1208419 -39.22 0.0005364711    1.541    0.351
       265  -9.4030     20.1065    152.8029   1.1624197787e+02   4.0759977641e+01    0.2031464    0.1495583  74.30 0.0006116627    1.297    0.229
       266  -8.7777      8.5384    153.3254   1.1931104611e+02   4.1562248436e+01    0.1972836    0.1177792  23.98  0.001097693    2.037    0.509
       267  -8.2206    182.4780    151.4681   7.3454448852e+01   1.4460796694e+01    0.2609221    0.1393157 -52.86 0.0006603095    2.156    0.536
       268  -8.7377     98.2928    150.8282   9.4261887759e+01   3.1153762534e+01    0.3456919    0.2343223 -85.56  0.001287019    1.957    0.489
       269  -9.7523     29.2707    150.5997   1.1352803570e+02   4.0477194737e+01    0.5290476    0.2493994  71.96  0.002100097    2.965    0.663
       270  -9.5379    248.8934    149.4920   6.0735136915e+01   2.4612664604e+00    0.3664219    0.1761334 -39.06 0.0009396793    1.770    0.435
       271  -9.1417    247.0281    143.9810   5.9876968691e+01   3.6981256020e+00    0.2566634    0.1616036 -36.89 0.0005043988    1.348    0.258
       272 -10.0411    242.5179    149.9464   6.1847177626e+01   3.4491229608e+00    0.3660361     0.276268  55.77  0.002062798    1.715    0.417
       273  -8.7980    189.3720    150.3151   7.1738571744e+01   1.3303793951e+01    0.2898569    0.2408842 -74.80 0.0007573938    1.549    0.354
       274  -8.3177    162.7990    150.7574   7.7686993777e+01   1.8638011636e+01    0.2844558    0.2005491 -71.34 0.0008784965    2.002    0.500
       275  -7.9916    212.8603    149.7948   6.6984868094e+01   8.8072128969e+00    0.1843544    0.1661685 -60.66 0.0003469936    1.282    0.220
       276  -8.8346      3.0090    150.0379   1.2043627163e+02   4.2755492297e+01    0.2066671    0.1192582  69.67 0.0008724292    1.728    0.421
       277  -8.4406    198.8205    149.0415   6.9528140324e+01   1.1672068370e+01    0.2198212    0.1931538 -61.95 0.0005025303    1.303    0.232
       278 -10.1018     89.3317    146.4349   9.5901676542e+01   3.3757297426e+01    0.7006023    0.4026388  89.93  0.002386417    3.291    0.696
       279  -9.8292     39.5483    147.6442   1.1030001381e+02   4.0186189341e+01    0.5240519    0.2654988  66.47  0.001880213    2.676    0.626
       280  -9.2424    233.2018    147.7080   6.2914176793e+01   5.4503078245e+00    0.2718928    0.1766307 -32.77 0.0007718886    1.373    0.272
       281 -10.3507    106.6133    144.5664   9.0670280507e+01   3.1226726300e+01    0.7370982    0.4576457  77.28  0.002116465    2.866    0.651
       282  -8.0754    105.6329    138.7186   8.9675371718e+01   3.2842334276e+01    0.2418061    0.1621899  31.84 0.0007371668    1.617    0.382
       283  -9.1477     78.2989    147.1212   9.9172062171e+01   3.5326663965e+01    0.3683966    0.2278858  86.38 0.0008363595    2.344    0.573
       284 -10.5055     55.1098    145.1400   1.0549297506e+02   3.9030950150e+01    0.8074963    0.4089738  70.26  0.002762883    3.382    0.704
       285  -9.9790     55.2841    136.2079   1.0394689983e+02   4.1281052549e+01    0.5559571    0.3149591  -0.70  0.002082587    3.464    0.711
       286  -8.2749    223.3245    146.9496   6.4457703100e+01   7.3727226164e+00    0.2035795    0.1629435 -34.62 0.0004216086    1.119    0.106
       287  -8.3886    175.6728    146.3636   7.3773100539e+01   1.6914623479e+01    0.2697604    0.1837387 -54.84 0.0007202167    1.618    0.382
       288 -10.3084    148.8910    144.9446   7.9676330315e+01   2.2803246400e+01    0.6232849    0.4248834 -77.01  0.001495565    2.276    0.561
       289 -10.1519    139.0706    144.9509   8.2124945554e+01   2.4823828867e+01       0.5608    0.3535292 -70.82  0.001302988    2.351    0.575
       290  -9.3640     12.9753    146.0769   1.1743594617e+02   4.2998509609e+01    0.3425006    0.1979122  70.98  0.001048127    1.829    0.453
       291  -7.8820    206.7374    146.5737   6.7428956019e+01   1.0593675716e+01     0.182646    0.1430993  56.93 0.0005492585    1.514    0.339
       292  -8.8855    240.4319    145.4762   6.1242086319e+01   4.5716017980e+00    0.2372707    0.1908565 -45.66 0.0005024495    1.238    0.192
       293 -10.1744    242.6853    143.3180   6.0422250334e+01   4.5524451130e+00    0.4597672    0.1988661 -29.50  0.001830443    2.515    0.602
       294  -8.8296    165.5824    144.3056   7.5567161389e+01   1.9457265520e+01    0.2756544    0.2489135  89.80 0.0004995033    1.284    0.221
       295  -9.9344    125.1054    142.8536   8.5272125927e+01   2.8124237592e+01    0.5489537    0.3720126 -86.61  0.001523385    2.362    0.577
       296 -10.6675     69.2426    141.5201   1.0075980369e+02   3.8074679174e+01    0.5738264    0.4351129 -69.66  0.002007626    1.254    0.203
       297  -9.6117     69.4887    134.5275   9.9368645836e+01   3.9814543811e+01    0.4885103    0.2780402   3.40  0.001709681    3.613    0.723
       298  -7.8840    194.2706    143.6735   6.9226746843e+01   1.3641470988e+01    0.1455712    0.1171129 -70.30 0.0002326198    1.578    0.366
       299  -9.4655      2.7174    141.9283   1.1977819067e+02   4.4740509535e+01    0.3992904    0.1911642  72.86  0.001626176    2.351    0.575
       300  -8.3885    182.1179    141.8646   7.1335265204e+01   1.6509568943e+01    0.2324417    0.2044363 -72.40 0.0005790942    1.323    0.244
       301  -8.5707    250.4864    141.0283   5.8724965635e+01   3.6121531358e+00    0.2058087    0.1124548 -37.71 0.0005717039    1.539    0.350
       302  -9.7970     23.3079    137.9769   1.1363064229e+02   4.4171294335e+01    0.5616239    0.2843134  75.60  0.002359565    2.586    0.613
       303  -7.8756    218.8221    138.8655   6.3472555346e+01   9.6993400095e+00    0.1954222    0.1604346 -56.75 0.0004659459    1.342    0.255
       304  -9.6609    187.9496    137.7282   6.9144062279e+01   1.6135884628e+01    0.3711759     0.234672 -43.45  0.000407941    1.514    0.339
       305  -8.5340    172.0389    138.2638   7.2688744128e+01   1.9385375895e+01    0.2755371    0.2112853 -67.16 0.0005631181    1.598    0.374
       306  -8.4683    207.3800    137.8852   6.5344761954e+01   1.2126201133e+01    0.2715344    0.2047548 -60.05 0.0007813309    1.554    0.357
       307  -8.5475    197.5565    137.5541   6.7161828047e+01   1.4180001885e+01    0.2851653    0.2071042 -55.93 0.0006905348    1.526    0.344
       308  -9.0863    140.1335    137.1123   8.0029832950e+01   2.6410345793e+01    0.2463071    0.2162483  -6.13 0.0006717238    1.291    0.225
       309  -9.2616     39.1653    136.3457   1.0877636766e+02   4.3082928035e+01    0.2625897    0.1786136  64.25 0.0008438447    1.655    0.396
       310  -9.1188    248.3910    135.3391   5.7845915412e+01   4.9248937615e+00    0.2881727    0.1877529 -47.28 0.0007042672    1.462    0.316
       311  -8.6177    246.8665    130.3647   5.7018571545e+01   6.0320571332e+00    0.2537305    0.1588855 -47.68 0.0006434306    1.512    0.339
       312  -8.3327    162.6865    136.3933   7.4370311311e+01   2.1784112932e+01    0.2823361     0.185992 -55.46 0.0007151694    1.663    0.399
       313  -8.6596    179.7368    134.0921   7.0013212913e+01   1.8616130287e+01    0.3098782     0.199189 -53.41 0.0008290157    1.681    0.405
       314 -10.3918     83.4473    132.9027   9.4852930750e+01   3.8110764891e+01    0.6241797    0.3678138 -70.02  0.001393122    1.962    0.490
       315  -8.7416     85.6761    122.2944   9.1831392358e+01   4.0390461701e+01    0.4994686     0.302399   2.89  0.001750658    3.279    0.695
       316  -7.9508    237.5718    133.7915   5.9193869537e+01   7.1039568931e+00    0.2001139    0.1135897 -46.88 0.0009404321    1.680    0.405
       317  -7.8395    231.4015    134.1967   6.0282321926e+01   8.1657888831e+00    0.1987074    0.1167296 -46.39 0.0005144234    1.614    0.381
       318 -10.2968    132.4876    131.2821   8.0605263541e+01   2.9350200577e+01    0.7068915    0.4299335 -63.52  0.001749072    2.085    0.520
       319  -8.9976    112.8451    133.4517   8.6456053116e+01   3.2772566342e+01    0.3635624    0.2601615  65.19  0.001017748    1.741    0.426
       320 -10.4020     98.3348    130.2396   8.9864665714e+01   3.6249083034e+01    0.7207654    0.4007153 -56.98  0.001826371    1.792    0.442
       321  -8.8614     99.3061    120.5570   8.7288515359e+01   3.8437964119e+01     0.587865    0.3566351  10.17  0.002064304    3.059    0.673
       322  -9.1271    143.0062    131.6532   7.7986760204e+01   2.7051154633e+01    0.3140901    0.2464267 -70.03 0.0007456979    1.506    0.336
       323  -9.1157    250.5981    129.8300   5.6351082055e+01   5.4707072796e+00    0.4324896    0.1106489 -38.49  0.001466789    3.276    0.695
       324  -9.1405    168.4142    129.6446   7.1425034173e+01   2.1994256505e+01    0.3419716    0.2506774 -62.83  0.000865756    1.609    0.378
       325  -9.8075     73.3242    129.5484   9.7208749062e+01   4.0516141081e+01    0.4085772    0.2734337  78.04  0.001098019    2.091    0.522
       326  -9.7932     71.0557    119.7786   9.5830523210e+01   4.3298950140e+01    0.4980892    0.2814265 -66.94  0.001568807    1.918    0.479
       327 -10.1611     12.9324    129.3513   1.1556830348e+02   4.7128839085e+01    0.4975429    0.2653868  72.79  0.001947351    2.269    0.559
       328  -8.2766      1.7696    130.7754   1.1894404905e+02   4.7512615640e+01    0.1773118    0.1253325  77.37  0.001071153    1.380    0.276
       329  -8.2761    220.5013    130.0326   6.1192325333e+01   1.0997332830e+01    0.2150041    0.1286567 -40.35 0.0004732735    1.499    0.333
       330  -7.8506    204.7929    130.5608   6.4143191937e+01   1.4052190905e+01    0.1913269    0.1447337  65.18 0.0006107578    1.628    0.386
       331  -8.3135    192.8458    130.1582   6.6362219811e+01   1.6622860059e+01    0.2312358    0.1989949 -64.97  0.000545336    1.290    0.225
       332  -8.7529    161.4966    130.0227   7.3101633259e+01   2.3421440472e+01    0.2470229    0.1523661 -43.09  0.001030574    1.583    0.368
       333  -9.7029    153.0801    127.9031   7.4573833073e+01   2.5718823828e+01    0.8105305    0.2656476 -43.35   0.00247504    3.013    0.668
       334  -8.3344     25.7307    129.9946   1.1185374076e+02   4.5960185264e+01    0.2639145    0.1483298 -23.69   0.00118745    2.678    0.627
       335  -8.0038    211.4905    129.0160   6.2551373611e+01   1.2979980839e+01    0.2133729    0.1157209 -57.80 0.0007100374    2.542    0.607
       336 -10.7343     44.9829    123.7302   1.0491323283e+02   4.5649968081e+01     1.123477    0.5839624  77.81  0.003915102    3.760    0.734
       337 -10.3991     59.9515    125.1140   1.0045587040e+02   4.3499069964e+01    0.7250162    0.4318426  82.46  0.002594298    2.711    0.631
       338  -8.8007     58.7454    116.2132   9.9020475529e+01   4.5887727164e+01    0.5002537    0.2422591 -32.84  0.001797331    3.084    0.676
       339  -9.9864    118.0610    125.4831   8.3089473910e+01   3.3657733901e+01    0.5893775    0.3880684  75.14  0.001481309    2.507    0.601
       340  -8.8913    119.8248    119.3023   8.1045258992e+01   3.4753325318e+01    0.5681223    0.3310585   5.99  0.001413991    5.988    0.833
       341 -10.1937     28.2474    122.3353   1.0995068117e+02   4.7656891861e+01    0.7359151    0.3640199  73.29  0.002791822    3.412    0.707
       342  -9.0321     26.8001    113.6969   1.0902550594e+02   4.9930175981e+01    0.3263051    0.2330473 -10.42  0.001799276    1.772    0.436
       343  -7.5273    228.5047    125.5133   5.8831279581e+01   1.0260144086e+01    0.1420546    0.1245394 -43.14 0.0008097827    1.061    0.057
       344  -8.7573    179.2333    124.6607   6.7834746789e+01   2.0666296964e+01    0.2974585     0.239318 -77.10 0.0007130547    1.549    0.354
       345  -8.1577    188.5052    123.9862   6.5750719312e+01   1.8780701687e+01     0.212331    0.1261947 -61.59 0.0005309036    2.340    0.573
       346  -9.8611    130.9975    118.7282   7.7850798428e+01   3.2552328149e+01    0.5701203     0.394745 -89.29  0.001918793    2.400    0.583
       347  -9.1657    158.6154    121.5866   7.1668234829e+01   2.5874888113e+01    0.3780454    0.2857453 -71.40  0.001331341    1.668    0.400
       348  -7.6681    202.7921    122.0541   6.2515512768e+01   1.6098720828e+01    0.1993004    0.1116723 -40.86 0.0004048762    1.650    0.394
       349  -7.8481    195.0000    122.0463   6.3994870045e+01   1.7761127858e+01    0.2478047   0.08172815 -40.39 0.0004577343    2.847    0.649
       350  -8.5853    172.0440    121.5786   6.8620143994e+01   2.2889006851e+01    0.2838634    0.2101449 -59.74 0.0006076875    1.509    0.337
       351  -9.9015    141.5107    118.3820   7.5023961767e+01   3.0357280530e+01    0.5279229    0.3127542 -60.22  0.001475343    2.117    0.528
       352  -9.8300      3.3052    117.7094   1.1704383591e+02   5.0601152829e+01    0.5013453     0.239454  68.22  0.001989118    2.818    0.645
       353  -7.9543    231.5460    117.7493   5.6605311735e+01   1.1047623975e+01    0.2020366    0.1161118 -47.96  0.000834582    1.641    0.391
       354  -9.8777    109.3268    114.2448   8.2735499230e+01   3.8040441144e+01    0.5252062    0.3581975 -75.08  0.001278932    2.083    0.520
       355  -7.9075    219.4274    116.5197   5.8282346694e+01   1.3676707636e+01    0.1444618    0.1281904 -42.87 8.506693e-05    1.021    0.021
       356  -8.2566    185.5330    115.9617   6.4376766750e+01   2.1028899789e+01    0.2359784     0.144774 -41.34 0.0005934192    1.549    0.354
       357  -7.6575    153.3421    116.2806   7.1555509598e+01   2.8192498667e+01    0.1592252    0.1259345   7.74 0.0007010001    1.630    0.386
       358 -11.2204    248.4368    108.1813   5.2026353832e+01   9.4800398686e+00    0.8502971    0.2441409 -42.13  0.003093665    2.865    0.651
       359  -8.1922    167.2318    114.7582   6.7951468501e+01   2.5382466779e+01    0.2105295    0.1857539  -2.02 0.0007857655    1.289    0.224
       360 -10.0484     92.6673    112.5750   8.7317503054e+01   4.1556588549e+01    0.5151289    0.3207183 -66.04  0.001260896    1.939    0.484
       361  -8.8751     92.9395    105.2427   8.5324756019e+01   4.3243196518e+01     0.492851    0.3009474 -13.09    0.0014937    3.152    0.683
       362 -10.0217     78.9301    112.3139   9.1585550557e+01   4.3934334408e+01    0.6148434    0.4051384 -86.21  0.001944892    2.381    0.580
       363  -8.9684     78.4750    105.0491   8.9921738256e+01   4.5757033463e+01    0.3208841    0.2491958   6.43  0.001579241    1.549    0.354
       364 -10.0173    133.6661    109.7277   7.4763876918e+01   3.3992076943e+01     0.693099    0.3285756 -51.50  0.002000266    2.276    0.561
       365  -9.8266    121.9513    112.3958   7.8650967535e+01   3.5904788439e+01    0.3923167    0.3041518 -62.96 0.0009886391    1.426    0.299
       366  -9.9061    119.3583    106.1037   7.7676456483e+01   3.7868805601e+01    0.3693494    0.3050473  47.69  0.001349809    1.244    0.196
       367  -9.8720     14.2693    111.2502   1.1272740443e+02   5.1490086429e+01    0.4508224    0.2389525  82.59  0.001672414    2.474    0.596
       368  -8.5432    174.8480    112.0991   6.5612516311e+01   2.4200549822e+01    0.2417463    0.2048193 -68.33 0.0005468202    1.295    0.228
       369  -8.4105    159.1531    111.7495   6.9002327598e+01   2.7841700145e+01    0.2715946    0.2066648 -55.25 0.0005597844    1.373    0.272
       370 -10.1786     66.3608    109.9568   9.5123559259e+01   4.6400764505e+01    0.5859496    0.3374428 -61.89  0.002217355    1.723    0.420
       371  -8.1422    149.7731    110.0140   7.0765626960e+01   3.0337072031e+01    0.2130841    0.1289768 -43.22 0.0003792961    1.623    0.384
       372  -8.9490     42.8750    109.4063   1.0288292125e+02   4.9453878879e+01    0.2965664    0.1409157  11.12  0.001138537    3.273    0.694
       373  -8.2549    189.2152    108.1621   6.1696877931e+01   2.1730940892e+01    0.2144449     0.170585 -62.24 0.0005686774    1.351    0.260
       374  -9.1661    110.0846    107.2775   8.0664477429e+01   3.9504179959e+01     0.398177    0.2665007   6.61  0.001533984    2.444    0.591
       375  -9.5570    139.8316    104.3146   7.1690888139e+01   3.3796440314e+01    0.4829504    0.3099924 -54.00  0.001540611    1.685    0.406
       376 -10.6101     45.7463    102.3444   1.0041033533e+02   5.0868827034e+01     0.846445    0.4717088  68.10  0.003039596    3.556    0.719
       377 -10.6599     22.7881    102.5972   1.0846085780e+02   5.2977468780e+01    0.7377739    0.3985865  76.12  0.002653987    3.069    0.674
       378  -8.4847    166.5709    104.2714   6.5356002629e+01   2.7673602114e+01    0.2753844    0.2060567 -58.24 0.0007798731    1.442    0.307
       379  -9.4991    150.7098    103.2783   6.8721234163e+01   3.1538936419e+01    0.4499331    0.2881551 -64.95  0.001378525    2.130    0.531
       380  -8.8000      7.1409    103.3513   1.1391318530e+02   5.3854370956e+01    0.2366987    0.1674229  64.82  0.001009121    1.677    0.404
       381  -9.4034    128.4248    102.1113   7.4067613379e+01   3.6803864575e+01    0.3229675    0.2661862 -76.87 0.0007189981    1.465    0.317
       382 -10.5699    108.7136     98.7693   7.8708289474e+01   4.1697473375e+01    0.8622116    0.4930443  65.83  0.001063568    3.229    0.690
       383  -8.9490    108.2561     92.3001   7.6973773465e+01   4.3203705842e+01    0.5167404    0.2669868  27.33  0.001797834    2.824    0.646
       384  -8.3383    159.8530    101.1283   6.6008023891e+01   2.9864135880e+01    0.2411224    0.2054837 -67.86 0.0004797898    1.275    0.216
       385  -9.2852     82.1007    100.0856   8.7426365307e+01   4.6332846221e+01    0.3553768    0.2653483 -78.15 0.0008728188    1.763    0.433
       386 -10.1717     63.9216     95.8057   9.2466193560e+01   5.0139530514e+01    0.6283323    0.4057134 -87.12  0.001780352    2.744    0.636
       387  -9.3728     95.0808     97.0452   8.2396808516e+01   4.4733787526e+01    0.3736777    0.2514639 -63.60 0.0007069025    1.799    0.444
       388  -8.8842    151.6782     95.0408   6.6214359099e+01   3.2991951685e+01    0.3287572    0.1907735  27.21  0.001165794    2.708    0.631
       389  -8.0686    164.9695     94.0473   6.2950435990e+01   3.0064370860e+01    0.2432695     0.183562 -73.93  0.000464444    1.644    0.392
       390  -8.1955    176.2399     93.2012   6.0380564407e+01   2.7571553618e+01    0.2187763    0.1720653 -66.05 0.0008123097    1.401    0.286
       391  -9.1049    138.9348     92.3127   6.8536365852e+01   3.6496329798e+01    0.3587872    0.2694179 -80.44 0.0006310253    1.824    0.452
       392 -10.1574    123.8869     91.2825   7.2194619530e+01   4.0096940013e+01    0.5716102    0.4385907  27.70  0.001170601    1.451    0.311
       393  -8.7358     46.9056     92.4035   9.7693197605e+01   5.3114840067e+01    0.3936826    0.2060622  14.86  0.001698603    2.504    0.601
       394  -9.5503      4.9508     91.9341   1.1291180509e+02   5.6691879070e+01    0.3794268    0.2118302  83.95  0.001458004    2.323    0.569
       395  -8.2760    192.8853    115.1475   6.2723621509e+01   1.9564540772e+01    0.2330655    0.1950798 -60.82 0.0005054477    1.254    0.202
       396  -7.8757    157.8200     91.7978   6.3900237494e+01   3.2187740357e+01    0.2125381    0.1775043 -68.23 0.0004097926    1.316    0.240
       397  -9.6263     34.8982     89.8167   1.0150920012e+02   5.4987011329e+01    0.4836215    0.2743914 -84.84  0.001691069    2.850    0.649
       398  -8.3674    192.5851     90.2401   5.6516414827e+01   2.4306208170e+01    0.2611428    0.1817086 -30.82 0.0009491676    1.509    0.337
       399  -8.2821     96.8225     90.2933   7.9892997294e+01   4.5900920629e+01    0.2738476    0.2190725 -38.46  0.001368669    1.214    0.176
       400  -8.9764     23.0297     89.9948   1.0596308463e+02   5.5974741377e+01    0.2743783    0.2231925 -16.20  0.000960691    1.336    0.252
       401  -8.4742    151.0043     89.4363   6.4789820662e+01   3.4255163704e+01    0.2452369    0.2020273 -43.69 0.0005065962    1.205    0.170
       402  -9.8573     86.2678     86.6214   8.2221836554e+01   4.8650544861e+01    0.4532988    0.3421304  81.18  0.001220149    2.061    0.515
       403  -9.3718     87.2481     81.0193   8.0188491628e+01   4.9672127015e+01    0.7124381     0.336956  21.43  0.002111472    4.436    0.775
       404  -8.9794     66.4094     87.1895   8.9249510834e+01   5.1763468813e+01    0.5618704    0.2647337  14.39  0.001732464    4.527    0.779
       405  -7.7072    164.2627     87.5967   6.1325522364e+01   3.1461509688e+01    0.1621932    0.1149001 -66.76 0.0006966313    1.732    0.422
       406  -9.8595     48.4898     84.1500   9.5000537567e+01   5.4840800293e+01    0.5642557    0.3649557  88.23  0.001872109    2.943    0.660
       407  -7.7190    179.3022     85.6729   5.7771147265e+01   2.8238112917e+01    0.1565335    0.1140918 -71.04  0.000472797    1.643    0.391
       408  -8.4039    157.9645     84.0177   6.1677988944e+01   3.3634298041e+01    0.2319001    0.2192554 -64.85 0.0004368809    1.055    0.052
       409  -9.7309    104.6969     83.0825   7.5266341852e+01   4.5870104628e+01    0.4115102    0.3047003 -65.68  0.001001989    1.734    0.423
       410  -8.8400    105.0407     77.0165   7.3257729948e+01   4.7021902292e+01     0.323361    0.2208824   0.72 0.0009722558    2.186    0.542
       411  -7.3850    170.3252     83.6432   5.8979665375e+01   3.0744418524e+01    0.1625891    0.1157956 -72.39 0.0007045083    1.773    0.436
       412  -9.2646    140.8046     82.3761   6.5166100189e+01   3.8015184501e+01    0.3846391    0.2451199 -43.36 0.0009832585    1.575    0.365
       413  -8.7819    127.6634     83.5905   6.8877835510e+01   4.0810231254e+01    0.3002461     0.128795  35.91 0.0009479937    3.135    0.681
       414  -7.8378    185.2846     82.6449   5.5853885069e+01   2.7363316485e+01    0.1568021    0.1099591 -67.01 0.0007020017    1.667    0.400
       415  -8.2564     63.8987     82.2235   8.8731283289e+01   5.3238586391e+01    0.2048096    0.1896423 -73.92 0.0005796531    1.265    0.209
       416  -9.7326     24.6464     80.5097   1.0328283232e+02   5.8049946053e+01    0.4132049    0.2657568  88.47    0.0013652    2.324    0.570
       417  -9.3877     10.0434     81.0465   1.0908115938e+02   5.8942158274e+01    0.3716695    0.1986389  49.86  0.001561528    2.692    0.628
       418  -8.3547    150.1904     80.5754   6.2422811177e+01   3.6131474623e+01    0.2570885    0.2041736 -65.53 0.0008400675    1.425    0.298
       419  -8.7051    119.2400     80.4989   7.0224989220e+01   4.3299114341e+01      0.28643     0.236261 -74.06  0.000706709    1.503    0.335
       420  -8.7070     74.5472     80.5498   8.4403822516e+01   5.1963038527e+01    0.2909874    0.2248487 -71.82 0.0009132191    1.711    0.415
       421  -8.1047    166.9091     79.5126   5.8523604767e+01   3.2309320964e+01    0.2348707    0.1908682 -39.49 0.0004570092    1.228    0.185
       422  -8.3116    184.3532     78.2877   5.4867753915e+01   2.8343762288e+01    0.2136996    0.1280706 -46.39 0.0007008149    1.621    0.383
       423  -9.3380    128.2100     75.4330   6.6232074785e+01   4.2249658484e+01    0.3842042    0.2485219 -56.48 0.0006020305    1.872    0.466
       424  -8.2032    156.7819     76.5460   5.9792724589e+01   3.5282007902e+01    0.2081507    0.1459985  70.84 0.0004515251    1.626    0.385
       425  -8.6753    140.6441     75.4884   6.3141710927e+01   3.9337195977e+01    0.2968214    0.2139674 -63.14 0.0008624334    1.690    0.408
       426  -9.9671     63.1002     73.5354   8.6402670545e+01   5.5229524870e+01    0.4841005     0.283265 -59.86  0.001222385    2.090    0.521
       427  -9.7145     82.5088     72.8516   7.9194208243e+01   5.2206400539e+01    0.4237552    0.2983961 -67.57  0.001178199    2.079    0.519
       428  -8.1023    163.4150     73.2522   5.7463051053e+01   3.4255391783e+01    0.2161712    0.1349869 -48.67 0.0009433465    1.647    0.393
       429  -8.4288    115.6583     73.0011   6.8866728846e+01   4.5527338472e+01    0.2159743    0.1861272 -35.24 0.0005261386    1.167    0.143
       430  -9.2885    105.8959     71.6594   7.1270864025e+01   4.7880098322e+01    0.3464258    0.2140793 -52.08 0.0009069188    1.870    0.465
       431  -8.2931     42.4974     72.9768   9.4237363850e+01   5.8019927175e+01    0.2021046    0.1205859 -53.92 0.0005198622    1.541    0.351
       432  -7.8753    175.4758     72.5159   5.4922441050e+01   3.1458660233e+01    0.1470131    0.1413632 -78.44  0.000116534    1.019    0.018
       433  -8.3873    170.5955     71.7915   5.5639088729e+01   3.2762904864e+01    0.2181029    0.1319921 -47.87 0.0008201028    1.671    0.401
       434  -9.1772     95.1974     71.2306   7.4446290816e+01   5.0141693151e+01    0.3429353    0.2362184 -56.38 0.0008080761    1.759    0.432
       435  -9.4497     51.3602     69.5480   8.9684689544e+01   5.7687361962e+01    0.4624753     0.283761 -69.26  0.001550576    2.510    0.602
       436  -9.3117     16.6999     69.3309   1.0384706835e+02   6.1155969558e+01    0.4870347    0.1818219 -66.14  0.001786814    2.764    0.638
       437  -7.6054    157.0000     69.9390   5.7825084723e+01   3.6383215087e+01    0.2388445   0.08520357 -36.30 0.0004181719    2.844    0.648
       438  -8.8560    147.1245     68.4014   5.9499719226e+01   3.9039758337e+01    0.3372402    0.2191121 -55.16 0.0008007365    1.768    0.434
       439  -8.4394    138.4712     66.2388   6.0820703768e+01   4.1486947753e+01    0.2750144     0.209905 -68.21 0.0008576281    1.606    0.377
       440  -8.8353    121.5796     66.1230   6.5020037432e+01   4.5451566248e+01    0.3207262    0.2380684 -64.83 0.0008216298    1.741    0.425
       441  -8.8860     84.4726     64.7632   7.5813820001e+01   5.3426076884e+01    0.3520887    0.2072593   7.51  0.001289122    3.147    0.682
       442  -9.1204     37.3784     64.6478   9.3876755528e+01   6.0357033328e+01     0.250306    0.2126256  76.82  0.001085189    1.711    0.416
       443  -8.9298    110.2382     63.6768   6.7349439405e+01   4.8409790145e+01    0.2875165    0.2348942 -77.17  0.000747463    1.635    0.388
       444  -9.5635     97.4428     61.2102   7.0343265277e+01   5.1548534394e+01    0.4420578    0.3363596 -25.03  0.001879057    1.349    0.259
       445  -8.0461    158.0392     61.9983   5.5282758154e+01   3.7446015821e+01    0.1767154    0.1660235  71.74 0.0003879142    1.028    0.027
       446  -9.2289     29.5128     70.2354   9.8754040082e+01   5.9932756117e+01    0.4996465     0.208567 -23.43  0.001685387    4.439    0.775
       447  -9.6634     73.3241     59.5127   7.7917406993e+01   5.6389997512e+01    0.4125158    0.2377056 -50.86  0.001050562    1.999    0.500
       448  -7.4812    164.6391     60.2869   5.3504501682e+01   3.6100182073e+01    0.1534197    0.1104295 -77.57  0.000702291    1.686    0.407
       449  -8.8267     64.1727     63.8317   8.2835037945e+01   5.7045480169e+01    0.4199703     0.238749  -9.96  0.001609102    3.075    0.675
       450  -7.8576    146.7752     59.0301   5.6721924367e+01   4.0672810475e+01    0.1908754    0.1216434 -35.87 0.0005132501    1.619    0.382
       451  -9.7934     23.3930     56.4290   9.7451725041e+01   6.3392786258e+01    0.4254192    0.2844067  89.75  0.002053306    2.950    0.661
       452  -8.1108    130.8761     57.9501   6.0002245332e+01   4.4667284860e+01    0.2280581    0.1763922 -73.87 0.0006625614    1.655    0.396
       453  -9.4796      7.4751     57.2710   1.0483706592e+02   6.4337553529e+01       0.2711    0.2022526 -84.07  0.001153475    1.734    0.423
       454  -8.1091    140.1444     56.2025   5.7292138323e+01   4.2727182098e+01    0.2004523    0.1674824 -65.53 0.0004663467    1.337    0.252
       455  -9.1279    119.1228     55.9238   6.2293609571e+01   4.7730333818e+01    0.2802434    0.2280415 -61.58 0.0006517958    1.470    0.320
       456  -9.1302     62.9114     54.8565   8.0173238167e+01   5.8947983383e+01    0.3086666    0.1839674 -48.17 0.0006156915    1.789    0.441
       457  -8.6841     44.1691     55.6886   8.8112185619e+01   6.1397270425e+01    0.2407501    0.2015641 -72.45 0.0008052224    1.686    0.407
       458  -8.9848     54.1550     53.9143   8.3324253658e+01   6.0421794560e+01    0.3658088    0.2049245 -57.90  0.001562198    2.527    0.604
       459  -8.4590    105.6319     53.1188   6.5044719128e+01   5.1191118115e+01    0.2288985    0.1988483  64.39 0.0006342476    1.297    0.229
       460  -9.5105     92.3422     50.6902   6.8204105506e+01   5.4370923135e+01    0.3747077    0.2358816 -47.58  0.001034649    1.856    0.461
       461  -8.2570    144.5846     49.0332   5.4084038669e+01   4.2730344277e+01    0.2143587    0.1412493 -33.80 0.0005762737    1.595    0.373
       462  -8.0778    129.8244     49.1527   5.7373339553e+01   4.6276734518e+01    0.2119906    0.1939189 -76.07 0.0004718197    1.206    0.171
       463  -8.8946    120.9654     47.5214   5.8967255671e+01   4.8601873850e+01    0.2637405    0.2122911 -30.13 0.0005471907    1.306    0.235
       464  -9.1498     82.0902     46.7122   7.0099360339e+01   5.7023529154e+01    0.2818937    0.2277283 -57.19 0.0009849508    1.634    0.388
       465  -8.7358    112.1722     46.7978   6.0991970176e+01   5.0722454433e+01    0.2351116     0.187657 -44.40  0.000603072    1.378    0.274
       466  -8.4971     45.1352     44.7510   8.3735449496e+01   6.3315766154e+01    0.2102226    0.1624565 -44.03 0.0004602388    1.369    0.269
       467  -8.9350     16.4572     44.7439   9.7008949186e+01   6.6284280042e+01    0.2136618    0.1918865  82.23 0.0007503533    1.665    0.399
       468  -9.0773    132.6008     43.1692   5.4765320232e+01   4.6470428936e+01    0.3130904    0.2318556 -48.43 0.0008360418    1.486    0.327
       469  -8.7828     92.4986     43.3531   6.5425193923e+01   5.5483056540e+01    0.2811172    0.1796672   3.06  0.001257964    2.178    0.541
       470  -9.3845     57.9771     42.3221   7.7378871558e+01   6.1904685668e+01    0.3663562    0.2205615 -56.16  0.001479868    2.623    0.619
       471  -9.6134      5.2188     42.1298   1.0168901731e+02   6.7548685116e+01    0.3350788    0.1954164 -71.65  0.001471662    2.267    0.559
       472  -9.3299     69.6158     41.6270   7.2574411288e+01   6.0103975428e+01    0.3767687    0.2521851 -50.49  0.001299581    1.941    0.485
       473  -8.7715    105.9883     41.4493   6.0755958011e+01   5.2879043423e+01    0.2467604     0.190577 -48.56 0.0005755053    1.513    0.339
       474  -7.5807    140.3080     41.6759   5.2636728202e+01   4.4808760007e+01    0.1448709    0.1075675 -71.79  0.000635432    1.649    0.393
       475  -8.4200     36.6203     40.8092   8.6036379811e+01   6.5066520953e+01    0.2099238    0.1465128 -45.15 0.0006811791    1.448    0.309
       476  -8.8328     95.4056     38.0713   6.2533528237e+01   5.5640679404e+01    0.2656024    0.1987677 -51.38 0.0007673298    1.683    0.406
       477  -8.2337     80.7339     36.9453   6.6754971387e+01   5.8766724604e+01    0.1856014    0.1660696 -10.37 0.0004342899    1.112    0.101
       478  -9.4356     26.1724     35.4514   8.8921531792e+01   6.7146433298e+01    0.2948543    0.2146784 -58.08 0.0009311074    1.813    0.449
       479  -7.8083    133.5159     36.4640   5.2353759941e+01   4.7145373346e+01    0.1400909    0.1294186  58.51 0.0006283312    1.012    0.012
       480  -9.3455    125.7782     31.1531   5.2223560216e+01   4.9664487720e+01    0.3476946    0.2105221 -45.54  0.001194073    1.891    0.471
       481  -9.0237     48.4750     33.3556   7.7692682476e+01   6.4765810591e+01    0.2462109    0.2087563 -40.19 0.0007682875    1.417    0.295
       482  -8.8373    119.1673     32.6974   5.4252771600e+01   5.1036074181e+01    0.3192212    0.1450387 -34.34  0.001243679    2.314    0.568
       483  -8.9961     60.5476     32.8329   7.2455701460e+01   6.2981779497e+01    0.2109403    0.2017292  62.90 0.0005813004    1.484    0.326
       484  -8.9333     72.0054     31.1464   6.7421571065e+01   6.1224860936e+01    0.2472038    0.1819083 -50.65 0.0009084176    1.862    0.463
       485  -9.0942    175.8525    247.9658   9.2700115079e+01  -2.1220195814e+00    0.2913256     0.230333  77.05  0.001527368    2.183    0.542
       486  -8.8581     12.8219     30.4080   9.3771534430e+01   6.9228000952e+01    0.2898971    0.1637661 -57.55  0.001479788    2.064    0.516
       487  -8.5599    101.1371     29.3234   5.7558087513e+01   5.5549395348e+01    0.1889549     0.164529  46.42 0.0007211745    1.090    0.082
       488  -9.0102     81.6876     27.6656   6.2670719150e+01   5.9832635048e+01    0.2772857    0.2138164 -54.87 0.0009574852    1.823    0.451
       489  -8.8584      3.4433     27.3679   9.7682650265e+01   7.0425059946e+01    0.2410703     0.151275 -63.68  0.001443902    2.016    0.504
       490  -8.0197     88.8024     34.5921   6.3200620847e+01   5.7491040038e+01    0.1813957    0.1261324  57.66 0.0006028301    1.610    0.379
       491  -9.0160     91.7581     26.2383   5.8992962729e+01   5.7944189389e+01    0.2795817    0.1922174 -48.76 0.0008688068    1.894    0.472
       492  -7.8691    231.4236     24.4908   3.5662926206e+01   2.5351135360e+01    0.1234146    0.1025705 -69.44 9.180465e-05    1.042    0.040
       493  -7.8220    104.6319     23.2745   5.4339140517e+01   5.5479481324e+01    0.1299002    0.1037227 -84.08 0.0007004559    1.675    0.403
       494  -8.0382     34.6446     23.3138   7.9624656660e+01   6.8162744677e+01     0.152642    0.1490859  67.06  0.001037075    1.689    0.408
       495  -8.9203     63.6291     21.2700   6.6218085370e+01   6.4025260893e+01    0.2544129    0.1991233 -41.58 0.0008745823    1.617    0.382
       496  -8.8769     48.4730     21.7857   7.2577896695e+01   6.6455142662e+01    0.1959992    0.1898944  -0.97 0.0006887777    1.435    0.303
       497  -8.2313    120.4603     21.1998   4.9907653414e+01   5.2055756704e+01    0.1788813    0.1223292 -42.09 0.0009400171    1.657    0.397
       498  -7.6989     19.5247     21.4868   8.6507855128e+01   7.0138051007e+01    0.1180114   0.09254701 -15.24 5.848998e-05    1.042    0.040
       499  -8.9468     74.0289     19.5106   6.1739048665e+01   6.2313545962e+01     0.220588    0.1722558 -40.31 0.0007001358    1.576    0.366
       500  -8.0102    243.2225     19.3564   3.3635180991e+01   2.3486905359e+01    0.1553369   0.09585842 -86.62 0.0002215472    1.511    0.338
       501  -7.1851    127.3096     19.6884   4.7983185104e+01   5.0586227324e+01    0.1332003    0.1001704 -72.18 0.0003464002    1.625    0.385
       502  -8.4766     87.8235     17.3644   5.6527965400e+01   5.9771675803e+01     0.203844    0.1698605 -32.08 0.0005363224    1.375    0.273
       503  -8.1526     38.5389     18.0731   7.5319037455e+01   6.8397220528e+01    0.1757274    0.1063019 -32.21  0.001022357    1.583    0.368
       504  -7.9402    112.8307     16.8347   4.9994097574e+01   5.4287927724e+01    0.1698322    0.1519844 -76.50 0.0003248401    1.311    0.237
       505  -7.7593    119.4729     16.5729   4.8479071743e+01   5.2762916670e+01    0.1353389    0.1145404  47.81 3.471159e-05    1.057    0.054
       506  -7.9466     30.1899     16.1459   7.8459406966e+01   6.9752706746e+01     0.147342     0.130891 -14.31  0.000845509    1.342    0.255
       507  -8.3126    113.1732    248.7489   1.0545846375e+02   7.2731978602e+00    0.2186724    0.1387267 -81.22  0.001172882    2.200    0.545
       508  -7.9636      7.5229     15.5182   9.0538408731e+01   7.2145957646e+01    0.1122191   0.08778509 -19.26 0.0002018395    1.093    0.085
       509  -8.0110     17.2048     14.2148   8.4411049151e+01   7.1481589710e+01    0.1401437    0.1224303 -14.56 0.0004469992    1.327    0.246
       510  -9.3439    103.8116    247.0042   1.0716521651e+02   8.9761307450e+00    0.4417101    0.2380572 -83.79  0.002030364    3.042    0.671
       511  -9.0299    243.0063    246.6270   7.9933878852e+01  -1.1192259724e+01    0.3633919    0.1483668 -31.09   0.00189748    2.367    0.577
       512  -8.6203    232.5958    247.3457   8.1884783081e+01  -9.9779227854e+00    0.2160316    0.1766551 -20.55 0.0008879135    1.352    0.260
       513  -8.8418    218.5273    247.3763   8.4440266092e+01  -8.1356598943e+00    0.3404002    0.1296819 -33.70  0.001526482    2.775    0.640
       514 -10.0201    223.8498    244.0731   8.2934132865e+01  -8.4085152474e+00    0.4259606     0.244161 -45.27  0.002321186    2.361    0.576
       515  -8.5282    155.9568    248.1257   9.6696484745e+01   8.6660024657e-01    0.1880495    0.1511715  50.43 0.0005622581    1.326    0.246
       516  -9.0359    210.9387    246.5680   8.5721057046e+01  -6.9910234073e+00    0.1908272    0.1664158 -44.27 0.0007524455    1.643    0.391
       517  -8.7951    147.1234    246.2449   9.8229698729e+01   2.5311834590e+00    0.2808487    0.1915544  67.69  0.001368833    2.172    0.540
       518  -9.0756    120.3006    245.6404   1.0364159890e+02   6.7534810225e+00    0.3688455    0.2220313  69.39  0.001656164    2.421    0.587
       519  -8.1500     58.3282    244.9767   1.1605294411e+02   1.5650034797e+01    0.1942647   0.07945462  82.22 0.0007047832    4.455    0.776
       520  -8.4374    201.9261    243.3392   8.6916487203e+01  -5.2682836150e+00    0.1829524    0.1603081 -29.43 0.0006048789    1.377    0.274
