#   1 NUMBER                 Running object number                                     
#   2 MAG_AUTO               Kron-like elliptical aperture magnitude                    [mag]
#   3 X_IMAGE                Object position along x                                    [pixel]
#   4 Y_IMAGE                Object position along y                                    [pixel]
#   5 X_WORLD                Barycenter position along world x axis                     [deg]
#   6 Y_WORLD                Barycenter position along world y axis                     [deg]
#   7 A_WORLD                Profile RMS along major axis (world units)                 [deg]
#   8 B_WORLD                Profile RMS along minor axis (world units)                 [deg]
#   9 THETA_WORLD            Position angle (CCW/world-x)                               [deg]
#  10 FWHM_WORLD             FWHM assuming a gaussian core                              [deg]
#  11 ELONGATION             A_IMAGE/B_IMAGE                                           
#  12 ELLIPTICITY            1 - B_IMAGE/A_IMAGE                                       
         1 -13.1855     84.4572     24.1030   3.2651424145e+01   6.0446961888e+01    0.4033547     0.292665 -80.74  0.001868059    2.210    0.547
         2 -12.2340     66.8551     15.1147   3.4789549956e+01   6.5542039103e+01     0.376958    0.2127563 -23.92  0.001419682    1.937    0.484
         3 -11.7236     99.5211     11.4943   2.2519125835e+01   5.8349659809e+01    0.3234178    0.1946254 -63.01  0.001380865    2.475    0.596
         4 -11.7068     54.9183     10.9331   3.7739087821e+01   6.8525250337e+01    0.2507719    0.1896585  22.10 0.0009239568    1.243    0.195
         5 -12.5338     82.7114      8.5143   2.5797280822e+01   6.2766006183e+01    0.3539782    0.1985397  42.10  0.001670535    1.641    0.391
         6 -13.7612     90.8549      4.5120   2.1540876055e+01   6.1200294864e+01    0.4367387    0.3489945 -84.98  0.001643307    1.501    0.334
         7 -10.6315     48.7284      7.9867   3.9068690936e+01   7.0100664884e+01    0.1567417    0.1104257 -25.07 0.0003560568    1.440    0.306
         8 -11.0132    103.6234      7.2003   1.9653867016e+01   5.7745750997e+01    0.1764379    0.1321922   2.83 0.0002614085    1.551    0.355
         9 -10.4740    152.5759      5.5803   1.0834863736e+01   4.5140290070e+01    0.1357945    0.1209911  80.07 0.0001507363    1.021    0.020
        10 -12.3331    101.0064      2.5421   1.8188440248e+01   5.8838435479e+01    0.3615003    0.2104832  59.97  0.001183404    1.472    0.321
        11 -10.9917     49.7798      1.3311   3.4504923150e+01   7.0739802345e+01    0.1804758    0.1023291  39.84 0.0002717138    1.566    0.362
        12 -11.6569    148.8033    238.9658   6.6536180990e+01   7.4343828594e+00    0.3048914    0.1359954  24.99  0.001182335    2.060    0.515
        13 -11.4412    245.4776    249.5681   5.0577557174e+01  -5.6437495731e+00    0.1725511    0.1107027  -2.72 0.0005695946    1.191    0.160
        14 -11.5092    248.3124    248.2910   4.9953398374e+01  -5.8175681195e+00    0.1671735    0.1146783  10.64 0.0003721156    1.114    0.102
        15 -12.2969    236.8016    249.2997   5.1921314832e+01  -4.6947029234e+00    0.2298476    0.1500426   8.56 0.0007927633    1.064    0.060
        16 -10.4711    179.5373    250.5109   6.2042532461e+01   1.9107842118e+00    0.1148783     0.082822  19.36 9.827664e-05    1.007    0.007
        17 -12.7617    138.9217    247.7081   6.9536753810e+01   7.5173607857e+00    0.3217572    0.2519977  53.40  0.002209029    1.573    0.364
        18 -11.4931    124.9057    249.7079   7.2557067990e+01   9.0592149006e+00    0.1709434    0.1441358  -0.36 0.0005989356    1.346    0.257
        19 -13.4429    101.6374    241.5238   7.6514967216e+01   1.3305468149e+01    0.3695516    0.2571129  10.87  0.002261878    1.673    0.402
        20 -11.9706    107.9196    240.7639   7.5131597877e+01   1.2614292325e+01    0.2361433    0.1598972  54.53  0.001493252    1.570    0.363
        21 -12.8876    107.0831    236.8848   7.4920947530e+01   1.3339983760e+01     0.462379    0.1545957  29.53  0.001977152    2.611    0.617
        22 -12.5698    113.0655    234.3834   7.3397713397e+01   1.2948828747e+01    0.4151202    0.1207892  30.84  0.001650081    2.916    0.657
        23 -12.5845    115.0467    249.6977   7.4544009597e+01   1.0330546083e+01    0.3095766     0.185631  29.35  0.001066851    1.294    0.227
        24 -14.0315    115.2621    242.0453   7.3735570266e+01   1.1456399381e+01    0.6125618    0.3300108 -35.37  0.003291253    2.772    0.639
        25 -12.8885     98.7198    249.6252   7.7851931630e+01   1.2408144262e+01     0.269946    0.2206304 -52.96   0.00199411    1.620    0.383
        26 -12.3579     85.3235    250.3569   8.0636850471e+01   1.3939926764e+01    0.2471302    0.1328826  35.53 0.0005112465    1.365    0.267
        27 -11.2239     85.5004    246.4505   8.0289598028e+01   1.4538109678e+01    0.1659251    0.1340597  56.09 0.0006645072    1.238    0.192
        28 -11.4791     68.0509    231.2097   8.2764404735e+01   1.9205652883e+01    0.1905334     0.102711  41.63 0.0003773913    1.414    0.293
        29 -12.6261     68.4175    225.9846   8.2278349117e+01   2.0094493846e+01    0.3544051    0.2190766 -89.59  0.002096123    2.014    0.504
        30 -12.2116     71.0729    240.2886   8.2804425882e+01   1.7282830358e+01    0.2897768     0.208892   3.62  0.001058278    1.906    0.475
        31 -13.3152     71.5234    234.1688   8.2246999143e+01   1.8275132679e+01    0.2861174    0.1989895  42.26 0.0007078151    1.104    0.095
        32 -12.7459     73.7471    229.4450   8.1393181885e+01   1.8833525797e+01    0.3296393    0.2516536 -24.04  0.002104662    1.904    0.475
        33 -13.0120     70.5015    248.0546   8.3479535562e+01   1.6064444914e+01    0.2491766    0.1985673  59.97 0.0007733591    1.238    0.192
        34 -13.1727     68.2982    245.3247   8.3739606004e+01   1.6766996567e+01     0.414977     0.216346  26.11  0.002385737    1.766    0.434
        35 -12.3285     56.3702    250.4132   8.6481657696e+01   1.7276439003e+01    0.1913694    0.1055967  36.40 0.0005819688    1.340    0.254
        36 -13.5731     48.4959    219.9703   8.6233086261e+01   2.3492615433e+01     1.008632    0.3067605  37.24  0.004418891    2.304    0.566
        37 -13.3002     20.9828    198.6178   9.1215471052e+01   3.0475361570e+01    0.4781823    0.2356618  71.54   0.00257759    1.980    0.495
        38 -13.1146     42.4567    226.8683   8.7977182259e+01   2.2859822729e+01    0.3212023    0.2729225 -65.47  0.001532908    1.478    0.323
        39 -12.7271     27.2802    224.8341   9.1101951684e+01   2.4768703466e+01    0.4111544    0.1887177  71.42  0.002249697    2.239    0.553
        40 -13.3631     39.1365    245.6917   8.9667256808e+01   1.9892003290e+01    0.6365809    0.4953306 -19.00   0.00448756    2.053    0.513
        41 -12.9741     34.8326    242.7259   9.0385370337e+01   2.0833165295e+01    0.3673744    0.2336457 -58.15  0.002480465    2.097    0.523
        42 -14.8421      4.1048    208.4147   9.5402100766e+01   2.9956145521e+01     1.025432    0.3406667 -66.01  0.004981252    3.278    0.695
        43 -13.3741     13.1684    217.1404   9.3768044954e+01   2.7513202049e+01    0.3997541    0.2170109  79.66  0.002477959    1.756    0.430
        44 -14.9116     18.7548    212.4376   9.2371983062e+01   2.7920052658e+01     1.337754    0.6273544  40.51  0.007766959    1.621    0.383
        45 -13.8003     29.7907    233.5445   9.0982720876e+01   2.2940150434e+01    0.6962392    0.2117106  34.20  0.003477762    2.297    0.565
        46 -14.6611     24.1260    247.2376   9.2685971261e+01   2.1113046287e+01    0.5450389    0.2984917  27.07  0.003535026    1.699    0.411
        47 -16.8667     15.5707    237.5151   9.4009479600e+01   2.3576742023e+01     1.371643     1.196015  13.61   0.01102461    1.508    0.337
        48 -16.3566      7.7636    228.0277   9.5259183826e+01   2.5956153989e+01    0.9654934    0.8453504  44.01  0.007881021    1.251    0.201
        49 -11.1465     97.7986    237.2104   7.6915342740e+01   1.4493917960e+01    0.1501558    0.1213996  18.06 0.0003108471    1.273    0.214
        50 -11.4529     79.0275    237.0280   8.0877571733e+01   1.6879175500e+01    0.1726395    0.1306644  39.20            0    1.021    0.021
        51 -11.4504    211.0535    236.0539   5.4369796730e+01  -3.1188073034e-01     0.151006    0.1274643  35.25 0.0005794509    1.698    0.411
        52 -12.2632     91.1469    233.9601   7.8029632967e+01   1.5884977212e+01    0.3988492    0.2356289  70.02  0.001331549    2.371    0.578
        53 -10.6943    246.6978    234.6977   4.8234339701e+01  -4.3094433769e+00    0.1092682   0.06027036   3.27 0.0002436508    1.590    0.371
        54 -11.1300    181.0691    232.3275   5.9332600475e+01   3.9945181116e+00    0.1950317    0.1161652  18.38  0.001035184    1.444    0.308
        55 -12.6293    219.4443    230.1685   5.2048036437e+01  -6.6633922534e-01    0.2022411    0.1429011  13.79 0.0003351984    1.059    0.056
        56 -13.1586    128.8701    230.7927   6.9654400127e+01   1.1371197821e+01    0.3913049    0.1521848  39.69  0.001590291    2.072    0.517
        57 -13.9116    108.8392    215.5851   7.2231155453e+01   1.6689214470e+01    0.5425374    0.3330122 -28.54  0.002777848    2.446    0.591
        58 -12.8355    112.5226    227.6427   7.2785626912e+01   1.4119665006e+01    0.3525511    0.2241703  21.59  0.001428087    1.507    0.336
        59 -13.7596    105.2031    226.8470   7.4288530760e+01   1.5243566800e+01    0.4809486      0.35761 -26.43  0.002994294    1.797    0.443
        60 -12.9967     98.8484    226.4680   7.5637285108e+01   1.6156975004e+01    0.5205189    0.1548057  40.63  0.001421351    2.567    0.610
        61 -13.5743    118.0030    226.4920   7.1472357568e+01   1.3558396220e+01    0.4852442    0.2040498  50.55  0.001882383    2.981    0.665
        62 -13.6825    113.6526    219.2467   7.1584699233e+01   1.5378455692e+01    0.3886449    0.2945069 -56.22  0.002229708    1.643    0.391
        63 -11.3994    194.0367    229.5213   5.6494182600e+01   2.6365771145e+00    0.1758766    0.1374824  -9.17  0.001150385    1.251    0.200
        64 -11.8186    178.0714    228.3712   5.9352747238e+01   4.9217680435e+00     0.181788    0.1544014  -4.18  0.000444071    1.232    0.188
        65 -11.7128    149.9624    229.5223   6.5111553126e+01   8.6388180542e+00    0.1915185   0.09627435  32.70 0.0005073907    1.560    0.359
        66 -13.3326     62.2950    234.0013   8.4200676014e+01   1.9387252545e+01    0.5966385    0.3399684  65.24  0.002572268    1.878    0.468
        67 -10.7589    245.6908    228.3418   4.7438235548e+01  -3.5440560472e+00   0.08918446   0.07955328   5.73 0.0007044424    1.693    0.409
        68 -12.5143    231.8631    227.0776   4.9484755761e+01  -1.8144420574e+00    0.2546759    0.1729577  -7.87  0.001827738    1.228    0.186
        69 -12.0704     91.4380    226.4140   7.7256843200e+01   1.7139369111e+01    0.2492805    0.1913215 -55.54    0.0016419    1.624    0.384
        70 -11.3485    137.4680    225.9725   6.7253870546e+01   1.0925880659e+01    0.2489818    0.1398801  42.68   0.00120032    1.622    0.384
        71 -10.7497    222.4655    225.5383   5.0832316667e+01  -5.0636368717e-01    0.1138285   0.08352723   8.64 0.0001705929    1.025    0.025
        72 -11.4682    199.1185    241.5073   5.7263016409e+01   5.3135180610e-01    0.1660896    0.0860179  28.57 0.0004413992    1.498    0.332
        73 -11.4321    213.2170    222.2306   5.1933421262e+01   1.0445787188e+00    0.2296461     0.126526  -8.13  0.001286437    2.033    0.508
        74 -12.5196    159.7520    222.1772   6.2122046771e+01   8.3434681080e+00    0.3349876    0.1787239  33.99 0.0006472098    1.514    0.340
        75 -13.3653    124.9370    221.4574   6.9374353103e+01   1.3418378098e+01    0.3397509    0.2188284  26.01 0.0007143785    1.335    0.251
        76 -12.3893    129.7807    217.7107   6.7851072179e+01   1.3345955153e+01    0.2181484     0.197529  40.05 0.0007037445    1.196    0.164
        77 -13.7793     77.6137    219.2258   7.9658861753e+01   2.0197496651e+01    0.5513489    0.3279202  70.22  0.002993017    2.096    0.523
        78 -13.2260     87.7237    213.1922   7.6774177088e+01   2.0007611407e+01    0.4938075    0.4110785  -4.31  0.001924369    1.497    0.332
        79 -13.2589     79.5205    213.1606   7.8658122565e+01   2.1084227601e+01     0.389402    0.2299251  39.61  0.001685079    1.357    0.263
        80 -12.1694     75.7011    212.3480   7.9461555269e+01   2.1725055779e+01    0.2164509    0.1512017  62.24 0.0008007819    1.454    0.312
        81 -12.0743    246.8835    221.1013   4.6135800317e+01  -2.9139027421e+00    0.1537905    0.1210147   3.34 0.0004801422    1.247    0.198
        82 -12.1247    237.8341    221.1257   4.7588215233e+01  -1.8640948359e+00    0.1619944    0.1282385   5.63  0.001237332    1.226    0.184
        83 -11.6462     33.4420    220.3333   8.9556007133e+01   2.5003825167e+01    0.2301857    0.1710217  11.86  0.001368096    1.681    0.405
        84 -11.0342    222.9984    220.4633   4.9960671785e+01   1.6548300470e-02    0.1666421   0.09063062  28.18  0.001014896    1.545    0.353
        85 -11.4357    189.8279    220.1582   5.5900685139e+01   4.4130861482e+00    0.1687667    0.1133788   9.37            0    1.333    0.250
        86 -12.4301    173.2125    219.0297   5.8960314645e+01   6.8871501892e+00     0.252113    0.2048257   3.17  0.001058196    1.140    0.123
        87 -12.1242     64.1700    217.0204   8.2506163230e+01   2.2256782325e+01    0.3020917    0.2591914  44.18  0.002107111    1.082    0.076
        88 -11.1960    224.6844    216.6568   4.9076697129e+01   2.5272042659e-01    0.1978953    0.1258297  33.83  0.001281158    1.587    0.370
        89 -12.6143    145.2603    215.6499   6.4238429056e+01   1.1433176506e+01    0.3586231    0.2735078  11.17  0.001550475    1.264    0.209
        90 -13.5785    140.6939    210.1118   6.4451703281e+01   1.3004395055e+01    0.5082392    0.3185693 -74.09   0.00166773    3.301    0.697
        91 -11.1139     58.1788    215.7032   8.3759154799e+01   2.3210602133e+01    0.1429178    0.1325803   2.42 0.0004801526    1.353    0.261
        92 -11.5976    155.1953    214.5681   6.1987707874e+01   1.0148687135e+01    0.1965856    0.1512673   2.11 0.0007170804    1.308    0.236
        93 -13.3610    125.1589    212.8980   6.8248438622e+01   1.4824002022e+01    0.2802608    0.2207163  30.62 0.0004322423    1.032    0.031
        94 -13.5704    120.5221    214.4712   6.9480361097e+01   1.5224565213e+01    0.5693332    0.2629909  53.90   0.00233828    3.170    0.685
        95 -10.6492     69.4868    215.4504   8.1166867595e+01   2.1910972585e+01    0.1221693    0.1014794  39.68 0.0001462738    1.068    0.063
        96 -11.0789     36.7814    215.3306   8.8542501808e+01   2.5619337736e+01    0.1603761    0.1195422  52.83 0.0005579247    1.070    0.065
        97 -12.2909    247.6248    212.9051   4.4724171853e+01  -2.1107702660e+00    0.1853613    0.1299454  20.60  0.000393362    1.290    0.225
        98 -11.5830     57.7432    212.2898   8.3594060823e+01   2.3916841373e+01    0.3866491    0.2022888  12.15  0.001748898    2.960    0.662
        99 -13.5208    104.9464    207.2841   7.2136022674e+01   1.8735701532e+01    0.5902224    0.3361303  24.71  0.002610078    1.707    0.414
       100 -11.4866     63.9018    211.1787   8.2084757827e+01   2.3404988181e+01    0.1664922    0.1335547  45.28 0.0003653733    1.011    0.011
       101 -13.0955     68.8387    207.5636   8.0617671486e+01   2.3506533035e+01    0.5708356    0.2548133  20.13  0.002418377    2.864    0.651
       102 -11.6566     47.1373    210.8293   8.5917616176e+01   2.5397131399e+01     0.205819    0.1800384 -43.18  0.001253678    1.499    0.333
       103 -12.9583    229.2047    206.9961   4.6757490417e+01   8.3000537815e-01    0.3433153    0.1952426 -40.95  0.001211727    2.287    0.563
       104 -11.8269    225.1965    204.1987   4.6975166860e+01   1.6917305780e+00       0.2095    0.1708269  30.12 0.0007910929    1.474    0.322
       105 -11.8042    181.3969    207.7158   5.5616364983e+01   7.3315410016e+00    0.3103061    0.1472947  27.06  0.001520969    1.916    0.478
       106 -13.3096    118.0323    206.5770   6.9034618611e+01   1.6972348175e+01    0.3500727     0.249433  65.90 0.0005271814    1.858    0.462
       107 -12.3459     34.0042    205.9557   8.8614555604e+01   2.7742210397e+01    0.2622968    0.2137162 -60.22   0.00126291    1.498    0.332
       108 -12.4411     36.4859    202.9939   8.7856065692e+01   2.8086357619e+01    0.3272973    0.2141016 -71.01  0.001488512    1.667    0.400
       109 -11.7654    160.5583    206.8023   5.9717831926e+01   1.0560953259e+01     0.209823    0.1829911  63.61  0.001330267    1.632    0.387
       110 -12.7975     54.8439    205.8982   8.3763110393e+01   2.5506497268e+01    0.2907861    0.2085431  32.43   0.00122756    1.257    0.204
       111 -10.6558    205.0421    206.2495   5.0877973326e+01   4.1585538305e+00    0.1463841   0.08622184  28.50 0.0002189185    1.448    0.309
       112 -11.7022     42.2294    205.6805   8.6695317778e+01   2.6946229004e+01    0.2851245    0.1264189  32.62  0.001360432    1.867    0.464
       113 -11.2387    166.4282    204.3919   5.8123374862e+01   1.0052104570e+01    0.2559175    0.1223078 -41.21  0.001249554    2.369    0.578
       114 -12.8637    145.4201    202.8005   6.2361591962e+01   1.3507722193e+01     0.402955    0.2467579 -45.54  0.002181545    1.914    0.477
       115 -15.2017     81.7389    195.4996   7.6301286053e+01   2.4239852321e+01     2.361213     1.101505  86.36  0.007318773    6.092    0.836
       116 -13.2085     99.9102    184.4931   7.0420720156e+01   2.3893715827e+01    0.4372966    0.3301438 -23.72  0.002184557    1.711    0.415
       117 -13.6126     94.0063    183.5764   7.1784717308e+01   2.4955060985e+01    0.5894155    0.3298641 -53.41  0.002888685    2.002    0.501
       118 -14.3424     89.4109    183.0564   7.2884411826e+01   2.5729546114e+01    0.7958368    0.5862174  79.34  0.004341664    1.646    0.393
       119 -12.6615     89.5090    202.0101   7.5151887699e+01   2.1893411050e+01    0.4070303    0.2534865 -59.41  0.001991712    1.868    0.465
       120 -14.4963     94.3807    194.1929   7.3052600022e+01   2.2748884887e+01     1.147155    0.5900539  44.99  0.005538216    1.741    0.426
       121 -14.0606     66.1502    181.6944   7.8715223870e+01   2.9173818349e+01    0.5633885    0.3871996  76.71  0.002122009    1.621    0.383
       122 -11.6482     48.8216    203.6144   8.5003826876e+01   2.6644653595e+01    0.2640628    0.2030492 -72.28  0.001715744    1.452    0.311
       123 -11.7193     52.2563    201.0100   8.3986288942e+01   2.6785740836e+01    0.2879664    0.1707038  22.15  0.001557059    1.776    0.437
       124 -12.8387     77.7178    201.7519   7.7946561678e+01   2.3522272701e+01    0.3831672    0.2481925 -52.74  0.001505878    1.833    0.455
       125 -12.0419     61.1434    204.0017   8.2118444968e+01   2.5146410968e+01    0.3316253    0.1649791  29.74  0.001314634    1.787    0.440
       126 -11.5937      1.3763    202.4393   9.5804872170e+01   3.1349274324e+01    0.1659787    0.0936528 -82.60 0.0005082511    1.744    0.427
       127 -11.2214    162.9229    201.8573   5.8458164373e+01   1.0980920673e+01    0.1975061    0.1486117  11.70 0.0003093817    1.232    0.188
       128 -10.6427     69.5691    202.7634   7.9998589277e+01   2.4362940088e+01    0.1220558    0.0918846   2.63            0    1.737    0.424
       129 -11.2333    240.6704    200.6920   4.3829153773e+01   1.2364993818e-01    0.1198187   0.07001851   2.87 0.0003022333    1.661    0.398
       130 -11.7246    212.4210    200.2044   4.8541456196e+01   3.9301131216e+00    0.2169062    0.1425442 -46.56  0.001097526    2.234    0.552
       131 -13.7015    122.8932    196.5555   6.6548561683e+01   1.8063858037e+01     0.501705     0.221653  42.14  0.002224185    2.012    0.503
       132 -11.7161     59.7012    199.3359   8.2056504443e+01   2.6259695464e+01    0.1639915     0.138224 -46.14 0.0002319207    1.477    0.323
       133 -10.9180     43.9939    200.2980   8.5902568840e+01   2.7846043505e+01    0.1638201    0.1272669  44.42  0.000243957    1.082    0.076
       134 -10.3694     14.8869    199.4929   9.2662513285e+01   3.0836556905e+01    0.1616459   0.09754332  33.39 0.0007505878    1.469    0.319
       135 -13.6909    139.9961    196.7788   6.2661342128e+01   1.5376288332e+01    0.4559647     0.269236  37.14  0.001557952    1.449    0.310
       136 -13.9781     69.1009    186.6715   7.8492655885e+01   2.7731477853e+01     0.760318    0.2772826  41.51  0.002662329    2.264    0.558
       137 -11.2503     29.0837    197.9935   8.9285044549e+01   2.9844430902e+01    0.2444365    0.1560389  -9.13  0.001281312    2.655    0.623
       138 -11.5056    113.8515    197.1864   6.8759123792e+01   1.9316675215e+01    0.1737987    0.1454128   5.73 0.0003834313    1.300    0.231
       139 -12.2778      1.4485    196.3449   9.5591747097e+01   3.2569202364e+01    0.2359845   0.09790404 -83.93 0.0009973648    2.311    0.567
       140 -12.9223    190.5023    193.9693   5.1576551317e+01   7.9801965590e+00    0.4178829    0.3026583  36.14  0.001371181    1.373    0.271
       141 -11.9717    152.5417    195.9386   5.9749359499e+01   1.3554796820e+01     0.217067    0.1544851  30.68  0.000654408    1.190    0.160
       142 -11.5692     49.6402    195.4052   8.4166711376e+01   2.8233649375e+01    0.2846356    0.1871897  31.63  0.001658987    1.381    0.276
       143 -11.4027     37.4641    195.4546   8.7124142871e+01   2.9533778861e+01     0.274945    0.1171994  42.02 0.0006673494    1.860    0.462
       144 -11.6958     10.2752    194.5444   9.3508358109e+01   3.2239036593e+01    0.4606979    0.3697434  43.15  0.001932514    1.154    0.133
       145 -11.8777      2.9781    187.2093   9.4918650588e+01   3.4339872452e+01    0.3265912    0.1925263  71.39  0.001625978    1.464    0.317
       146 -12.9431     22.3538    180.1122   8.9851458615e+01   3.4268633282e+01    0.5338294    0.2683216  48.71  0.001772738    1.683    0.406
       147 -12.2403     16.9732    175.4981   9.0942878550e+01   3.5748840171e+01    0.4334901    0.2793686 -66.37  0.002512907    1.626    0.385
       148 -12.2725     10.9920    180.5234   9.2705867023e+01   3.5142038905e+01    0.3597184    0.2211049  37.54  0.001819395    1.435    0.303
       149 -12.1760      8.5280    184.4646   9.3487143576e+01   3.4492444569e+01    0.3169094     0.250246   9.54  0.001601193    1.569    0.363
       150 -13.1339     11.5218    188.5118   9.2951460550e+01   3.3394251588e+01    0.2949804    0.2513461 -18.37   0.00174232    1.605    0.377
       151 -12.8031      8.0097    188.4970   9.3783872631e+01   3.3680764532e+01    0.2693755    0.1750513 -43.68  0.001610374    2.126    0.530
       152 -11.6598    217.4882    193.6428   4.6526788418e+01   4.0862538007e+00     0.198691    0.1770006  -5.11   0.00140943    1.311    0.237
       153 -12.5758    162.8067    193.1349   5.7081753174e+01   1.2402048925e+01    0.2486109    0.2248848  15.85 0.0005410221    1.132    0.116
       154 -11.3256     69.2254    193.6572   7.9188830533e+01   2.6253747181e+01    0.1694977    0.1428058  36.51  0.001053358    1.095    0.087
       155 -12.4175     26.6256    192.8983   8.9568457555e+01   3.1138243234e+01    0.3835566    0.1905313 -84.06  0.001242372    2.064    0.516
       156 -12.2388     30.1491    188.4947   8.8439123081e+01   3.1732105253e+01    0.3568465    0.1701448  30.31   0.00106875    1.871    0.466
       157 -11.0101    240.3593    193.2913   4.2625854142e+01   1.0459701446e+00    0.1218761   0.07168864   4.61 0.0007028215    1.693    0.409
       158 -13.8575     35.3522    227.5337   8.9527456244e+01   2.3472501476e+01      0.54695    0.3174146  62.68  0.003450405    1.545    0.353
       159 -13.5819    134.4323    188.5759   6.2669417346e+01   1.7722897359e+01    0.5116764    0.2667401 -29.79  0.001980249    2.846    0.649
       160 -11.7863     34.8721    190.8865   8.7439945359e+01   3.0757012172e+01    0.2851458    0.1846116 -47.38  0.001553309    1.996    0.499
       161 -11.2279    178.4727    190.8893   5.3442845449e+01   1.0294942581e+01    0.1736786     0.123546 -33.77 0.0005556814    1.508    0.337
       162 -14.0221    121.7746    186.6946   6.5369043658e+01   2.0089149026e+01     0.496611    0.3555067 -30.93   0.00203508    1.684    0.406
       163 -13.7952    118.7256    180.4372   6.5151275942e+01   2.1790135885e+01    0.5674033    0.3139523  56.86  0.001694217    2.459    0.593
       164 -11.2704    234.1909    190.0426   4.3065097375e+01   2.2565388267e+00    0.1664195    0.1350472 -47.54  0.001088514    1.994    0.498
       165 -12.6281     50.9678    189.8387   8.3374243339e+01   2.9252800539e+01    0.3136553    0.2195204  17.73 0.0007338452    1.603    0.376
       166 -13.1585     51.3697    184.2144   8.2776334095e+01   3.0412092925e+01    0.5219675    0.2297133  38.07  0.001667073    1.875    0.467
       167 -10.9964    174.0742    189.0218   5.4025236125e+01   1.1280936639e+01    0.1624128    0.1341665  16.06 0.0009977113    1.010    0.010
       168 -12.5840    194.7950    187.8394   4.9687458049e+01   8.2273078415e+00    0.2885341    0.1601207  38.25  0.001516033    1.713    0.416
       169 -11.9415    151.9842    187.7176   5.8542238521e+01   1.5045891580e+01    0.1912254    0.1554539  25.96 0.0004402184    1.052    0.049
       170 -12.5785    110.1932    188.0199   6.8367837524e+01   2.1632843949e+01    0.2516269      0.17472  35.66 0.0007563255    1.236    0.191
       171 -11.6396     43.0988    187.0781   8.5116790454e+01   3.0712313370e+01    0.2898657    0.1649419  73.69   0.00123809    1.885    0.469
       172 -11.4074     19.0261    187.9721   9.1122929856e+01   3.2870903675e+01    0.1820264    0.1486862  59.60 0.0008624883    1.002    0.002
       173 -10.8693     40.7628    191.3332   8.6025483040e+01   3.0054683627e+01    0.1540062     0.106602  24.79  0.000284562    1.472    0.320
       174 -11.6417     24.8674    185.7193   8.9565883254e+01   3.2825758484e+01    0.2088975    0.1550988  13.69 0.0004729038    1.596    0.374
       175 -11.8266    247.8870    185.4214   4.0079109493e+01   1.0227048645e+00    0.2219479    0.1183835  20.79  0.001275791    1.872    0.466
       176 -11.3798    164.4282    185.2033   5.5400809857e+01   1.3452487780e+01    0.1611244    0.1306563 -52.47 0.0004599926    1.594    0.373
       177 -12.0009      5.0352    181.2556   9.4193967927e+01   3.5447274183e+01    0.1885253    0.1542232 -86.21 0.0005601448    1.226    0.184
       178 -12.1141    166.9738    178.0312   5.3594519333e+01   1.4237854762e+01    0.2088773    0.1842313 -12.13 0.0003141726    1.146    0.128
       179 -11.3686    142.4526    181.4718   5.9660206528e+01   1.7718028791e+01    0.1380574    0.1194776  23.51 8.045378e-05    1.006    0.005
       180 -13.5969    106.4537    176.7279   6.7651563330e+01   2.4483573873e+01    0.4514214     0.256371 -60.65 0.0006670514    2.072    0.517
       181 -12.3848     31.3744    178.1453   8.7420676646e+01   3.3859035042e+01    0.3054529    0.2206682  71.96  0.001120791    1.278    0.218
       182 -11.7795    192.1025    177.9021   4.8427029523e+01   1.0140200207e+01    0.1855563    0.1670329  24.71 0.0006675704    1.236    0.191
       183 -13.4210     56.9199    176.3150   8.0567913866e+01   3.1492392672e+01     0.353311    0.3311377  69.43  0.001711947    1.093    0.085
       184 -11.1482    156.3438    177.3046   5.5788794247e+01   1.6145910917e+01    0.1422985   0.09890503   4.64 0.0007041105    1.687    0.407
       185 -12.7583    148.8835    176.3067   5.7296335130e+01   1.7583546925e+01    0.2651532    0.2161256  19.28 0.0007934888    1.121    0.108
       186 -10.9002     71.4268    176.7239   7.6770662545e+01   2.9571630232e+01    0.1647145    0.1237509 -52.64 0.0003131588    1.506    0.336
       187 -10.6375    250.7273    176.3214   3.8035887503e+01   1.7543365167e+00   0.09974261    0.0847095 -33.86 0.0002778043    1.572    0.364
       188 -12.3615      3.6019    174.7920   9.4276089408e+01   3.6950565472e+01    0.4245949    0.1373193  44.59  0.001924084    2.382    0.580
       189 -11.5376      2.3308    171.6742   9.4463145540e+01   3.7723972321e+01    0.2098169    0.1358134  58.56 0.0005861474    1.299    0.230
       190 -13.0213    130.9214    169.1800   6.0297214520e+01   2.1990843418e+01    0.4153064    0.2921432  17.48  0.001879337    1.537    0.349
       191 -13.7384    126.1334    172.2441   6.2000071327e+01   2.2195946337e+01    0.4983513    0.3125414 -71.31  0.002023539    2.509    0.601
       192 -13.5012    125.8612    166.8906   6.1148044066e+01   2.3310280409e+01    0.5098493    0.3111272  33.91  0.002430682    1.485    0.327
       193 -13.9923     91.0703    171.4319   7.0869312660e+01   2.7957806063e+01    0.6492776    0.3393117 -47.46  0.002927091    2.195    0.545
       194 -11.3943     48.8928    175.3079   8.2597545255e+01   3.2650942706e+01    0.2135128    0.1308447  47.72 0.0006878001    1.444    0.307
       195 -11.6679     22.7567    174.0116   8.9365288285e+01   3.5577931106e+01    0.2445743    0.1291893 -79.07  0.001292549    1.849    0.459
       196 -12.0372     12.5222    174.8997   9.2041527316e+01   3.6246188915e+01    0.2142221    0.1867824 -80.19 0.0006623255    1.220    0.181
       197 -10.6779     15.3187    171.3088   9.1128355209e+01   3.6815641064e+01    0.1593692    0.1248333  -4.93 0.0007578693    1.684    0.406
       198 -12.1160    214.2566    174.0863   4.3598509964e+01   7.2328635874e+00    0.2887459    0.1574511  38.79 0.0007066824    1.825    0.452
       199 -11.1122     79.4972    174.5029   7.4358386332e+01   2.8960791161e+01    0.1364879    0.1213372  45.41 -8.780634e-06    1.006    0.006
       200 -12.5715    137.0334    176.3965   6.0070525599e+01   1.9563983704e+01     0.302155    0.2094218 -76.75 0.0009682686    2.436    0.590
       201 -14.0665     37.0630    163.2929   8.4698872595e+01   3.6651992256e+01    0.6078794    0.4890613 -77.92  0.003277139    1.242    0.195
       202 -14.2719      2.0160    129.9316   9.2424757835e+01   4.7385406468e+01    0.9013039    0.4269392 -79.50  0.004505642    1.864    0.464
       203 -13.1169     30.3629    172.6586   8.7281259439e+01   3.5178113219e+01    0.7058342    0.2073777  25.02  0.002739252    3.279    0.695
       204 -12.6209     25.0497    168.7477   8.8406314401e+01   3.6554399142e+01    0.3456638    0.2102963  23.59  0.001314173    1.701    0.412
       205 -13.4786     22.9371    161.7710   8.8478807246e+01   3.8336195856e+01     0.512358    0.3984696 -65.70  0.003204337    1.348    0.258
       206 -12.6322      2.3923    153.5337   9.3622531723e+01   4.1801856644e+01    0.3657834    0.2393096  80.64  0.002206955    1.350    0.259
       207 -13.6687      3.9807    147.5627   9.2868652641e+01   4.3083291603e+01    0.6599246    0.4066917  68.54  0.003807235    1.468    0.319
       208 -14.8639     13.5497    143.8340   8.9860840244e+01   4.3301961012e+01    0.9924945    0.5397836  55.90  0.005180369    1.741    0.426
       209 -13.3780     26.5599    154.8225   8.6926539107e+01   3.9633784151e+01    0.5355858    0.2592431  46.49  0.001350541    1.874    0.466
       210 -13.3607     26.9425    149.5874   8.6371960093e+01   4.0838323503e+01    0.5435855    0.2545281  61.87  0.002143731    2.296    0.565
       211 -15.4635     13.5793    134.9255   8.9185671431e+01   4.5439876384e+01     1.477529    0.5993792  77.53  0.005330192    2.908    0.656
       212 -13.0165      8.1700    135.1119   9.0866470307e+01   4.5764219649e+01    0.4252061    0.2325349  47.68   0.00110279    1.726    0.421
       213 -14.4476     19.8660    151.2986   8.8567485609e+01   4.1039560505e+01    0.9421532    0.3263257 -65.84  0.004035715    2.613    0.617
       214 -13.3058     14.3111    151.0587   9.0141897303e+01   4.1535839646e+01    0.3809607    0.2374275 -48.00  0.001324061    1.866    0.464
       215 -11.6900    235.0056    171.8059   3.9665543201e+01   4.4782516654e+00    0.2288688     0.144883  14.67  0.001188228    1.563    0.360
       216 -11.8400    197.2847    170.5909   4.6066397049e+01   1.0422517862e+01    0.2303901    0.1451037 -13.23  0.001182763    1.773    0.436
       217 -12.2926     41.3264    168.2456   8.3975095639e+01   3.5072531213e+01    0.3170773    0.2412583  62.21  0.001894182    1.203    0.169
       218 -12.3935     75.0097    169.8608   7.4963996569e+01   3.0604337269e+01    0.4478376    0.2191062  56.31  0.001858752    2.423    0.587
       219 -12.7774     61.8540    169.1347   7.8457924471e+01   3.2494634338e+01    0.4323209    0.2509295  78.80  0.001877497    2.191    0.544
       220 -13.3770     57.6218    164.2220   7.9061884264e+01   3.4138096947e+01     0.482317    0.2779509 -88.57  0.001655987    2.074    0.518
       221 -11.5540     18.8726    169.8584   9.0114710990e+01   3.6844419298e+01    0.1702869    0.1158629  58.15  0.001018394    1.282    0.220
       222 -12.9587    152.4251    167.0194   5.4805677497e+01   1.8671288335e+01    0.4955882    0.1656182 -47.40  0.001765226    3.380    0.704
       223 -11.8858    193.0362    171.6740   4.7089001392e+01   1.0948702660e+01    0.1900158    0.1495013  21.19 0.0005144786    1.130    0.115
       224 -12.0085      9.4950    166.4998   9.2381034847e+01   3.8350893240e+01    0.3125966    0.1539935  39.74  0.001089241    1.751    0.429
       225 -12.8151      4.9309    162.4593   9.3376961371e+01   3.9594202831e+01    0.3658952    0.2900437  60.83  0.001227371    1.078    0.072
       226 -12.0222    110.9685    164.9391   6.4616776845e+01   2.6215443689e+01    0.2279074    0.1648441  63.49 0.0009275764    1.677    0.404
       227 -13.3983     88.2945    164.5289   7.0609655427e+01   2.9884170969e+01    0.2959146     0.245674  22.61 0.0008710455    1.225    0.184
       228 -12.0066    206.5247    163.5099   4.2983507006e+01   9.9899777016e+00    0.2949879    0.1719804   4.81  0.001355057    2.364    0.577
       229 -11.4028     68.2524    164.4179   7.6122258036e+01   3.2740789869e+01    0.1960096    0.1115768  41.92 0.0005910374    1.574    0.365
       230 -13.9080     64.8495    161.9254   7.6758839627e+01   3.3757013467e+01    0.4923915    0.3388251 -42.55  0.002551179    1.740    0.425
       231 -13.0492     57.1344    157.4393   7.8399107433e+01   3.5770757433e+01    0.3908234    0.2158254  38.73 0.0009227169    1.631    0.387
       232 -12.3191     62.9632    156.9589   7.6662152279e+01   3.5151417074e+01    0.2480431     0.216035 -62.24  0.000340731    1.221    0.181
       233 -14.5598     50.8588    153.7961   7.9784421305e+01   3.7377072514e+01    0.8328739    0.3156838  48.03  0.002008111    2.637    0.621
       234 -13.9731     65.0832    152.8756   7.5504722372e+01   3.5832415347e+01    0.6392641    0.2068336  34.67  0.002368515    2.657    0.624
       235 -12.1630     47.8194    162.2971   8.1596555200e+01   3.5732248890e+01      0.22127     0.217076 -53.01 0.0007605327    1.176    0.149
       236 -12.6958     12.3371    161.1148   9.1325088980e+01   3.9355663352e+01    0.2738254    0.2337166  24.34 0.0005483554    1.298    0.230
       237 -12.0530     16.4066    160.2229   9.0163127191e+01   3.9240377906e+01    0.2650384     0.156399  67.33 0.0007944822    1.583    0.368
       238 -12.1358    178.7907    160.5812   4.7808988690e+01   1.5161004692e+01    0.2366746    0.2079841   2.31 0.0002851869    1.037    0.036
       239 -12.9814    170.1090    160.0722   4.9540694357e+01   1.6785674415e+01    0.3069168    0.2694187 -32.95  0.001806314    1.229    0.187
       240 -13.2967    100.7195    172.3135   6.8462691922e+01   2.6299325864e+01    0.3079454    0.2322359 -55.75  0.001367964    1.475    0.322
       241 -12.0074    158.9821    160.0738   5.1990100433e+01   1.8778783018e+01    0.2106289    0.1856126  18.28 0.0002858936    1.015    0.015
       242 -12.1777     72.8046    164.7778   7.4905328868e+01   3.2047355423e+01    0.2298812    0.1590747  74.03 0.0005946302    1.672    0.402
       243 -13.4127     81.4423    157.6334   7.1483009816e+01   3.2450672513e+01    0.3658974    0.2934877 -79.33  0.001105727    1.367    0.269
       244 -12.9560     76.3284    155.0280   7.2551589095e+01   3.3788065651e+01    0.3764973    0.1700808  38.13  0.000868265    1.974    0.493
       245 -12.6003     77.1914    159.8931   7.3010920815e+01   3.2547868055e+01    0.2158938    0.1762363  60.83 0.0004548839    1.216    0.177
       246 -11.7496    187.2451    158.0121   4.5580911265e+01   1.4105552881e+01    0.3065689    0.1802523  54.99   0.00119435    2.438    0.590
       247 -11.7526    105.3166    158.1334   6.4963323342e+01   2.8605947849e+01    0.2728397    0.1903012  42.15 0.0004168439    1.321    0.243
       248 -12.1520     33.0856    157.9514   8.5337235800e+01   3.8289700492e+01    0.1918436      0.16669  64.83 0.0003292946    1.020    0.020
       249 -11.4260    131.8053    157.4154   5.7937943653e+01   2.4182376085e+01    0.2058884    0.1297221  26.95 0.0005384205    1.612    0.380
       250 -11.0829    117.6450    157.6918   6.1611581112e+01   2.6615504096e+01    0.1486986    0.1108704  -1.80 0.0003823102    1.723    0.420
       251 -11.4405    112.5006    156.4953   6.2752524470e+01   2.7752763096e+01    0.1455799    0.1325302  39.03 0.0008105017    1.029    0.028
       252 -11.8941    141.4806    154.4899   5.4988210014e+01   2.3015726689e+01    0.2484995    0.1425643 -58.95  0.001039238    2.383    0.580
       253 -12.4373    212.1151    153.2026   3.9947214198e+01   1.0610083207e+01    0.3025507    0.1930781 -46.06  0.001511696    1.896    0.473
       254 -13.1350     36.2740    143.6260   8.3001159049e+01   4.1389159918e+01    0.3404611    0.2466675  -2.33  0.001828686    1.780    0.438
       255 -14.5301     36.2472    149.9275   8.3662412090e+01   3.9876540712e+01    0.9402106     0.275514  47.55  0.003351734    3.374    0.704
       256 -12.4479     88.1524    152.8878   6.8840366569e+01   3.2523966935e+01    0.2222007    0.1880186  62.61 0.0006610815    1.212    0.175
       257 -10.9202    249.3965    151.7467   3.3682527208e+01   5.0224667091e+00    0.1585208   0.09453716 -20.15 0.0002451798    1.486    0.327
       258 -11.5211     79.4835    151.5367   7.1113660001e+01   3.4140324641e+01    0.1421234    0.1303123  50.43 7.896425e-05    1.016    0.016
       259 -11.6491    171.6386    150.2989   4.7238758413e+01   1.8224229379e+01    0.1351938    0.1135189  74.72 0.0007034694    1.716    0.417
       260 -12.1411    147.5143    149.5111   5.2537418217e+01   2.2871248309e+01    0.3017493    0.2531242  66.72  0.001269598    1.500    0.333
       261 -11.9677    131.5078    150.1799   5.6613009279e+01   2.5707410451e+01    0.3836045    0.1826051  24.28  0.001321525    3.025    0.669
       262 -12.8318    108.5770    148.9245   6.2431625807e+01   3.0068166026e+01     0.343765    0.2957757 -88.26 0.0008334685    1.369    0.270
       263 -13.1718    101.5555    142.5519   6.3198424752e+01   3.2693028503e+01    0.7200602    0.3467015  55.70  0.002528486    2.985    0.665
       264 -13.3373     96.8802    148.2013   6.5564072636e+01   3.2199065860e+01    0.4770731    0.3422571  -6.59   0.00220307    1.975    0.494
       265 -13.2776     85.1477    148.3730   6.8962480120e+01   3.4023191566e+01    0.4995778    0.3127899 -33.21  0.001477113    2.136    0.532
       266 -12.4804     65.6949    148.9681   7.4779803135e+01   3.6674210835e+01    0.2727641    0.2054466 -30.99 0.0009669712    1.651    0.394
       267 -13.2155     79.8148    146.7480   7.0256997210e+01   3.5207026332e+01    0.5876788    0.3393689  -5.96  0.001970535    4.056    0.753
       268 -11.5183    121.4947    146.5267   5.8486214715e+01   2.8297707988e+01    0.1482724    0.1363273  22.39 0.0001969193    1.045    0.043
       269 -10.6639    229.3437    145.7245   3.5555129228e+01   8.8804097414e+00    0.1103387    0.1003863 -65.50 0.0003257099    1.623    0.384
       270 -12.6412    168.9944    144.7838   4.6653691585e+01   1.9700906179e+01    0.4489676    0.2279315  31.52  0.001270702    2.120    0.528
       271 -13.1248     33.2476    126.5580   8.2019554320e+01   4.5871729357e+01    0.4200351    0.3512886 -79.86   0.00249423    1.131    0.115
       272 -13.5190     28.1819    128.1112   8.3875987591e+01   4.5949245631e+01    0.5326523     0.239635  67.96  0.001651433    2.932    0.659
       273 -14.1424     35.0943    138.9305   8.2856009279e+01   4.2646704333e+01     1.074634    0.4224578   5.65   0.00301809    6.455    0.845
       274 -12.5337     36.9997    135.0029   8.1807552111e+01   4.3420143093e+01    0.3450116    0.1709732  38.40  0.001323803    1.890    0.471
       275 -13.3696     35.8320    131.0657   8.1714920018e+01   4.4505960312e+01    0.4117627    0.2681468  24.00 0.0003957123    1.607    0.378
       276 -14.0144     45.0529    140.2988   7.9909518664e+01   4.1277958101e+01    0.5060729    0.2960315  61.01 0.0003451409    1.860    0.463
       277 -13.0138     41.5600    139.5382   8.0906269461e+01   4.1840342237e+01    0.2961254    0.2122814 -83.53 0.0009853969    1.387    0.279
       278 -12.2728     95.0313    140.2812   6.4653162791e+01   3.4310365495e+01    0.2534424    0.2013464 -40.65  0.001301276    1.376    0.273
       279 -11.7331    223.0589    139.4516   3.5292047873e+01   1.0805654810e+01    0.3049331    0.1650266 -26.41  0.001023548    1.763    0.433
       280 -13.1054     57.1305    139.6293   7.6054772826e+01   4.0021911738e+01    0.3097827    0.2095862 -30.26  0.001335811    1.939    0.484
       281 -11.3477    188.6580    138.8654   4.1322924384e+01   1.7018732686e+01    0.1924429     0.165187 -26.28  0.001109158    1.144    0.126
       282 -11.3054     77.2870    139.3193   6.9782210553e+01   3.7335551546e+01    0.1422642    0.1106373 -24.10  0.000700273    1.594    0.373
       283 -10.8841    177.3190    137.6680   4.3350552658e+01   1.9374461534e+01    0.1355383    0.1157879 -85.40 0.0007048387    1.693    0.409
       284 -11.7943    126.7634    137.3903   5.5216667559e+01   2.9255831557e+01    0.2384955    0.1415038  39.38   0.00034707    1.582    0.368
       285 -12.0717    128.4693    134.1166   5.4061330655e+01   2.9619416952e+01    0.3994025    0.2453503 -81.55  0.001281169    4.178    0.761
       286 -12.6700    118.5613    135.2164   5.6961336439e+01   3.1270256779e+01    0.3867255    0.3109629  71.25  0.001606573    1.535    0.348
       287 -12.6052    103.0691    134.1449   6.1111879822e+01   3.4333452595e+01    0.2996826    0.2438249  35.24  0.000811474    1.168    0.144
       288 -12.4654     85.8785    135.1208   6.6418088635e+01   3.7004730910e+01    0.3085659    0.2131693 -60.76 0.0006439908    1.524    0.344
       289 -12.7070     60.7339    134.1085   7.4094793516e+01   4.0906240629e+01    0.2740237     0.186104 -46.16   0.00135411    1.600    0.375
       290 -12.8294     78.0130    133.4892   6.8540042850e+01   3.8617030999e+01    0.4053625     0.242711  -5.86  0.001451156    3.359    0.702
       291 -12.4209     42.9678    133.7597   7.9742145061e+01   4.3106715431e+01    0.2573271    0.1692384  85.02  0.001283856    1.653    0.395
       292 -11.1812    230.0669    130.6929   3.2367570385e+01   1.0886443266e+01    0.1698468    0.1478779   1.26  0.000441185    1.078    0.072
       293 -12.7656     69.2910    130.5647   7.0777184402e+01   4.0603719035e+01    0.3368723    0.1899581 -31.84  0.001331008    2.626    0.619
       294 -13.5796     17.3583    123.6986   8.7000099935e+01   4.7912990284e+01    0.2675698    0.1608005  45.47 0.0009575289    1.636    0.389
       295 -13.1159     20.5182    131.4683   8.6703875901e+01   4.5761455021e+01    0.3569957     0.164324  22.54   0.00165082    2.257    0.557
       296 -13.6573     21.8699    127.5414   8.5887286016e+01   4.6619559353e+01    0.4098174    0.2277716  88.02 0.0005643403    1.844    0.458
       297 -12.1853    206.3117    129.3949   3.5987132562e+01   1.5265780616e+01    0.2454364    0.2137946 -17.51 0.0003674773    1.053    0.050
       298 -14.2432     60.1514    126.9942   7.3139061565e+01   4.2726255657e+01    0.5378845    0.3793918 -26.56  0.002478797    1.819    0.450
       299 -12.8094     50.2684    130.1877   7.6882829780e+01   4.3166675359e+01    0.3452071    0.1733701  40.62 0.0009440557    1.899    0.473
       300 -13.2510     45.2456    128.3982   7.8278503465e+01   4.4182573046e+01    0.3921035    0.2264611  48.81  0.001062896    1.752    0.429
       301 -13.7768     44.2933    120.8927   7.7512579982e+01   4.6154683659e+01    0.5257135    0.3424879 -46.11  0.002063652    1.629    0.386
       302 -10.4899    224.7116    128.6892   3.2778872626e+01   1.2086158306e+01    0.1297014   0.09142487   1.40 0.0002870492    1.580    0.367
       303 -10.4465    130.4913    128.4547   5.2269550078e+01   3.0413509939e+01    0.1509068    0.1419577  28.27 9.816982e-05    1.005    0.005
       304 -11.3447    121.5531    128.0332   5.4575147732e+01   3.2255584725e+01    0.2236478    0.1506734 -50.71  0.001019316    1.584    0.369
       305 -11.5700    177.3990    126.2570   4.0777049433e+01   2.1358699908e+01     0.249963    0.1775362 -43.90   0.00124992    1.480    0.324
       306 -11.8082    180.0055    123.2519   3.9553380699e+01   2.1359549124e+01    0.2523402    0.2057618 -11.60 0.0004966673    1.264    0.209
       307 -13.2305     74.0830    125.8737   6.8389413871e+01   4.1042460037e+01    0.3256282    0.2948792 -59.00  0.001016954    1.128    0.114
       308 -11.6471     97.4841    125.9459   6.1064055943e+01   3.7198069664e+01    0.2137247    0.1493241 -54.41 0.0003710212    1.496    0.332
       309 -14.0522     81.7123    127.2669   6.6216565077e+01   3.9531259939e+01    0.5216088    0.4644902 -27.11  0.001132792    1.239    0.193
       310 -11.3955    188.9827    121.6843   3.7428767938e+01   1.9830697992e+01    0.1914584    0.1725398  30.78 0.0002148854    1.113    0.102
       311 -10.9898    165.4969    122.0329   4.2320525880e+01   2.4538295066e+01    0.2124763    0.1427352 -39.37 0.0003990726    1.508    0.337
       312 -12.6818    103.8569    121.6026   5.8197634217e+01   3.7042707277e+01    0.3893924    0.2830256  50.08  0.001240691    1.404    0.288
       313 -12.4082     98.8299    117.4749   5.8788247394e+01   3.8910885087e+01    0.3264278    0.2403226  69.10 0.0009858923    1.737    0.424
       314 -13.6881      4.5889    118.8784   9.0840542759e+01   4.9922252369e+01    0.5449214    0.2699814  87.15  0.002647237    1.943    0.485
       315 -13.9324     13.0970    112.8577   8.7403675868e+01   5.0893093577e+01    0.6943815     0.289468 -71.19  0.001794439    2.083    0.520
       316 -13.9996     20.6551    116.7363   8.5164864419e+01   4.9393814273e+01    0.5765002    0.3005833  58.87  0.002236044    2.106    0.525
       317 -11.9193     24.0227    115.0349   8.3790704175e+01   4.9554184504e+01    0.4407867    0.2236591  55.13  0.001409512    2.170    0.539
       318 -11.6874    224.1388    120.0499   3.1019595999e+01   1.3442224075e+01    0.1914689    0.1689308 -14.93 0.0004606032    1.014    0.014
       319 -12.3070     79.0201    120.5138   6.5739449317e+01   4.1576707321e+01    0.2231651     0.141808  33.99   0.00046435    1.535    0.348
       320 -12.6682     63.8465    118.8096   7.0464256088e+01   4.4244027895e+01    0.3004286    0.1817247 -49.04 0.0006701231    1.694    0.410
       321 -11.1447     36.0019    119.6861   8.0199386020e+01   4.7319049001e+01     0.183712    0.1721352  47.69 0.0004633189    1.087    0.080
       322 -11.9995     64.5175    126.9772   7.1702212184e+01   4.2145065859e+01    0.2335656    0.1893481  62.88 0.0006180039    1.281    0.219
       323 -12.2023     51.1425    116.0631   7.4362977846e+01   4.6570851506e+01    0.5490662    0.2729281  49.64  0.001715034    2.232    0.552
       324 -10.6054    196.6922    115.3003   3.4524742647e+01   1.9348413615e+01      0.13223    0.1098124 -69.94 0.0003016056    1.598    0.374
       325 -13.2124     82.8633    112.8199   6.2840556449e+01   4.2796031746e+01    0.6286256    0.2166495 -57.91  0.002051993    3.146    0.682
       326 -10.9255    124.2610    114.2696   5.0593765548e+01   3.4667818470e+01    0.2013353    0.1793223  80.19  0.001026692    1.310    0.236
       327 -11.6863    104.8229    114.0114   5.6149236279e+01   3.8582130443e+01    0.2330782    0.2062617  77.68 0.0008276319    1.284    0.221
       328 -13.0151     64.7648    113.6289   6.9158232333e+01   4.5390769843e+01    0.3301782    0.2859107   0.79 0.0009354763    1.296    0.228
       329 -12.9457     61.9127    110.3244   6.9504189777e+01   4.6603279150e+01    0.4762753    0.2645798  18.47  0.001983869    2.193    0.544
       330 -12.6470    110.1316    111.5634   5.3965311603e+01   3.8101113435e+01    0.3286424    0.2643767  22.37 0.0002213192    1.325    0.245
       331 -11.8664     89.7497    110.9620   6.0158433096e+01   4.2054312605e+01    0.2458471    0.2099242  33.86 0.0002358395    1.147    0.128
       332 -11.4093     91.7985    107.9776   5.8786319732e+01   4.2385551790e+01    0.2308846    0.2155032   4.67            0    1.119    0.106
       333 -11.5614     52.7259    110.9031   7.2892658355e+01   4.7663667126e+01    0.3096566    0.1898126  39.55  0.001102212    1.619    0.382
       334 -12.1904    220.7168    109.0009   2.9113307576e+01   1.5680867364e+01    0.3052491      0.19218  43.91 0.0009003251    1.705    0.413
       335 -13.1315      3.6720    106.8607   9.0198737325e+01   5.2923966840e+01    0.2988808    0.2783585  79.95 0.0005707431    1.076    0.071
       336 -11.2617    209.5158    107.9049   3.0622413862e+01   1.7983232949e+01    0.2113619    0.1240875 -32.17  0.001030436    1.587    0.370
       337 -13.1594    120.8718    106.7954   4.9654481788e+01   3.6959174205e+01    0.3235658    0.3060236  39.93 0.0006396142    1.030    0.029
       338 -10.7155    139.6675    107.3178   4.4766399546e+01   3.2847285670e+01    0.1537358    0.1233337  87.60 0.0007047912    1.691    0.409
       339 -11.4548    157.6875    106.3095   4.0198310075e+01   2.9110954783e+01    0.1473459    0.1206895 -83.70  0.000405264    1.627    0.385
       340 -14.3925      9.6783    105.7191   8.7920732647e+01   5.2878017720e+01    0.6983196    0.2683174 -84.18  0.002853743    2.611    0.617
       341 -12.2217     78.9411    101.4677   6.1542933715e+01   4.6153804908e+01    0.2755383    0.2290277  73.00 0.0006580038    1.399    0.285
       342 -10.6067     55.3334    101.2933   7.0067534277e+01   4.9719409202e+01    0.1472009    0.1072888 -25.17 0.0003680279    1.637    0.389
       343 -12.3038     93.7350     99.3455   5.5992543794e+01   4.4017540723e+01    0.3401454    0.2596071  44.06   0.00114698    1.291    0.226
       344 -12.1782     32.5018     98.3161   7.8276301364e+01   5.3016796295e+01    0.4822631    0.2089127 -43.37  0.001938121    2.527    0.604
       345 -11.3040    208.3039     99.6942   2.8906518811e+01   1.9473470210e+01    0.1328294    0.1030578 -63.10 0.0002036666    1.601    0.375
       346 -11.5396    162.3313     99.6772   3.7459849887e+01   2.9300733077e+01    0.1505171    0.1194711 -79.99 0.0007049909    1.700    0.412
       347 -11.6201     57.9915     97.4377   6.8241152548e+01   5.0315123148e+01    0.3093914      0.22136  -7.65  0.001462164    1.806    0.446
       348 -11.6536     24.7596     97.3480   8.1159437750e+01   5.3930187853e+01    0.3611408    0.2156141 -33.47 0.0006105881    1.925    0.481
       349 -10.8196     16.4015     98.0782   8.4525640972e+01   5.4362066299e+01    0.1747455    0.1522386 -89.01  0.001077079    1.090    0.082
       350 -11.3224    178.5280     97.5347   3.3594781677e+01   2.6089743839e+01    0.1429854    0.1377623  -4.95 0.0001524623    1.007    0.007
       351 -13.0490    166.2046    100.4110   3.6821704501e+01   2.8308946777e+01    0.4093776    0.2136044 -52.23  0.001580584    2.420    0.587
       352 -10.6024     45.8207     97.4064   7.2911732799e+01   5.1855799779e+01    0.1869967    0.1355838   5.45 0.0009334485    1.618    0.382
       353 -12.1216     98.9268     95.0085   5.3145735999e+01   4.3995127851e+01    0.2790483    0.2189417 -53.31 0.0004599029    1.338    0.252
       354 -12.3301     67.8920     95.0010   6.3955405856e+01   4.9473161473e+01    0.3835027    0.1526061  41.31  0.001392823    2.527    0.604
       355 -11.0991     89.3491     94.2926   5.6123921175e+01   4.5989869608e+01     0.155659    0.1195033  -4.44  0.000347316    1.671    0.402
       356 -11.7255    117.3296     94.1021   4.7260634097e+01   4.0390150855e+01    0.2082031    0.1882233 -46.62 0.0003179265    1.150    0.131
       357 -11.9066    207.1998     91.2791   2.7079346111e+01   2.0967170965e+01    0.2421083    0.1772944 -17.62  0.001287889    1.441    0.306
       358 -11.3935     78.5229     92.5022   5.9433568078e+01   4.8337968776e+01    0.1472561    0.1452206  11.58 9.179313e-05    1.004    0.004
       359 -12.6232    230.2045     89.6815   2.3428868314e+01   1.6649716516e+01    0.2465029    0.2141385 -29.84 0.0004247608    1.017    0.016
       360 -11.7166     28.0269     90.4623   7.8746892129e+01   5.5383535627e+01    0.2010611    0.1325126  21.90  0.001038044    1.618    0.382
       361 -11.9018      4.7409     87.7786   8.7938823980e+01   5.7589677377e+01    0.3634871    0.2161162 -44.00  0.001740019    1.656    0.396
       362 -11.9068     11.7012     86.9722   8.4972983927e+01   5.7424974318e+01    0.2526888    0.1794534  24.50 0.0005881881    1.534    0.348
       363 -10.5832    220.3055     89.6748   2.4770097909e+01   1.8560711648e+01    0.1330995   0.09572928 -59.10 0.0003344353    1.646    0.392
       364 -12.4225     54.4754     86.0541   6.6979592605e+01   5.3567577515e+01    0.4400655    0.3773991 -11.97  0.002415354    1.259    0.205
       365 -12.5340    153.2766     80.3382   3.4156328580e+01   3.4825576640e+01    0.4241987    0.2554487   4.03  0.001382506    3.756    0.734
       366 -11.9849    150.0000     83.9751   3.5926606036e+01   3.4952671630e+01    0.4040564    0.1321894 -31.04  0.001110075    4.326    0.769
       367 -11.9327     77.5172     87.0115   5.8324401296e+01   4.9786701531e+01    0.2254895    0.1474292 -53.83 0.0004925941    1.561    0.359
       368 -12.7936     61.2004     85.5652   6.4167595260e+01   5.2739869270e+01    0.4617172    0.2151091 -42.62   0.00179221    2.311    0.567
       369 -11.4508    244.1537     86.0321   2.0891747229e+01   1.4573353042e+01    0.1797261    0.1517674 -32.14 0.0003808633    1.013    0.013
       370 -11.2804    178.5071     86.5286   3.0752002106e+01   2.7924714034e+01    0.1419332    0.1391955 -27.31 2.161326e-05    1.013    0.012
       371 -11.5375    124.8676     85.0503   4.2534794449e+01   4.0566557177e+01     0.299009    0.2262335 -14.20  0.001364962    1.644    0.392
       372 -12.0474    110.9751     83.5611   4.6093838848e+01   4.3952107477e+01    0.4337094    0.2276279  44.46  0.001276627    1.845    0.458
       373 -11.8001    190.0960     83.5083   2.7913574069e+01   2.5812563275e+01    0.2049396    0.1397626  56.98 0.0007180556    1.536    0.349
       374 -11.7246    171.3276     83.2157   3.1231194058e+01   3.0110408075e+01    0.2013431    0.1816323  32.61 0.0006513429    1.140    0.123
       375 -11.7941     67.5347     83.3691   6.1099532575e+01   5.2291623607e+01    0.3066382    0.1055981  45.34 0.0009629444    3.429    0.708
       376 -11.2582     78.0269     81.8211   5.6672220685e+01   5.0885239931e+01    0.2543882    0.1672371  61.12  0.001075962    2.049    0.512
       377 -12.2222    206.5507     80.8968   2.4657960313e+01   2.2639500410e+01    0.2319295    0.2205097  38.04  0.000360613    1.121    0.108
       378 -12.2648    182.3674     80.7998   2.8542987423e+01   2.7971796634e+01    0.2326245    0.2204393 -35.72 0.0003962712    1.030    0.029
       379 -11.0377     35.2420     86.2018   7.4959116194e+01   5.5777892320e+01    0.1774317    0.1519134  59.17 0.0004741416    1.270    0.213
       380 -11.7462    215.8266     79.8534   2.3082867226e+01   2.0856605512e+01    0.2600335    0.1715122 -60.26 0.0008285775    1.841    0.457
       381 -12.3641    214.9983     75.4119   2.2132171330e+01   2.1651888521e+01    0.2616527    0.1823039 -29.78 0.0003182852    1.347    0.258
       382 -12.5050     87.5004     79.1428   5.2441979471e+01   4.9727257938e+01    0.3052211    0.2759241  44.91 0.0006679159    1.112    0.101
       383 -11.1398     85.5008     75.4263   5.2011502457e+01   5.0919845264e+01    0.2289842     0.194847 -31.64 7.493121e-05    1.210    0.173
       384 -11.9198     29.2663     79.1300   7.6111234226e+01   5.8087644036e+01    0.2799712    0.2311723 -89.25  0.001141422    1.298    0.230
       385 -12.9853    187.7999     78.2568   2.6940874964e+01   2.7138531888e+01    0.2927999    0.2657308   7.33 0.0004975456    1.190    0.160
       386 -12.5493    112.0509     75.6588   4.3346581669e+01   4.5309915030e+01    0.4670472    0.2703817 -50.52 0.0003869606    1.931    0.482
       387 -11.2845    115.7120     74.6345   4.1946372342e+01   4.4684904177e+01    0.2407687    0.2056828  29.51 0.0006120864    1.193    0.162
       388 -10.9895      8.3203     78.3171   8.5244573625e+01   5.9750613114e+01    0.1388408   0.08052693 -43.01 0.0007041559    1.661    0.398
       389 -11.7580    161.0544     75.8051   3.1215575443e+01   3.3752718221e+01     0.322103    0.1717461 -57.11  0.001184898    2.681    0.627
       390 -11.6648     75.1338     75.6544   5.5935966846e+01   5.2784114547e+01    0.2502486    0.2032052 -61.90  0.000574881    1.356    0.262
       391 -11.8573    169.2660     74.4245   2.9211554580e+01   3.2029761678e+01    0.2894313     0.224438 -51.09 0.0007782184    1.347    0.258
       392 -11.4695     48.0243     67.5000   6.4823818474e+01   5.8829443322e+01    0.2872835    0.2084955  19.06 0.0009879981    1.449    0.310
       393 -11.9421      2.0138     68.7492   8.6791302637e+01   6.2375007757e+01    0.4240991    0.1965893  83.21  0.001849728    2.627    0.619
       394 -12.8605     51.5470     71.7251   6.4461795853e+01   5.7376243732e+01    0.5510664    0.3020336 -44.25  0.001552762    1.792    0.442
       395 -11.3728    105.0505     73.0302   4.4655380114e+01   4.7381754022e+01    0.2373918    0.2261478  22.86 0.0007617206    1.027    0.027
       396 -11.3511     93.9564     68.4656   4.6795721172e+01   5.0677260345e+01    0.2159074    0.2007557 -34.50 0.0001448799    1.102    0.093
       397 -13.2089      7.5963     67.1859   8.3914165458e+01   6.2510219024e+01    0.4572206    0.1753046 -56.06  0.001094022    2.083    0.520
       398 -12.6388    203.0494     66.5064   2.1575781962e+01   2.5458182905e+01    0.2455815    0.2346269  85.35 0.0003576773    1.089    0.082
       399 -12.2894    199.1169     65.4918   2.1872971249e+01   2.6474592346e+01    0.2513688    0.2206514 -30.12 0.0004789135    1.118    0.105
       400 -11.2792     60.2397     67.0021   5.9295848146e+01   5.7195571194e+01    0.1980233    0.1789453 -39.09 0.0003146697    1.081    0.075
       401 -11.7790    178.8358     64.2854   2.4685966998e+01   3.1330604417e+01    0.2467072     0.205787 -26.99 0.0004790014    1.229    0.186
       402 -11.2419     44.5043     62.5182   6.4984666539e+01   6.0431318552e+01    0.2375135    0.1351992  11.78 -1.953275e-05    2.200    0.545
       403 -11.8504    108.9994     60.2234   3.9163739548e+01   4.8938189021e+01    0.2544886    0.2243234 -40.82  0.000606853    1.188    0.158
       404 -11.7056     13.7653     60.5607   7.9663925623e+01   6.3770253000e+01    0.2686142    0.1268526 -56.85  0.001279503    1.759    0.431
       405 -11.9666     41.2286     60.2355   6.5861784870e+01   6.1358554671e+01    0.2239724   0.09528239  38.16  0.000896192    2.478    0.596
       406 -11.2756     33.6647     58.3003   6.9014771171e+01   6.2656392253e+01    0.1339192     0.103172  61.43 0.0007034486    1.657    0.396
       407 -11.3169    192.5163     57.4912   2.0726569195e+01   2.9094760497e+01    0.1371587    0.1290302 -58.72 0.0008103719    1.013    0.013
       408 -11.2978    160.0195     57.4823   2.6058350752e+01   3.6916450667e+01    0.2181074    0.1421705  61.11 0.0004587882    1.515    0.340
       409 -11.3054    120.5553     57.0206   3.4788222419e+01   4.6761533898e+01    0.2185654    0.1510049 -34.26 0.0002996135    1.521    0.342
       410 -10.9469    149.5237     56.4764   2.7811053761e+01   3.9680616303e+01    0.1476254    0.1423491  77.20 0.0002389388    1.021    0.020
       411 -11.3117     52.4610     56.1607   5.9222597431e+01   6.0768688842e+01    0.2813703    0.1718193  47.74  0.001085289    1.940    0.484
       412 -10.6977    217.5403     55.4865   1.6996806887e+01   2.3795113283e+01     0.128676    0.1175114 -45.00 6.867413e-05    1.025    0.025
       413 -11.0041    126.5090     54.0246   3.2224735264e+01   4.5804072562e+01    0.2167279    0.1215342 -56.96 0.0008097698    2.494    0.599
       414 -11.1492    115.5954     53.8174   3.5023903079e+01   4.8502134322e+01     0.200292     0.141649 -47.80 0.0003770034    1.548    0.354
       415 -11.5421    110.1889     54.2047   3.6696171700e+01   4.9726454760e+01    0.2102604    0.1849307 -82.23  0.001070851    1.340    0.253
       416 -11.3711    142.0556     52.3283   2.8056135341e+01   4.2189799778e+01    0.2034711    0.1837427  63.23  0.000625433    1.068    0.064
       417 -13.8670     30.9263     50.2704   6.8035025462e+01   6.4774596487e+01    0.3855994    0.3275091  25.37  0.001136698    1.248    0.199
       418 -11.5819    100.7523     51.0144   3.8394550272e+01   5.2479898302e+01    0.2061094    0.1952869 -32.42 0.0004492439    1.110    0.099
       419 -12.2702     19.1312     48.1506   7.3849461900e+01   6.6315973689e+01    0.4925956    0.1511973 -60.43  0.001919554    2.725    0.633
       420 -10.7838      1.4263     51.5334   8.4408334697e+01   6.6521176611e+01    0.1232974    0.1075927 -60.21 0.0002129229    1.049    0.047
       421 -10.8804    222.9675     49.9929   1.5075725725e+01   2.3342442484e+01    0.1492445    0.1367284 -62.47  0.000346082    1.058    0.055
       422 -10.8305    113.6915     47.3289   3.3220244563e+01   5.0031549851e+01    0.1514155    0.1181754 -75.83 0.0004740843    1.661    0.398
       423 -11.0886    143.4410     44.7893   2.5301220640e+01   4.2953697425e+01    0.2028241     0.146663 -12.19 0.0006258243    1.691    0.408
       424 -14.1340     36.6797     40.4779   6.1538498172e+01   6.6256952516e+01    0.4128152    0.3743684 -27.70  0.001730653    1.058    0.055
       425 -11.7420    118.9334     40.8602   2.9466131477e+01   4.9735131501e+01    0.3799627    0.2639981  16.37  0.001288977    1.920    0.479
       426 -10.8271    130.9464     40.9949   2.6665313869e+01   4.6681037974e+01    0.1796723    0.1617034  59.02 0.0004118879    1.046    0.044
       427 -10.7390    241.7563     40.0452   1.1009241512e+01   2.0719662311e+01    0.1540839   0.08808289 -33.85 0.0003459458    1.504    0.335
       428 -12.9492     24.5850     37.8970   6.7499278914e+01   6.8133064987e+01    0.4251511     0.246334 -15.10  0.002046467    2.059    0.514
       429 -12.2533    135.6916     38.7392   2.4855475513e+01   4.5784185956e+01     0.248927    0.2334952  86.03 0.0003136235    1.071    0.066
       430 -11.6362     53.1929     38.1522   5.2007892676e+01   6.4350893990e+01    0.2111966    0.1745606  -8.54 0.0004696172    1.199    0.166
       431 -11.9990     77.9199     37.1002   4.0781505163e+01   5.9895071211e+01    0.2142671    0.1956968  21.78 0.0004208455    1.013    0.013
       432 -11.3582     99.9762     36.3023   3.2931563109e+01   5.5055134184e+01    0.2042882    0.1818991  47.60 0.0005005436    1.055    0.052
       433 -12.7737    106.5490     32.7445   2.9612936115e+01   5.3981325561e+01    0.3853745    0.2689279  27.42 0.0005625617    1.638    0.389
       434 -13.2498     44.5787     33.4552   5.4380191384e+01   6.6593878122e+01    0.3721494    0.3589235  31.02  0.001396444    1.223    0.183
       435 -10.8519    230.4817     34.5482   1.0730671397e+01   2.3611422836e+01    0.1226839    0.1065189 -53.10 8.818666e-05    1.013    0.013
       436 -12.9799     31.9226     32.2432   6.0975333679e+01   6.8528162329e+01    0.3999608    0.2883626 -47.74  0.002264717    1.352    0.260
       437 -12.8467     78.2578     31.1116   3.8035418242e+01   6.0793745180e+01     0.324073    0.2579817  86.61  0.001627858    1.828    0.453
       438 -12.1766    208.4796     30.4016   1.1768164346e+01   2.8838518558e+01    0.2717001    0.1849004 -81.76 0.0009222779    1.544    0.352
       439 -10.6780      8.6721     31.7414   7.5397494098e+01   7.0705834865e+01     0.130396   0.07739215 -31.14 0.0002010497    1.560    0.359
       440 -12.3098     19.3426     29.6810   6.7732608001e+01   7.0362818658e+01    0.2258653    0.2031485 -29.09 0.0004038061    1.080    0.074
       441 -10.9600      3.6932     29.6640   7.8081639214e+01   7.1425919602e+01    0.1368265   0.07093363 -38.02 0.0005547783    1.673    0.402
       442 -12.0730    162.1736    247.0673   6.4898446000e+01   4.5634087876e+00    0.2123109    0.1423043  19.16 0.0006664887    1.200    0.167
       443 -12.2999     45.8977     25.9988   5.0242993491e+01   6.7766532857e+01    0.2943707    0.1875176  41.46 0.0007707247    1.641    0.391
       444 -10.8554    221.1840     25.3735   9.3756707711e+00   2.6594281465e+01    0.1614687    0.1092262 -86.36 0.0002840717    1.521    0.343
       445 -12.9687     67.5125     23.2125   3.8597861120e+01   6.4260802186e+01    0.4147711    0.1895403 -33.30  0.001746305    2.299    0.565
       446 -11.0954     37.0063     23.0205   5.3788594467e+01   6.9637322057e+01     0.161413    0.1378209 -19.55 0.0004756054    1.075    0.070
       447 -11.8325    166.0509     22.0731   1.4306546484e+01   4.0016661403e+01    0.2048083    0.1883793  85.41 0.0003263009    1.020    0.020
       448 -11.6382    132.9061     21.4662   1.9302795215e+01   4.8675617877e+01    0.2203252    0.1919177 -50.47 0.0003436603    1.219    0.180
       449 -11.7174     92.0737     16.5995   2.6829676059e+01   5.9613378202e+01    0.2212235    0.1918328 -37.57 0.0004582069    1.286    0.222
       450 -10.8631     80.3875    246.2020   8.1321100085e+01   1.5196927964e+01    0.1298503   0.09887446  70.09 0.0002524788    1.467    0.319
       451 -10.9707     31.3256     16.0145   5.3691052611e+01   7.1669214258e+01    0.1793258    0.1512975 -17.10 0.0004672127    1.068    0.063
       452 -10.8984    180.4799    244.4289   6.1081585324e+01   2.5341418951e+00    0.1162775   0.08454873  19.93 0.0001293167    1.022    0.022
       453 -11.2192    167.9153    243.2896   6.3319227951e+01   4.3058880946e+00    0.1696205    0.1161263  25.40  0.001133015    1.094    0.086
       454 -11.2406    142.9952    242.4474   6.8119604087e+01   7.7198318823e+00    0.1805135   0.09050683  31.53  3.41808e-05    1.515    0.340
       455 -11.2014     60.5441    242.0611   8.5114707180e+01   1.8199456807e+01    0.1397662    0.1062951  86.88 0.0009951891    1.507    0.336
       456 -14.0660     52.9103    236.0431   8.6316767821e+01   2.0087332662e+01    0.4399052    0.2790177 -62.56  0.002375121    1.954    0.488
       457 -11.2040    135.0578    241.4748   6.9611114033e+01   8.9189344256e+00    0.1824627   0.09131037  32.54 0.0003969835    1.514    0.340
       458 -11.4036     89.6513    241.0514   7.8977343017e+01   1.4898758009e+01    0.1550121     0.128108  39.47 0.0004814992    1.086    0.079
       459 -10.6336    239.6842    239.3454   5.0034411228e+01  -4.0111541451e+00   0.08897305   0.07773295  16.47 0.0004197206    1.718    0.418
