#   1 NUMBER                 Running object number                                     
#   2 MAG_AUTO               Kron-like elliptical aperture magnitude                    [mag]
#   3 X_IMAGE                Object position along x                                    [pixel]
#   4 Y_IMAGE                Object position along y                                    [pixel]
#   5 X_WORLD                Barycenter position along world x axis                     [deg]
#   6 Y_WORLD                Barycenter position along world y axis                     [deg]
#   7 A_WORLD                Profile RMS along major axis (world units)                 [deg]
#   8 B_WORLD                Profile RMS along minor axis (world units)                 [deg]
#   9 THETA_WORLD            Position angle (CCW/world-x)                               [deg]
#  10 FWHM_WORLD             FWHM assuming a gaussian core                              [deg]
#  11 ELONGATION             A_IMAGE/B_IMAGE                                           
#  12 ELLIPTICITY            1 - B_IMAGE/A_IMAGE                                       
         1 -13.1674    187.3195     31.8238   6.0100626835e+01   3.4466283080e+01     1.796475     1.080554  16.84  0.007116378    2.391    0.582
         2 -11.1863    209.8752      2.4382   4.8219899934e+01   3.1686372157e+01    0.7768449    0.3193598  75.30  0.002955568    2.456    0.593
         3  -9.2482    178.0021    225.0258   1.0594023713e+02   6.8839599117e+00    0.1407022    0.1060589  40.65 0.0006868899    1.022    0.022
         4 -10.5869    139.5885    248.9109   1.1480338318e+02   9.7677153636e+00    0.2674061    0.2038373 -86.93  0.002108412    1.713    0.416
         5 -19.4450     23.0522    139.7564   1.2629257382e+02   4.3846446802e+01     17.00772     2.435077 -74.72   0.05046255    6.534    0.847
         6  -9.0047     57.1710    194.8743   1.2397486173e+02   2.9312780953e+01    0.4420659    0.1864561  76.58  0.002094296    3.105    0.678
         7  -9.6244     59.1582    188.7503   1.2310440368e+02   3.0186892878e+01    0.3444497    0.2076619 -61.47  0.001580113    1.870    0.465
         8 -10.0295     75.0524    182.5078   1.1948032907e+02   2.9311926313e+01    0.2707602    0.2256174  79.12  0.001174546    1.095    0.087
         9 -10.2306     66.1890    195.0307   1.2233180139e+02   2.8170770724e+01    0.2786651    0.1696456  57.11 0.0009143483    1.321    0.243
        10 -12.2049     72.4729    191.1366   1.2081369748e+02   2.8064221222e+01    0.8434612    0.5482817  53.84  0.004234958    1.273    0.215
        11  -8.6468     99.6606    192.0154   1.1577181686e+02   2.4113060006e+01    0.1603826    0.1308821  73.15 0.0005110647    1.076    0.071
        12  -8.9230    167.3044    187.9782   1.0254907182e+02   1.3665666970e+01    0.1608888    0.1573649  67.89  0.001136274    1.169    0.145
        13 -10.2249    193.6197    192.5375   9.8593953027e+01   8.4074812321e+00    0.5104961    0.3440149 -36.16  0.003111449    1.735    0.424
        14  -9.3472    206.9859    181.1866   9.4372649473e+01   7.5425151584e+00    0.2616785    0.2006454  55.85  0.001311916    1.484    0.326
        15  -8.6471     53.2409    181.9364   1.2365215959e+02   3.2171028691e+01    0.1569934    0.1346713 -79.16   0.00119099    1.341    0.254
        16  -9.1881     99.3576    180.7771   1.1451749476e+02   2.6173582774e+01    0.2154802    0.1725502  56.14 0.0006171721    1.105    0.095
        17  -9.7708    116.6383    213.7969   1.1506070498e+02   1.7992439320e+01    0.2008397    0.1410982  28.16 0.0009604831    1.845    0.458
        18 -10.3092    106.1606    172.3139   1.1207096681e+02   2.6694401453e+01    0.3489366    0.2199925  24.84  0.001751678    2.473    0.596
        19  -9.7967    195.9326    169.6346   9.4231748074e+01   1.1149006755e+01    0.2949211    0.2140319  36.25 0.0009253373    1.228    0.185
        20  -8.6186      1.7060    210.3545   1.3433512512e+02   3.2351835443e+01    0.1363751   0.07209121  58.10  0.000472563    1.338    0.253
        21  -8.9123    125.3279    172.3191   1.0820099076e+02   2.3559837242e+01    0.1187384    0.1005217   7.28 0.0005102006    1.683    0.406
        22  -9.0973    140.6931    157.2332   1.0263319037e+02   2.3587659443e+01    0.2111548    0.1794472  74.72 0.0005014096    1.206    0.171
        23 -10.9103     98.2274    155.0558   1.1130161314e+02   3.1291165817e+01    0.5558178    0.3719183 -38.71  0.002311629    2.153    0.536
        24  -7.8587    115.3011    209.3773   1.1482162688e+02   1.8882952992e+01    0.1020528   0.08876675   6.32 0.0007026418    1.763    0.433
        25  -8.9298    164.2044    152.4236   9.6978108046e+01   1.9967956368e+01    0.1910833    0.1211695  56.30 0.0005104687    1.628    0.386
        26 -10.0615    133.4680    140.9478   1.0117704181e+02   2.8005935918e+01    0.4165819    0.1644108 -53.91  0.001602077    2.814    0.645
        27 -10.4623    183.5978    215.7879   1.0378040568e+02   7.1175986868e+00    0.2319499    0.1914875 -23.25  0.001686189    1.491    0.329
        28 -10.3315    109.0395    140.0532   1.0646696938e+02   3.2573304908e+01    0.4684153    0.2703954 -39.97  0.002169851    2.299    0.565
        29 -10.6243     97.4635    140.3824   1.0917473758e+02   3.4417166592e+01    0.2403477    0.2224414  58.42 0.0002781769    1.162    0.140
        30  -8.3729    163.5930    204.7724   1.0568088204e+02   1.1865660006e+01      0.13968    0.1136556 -68.70 0.0005604129    1.592    0.372
        31 -10.6356    115.5910    130.6822   1.0321818366e+02   3.3359532128e+01    0.3710199    0.3012367  19.10 0.0009717121    1.642    0.391
        32  -9.6351    103.6028    126.8004   1.0530383397e+02   3.6267668531e+01    0.2474284    0.2316996 -27.66 0.0007169824    1.318    0.241
        33  -9.5412    160.5617    127.2020   9.2476342630e+01   2.5208045727e+01    0.2914838    0.2065423 -66.26    0.0013838    1.811    0.448
        34  -9.1726    125.6051    127.7481   1.0030860550e+02   3.2116529895e+01    0.1996067    0.1294724 -62.24 0.0009550439    1.673    0.402
        35  -9.7236    136.0973    124.3436   9.7186453172e+01   3.0768337288e+01    0.2830533    0.2316981 -12.13  0.001474065    1.627    0.386
        36  -9.4141    105.9709    130.8033   1.0549793550e+02   3.5018685168e+01    0.3536807    0.2608218 -82.54  0.001270827    1.471    0.320
        37  -9.1785    110.8652    119.2431   1.0202617388e+02   3.6602375149e+01    0.2062433    0.1787939  80.91 0.0004412488    1.146    0.127
        38 -10.2122     67.9193    116.3958   1.1235282476e+02   4.3983142978e+01    0.2636532    0.1700842 -58.17  0.001250327    1.435    0.303
        39  -8.7850    168.3173    113.2570   8.7575877981e+01   2.6085166722e+01    0.2917953    0.2100721 -78.20  0.001298212    2.050    0.512
        40  -8.9302    134.7716    107.0396   9.3476279880e+01   3.4507558836e+01    0.2238569    0.1355652 -56.91 0.0009730737    1.817    0.450
        41  -8.4471    205.7160    110.0668   7.9581921096e+01   1.8235944200e+01    0.2052255    0.1826784 -22.37 0.0006379695    1.098    0.089
        42 -11.3577     64.8884    105.9418   1.1129352231e+02   4.6726523760e+01    0.5475649    0.3980416 -10.25  0.002838359    2.397    0.583
        43  -8.2932    127.7774     94.9725   9.2076038056e+01   3.8401219542e+01    0.1973012    0.1179431 -44.71 0.0006451742    1.633    0.388
        44  -8.7594     94.3687    204.7496   1.1809063348e+02   2.2696428205e+01    0.2158615    0.1692392   4.74  0.001334809    2.516    0.602
        45  -9.9546    103.9095    199.2107   1.1577521806e+02   2.2246198295e+01    0.2888802    0.1858855  22.08  0.001534412    2.738    0.635
        46 -10.7031    169.6235     69.2933   7.5151195216e+01   3.3550251719e+01     0.630334    0.4000933 -81.11   0.00123678    2.760    0.638
        47 -11.5233    172.8039     46.5903   6.7312791017e+01   3.6294025146e+01    0.5838043    0.4632346  32.25  0.001743232    1.364    0.267
        48  -9.2979     78.6139    231.9913   1.2311023228e+02   2.0472629183e+01    0.2027413    0.1186107  47.90 0.0006648313    1.341    0.254
