#   1 NUMBER                 Running object number                                     
#   2 MAG_AUTO               Kron-like elliptical aperture magnitude                    [mag]
#   3 X_IMAGE                Object position along x                                    [pixel]
#   4 Y_IMAGE                Object position along y                                    [pixel]
#   5 X_WORLD                Barycenter position along world x axis                     [deg]
#   6 Y_WORLD                Barycenter position along world y axis                     [deg]
#   7 A_WORLD                Profile RMS along major axis (world units)                 [deg]
#   8 B_WORLD                Profile RMS along minor axis (world units)                 [deg]
#   9 THETA_WORLD            Position angle (CCW/world-x)                               [deg]
#  10 FWHM_WORLD             FWHM assuming a gaussian core                              [deg]
#  11 ELONGATION             A_IMAGE/B_IMAGE                                           
#  12 ELLIPTICITY            1 - B_IMAGE/A_IMAGE                                       
         1 -11.7306     13.5141     40.2001   1.1595397302e+02   6.8059195700e+01     0.548467    0.2505805 -54.72  0.001861725    1.767    0.434
         2 -12.1291     18.3073     24.3390   1.0867518518e+02   7.1426454079e+01    0.5937248    0.2517745 -67.72  0.002316088    2.267    0.559
         3 -11.8102      1.9300     25.2439   1.1934911308e+02   7.2114160529e+01    0.4509178    0.1502425 -75.14  0.001938184    2.586    0.613
         4 -11.4611      6.8071     17.7905   1.1412023386e+02   7.3615715160e+01    0.4085286    0.3367094 -72.37  0.001545294    1.167    0.143
         5 -10.7366    102.0717     20.2986   6.7366458411e+01   5.7936957589e+01    0.6205812    0.2736732 -21.10  0.001880819    2.754    0.637
         6 -11.2997    182.2227     18.9218   5.1365441775e+01   3.6564886299e+01    0.3358929     0.248416 -17.54 0.0007070889    1.404    0.288
         7 -10.9757    199.5559     17.0906   4.8817357347e+01   3.2167817477e+01     0.403174    0.2672856   2.19  0.001878298    1.849    0.459
         8 -10.6122     24.6859     16.8511   1.0154841706e+02   7.2524463191e+01    0.2747272    0.2085181 -65.15  0.001653894    1.374    0.272
         9 -11.8577     79.3746     15.2280   7.2299109206e+01   6.3955078363e+01    0.5470541     0.415784  72.44  0.002114501    1.704    0.413
        10 -10.7578    114.3518     15.1318   6.1668098111e+01   5.5507478583e+01    0.6709961    0.2212615  54.84  0.002281076    2.673    0.626
        11 -12.4086    174.8408     11.7273   4.9840631635e+01   3.9322846935e+01    0.4530781    0.3377181  63.29  0.001553073    1.312    0.238
        12 -11.3650    147.9103     13.1227   5.4133200890e+01   4.6630743854e+01    0.3597333    0.2155811  53.62  0.001574007    1.596    0.373
        13 -10.3999     39.7131      9.9457   8.8323548326e+01   7.2095405773e+01    0.2114421     0.185825  34.10 0.0001682801    1.298    0.230
        14 -11.2002     39.7048      4.8497   8.5185215507e+01   7.2999594609e+01    0.7730754    0.5374409  81.99  0.003190594    4.081    0.755
        15 -10.5573     46.4180      9.0194   8.3861019462e+01   7.1241937642e+01    0.3562987    0.2103221 -15.06  0.001610726    2.309    0.567
        16 -10.8623     51.2392      7.2766   8.0166848266e+01   7.0727658775e+01    0.8671871    0.2471782 -35.56   0.00296799    3.459    0.711
        17 -12.4330    209.5247      5.9207   4.4540551755e+01   3.0701215535e+01    0.7403475    0.3389537 -36.83 0.0006538557    1.912    0.477
        18 -10.7536    217.9533     12.0297   4.5614402212e+01   2.8020013651e+01    0.2085631    0.1996152 -47.38 0.0007492822    1.058    0.055
        19  -9.6368     97.8429     12.1775   6.4609527702e+01   6.0074494616e+01    0.1985128    0.1608169  22.91 0.0003434506    1.266    0.210
        20 -10.3510     67.4133     11.9490   7.5271755939e+01   6.6959456967e+01    0.2413846    0.1779462  19.53  0.001254887    1.480    0.324
        21 -10.6594     21.0023     11.6768   1.0162857270e+02   7.3958350084e+01    0.3085264     0.169649  44.29   0.00143376    2.450    0.592
        22 -10.5423     13.1392     10.9422   1.0700452970e+02   7.4751066097e+01    0.2295275    0.1552006 -34.90 0.0005132987    1.348    0.258
        23  -9.5847      9.1739     11.1726   1.1006928755e+02   7.4958183649e+01    0.1709848    0.1360079  58.15 0.0009060213    1.633    0.388
        24 -11.5713    194.5001      8.5024   4.6653711435e+01   3.4345124040e+01    0.3200308     0.252079 -87.69  0.001020276    1.275    0.216
        25 -10.2731    146.5200      8.9797   5.2719079474e+01   4.7449604731e+01    0.2157237    0.1202486  18.09 0.0005313203    2.492    0.599
        26 -11.0585     75.7221      8.8572   7.0141039989e+01   6.5669065597e+01     0.423533    0.2315668  56.77 0.0005019479    1.969    0.492
        27 -10.5917    159.7399      7.1633   5.0119173026e+01   4.3945938111e+01    0.3723321    0.2308501 -56.56 0.0009021802    1.758    0.431
        28 -12.5679    161.3406      3.3786   4.8512588882e+01   4.3854225767e+01     0.934546     0.359799  72.55    0.0033704    2.500    0.600
        29  -9.8615    128.1947      8.3913   5.5639827494e+01   5.2572012842e+01    0.2116558    0.1418466  82.29 0.0003406256    1.648    0.393
        30 -10.7391    108.2726      7.5683   5.9542114463e+01   5.7982092627e+01    0.3159782    0.2026376  69.75 0.0008970101    1.641    0.391
        31 -10.0181    111.8481      5.1277   5.7518530111e+01   5.7308825114e+01    0.2096482    0.1616258  28.99 0.0004170366    1.332    0.249
        32 -10.5637     25.0243      6.8985   9.6233834090e+01   7.4523810433e+01    0.2476355    0.1807514 -54.59  0.001027624    1.367    0.269
        33  -9.6364     87.6536      6.9606   6.4937789330e+01   6.3194262833e+01    0.2009698    0.1754219 -12.32 0.0005903507    1.124    0.110
        34  -9.6767     19.8298      6.7049   9.9930130942e+01   7.5087386416e+01    0.2042045    0.1246283 -55.16 0.0006851662    1.490    0.329
        35  -9.7252     61.9438      6.5151   7.4456070193e+01   6.8862416078e+01    0.1995769    0.1325925  47.45 0.0006373063    1.566    0.361
        36 -10.5518     14.2510      4.9926   1.0332022473e+02   7.5920400110e+01    0.1731165    0.1294805 -47.38 0.0002158756    1.108    0.097
        37 -10.3163    199.5565      1.4869   4.4025084233e+01   3.3662142954e+01    0.2895354    0.1332347  75.27  0.001205692    2.153    0.535
        38 -10.6077    185.1362      3.5538   4.5971211243e+01   3.7302768730e+01     0.348258    0.1909281  10.97  0.001381953    2.592    0.614
        39 -11.3350    180.5921      2.0808   4.5929155296e+01   3.8664626782e+01     0.426721     0.226235  72.90  0.001527898    1.819    0.450
        40 -10.3873    133.5113      3.2029   5.2434679143e+01   5.1625306075e+01    0.3945613   0.09026619 -30.44  0.001188823    3.615    0.723
        41 -10.1057    249.0007      2.9646   4.1065527564e+01   2.1649348002e+01     0.196892    0.1622703 -44.16 0.0003334073    1.028    0.028
        42 -10.2956    217.9375      2.3662   4.2876102419e+01   2.8922556829e+01     0.257608    0.1948089 -18.47 0.0008582352    1.335    0.251
        43 -10.0012     48.8585      2.8760   7.8601900405e+01   7.1835290950e+01    0.2676635    0.1490559  20.80  0.001169715    2.508    0.601
        44 -10.8934    144.8547      1.7845   5.0086043554e+01   4.8600364369e+01    0.4769548    0.2024978  85.30  0.001082609    3.003    0.667
        45  -9.7815    123.4013      2.1782   5.3765030008e+01   5.4498863406e+01    0.2115307    0.1282448 -34.68 0.0009406453    1.685    0.406
        46  -9.9446    115.6660      2.0356   5.5210495192e+01   5.6603531326e+01    0.1977699    0.1836375   1.65 0.0003479487    1.099    0.090
        47 -10.4337     90.6099      1.4936   6.1017924080e+01   6.3111133343e+01    0.2570692    0.1648775  67.77 0.0007988482    1.685    0.406
        48 -10.4663     73.6811      1.8779   6.6769301439e+01   6.7026421995e+01    0.2507733    0.2040665  55.95 0.0008358184    1.304    0.233
        49 -11.3843    194.1797      3.6335   4.5152912700e+01   3.4881525431e+01    0.4307803     0.222912  57.71 0.0007530972    1.929    0.482
        50  -8.9226    173.9515    228.0000   1.0092340357e+02   7.9103113137e+00     0.187512   0.04758472  38.86 0.0007972954    2.907    0.656
        51  -9.4579    216.2300    250.6859   9.6756007090e+01   1.2433286750e-02    0.1390266   0.06307834  30.87  0.000290384    1.540    0.350
        52 -11.8845    186.9041    249.9352   1.0132211352e+02   3.8340100820e+00     0.205593    0.1521353  13.16  0.001672219    1.287    0.223
        53 -10.3193    187.4845    245.5085   1.0072056358e+02   4.1913915686e+00     0.217264    0.1089531  40.39  0.001417848    1.552    0.356
        54 -11.0589    127.5096    248.6503   1.1122496811e+02   1.1807417594e+01    0.2351278     0.165488  64.73 0.0009507032    1.726    0.421
        55 -11.2293    115.3838    249.3856   1.1339590901e+02   1.3281187119e+01    0.2054196    0.1470451  34.98 0.0008139297    1.171    0.146
        56 -13.0433     12.5209    233.3037   1.3064806312e+02   2.7078999466e+01     1.789539    0.5279078  31.22  0.009831319    2.918    0.657
        57 -13.0158      3.7718    235.7541   1.3219388172e+02   2.7468386406e+01    0.8973805    0.2648589  74.63  0.005122578    3.046    0.672
        58 -12.6484     18.2939    247.1119   1.3000993625e+02   2.4476287032e+01    0.8609009    0.1412068  46.15  0.004755966    2.564    0.610
        59 -12.6222     22.5980    240.8265   1.2911662237e+02   2.5003355943e+01    0.8351099    0.2807959 -80.92  0.005075917    3.239    0.691
        60 -11.8973     10.0686    248.7769   1.3140001322e+02   2.4979376157e+01    0.3728404    0.1872305  58.08   0.00296066    1.327    0.247
        61 -12.5027      3.2075    246.7396   1.3247835736e+02   2.5874341228e+01    0.2651266    0.1574991  53.99 0.0004455772    1.054    0.051
        62 -11.6323     28.1763    245.6471   1.2831404281e+02   2.3754720036e+01    0.2950071    0.2303692 -74.13  0.001122232    1.749    0.428
        63 -12.0227     34.2686    248.1063   1.2736563148e+02   2.2798470455e+01    0.3946609    0.1126432  41.45 0.0003210444    2.049    0.512
        64 -13.0201     35.7096    243.6591   1.2696399019e+02   2.3303241382e+01    0.3780662    0.2353978  46.42 0.0003547451    1.124    0.111
        65 -10.6205     93.1567    226.8995   1.1561243663e+02   1.9223298441e+01    0.2536591    0.1336214  65.06  0.001489908    2.221    0.550
        66 -10.4363    233.2402    224.9463   9.0733235384e+01   7.2980674530e-02    0.1823309    0.1206826  51.17  0.001164424    2.560    0.609
        67  -8.9578    227.6676    225.7090   9.1706946866e+01   7.3557697856e-01    0.1108268    0.0606107  16.73 0.0003711809    1.630    0.387
        68 -10.1490    164.1685    224.4463   1.0221825103e+02   9.7253267134e+00    0.1765871    0.1494633 -86.93 0.0008839714    1.931    0.482
        69 -10.1576     99.0894    223.3280   1.1419419338e+02   1.8983337091e+01    0.1935113    0.1523592 -73.79 0.0008780847    1.608    0.378
        70 -10.8695     95.9170    219.2143   1.1444991120e+02   2.0024859332e+01    0.2032018    0.1561967 -89.44 0.0007985687    1.550    0.355
        71 -10.2791     79.4623    224.3159   1.1800563877e+02   2.1341498639e+01    0.2486618    0.1459474  63.36  0.001517658    1.626    0.385
        72 -10.7257      6.0000    220.9597   1.3151176364e+02   2.9612184312e+01    0.3206024    0.1765311  52.77  0.002449599    1.207    0.171
        73 -10.2723     37.5201    224.0012   1.2586830466e+02   2.6147138872e+01    0.2560497   0.09574446  42.18 0.0009256555    1.787    0.441
        74  -9.7178     87.4471    231.3228   1.1701793011e+02   1.9292820186e+01    0.1885002   0.08398677  49.63 0.0005301569    1.726    0.421
        75  -9.1964    112.6497    223.7380   1.1165692788e+02   1.7103793905e+01    0.1057813   0.07562573  21.33 0.0004024573    1.611    0.379
        76 -10.0925    121.2520    222.0323   1.0986393517e+02   1.6162095725e+01    0.1471207    0.1172682  45.65 0.0003201792    1.090    0.082
        77  -9.5882     64.5709    222.5046   1.2071293470e+02   2.3415894306e+01    0.1464691   0.08696064  76.78 0.0002370974    1.771    0.435
        78  -9.1714     62.6964    219.7363   1.2089811294e+02   2.4077471963e+01    0.1514716   0.09028284  55.67 0.0003196661    1.301    0.231
        79  -9.5812     55.0756    221.7587   1.2247058720e+02   2.4622463303e+01    0.1870081    0.1755221  21.52  0.001576409    1.530    0.346
        80  -9.9070    249.9633    220.7596   8.7597498528e+01  -1.7128968819e+00    0.1603342   0.09936867  15.60  0.000544475    1.189    0.159
        81 -10.3131    228.9067    220.2822   9.0741187172e+01   1.0677524725e+00    0.1524702    0.1221855  13.38 0.0002432296    1.228    0.186
        82  -9.3067     21.3560    221.2415   1.2873942288e+02   2.8185399918e+01     0.110294   0.09011815 -84.09 0.0002891351    1.501    0.334
        83 -10.1219     20.0466    217.8846   1.2887239767e+02   2.8859826788e+01    0.1699494    0.1084774  63.96 0.0004481289    1.174    0.148
        84 -10.5135     28.1023    219.9713   1.2745159599e+02   2.7746296109e+01     0.223367    0.1832925 -88.67  0.001899323    1.432    0.302
        85  -9.8864     24.5434    218.5394   1.2806058989e+02   2.8326437635e+01    0.1666128    0.1377494  37.59 0.0007431683    1.413    0.292
        86 -10.0795     47.4593    218.1412   1.2372374334e+02   2.6051256197e+01    0.2267875    0.1639546  21.34  0.001014519    1.805    0.446
        87 -11.6501     39.4358    218.2112   1.2525286748e+02   2.6892455265e+01    0.3268079     0.157097  32.59  0.001869243    1.878    0.468
        88 -10.8188    135.0048    217.5375   1.0678397742e+02   1.4842201396e+01    0.2818965    0.2122232 -71.18  0.001534749    1.896    0.473
        89 -10.4641     14.5306    219.1595   1.2992486534e+02   2.9155770458e+01    0.1611598    0.1017836  44.45 -3.936518e-05    1.234    0.189
        90 -10.1626    173.9305    216.7199   9.9498618848e+01   9.2391188209e+00    0.2696661    0.1443164  48.90  0.001534074    1.964    0.491
        91  -9.9755    117.2113    216.4367   1.1007122556e+02   1.7538919504e+01    0.1644368    0.1506364  72.81 0.0002579192    1.291    0.225
        92 -10.2160    101.2022    217.2134   1.1324887403e+02   1.9626986867e+01    0.1606542    0.1300116  36.11  0.001184659    1.201    0.167
        93 -10.5266     72.8607    216.4028   1.1870891914e+02   2.3403553355e+01    0.2085045    0.1690454   6.10 0.0003012973    1.878    0.468
        94 -10.9325     74.2965    211.8073   1.1809046509e+02   2.3977737477e+01    0.2547679    0.1849235  82.94  0.001159126    1.459    0.314
        95 -10.1527    157.0170    215.2175   1.0238568231e+02   1.1928793437e+01    0.1688618    0.1451209  31.95 0.0002811243    1.146    0.128
        96 -11.0198     85.2367    213.8444   1.1608483449e+02   2.2262395661e+01    0.3179369    0.2407944 -46.94  0.002022985    1.891    0.471
        97 -11.7066     25.2847    208.7076   1.2755850954e+02   2.9913324418e+01     0.438963    0.2448756  44.88  0.003082176    1.324    0.245
        98 -10.6434     28.7680    214.0092   1.2709754815e+02   2.8672174748e+01    0.2875279    0.1415892  66.44  0.001890829    1.680    0.405
        99 -11.8086     31.7738    211.9106   1.2643664482e+02   2.8729370110e+01    0.3698786    0.2159452  70.57  0.002620321    1.450    0.310
       100 -10.7524    111.8045    213.9131   1.1086732554e+02   1.8674922273e+01    0.1981162    0.1923326  63.87 0.0004149516    1.292    0.226
       101  -9.7479     58.8429    214.3961   1.2131196986e+02   2.5397007476e+01    0.2158757    0.1011108  81.42 0.0008293088    2.627    0.619
       102  -9.5054     13.6748    212.1966   1.2988565528e+02   3.0394259753e+01    0.1922672    0.1377793  65.61   0.00129792    1.107    0.097
       103 -10.5655     11.1750    215.3624   1.3043753930e+02   3.0084356466e+01    0.2132442   0.09475152  41.86 0.0006793558    1.591    0.371
       104 -11.6105      8.7071    211.2481   1.3078882948e+02   3.0991960164e+01    0.3397615    0.1743614 -69.33  0.001620505    2.329    0.571
       105  -9.7244      1.2556    213.0589   1.3220593691e+02   3.1316448571e+01    0.2370459   0.06842969 -82.32  0.001276146    3.362    0.703
       106 -12.1620    128.9593    207.9426   1.0686234625e+02   1.7106892355e+01    0.4173269    0.2762274  11.38   0.00237446    2.224    0.550
       107 -10.3695    121.4744    214.0024   1.0899321602e+02   1.7294708141e+01    0.2360331    0.1384206  38.77 0.0006567285    1.305    0.234
       108  -9.9886    117.9784    212.2441   1.0948867687e+02   1.8055692025e+01    0.1806372    0.1373788  42.78 0.0005060718    1.004    0.004
       109  -9.3557    164.4136    213.2162   1.0076784188e+02   1.1086333205e+01    0.1232572    0.1130326 -75.10 0.0002784673    1.597    0.374
       110 -10.7161     39.1790    211.2273   1.2497273161e+02   2.8089417621e+01    0.1989777    0.1863472  89.72 0.0007966507    1.442    0.306
       111 -10.0114    214.5731    210.2150   9.1575989401e+01   4.0377719123e+00    0.1410106   0.09267131  -6.71  0.000457915    1.586    0.369
       112 -10.1599    144.5611    208.8248   1.0393941456e+02   1.4654280520e+01    0.2218534    0.1166968 -62.97  0.001131115    3.281    0.695
       113  -9.9806     80.5821    209.7865   1.1668002124e+02   2.3520547297e+01    0.1397203   0.09488057  78.63  0.000805331    1.589    0.371
       114 -11.3073     96.6596    201.2287   1.1264644843e+02   2.2805194127e+01    0.3188601    0.2833361 -65.99  0.001563123    1.407    0.289
       115 -10.2623     96.7511    209.0059   1.1337258992e+02   2.1517860107e+01    0.1930678    0.1533052  35.53 0.0004111269    1.219    0.179
       116 -10.8091     99.6293    205.5366   1.1246220517e+02   2.1685096351e+01     0.209079    0.1519857  50.24 0.0004494715    1.098    0.090
       117 -11.7230     19.4109    200.6213   1.2840578084e+02   3.1881385121e+01    0.2183546    0.1912613 -78.42  0.001349142    1.482    0.325
       118 -10.6916     17.7552    207.9804   1.2898222991e+02   3.0745123903e+01    0.1993793    0.1141958  55.79 0.0004552312    1.229    0.186
       119 -10.2009     14.0664    205.6144   1.2961580698e+02   3.1488170326e+01    0.2192806    0.1858097 -33.11  0.001461016    2.001    0.500
       120  -9.4149    237.3335    208.3281   8.7644468367e+01   1.0428650533e+00    0.1168929   0.06403419  13.81 0.0007051792    1.719    0.418
       121  -9.5266     89.7116    208.4779   1.1473742697e+02   2.2547643453e+01    0.1498175   0.09435711  31.32 0.0009268737    1.529    0.346
       122 -11.6500     67.2478    207.3521   1.1917305784e+02   2.5587359806e+01    0.2363152    0.1487108  44.44 0.0002135554    1.214    0.176
       123  -9.4639    190.3222    207.2734   9.5284287037e+01   7.9246784057e+00     0.116933   0.07272372  18.17 0.0002355208    1.574    0.365
       124 -10.0300    152.7510    206.4876   1.0207780911e+02   1.3740631325e+01    0.2218303    0.1399549 -28.01  0.001244361    2.212    0.548
       125  -9.5509    246.6218    216.2041   8.7420712813e+01  -8.9896078221e-01    0.1339629   0.08036842  -5.62  0.000342114    1.555    0.357
       126 -11.4421     36.7054    205.4913   1.2518101873e+02   2.9334368710e+01    0.3373768    0.1169267  36.67   0.00183018    2.168    0.539
       127 -10.2911      4.5762    205.3116   1.3142098170e+02   3.2360312442e+01    0.1825364     0.143919  61.58 0.0005877902    1.173    0.148
       128 -10.4887      1.3072    204.6851   1.3202589006e+02   3.2738599161e+01    0.1713842   0.08399789  88.00 0.0005048704    1.851    0.460
       129  -9.8655    209.2432    205.4716   9.1755132734e+01   5.3134520354e+00    0.1422908   0.09078287  40.13 0.0002775128    1.446    0.309
       130  -9.9862     47.5319    204.9837   1.2299071448e+02   2.8271519633e+01    0.2610627   0.07071693  46.96  0.001261262    2.477    0.596
       131 -10.5195    195.8122    204.0802   9.3852994089e+01   7.4710778243e+00    0.1637718    0.1323668  31.54 0.0003014226    1.185    0.156
       132  -9.8532    133.1919    203.8148   1.0554111882e+02   1.7092261607e+01    0.1817533    0.1312028  49.09 0.0006593487    1.228    0.186
       133 -10.7150    121.2556    200.8913   1.0758230961e+02   1.9326882967e+01    0.3336338    0.2528584  88.25  0.002174262    1.735    0.424
       134 -11.0037     52.2808    202.6618   1.2189065648e+02   2.8149595740e+01    0.2775797    0.1618335  29.99  0.001233307    1.749    0.428
       135 -11.1692     55.5784    198.9648   1.2097406230e+02   2.8427662537e+01     0.215725    0.1291514  44.41 0.0004480441    1.292    0.226
       136 -10.6882    240.0296    201.6728   8.6187170250e+01   1.3020390406e+00    0.1586925    0.1083855  21.86 0.0004858992    1.101    0.092
       137  -9.4507    165.7594    202.0339   9.9015070467e+01   1.2343871832e+01    0.1689435    0.1079456  49.38 0.0008134379    1.584    0.369
       138 -10.7636    186.0072    201.0534   9.5144606517e+01   9.3303084466e+00    0.1832882    0.1392212  28.54 0.0003861951    1.022    0.021
       139 -10.3850    108.6727    194.0000   1.0938456106e+02   2.2305994590e+01    0.1738281    0.1517583 -56.39 0.0004027497    1.427    0.299
       140 -11.3411    105.3606    200.2100   1.1075120287e+02   2.1752157150e+01    0.2139551    0.1767742  39.83 0.0003742372    1.126    0.112
       141 -10.1275    109.5563    197.7816   1.0962337021e+02   2.1547903030e+01    0.2191236    0.1506395  53.06 0.0005179726    1.273    0.214
       142 -10.3250     70.1390    201.2182   1.1812407376e+02   2.6288429331e+01    0.2077578    0.1242265  48.47 0.0008885756    1.277    0.217
       143 -10.3127     71.4754    197.1168   1.1751926157e+02   2.6842028875e+01    0.2444129    0.1099376 -70.89 0.0009201159    2.548    0.608
       144 -10.6020     89.9512    199.1199   1.1383135016e+02   2.4079582942e+01    0.2746739    0.1645176  59.72 0.0009109695    1.587    0.370
       145  -9.3608     86.5525    198.5597   1.1448712106e+02   2.4633419794e+01    0.1863044     0.143774  46.89 0.0004662344    1.055    0.052
       146 -11.2012      5.2268    200.0566   1.3116937626e+02   3.3225355181e+01    0.1729578    0.1070074  46.90 0.0004170304    1.236    0.191
       147 -10.3110    223.8177    198.7115   8.8290783897e+01   3.8985337655e+00    0.1998687    0.1086716  32.74 0.0004613751    1.466    0.318
       148 -10.5404    209.2362    198.8810   9.0745024038e+01   6.0401833881e+00    0.2387429    0.1207871  21.11  0.001253528    2.102    0.524
       149  -9.3721    149.8187    199.3911   1.0170838990e+02   1.5193832696e+01    0.1648083   0.09403662  31.96 0.0002538459    1.523    0.343
       150 -11.1317     35.7185    198.1494   1.2501595281e+02   3.0737390775e+01    0.2760986    0.2117841 -22.90   0.00185896    2.387    0.581
       151 -10.1240     14.2219    198.0838   1.2934747790e+02   3.2803335444e+01    0.2283306    0.1085556  75.94  0.001443944    1.809    0.447
       152  -9.5879    169.4514    198.0937   9.7761525107e+01   1.2294618903e+01    0.1516625    0.1192105 -35.96 0.0007716646    1.564    0.361
       153 -10.3197    137.4320    197.4321   1.0389978918e+02   1.7408421743e+01    0.2608805    0.1603494  65.37 0.0008294666    2.388    0.581
       154 -10.5728    227.8645    195.3853   8.7100963568e+01   3.6542757481e+00    0.2800241    0.1811069 -13.24  0.001853107    1.537    0.349
       155  -9.6689    130.9293    197.4335   1.0520840650e+02   1.8408947697e+01    0.1734248   0.08084224  53.42 0.0008049873    2.399    0.583
       156  -9.6447     62.9852    196.4476   1.1925036847e+02   2.8004965907e+01    0.1621473    0.1275592  72.97  0.000301065    1.182    0.154
       157  -9.5877    140.4626    195.9452   1.0309906612e+02   1.7163172702e+01    0.1513411    0.1044736  87.93 0.0008091022    2.557    0.609
       158 -10.2982     82.8371    195.4468   1.1498012006e+02   2.5670051300e+01    0.1878533    0.1605406 -66.12 0.0006156977    1.439    0.305
       159  -9.9540     25.4952    194.2433   1.2692615977e+02   3.2459701932e+01     0.251305    0.1107285 -67.85  0.001462195    2.507    0.601
       160 -10.7605    217.5951    194.5580   8.8651808623e+01   5.2621596858e+00     0.202201    0.1522018  21.77 0.0002318413    1.035    0.033
       161  -9.9866    198.4444    194.9040   9.1990542336e+01   8.1501159555e+00    0.1692342    0.1298741  24.65 0.0005772024    1.013    0.013
       162 -12.5079    123.1977    193.2818   1.0627301738e+02   2.0250109773e+01    0.3034226    0.2210053  58.25 0.0003992052    1.377    0.274
       163 -10.0758    127.0739    189.3125   1.0496474355e+02   2.0297503912e+01    0.1800544    0.1472794  31.43 0.0004776032    1.159    0.137
       164 -10.0875     95.6860    194.9975   1.1222326027e+02   2.3996830253e+01    0.1992394      0.13812  41.98 0.0004359318    1.170    0.145
       165  -9.9987     44.5534    194.7088   1.2299937905e+02   3.0429270540e+01    0.1813816    0.1224607  43.10 0.0004300606    1.240    0.193
       166 -11.9500     52.8629    192.3619   1.2109707625e+02   2.9933879867e+01    0.2631221     0.181869 -72.10 0.0005966214    1.620    0.383
       167  -9.4125     20.5767    194.4392   1.2793944055e+02   3.2886658436e+01    0.1064724   0.07892921  60.70  7.21116e-05    1.035    0.034
       168  -9.5838     16.4956    192.0564   1.2868220455e+02   3.3694063957e+01    0.1533839   0.08926948 -87.09  0.001041118    1.634    0.388
       169 -10.7150    249.8986    190.6745   8.2889404372e+01   9.8220931843e-01    0.1944655    0.1473309   2.13 0.0005413702    1.130    0.115
       170 -11.2608    245.6385    190.9682   8.3583686779e+01   1.5491275561e+00    0.2382408    0.1257336  27.54 0.0004829877    1.562    0.360
       171 -10.1784    188.7496    190.6556   9.3058878907e+01   1.0202539571e+01    0.2572706    0.1645169   0.69  0.001446846    1.965    0.491
       172 -12.1646     91.7782    189.0886   1.1244674349e+02   2.5577617999e+01    0.2313946    0.2033788  88.22 0.0003428681    1.251    0.201
       173  -9.9568    166.2122    189.4342   9.7102125245e+01   1.4005545627e+01    0.1822053    0.1610887 -82.32 0.0006289539    1.647    0.393
       174  -9.4304     30.3820    190.2647   1.2572800535e+02   3.2717781400e+01   0.09214642   0.08434307 -10.72 0.0006984211    1.686    0.407
       175 -10.1507    226.9802    189.1906   8.6226594811e+01   4.4367995342e+00    0.1597472    0.1324057  23.07 0.0003933353    1.235    0.190
       176  -9.8250      4.5497    187.2448   1.3097174764e+02   3.5601194160e+01    0.2168702    0.1513883 -45.74  0.001510212    2.307    0.567
       177 -11.2003    131.6523    186.5480   1.0364316140e+02   2.0027464791e+01     0.241692     0.197102  55.66 0.0001480628    1.212    0.175
       178 -10.7942    104.9794    184.9941   1.0913191171e+02   2.4401429268e+01    0.3418694    0.2697588 -39.19  0.002183994    1.689    0.408
       179  -9.6113    221.1536    186.1668   8.6677369004e+01   5.6480177051e+00    0.1461229     0.124081  29.50 0.0004485764    1.310    0.236
       180  -9.5929     74.5774    185.2740   1.1582465373e+02   2.8594661902e+01    0.2021844    0.1120568 -79.01 0.0008287797    2.078    0.519
       181 -10.8551     60.0616    179.9091   1.1858547177e+02   3.1431799538e+01    0.3121782    0.2204484 -62.04 0.0007854757    1.668    0.401
       182  -9.7324     57.2728    184.3670   1.1956226122e+02   3.0913142379e+01    0.1815014    0.1311541 -81.50  0.000514722    1.444    0.308
       183 -10.9459     55.1835    181.0332   1.1976834027e+02   3.1795014356e+01    0.2180482    0.1588651  57.05 0.0003247763    1.085    0.078
       184 -10.5969     32.8086    184.9913   1.2494094352e+02   3.3467036948e+01    0.3289143    0.1341472  33.39 0.0009621258    2.142    0.533
       185 -12.5973     31.7576    176.8242   1.2472174068e+02   3.5147958702e+01    0.3887344    0.2439964 -62.85 0.0007463823    1.873    0.466
       186 -10.3855    177.7151    184.2173   9.4086659943e+01   1.2847955126e+01    0.2053531    0.1478545  32.35 0.0003857611    1.134    0.118
       187 -10.6132     15.6552    183.4523   1.2853725582e+02   3.5374852884e+01    0.2016084    0.1668356  64.17 0.0007163751    1.163    0.140
       188 -10.3735      3.0389    183.3867   1.3117920212e+02   3.6442242981e+01    0.1519421    0.1167277  77.09 0.0003892987    1.175    0.149
       189  -9.9715     88.2660    181.9879   1.1246670588e+02   2.7356596971e+01    0.1627637     0.140075  69.91 0.0003952155    1.131    0.116
       190  -8.8011    229.2852    180.2893   8.4337343469e+01   5.0504772482e+00    0.1189381   0.07359888  12.71 0.0001701575    1.533    0.348
       191 -10.7206    131.3200    179.3902   1.0271973855e+02   2.1264398825e+01    0.2197305    0.1842237  53.23 0.0002497586    1.145    0.126
       192 -10.4971     48.1875    181.7386   1.2137693930e+02   3.2459079681e+01    0.1924343    0.1719741  39.32 0.0004652275    1.317    0.241
       193  -9.6345    221.6667    178.3014   8.5242454763e+01   6.4555644710e+00    0.1028552   0.09470314  54.38 0.0004442706    1.655    0.396
       194 -10.6321     91.9745    177.4146   1.1112979840e+02   2.7681223449e+01     0.197558    0.1741098 -85.71 0.0001476298    1.242    0.195
       195 -10.4047     74.0989    177.2205   1.1516480936e+02   3.0179686341e+01    0.1821114    0.1543984  71.36 0.0004279472    1.111    0.100
       196 -10.6698     20.2613    169.9988   1.2695211417e+02   3.7586261069e+01    0.1976674    0.1788329  50.12   0.00154234    1.300    0.231
       197 -12.7833     22.4304    175.7409   1.2673968888e+02   3.6252422207e+01    0.2738839    0.1693349  58.96 0.0005134279    1.244    0.196
       198 -10.8123     15.7152    175.7706   1.2822120869e+02   3.6847753239e+01    0.2556504    0.1857816   5.62  0.001104348    2.127    0.530
       199 -11.3404    108.9569    176.6531   1.0722650865e+02   2.5290813209e+01    0.2103428     0.185422  58.29 0.0003357454    1.086    0.079
       200  -9.8564     46.9556    177.4309   1.2134765519e+02   3.3431744487e+01    0.1754017   0.09526177  38.04  0.001020256    1.587    0.370
       201  -9.4197    200.5837    175.5310   8.8404138274e+01   1.0205614426e+01    0.1242221    0.1008775  19.63 8.372813e-05    1.012    0.012
       202 -11.1051     79.3950    174.3605   1.1366110870e+02   3.0022835818e+01    0.3009462    0.1868863  38.27 0.0005272814    1.421    0.296
       203  -9.9825    157.6483    173.6279   9.6328451709e+01   1.7787594224e+01    0.3717265    0.1056119  41.61  0.001373224    2.969    0.663
       204  -9.9175    168.0901    174.1955   9.4317988847e+01   1.5906361253e+01    0.1865901    0.1472995  23.46  0.000298045    1.155    0.134
       205  -9.1286     41.4022    171.4884   1.2219657927e+02   3.5212900135e+01    0.1164853   0.09218168  65.15 0.0001026554    1.024    0.023
       206  -8.8234    137.2981    170.3400   1.0008721635e+02   2.1805327563e+01    0.1267677   0.09773571   5.57 0.0007033956    1.663    0.399
       207  -9.5541    114.0445    168.4750   1.0497418986e+02   2.5986357093e+01    0.1954154    0.1108368  40.80 0.0003432673    1.502    0.334
       208 -10.3753     46.9368    166.8361   1.2055851944e+02   3.5549734945e+01    0.3436376     0.143324  53.79  0.001706796    2.079    0.519
       209  -9.5569      2.1676    168.6087   1.3095320792e+02   3.9357006607e+01    0.1201204   0.09796756  25.58 0.0002017237    1.529    0.346
       210  -9.2305    122.6751    166.6323   1.0275045940e+02   2.4914544026e+01    0.1293977    0.1004592  -0.02 6.073279e-05    1.803    0.445
       211 -10.1218     60.5252    166.1120   1.1726253707e+02   3.4106745366e+01    0.2500704    0.1390284  44.18 0.0007432387    1.502    0.334
       212 -12.6980     23.7095    163.6254   1.2583068036e+02   3.8563620971e+01    0.3356369    0.2127137  44.82 0.0005314905    1.344    0.256
       213  -9.0147    159.2447    164.3385   9.4437455946e+01   1.8980812611e+01    0.1256213   0.09605008   3.28 0.0002980029    1.558    0.358
       214 -10.2509    126.6689    161.8573   1.0110992333e+02   2.5112414597e+01    0.2306298    0.1658721  32.01  0.001281302    1.342    0.255
       215  -9.1408     75.6585    162.2964   1.1322331565e+02   3.2924761438e+01    0.1357566   0.07994831  60.98 0.0002684824    1.662    0.398
       216 -10.1797    140.9579    161.0861   9.7789863426e+01   2.2770444437e+01    0.2053816    0.1710798  42.20 0.0004717533    1.050    0.048
       217 -11.3786     35.4802    158.2265   1.2266968638e+02   3.8549821579e+01    0.8926803    0.1059367  44.91  0.003132023    4.268    0.766
       218  -9.4014     66.4687    158.5038   1.1505458102e+02   3.4924196247e+01    0.1290681    0.1028926  62.76 0.0001059801    1.065    0.061
       219 -11.0516     95.9249    154.8591   1.0732246469e+02   3.1489304594e+01    0.2954248    0.1570674 -62.38  0.001073146    2.073    0.518
       220  -9.7144    240.8419    155.8730   7.8022891277e+01   5.9469456565e+00    0.1480284    0.1343486   3.48 0.0003772648    1.301    0.231
       221  -9.4014    164.6173    155.7448   9.1778085231e+01   1.9394397690e+01    0.1671914    0.1285581 -53.40 0.0006378092    1.622    0.384
       222  -9.4727     50.6482    156.6995   1.1880217993e+02   3.7233163302e+01    0.1114083   0.09451207 -30.02 0.0003980496    1.696    0.410
       223  -9.3299      1.7253    156.6770   1.3068675268e+02   4.1791944002e+01     0.143951    0.1046376  12.10 0.0004724922    1.882    0.469
       224  -9.6112      4.4875    154.0403   1.2994436352e+02   4.2134096931e+01    0.1600647   0.09103371 -88.66 0.0005157667    1.513    0.339
       225  -9.7404    113.7847    154.1397   1.0288566358e+02   2.8749298702e+01     0.202786    0.1650569  65.92 0.0007377096    1.247    0.198
       226  -9.3222     71.4010    154.4797   1.1337481279e+02   3.5117105781e+01    0.1260266    0.1086953  65.87 0.0001325971    1.028    0.027
       227  -9.8894      9.3239    151.5416   1.2867993282e+02   4.2290954387e+01    0.3404488    0.1187773  68.51  0.001601437    2.609    0.617
       228  -9.3485    123.4638    150.4443   9.9975077466e+01   2.7802771965e+01    0.1366619     0.120418  48.37  7.93331e-05    1.015    0.014
       229 -10.5603     12.2773    156.2741   1.2817526200e+02   4.1067776786e+01    0.1982625    0.1646975 -77.74 0.0009823645    1.334    0.251
       230 -10.1459     85.8163    150.1237   1.0918097424e+02   3.3996948325e+01    0.1932817    0.1520847  63.84 0.0002796924    1.174    0.148
       231  -9.4999     15.5335    150.4774   1.2710454593e+02   4.2020555306e+01     0.115992   0.09073135  70.40 -3.210796e-05    1.015    0.015
       232  -9.6207    201.7720    143.6874   8.2145727940e+01   1.4286906918e+01    0.1930984     0.158723 -77.19  0.001052544    2.053    0.513
       233 -11.1170      4.9366    142.9901   1.2940667544e+02   4.4433421687e+01    0.2062248    0.1338508 -84.65 0.0003466988    1.358    0.264
       234 -10.7423     16.5815    143.0115   1.2643591975e+02   4.3539373744e+01     0.256829     0.171013   2.21  0.001051518    2.314    0.568
       235  -9.8109     35.5136    138.5891   1.2111628814e+02   4.2801502517e+01    0.2243248    0.1005653  87.08 0.0009249136    2.378    0.579
       236 -11.3111     23.6952    136.3196   1.2413035620e+02   4.4412758587e+01    0.4717737    0.1877685  81.49  0.002098625    2.665    0.625
       237 -12.1333     27.9799    131.9773   1.2262483181e+02   4.5006688750e+01    0.4181839    0.2471766  51.93  0.002418142    1.498    0.332
       238  -9.9508    236.0123    137.7515   7.5144561894e+01   8.8661791842e+00    0.1585029   0.09974116  41.42   0.00067953    1.568    0.362
       239 -10.0936     95.3439    136.9628   1.0472768106e+02   3.5311954639e+01    0.2468966    0.2255427 -14.19  0.001471558    1.377    0.274
       240 -10.3587     49.7683    135.6653   1.1693210968e+02   4.1930633458e+01    0.3085031    0.2332394 -32.92  0.001778075    1.886    0.470
       241 -11.3497     38.5062    131.3086   1.1961877153e+02   4.4141772878e+01    0.5045768    0.2075949  58.93  0.002103304    2.545    0.607
       242 -10.9119      9.5664    131.4487   1.2765185571e+02   4.6624143293e+01    0.2572166    0.1776481 -56.44 2.914279e-05    1.682    0.405
       243 -10.1402     44.0165    131.7336   1.1811076558e+02   4.3464222239e+01    0.2026109    0.1449567  66.74 0.0003903472    1.254    0.203
       244  -9.6490     47.7543    131.4331   1.1702425525e+02   4.3119568255e+01    0.2056677    0.1650644  12.13 0.0006780244    1.635    0.388
       245 -10.4020     61.9217    131.0128   1.1297248915e+02   4.1506199215e+01    0.1909525    0.1698938  74.89            0    1.032    0.031
       246 -10.1371    197.8554    137.3569   8.1541788829e+01   1.5935547046e+01    0.1978266    0.1766858 -22.58 0.0003403298    1.195    0.163
       247 -10.0992     91.9137    126.1812   1.0380017110e+02   3.8216200479e+01    0.2113769    0.1751986  69.52 0.0003814159    1.185    0.156
       248  -9.6955     30.0956    125.8756   1.2150209814e+02   4.6205449012e+01    0.1832716     0.137975  68.32 0.0003374539    1.147    0.128
       249  -9.7208      3.5089    124.9818   1.2898774509e+02   4.8481342336e+01    0.1711163   0.09497683 -86.02 0.0003867808    1.505    0.335
       250  -9.0219    134.7487    124.3050   9.2202232917e+01   3.0791272024e+01    0.1365587    0.1119766  85.67 0.0001912825    1.505    0.336
       251  -9.2369    120.4497    124.4631   9.5825484140e+01   3.3536512056e+01    0.1424183    0.1338727  49.51 0.0001295428    1.020    0.020
       252  -8.9158     98.3440    124.2609   1.0167334696e+02   3.7567114028e+01    0.1336814    0.1116358   1.19 0.0003177241    1.596    0.373
       253  -9.9882    237.5103    121.4897   7.1439012741e+01   1.0583984616e+01    0.1303192    0.1100414   0.22 0.0008105114    1.006    0.006
       254  -9.0417    123.3158    121.2566   9.4410748531e+01   3.3647982353e+01    0.1386854    0.1127436  10.90 0.0002269462    1.533    0.348
       255  -9.3351     39.2843    121.6386   1.1838642359e+02   4.6292632861e+01     0.137632   0.08084489  67.79 0.0007019611    1.681    0.405
       256 -11.2383     20.7566    119.5440   1.2368792296e+02   4.8476750203e+01    0.4582741    0.2107915  50.57  0.002342378    1.979    0.495
       257 -10.3937     92.6470    118.1756   1.0210413695e+02   3.9877832245e+01    0.4931953    0.2132229 -66.23  0.001804801    2.977    0.664
       258 -10.5705     10.0218    117.6531   1.2672054658e+02   4.9713443727e+01    0.2446063    0.1406742 -54.54  0.001385458    1.936    0.484
       259  -9.7473    100.8517    116.7972   9.9508262869e+01   3.8772668143e+01    0.2009166    0.1933488 -13.12 0.0005937936    1.196    0.164
       260  -9.6729     68.9794    118.0000   1.0899910452e+02   4.3555123943e+01    0.2148186    0.0746915  33.75 0.0003947552    2.884    0.653
       261 -10.6995      3.1735    107.7088   1.2818086918e+02   5.2442338233e+01    0.2302456    0.1725202 -83.45   0.00109072    1.144    0.126
       262 -11.5109      3.8973    112.4139   1.2822766201e+02   5.1312629092e+01      0.36918    0.2497524  71.71  0.001814359    1.231    0.187
       263  -9.8015     48.7397    115.9658   1.1483573761e+02   4.6601092470e+01    0.1879676    0.1500551 -85.58 0.0005048297    1.135    0.119
       264  -9.6502    138.9607    115.5502   8.9204874673e+01   3.1655767311e+01    0.2203796    0.1382819  45.95 0.0004631347    1.513    0.339
       265 -10.9263     60.2544    113.4905   1.1092602371e+02   4.5784807841e+01    0.3373659    0.2069316  81.06 0.0007543355    1.896    0.472
       266 -11.1570     19.9826    110.0103   1.2311636744e+02   5.0767932492e+01    0.3685527    0.2148118 -51.30  0.001616309    1.919    0.479
       267 -11.3961    149.8861    111.2196   8.5561632748e+01   3.0180834800e+01     0.238175    0.2304369   8.03 0.0002411342    1.046    0.044
       268 -10.9319     37.3725    109.1692   1.1751692270e+02   4.9431099111e+01    0.4077582    0.1840276 -69.48   0.00191407    1.965    0.491
       269  -9.6464     85.0539    109.2479   1.0256486024e+02   4.3158683217e+01    0.2401043    0.1443576  60.87  0.001061629    1.948    0.487
       270 -10.0951     65.9455    109.0381   1.0841340061e+02   4.6077654846e+01    0.2283081    0.1479587  69.67 0.0007503566    1.745    0.427
       271 -10.5994      1.6003    116.1082   1.2910113547e+02   5.0603879914e+01    0.2734865    0.1378713  66.64 0.0006132928    1.707    0.414
       272  -9.4649     63.1154    105.1839   1.0863229564e+02   4.7377987978e+01    0.1909999    0.1454511  67.83 0.0004102193    1.323    0.244
       273  -8.9185    123.6215    104.5500   9.0483323624e+01   3.7048388530e+01    0.1443829    0.1410947  77.09 6.754076e-05    1.028    0.028
       274 -11.2224     50.8340    102.0839   1.1211818967e+02   4.9673240454e+01    0.3179437    0.2222839  36.23  0.001212156    1.488    0.328
       275 -10.5291     43.0941    102.7626   1.1479191663e+02   5.0379700473e+01    0.1919734    0.1571957  71.49 0.0004814334    1.142    0.125
       276 -10.6095     38.3382    100.7833   1.1609884245e+02   5.1350723116e+01    0.2914787    0.1872346  11.03  0.001504695    2.122    0.529
       277  -9.0326     29.4136    103.4434   1.1941157728e+02   5.1550609947e+01     0.128402     0.105873  82.49 0.0001316678    1.051    0.049
       278  -9.8478     18.4787    102.9088   1.2294975845e+02   5.2566558450e+01    0.1737211    0.1576686  53.66 0.0007005131    1.200    0.167
       279  -9.6999      2.9607    102.5626   1.2794213184e+02   5.3652611398e+01     0.218525    0.1206348  70.36  0.001087999    1.595    0.373
       280 -10.1242     70.5410    101.5337   1.0555205061e+02   4.7203741283e+01    0.2090424    0.1879411  18.70 9.077064e-05    1.306    0.235
       281  -9.6891     72.9693     98.9930   1.0425013190e+02   4.7445763007e+01    0.2115927    0.1819776  81.70 0.0003563365    1.147    0.128
       282  -9.0034    134.7068    101.7242   8.6887083361e+01   3.5291901265e+01    0.1456539     0.117951   9.66 0.0002379701    1.524    0.344
       283 -10.2799     86.3214     97.9696   9.9750478136e+01   4.5551585757e+01       0.3758      0.14553 -43.66   0.00127511    3.203    0.688
       284 -10.2664     16.6865     98.2775   1.2310626340e+02   5.3803066296e+01    0.2297481    0.2026242 -15.43  0.000987664    1.467    0.318
       285  -9.5881      3.9456     98.7279   1.2737947685e+02   5.4497658533e+01    0.2073052   0.09700745  54.15  0.001076608    2.009    0.502
       286 -10.8929    106.3746     97.6266   9.3577505266e+01   4.1981587079e+01    0.2818927    0.2509281  85.05  0.001514319    1.182    0.154
       287 -10.1441     54.6493     97.1338   1.0999213407e+02   5.0406583289e+01    0.2154417    0.1557419  87.26 0.0007405629    1.420    0.296
       288  -9.9083     79.5321     96.2211   1.0152231046e+02   4.7078274165e+01    0.2011579    0.1273425 -46.94 0.0009380113    1.657    0.397
       289 -10.6959     62.9095     96.1138   1.0700132435e+02   4.9575814127e+01    0.2115632    0.1879115  59.39 0.0003289629    1.118    0.106
       290  -9.6887     37.3348     95.3733   1.1566836791e+02   5.2762610966e+01    0.2176473    0.1304496  17.82 0.0007161632    2.097    0.523
       291  -9.3462     23.3265     95.7075   1.2057257883e+02   5.3924692840e+01    0.1323403    0.0807184  63.40 0.0002520556    1.621    0.383
       292 -10.3109     48.2495     93.1618   1.1149704544e+02   5.2134939233e+01    0.2801573    0.2204936 -44.54  0.001229251    1.408    0.290
       293 -10.0414    105.4449     91.7420   9.2344478477e+01   4.3455841508e+01    0.3054056    0.2520174  65.38  0.001562599    1.287    0.223
       294 -10.6717      1.3827     92.8821   1.2784830589e+02   5.6011830351e+01    0.2087038    0.0949927 -87.39 0.0003326392    1.825    0.452
       295 -10.3273     53.9520     92.3670   1.0935522934e+02   5.1646769026e+01    0.2186812    0.1537434  57.66  0.001085562    1.479    0.324
       296 -11.5643      7.0986     90.5196   1.2570557099e+02   5.6269309101e+01    0.3013853    0.2171529  81.67  0.000649988    1.179    0.152
       297  -9.3674      2.6931     87.7171   1.2703497412e+02   5.7171648651e+01    0.1739269    0.1334305  84.16 0.0003507564    1.078    0.072
       298  -9.1907    114.2977     91.3091   8.9645832939e+01   4.1764354479e+01    0.1480909    0.1208894  -2.29 0.0007008158    1.595    0.373
       299 -10.4858     40.2460     90.4254   1.1387266705e+02   5.3674731866e+01    0.2714808    0.2111452   5.61 0.0009008464    1.668    0.400
       300 -10.2986     17.4375     91.2793   1.2214050668e+02   5.5434025277e+01    0.1953258    0.1632987  39.82 0.0005281111    1.315    0.240
       301  -9.9697    117.7754     90.4320   8.8422092820e+01   4.1225252613e+01    0.2126225    0.1425996  33.93 0.0009395918    1.642    0.391
       302 -10.7533     27.4613     88.2486   1.1817151273e+02   5.5400313904e+01    0.3226692    0.1902545 -71.84  0.001127791    1.461    0.316
       303 -11.7318     21.3014     88.1658   1.2040131768e+02   5.5908882770e+01    0.2792992    0.1842003  47.17  0.001613412    1.544    0.352
       304 -10.3249     87.8956     88.8734   9.7059916757e+01   4.7376994858e+01    0.2245812    0.2047357 -22.37 0.0006214735    1.258    0.205
       305 -10.3674     66.9794     88.7771   1.0406992871e+02   5.0761645980e+01    0.2577474    0.2339908  30.76 0.0003086112    1.218    0.179
       306  -9.8822     63.6573     86.7333   1.0478052038e+02   5.1725389468e+01    0.2077058    0.1933767 -49.83  0.000509751    1.138    0.121
       307  -9.3489    155.0022     85.0708   7.7451147635e+01   3.3864829387e+01    0.1826551    0.1710531 -29.19 0.0005312259    1.079    0.074
       308  -9.7025    129.0231     85.5516   8.3975026286e+01   3.9785477286e+01     0.242037    0.1482167  48.10   0.00103326    1.608    0.378
       309 -11.2264     14.4178     83.6452   1.2240692941e+02   5.7485151826e+01    0.2383454    0.1939004  63.55 0.0003941363    1.211    0.174
       310 -10.2515     98.8547     83.4836   9.2126180129e+01   4.6566400921e+01    0.2454347    0.2031848 -49.50 0.0003497964    1.201    0.167
       311 -10.9633     50.0340     83.4770   1.0902832503e+02   5.4283607465e+01    0.2705968     0.252665  -0.30  0.000878534    1.272    0.214
       312 -10.3316     53.5120     82.4955   1.0753453975e+02   5.4096974026e+01    0.2059133    0.2012792 -38.53 -0.0001713163    1.151    0.131
       313 -10.9115     20.1749     82.1740   1.2006958177e+02   5.7450855310e+01    0.2173146    0.1756327  81.38 0.0002779937    1.129    0.114
       314  -9.5091      9.6742     85.3800   1.2433227799e+02   5.7355475787e+01    0.1793019    0.1156872  20.85 0.0006671001    1.831    0.454
       315 -10.9334     73.2844     80.0098   9.9750316806e+01   5.1886244765e+01    0.4707651    0.2397664 -52.88  0.002023122    1.856    0.461
       316  -9.8647     42.5367     82.5047   1.1164319388e+02   5.5370020772e+01    0.1342003    0.1185051 -80.98 0.0001417363    1.010    0.010
       317 -10.0133     89.0005     77.9912   9.3773399321e+01   4.9658710079e+01    0.2212288    0.2102194 -84.95 0.0003461879    1.045    0.043
       318  -9.9025     55.0222     78.0001   1.0597500573e+02   5.4993814993e+01    0.2065175    0.1786966 -49.10 0.0004090338    1.171    0.146
       319  -9.8676     17.1381     74.2400   1.2020410915e+02   5.9597200791e+01    0.2121947    0.1600798 -82.31 0.0006694017    1.127    0.113
       320 -10.2420      3.6662     75.9942   1.2571569824e+02   5.9931798741e+01    0.4347732    0.1555037  81.96  0.001764248    3.007    0.667
       321 -10.6540     62.2256     74.9171   1.0249983056e+02   5.4757292524e+01    0.6112714    0.1599967  45.03  0.001815667    4.530    0.779
       322 -11.1145     27.1624     72.9969   1.1596355041e+02   5.9157837183e+01    0.4603857    0.2716025  77.98   0.00109661    1.909    0.476
       323  -8.8582     37.2586     75.3219   1.1232222082e+02   5.7672513233e+01    0.1331523   0.08937901 -45.60 0.0001536174    1.548    0.354
       324  -8.9028    179.2674     74.3007   6.9303268194e+01   2.9818883795e+01    0.1496037    0.1148382  15.08            0    1.523    0.343
       325  -9.4518     80.6040     74.2077   9.5577707508e+01   5.2019436549e+01    0.1941462    0.1318622 -44.74 0.0002622593    1.474    0.322
       326  -9.7563     69.1380     73.9073   9.9645068065e+01   5.3970056017e+01    0.2129264    0.1821922 -82.93  0.000646917    1.208    0.172
       327 -10.2580    142.8645     72.5431   7.6543033463e+01   3.9054864395e+01    0.3047561    0.2196423 -26.74  0.001111327    1.500    0.333
       328  -9.1432    159.7483     72.7421   7.2758392460e+01   3.4880513380e+01    0.1453368    0.1170671  16.95            0    1.428    0.300
       329 -10.5339     88.8476     68.1817   9.0885540790e+01   5.1876634799e+01    0.2551934    0.1972278 -51.17  0.000757203    1.260    0.206
       330 -10.1743     36.9402     71.8771   1.1177161564e+02   5.8546646426e+01    0.2959753    0.1623456   0.37  0.001251809    3.099    0.677
       331 -10.8819     45.6511     68.4286   1.0744568910e+02   5.8454079023e+01     0.443771    0.2177688 -35.13 0.0007316874    2.956    0.662
       332  -8.9432    125.0062     70.7646   8.0568584749e+01   4.3636384747e+01    0.1868751    0.1285494  49.95            0    1.447    0.309
       333  -9.5950    118.0138     69.6745   8.2172234055e+01   4.5454443171e+01    0.2114196    0.1923671  40.86 0.0003556233    1.108    0.097
       334  -9.6499     79.7941     69.8450   9.4587719975e+01   5.3155469164e+01    0.1906808    0.1660073  86.78 0.0004253911    1.261    0.207
       335 -10.1373     58.7117     69.2436   1.0238366345e+02   5.6601742258e+01    0.2161848    0.1687489 -83.43 0.0007929922    1.381    0.276
       336  -9.7405     52.0273     68.9803   1.0498268908e+02   5.7550515130e+01    0.2322386     0.158752  73.42   0.00113252    1.843    0.457
       337 -10.6754      6.8700     68.3054   1.2365158242e+02   6.1633945024e+01    0.2087931    0.1797861 -60.62 0.0002787508    1.170    0.146
       338 -10.8110      1.4196     66.8331   1.2575723140e+02   6.2234971517e+01    0.4735263   0.09721556 -79.21  0.001345758    3.893    0.743
       339 -10.8098      9.6545     62.8398   1.2179169167e+02   6.2817375444e+01    0.3028594    0.2349908  38.53  0.000953853    1.457    0.314
       340 -11.1825      2.2124     60.7906   1.2479468694e+02   6.3657382344e+01    0.2559794    0.1875765 -78.94 0.0008000713    1.104    0.094
       341 -11.5405      5.8760     59.1287   1.2297406641e+02   6.3901227173e+01    0.3301411    0.2891931  77.48  0.001267666    1.160    0.138
       342  -9.7442    130.6596     67.9015   7.8131243281e+01   4.2856451152e+01    0.2071541    0.1951809 -48.66 0.0003858537    1.075    0.070
       343 -10.2237     22.0926     67.5470   1.1715032389e+02   6.0886896008e+01      0.24819    0.1743318  71.72  0.001039494    1.491    0.329
       344 -10.8386     21.4338     63.2215   1.1669015272e+02   6.1991214208e+01    0.2658723    0.1710982 -77.22  0.001476162    1.366    0.268
       345  -9.4071    105.9564     67.2408   8.4974930658e+01   4.8610480276e+01    0.1924702    0.1281223  47.97 0.0004070355    1.519    0.342
       346  -9.7123     75.0662     66.4748   9.5300531467e+01   5.4733991190e+01    0.2036565    0.1439249  38.06 0.0003843265    1.493    0.330
       347 -10.2480     52.4397     65.4653   1.0390784863e+02   5.8339623100e+01    0.1904387    0.1243717  45.98 8.547654e-06    1.667    0.400
       348  -9.7708     14.5298     65.4729   1.2005191120e+02   6.1901149222e+01    0.1935428     0.117852  -9.81  0.001022768    2.239    0.553
       349  -8.9712    113.5639     63.5011   8.1420367869e+01   4.7691319064e+01    0.1522618    0.1480936  -4.72 5.317353e-05    1.054    0.051
       350  -8.9325    101.0177     64.0000   8.5460305942e+01   5.0333576128e+01    0.2462581   0.08619245  45.91 0.0007961869    2.899    0.655
       351 -10.1199     73.9644     61.0440   9.4009904913e+01   5.6149970309e+01    0.2486122    0.1901123  20.62 0.0006083568    1.562    0.360
       352  -9.8756     70.3546     60.1956   9.5134088758e+01   5.6944976672e+01    0.2341594    0.2185106 -42.99 0.0006380028    1.050    0.047
       353 -10.4307     39.4604     60.5473   1.0817116406e+02   6.1041367861e+01    0.3090959    0.2365479  27.81  0.001059483    1.472    0.321
       354 -11.0667     32.4234     58.9683   1.1092872007e+02   6.2121051762e+01    0.3889385    0.1932665  29.77  0.001444392    2.198    0.545
       355 -10.7819     22.6720     57.6023   1.1507853536e+02   6.3267929586e+01    0.3320403    0.2396716  43.22  0.001705867    1.543    0.352
       356 -10.2815     55.5079     57.9934   1.0050951767e+02   5.9695463732e+01    0.2179031    0.1878475  76.27 0.0003874215    1.299    0.230
       357  -9.7932     52.6837     55.3717   1.0092784153e+02   6.0689377693e+01    0.2544284    0.1356014 -67.91  0.001086117    2.114    0.527
       358 -10.0231     46.5991     58.6829   1.0455082696e+02   6.0681649357e+01    0.3087969    0.1273588  29.42  0.001260702    2.703    0.630
       359 -10.0118    110.1569     56.7193   8.0070701070e+01   4.9795230565e+01     0.270384    0.2083592  64.19 0.0007801952    1.445    0.308
       360  -9.6215    106.5270     57.5178   8.1468479824e+01   5.0456175777e+01    0.2789386    0.1516374  51.17 0.0006804139    1.894    0.472
       361 -11.1689    225.8454     55.6857   5.6922460868e+01   2.1293276099e+01    0.2415335    0.2084603 -26.28 0.0002471113    1.055    0.052
       362  -9.8086    204.9430     56.0996   5.9790392137e+01   2.6161419473e+01    0.2129512    0.1810484 -55.53  0.001141273    1.240    0.194
       363 -10.3170    117.9981     55.4230   7.7308338902e+01   4.8218714903e+01    0.4608078    0.2576642  17.18  0.001256227    4.998    0.800
       364 -11.0669     29.3491     53.9620   1.1117339943e+02   6.3606728752e+01    0.3320709     0.263037  38.82  0.001153209    1.417    0.295
       365  -9.4105     92.5532     55.4791   8.5311038281e+01   5.3859015229e+01    0.2126177    0.1433526  34.01  0.000673933    1.646    0.392
       366  -9.3076     95.5273     53.4977   8.3572336930e+01   5.3644882209e+01    0.1486557    0.1450832 -34.27 2.508286e-05    1.002    0.002
       367 -10.9030     79.7683     52.5119   8.8857265560e+01   5.6983703714e+01    0.4674665    0.2139834 -39.65  0.001509199    2.289    0.563
       368  -9.6174    151.0352     53.4927   6.8434058497e+01   4.0289065718e+01    0.2312926    0.1525418  57.44 0.0004742982    1.510    0.338
       369 -11.5155     41.9553     51.8033   1.0469050866e+02   6.2852419574e+01    0.4519796    0.2027131 -52.78  0.001952556    1.923    0.480
       370 -11.0746      6.0802     51.8848   1.2188578482e+02   6.5639559151e+01    0.2000589    0.1672288 -15.66 0.0009660256    1.433    0.302
       371 -10.4331    173.9999     50.1803   6.2873522565e+01   3.4804520235e+01    0.2389361    0.2142559 -29.86 0.0002919266    1.101    0.092
       372  -9.9642    105.4676     50.6612   7.9279864642e+01   5.2025147033e+01    0.3497245    0.1841986  61.82  0.001288988    2.488    0.598
       373 -10.7618     66.1692     50.1091   9.3401461353e+01   5.9882471486e+01    0.3919115    0.2291957 -59.00  0.001757773    1.808    0.447
       374 -11.5569      5.7672     36.9347   1.1951605294e+02   6.9225462285e+01    0.6722927    0.4297199  89.19  0.002807856    1.553    0.356
       375 -10.7810     20.3340     40.8565   1.1244682526e+02   6.7457614601e+01    0.3356622     0.183144  20.58 0.0008942967    2.127    0.530
       376 -11.3716     16.9939     47.0021   1.1562820311e+02   6.6221918533e+01    0.4757024    0.1859986 -54.43  0.002183025    2.065    0.516
       377 -12.2236     11.9976     45.4298   1.1785087971e+02   6.6897522765e+01    0.3183303    0.1976219 -67.47 0.0005302881    1.313    0.238
       378  -9.3413    201.2931    249.3462   9.8937955597e+01   2.0239237005e+00    0.1038877   0.05990269  15.62 0.0006742824    1.666    0.400
       379  -9.8175     87.4356     49.7633   8.4995881391e+01   5.6069339727e+01    0.2160434    0.1378263 -32.96 0.0009535219    1.678    0.404
       380 -10.0303     22.4003     48.4012   1.1322771656e+02   6.5508740541e+01    0.2878881    0.1348779 -68.04 0.0009525138    1.821    0.451
       381  -9.7217    152.9642     48.2536   6.6228042357e+01   4.0610799872e+01    0.2209252    0.1947184  46.36 0.0004962752    1.133    0.117
       382 -10.1337    114.2172     47.2309   7.5344058471e+01   5.0618784404e+01    0.2490139    0.2011731 -23.72 0.0002962989    1.299    0.230
       383  -9.9337     60.8083     52.1066   9.6362700564e+01   6.0280678883e+01    0.2047603    0.1857134 -86.00 0.0006772716    1.203    0.168
       384  -9.9438    128.9006     49.9214   7.2365071296e+01   4.6542597553e+01    0.2318595    0.2026218  15.31 0.0002845629    1.253    0.202
       385  -9.2248      1.3354     48.3151   1.2368546090e+02   6.6687064994e+01    0.1297208    0.0709008 -48.95 0.0005208483    1.692    0.409
       386 -10.9356     61.6299     45.1659   9.3530058574e+01   6.1693171443e+01    0.3323437    0.2503862 -41.64 0.0006837918    1.251    0.201
       387 -10.2607    165.0012     45.9726   6.3103431214e+01   3.7775545499e+01    0.2219071    0.2170045   9.32            0    1.036    0.035
       388  -9.5117    122.9653     45.5216   7.2267175168e+01   4.8779228877e+01    0.2302895    0.1511074  53.83 0.0004758035    1.514    0.339
       389 -11.4907     77.1896     33.6900   8.2240640366e+01   6.1269435022e+01    0.3977462    0.2991721 -80.64  0.001789077    2.028    0.507
       390  -9.6682     74.3387     35.7097   8.4281394165e+01   6.1435023550e+01    0.2272951    0.1474846  47.65 0.0006856667    1.652    0.395
       391 -10.9414     69.6240     42.3805   8.9024934417e+01   6.0953537063e+01    0.4392493    0.2492136 -32.05  0.001124114    2.047    0.512
       392 -10.2346     71.0224     37.7309   8.6521266379e+01   6.1653609780e+01    0.2629592    0.1940121 -36.27 0.0002152992    1.305    0.234
       393  -9.7064     42.5414     44.0719   1.0200033590e+02   6.4582365153e+01    0.2425046    0.1854618  -8.89  0.001335757    1.587    0.370
       394 -10.4396     33.6407     44.0815   1.0642792701e+02   6.5552649393e+01    0.2673532    0.1660093  46.27  0.001006456    1.901    0.474
       395 -10.6595    141.4836     42.3716   6.6582645559e+01   4.4535830534e+01    0.2546031    0.2465452  50.04 0.0001909584    1.023    0.022
       396  -9.5487    151.4925     41.5326   6.4163463231e+01   4.2011913925e+01    0.2683631     0.155072 -13.02 0.0006655027    2.228    0.551
       397 -11.7685    103.6299     39.0239   7.5238371303e+01   5.4578684279e+01    0.2738889    0.2595158 -73.04 0.0003669517    1.146    0.128
       398 -11.8449     41.5114     38.1155   1.0044289300e+02   6.6057005775e+01    0.3268139    0.2264659 -30.68 0.0003715147    1.548    0.354
       399  -9.5471     82.3732     39.2334   8.2643134439e+01   5.9178357472e+01    0.1984879    0.1332174 -48.69 0.0003342044    1.517    0.341
       400  -9.9135     85.9902     37.4390   8.0530560973e+01   5.8776869923e+01    0.2203465    0.1880448 -36.76 0.0003199764    1.136    0.119
       401 -12.5383    194.0523     35.3639   5.5112001696e+01   3.1540805916e+01    0.2969091    0.2871042 -60.11 0.0003893427    1.026    0.025
       402  -9.5386     91.2436     37.6053   7.8723752827e+01   5.7626317144e+01    0.1507111    0.1126047 -63.14 0.0006933697    1.671    0.401
       403 -10.4611    131.1545     36.2170   6.6606417228e+01   4.8185282713e+01    0.3579599    0.2127814  58.25 0.0007878668    1.659    0.397
       404 -11.0532    119.9879     34.1154   6.8531073932e+01   5.1389746306e+01    0.3707909     0.270999  51.40  0.001417403    1.342    0.255
       405  -9.7210    100.0279     35.5853   7.4921285790e+01   5.6013482730e+01    0.3050967    0.1299188  44.20  0.001098774    2.439    0.590
       406  -9.7996     57.6848     35.2893   9.1385382498e+01   6.4421711421e+01    0.4513241    0.2522552  64.61  0.001561054    4.180    0.761
       407  -9.7167     60.6453     34.2158   8.9554233984e+01   6.4166188923e+01    0.2300255    0.1929468  -8.40 0.0008421286    1.296    0.228
       408 -11.8081    107.4281     29.2100   6.9888302932e+01   5.5293830293e+01    0.4976805    0.3090321 -28.27 0.0004182061    1.641    0.390
       409 -10.1097     29.2538     34.0492   1.0554480683e+02   6.8296893134e+01    0.1881081    0.1822578   5.28  0.000461877    1.172    0.147
       410 -11.3417    142.6295     31.0146   6.2065389075e+01   4.5885914884e+01    0.4718745    0.3608228   1.25  0.001333039    1.526    0.345
       411 -10.4958    116.5292     38.4135   7.1211895966e+01   5.1571642355e+01    0.4118907    0.2951761  62.91  0.001599897    1.482    0.325
       412  -9.9923     86.9498     33.3120   7.8370037857e+01   5.9330023066e+01    0.2077612    0.1904188  41.27 0.0007800017    1.117    0.105
       413  -9.9179     65.9416     32.9458   8.6613936220e+01   6.3517435877e+01    0.2098812    0.1900408 -39.41 0.0003665799    1.062    0.058
       414 -10.9750     94.6810     49.0177   8.2171139585e+01   5.4716861734e+01    0.4291133    0.3221786 -18.87 0.0008043944    1.570    0.363
       415  -9.8312    206.7142     31.4297   5.2359407540e+01   2.8773395321e+01    0.1970233    0.1292785  55.06 0.0009440714    1.581    0.367
       416 -10.9143     35.6383     27.6191   9.9531341826e+01   6.9061243522e+01    0.4706245    0.2528347   4.61  0.001959074    3.165    0.684
       417  -9.8158     23.8399     30.6083   1.0746441583e+02   6.9566528848e+01    0.2173969    0.1688609  85.78 0.0007773051    1.550    0.355
       418  -9.6757     23.2328     27.5980   1.0678629807e+02   7.0300105857e+01    0.2082431    0.1420685 -82.59  0.001130691    1.748    0.428
       419 -10.5221    158.9833     29.9663   5.8607098218e+01   4.1585194361e+01    0.2242915    0.2224256   9.27 0.0003463409    1.028    0.028
       420 -10.2713     77.9053    247.7552   1.1983290343e+02   1.8106206868e+01    0.2133045    0.1294601  76.04  0.001441951    1.879    0.468
       421 -11.0341     15.4480     18.6596   1.0848637218e+02   7.2903296299e+01    0.2173863    0.1749893 -10.01 0.0008182423    1.353    0.261
       422 -10.7801     10.3058     22.6808   1.1327445159e+02   7.2323307134e+01    0.3667395    0.2071315  14.27  0.001737833    2.083    0.520
       423 -12.0423     75.9197    241.9767   1.1983159650e+02   1.9149783366e+01    0.3601833    0.2589843  69.80  0.002052416    1.382    0.276
       424 -11.5771     46.2603    245.8239   1.2523366549e+02   2.1903002645e+01    0.2996787    0.1473937  86.00  0.002073233    2.288    0.563
       425 -10.8992     71.8316     29.0034   8.2270857079e+01   6.3187445127e+01     0.289039    0.2090464  33.20 0.0007085605    1.468    0.319
       426 -11.0306     50.6106     28.5792   9.1896574882e+01   6.6889913594e+01    0.2923509    0.2299848  81.30 0.0008535885    1.893    0.472
       427 -10.9743    243.0633     25.2663   4.7141307304e+01   2.0827023897e+01    0.2272574    0.1818251 -26.94 0.0003341828    1.123    0.109
       428 -11.4060    175.7191     22.6298   5.3456820802e+01   3.7912727047e+01    0.3503749     0.286154  18.84 0.0008066674    1.384    0.278
       429 -10.1985     61.5006     23.6135   8.4209487882e+01   6.6089838855e+01    0.2719022    0.1781059  36.39  0.001225858    1.616    0.381
       430  -9.9102    100.0979     26.9781   7.1078182643e+01   5.7415369165e+01     0.228296    0.2145064   0.44 0.0006117763    1.047    0.045
       431 -11.0468    221.8459     22.1655   4.8133999525e+01   2.6053368615e+01    0.2652843    0.1990865 -45.63 0.0008210654    1.231    0.187
       432 -10.5790    153.9498     22.9695   5.6901462127e+01   4.3835982392e+01    0.3336617    0.2051112  56.20 0.0005548296    1.561    0.359
       433 -11.9710    117.0210     22.6016   6.4381828884e+01   5.3837558912e+01    0.2770289    0.2600053 -35.15 0.0001627801    1.092    0.084
       434  -9.2478     71.4716    248.4254   1.2099370825e+02   1.8759980471e+01    0.1012851   0.07101839  45.43 0.0001444617    1.080    0.074
       435  -9.6456     26.8051     21.5652   1.0225495930e+02   7.1309067331e+01    0.2906336    0.1481433 -25.29  0.001269098    2.695    0.629
       436 -10.1125    210.6015    246.8255   9.7162060914e+01   1.0578315274e+00    0.1777519    0.1410327  46.51 0.0008145811    1.808    0.447
       437 -10.3290     36.9147     21.1847   9.5947604439e+01   7.0272281625e+01    0.3027416     0.195164  18.63  0.001296462    1.815    0.449
       438 -10.6739     31.8493     17.1205   9.7065804771e+01   7.1711986331e+01    0.2515516    0.2141473  52.90  0.001562819    1.498    0.333
       439  -9.8260    190.3421     20.1350   5.0784412999e+01   3.4263654341e+01    0.2014556    0.1739455 -34.00 0.0003353841    1.123    0.109
       440 -10.5324    131.6908     21.9341   6.0716843245e+01   5.0042869088e+01    0.2671625    0.2201387  71.29 0.0003624449    1.236    0.191
       441  -9.7303     95.2812     15.6354   6.7119732693e+01   6.0240167774e+01    0.3055193    0.1672675  35.61  0.001014144    2.071    0.517
       442 -10.0941     93.3907     20.1726   6.9971050967e+01   6.0041279662e+01    0.3775348    0.2466321 -50.97   0.00141398    1.816    0.449
       443 -10.9671     89.5305     19.1803   7.0750276323e+01   6.1086456500e+01      0.25464    0.2461278  37.68 0.0002960544    1.077    0.071
       444 -11.0796    206.8640    246.4039   9.7700491337e+01   1.5746360234e+00    0.2061226    0.1403268  24.83 0.0008407549    1.016    0.015
       445 -11.0170    175.1401     17.7384   5.1866615401e+01   3.8613276411e+01    0.3010494    0.1862313  48.85  0.001342918    1.664    0.399
       446 -11.2970    136.5284    246.0954   1.0942563767e+02   1.0931485747e+01    0.1956723    0.1348484  42.90 0.0005583971    1.124    0.110
       447  -9.6658    194.1874     17.3812   4.9478158431e+01   3.3540639674e+01    0.2022893    0.1340941 -89.22 0.0006793631    1.644    0.392
       448  -9.4337    157.5797     17.4574   5.4257888200e+01   4.3475041499e+01    0.1482272    0.1443805 -75.86 0.0001112921    1.020    0.019
       449 -10.0834    200.3965    244.8780   9.8547943579e+01   2.5535674821e+00    0.1840202    0.1194285  31.49 0.0005598217    1.112    0.101
       450 -10.3855     44.3357     16.5429   8.9330056368e+01   7.0195017139e+01    0.2694279    0.2272893  85.75  0.001243732    1.744    0.427
       451  -9.4461    229.7115     16.3214   4.5849008875e+01   2.4772363241e+01    0.1442781   0.08616855 -51.32  0.000597126    1.602    0.376
       452 -10.4269    197.2288    234.3844   9.7767749222e+01   3.9923051455e+00    0.2930751    0.1748202  -5.14  0.001896905    2.166    0.538
       453 -10.0706    185.6320     13.7255   4.9252523045e+01   3.6192682002e+01    0.2452421    0.1649058 -70.43 0.0002434084    1.620    0.383
       454 -11.0580    179.9460     13.7083   4.9902654243e+01   3.7729778327e+01    0.2361372    0.2168755 -51.81 0.0007030065    1.059    0.056
       455 -11.4507    205.1051    240.1724   9.7212635551e+01   2.3777126259e+00    0.3598564    0.1823507  26.30   0.00216516    1.552    0.356
       456 -11.5571    198.2441    240.3340   9.8342998277e+01   3.2700687145e+00    0.2041141    0.1407218  28.96 0.0002542644    1.051    0.048
       457  -9.7368     88.8239     13.8334   6.8246379625e+01   6.2019997332e+01    0.1860624    0.1698749 -75.17  0.000263652    1.298    0.230
       458 -10.5310     97.3888    244.2584   1.1616517199e+02   1.6225142207e+01    0.1578051    0.1165214  72.11 0.0006205948    1.509    0.337
       459 -11.2125    145.9705    242.8079   1.0746285491e+02   1.0061073921e+01    0.1887556    0.1513386  34.59 0.0004378681    1.140    0.123
       460 -12.0346    142.7262    238.8854   1.0763709072e+02   1.0971938748e+01    0.2157801      0.15375  37.88 0.0003305679    1.016    0.016
       461 -10.6008     62.2045    242.7529   1.2230789178e+02   2.0616549238e+01    0.1623836    0.1187962  56.16 0.0003708351    1.113    0.101
       462 -10.1391    191.4399    240.6580   9.9496903655e+01   4.1462725136e+00    0.2109753      0.15958   1.72  0.001681066    1.397    0.284
       463  -8.9880     92.3356     13.3068   6.6845909541e+01   6.1262493755e+01    0.1551002    0.1054884  24.42  0.000704103    1.672    0.402
       464 -10.0944     31.7941     12.9651   9.4980363260e+01   7.2557767703e+01    0.2108802    0.1833189   5.73 0.0007334269    1.208    0.172
       465  -9.8873     54.8419    240.4001   1.2348908038e+02   2.1776132950e+01     0.237293     0.105752  80.77  0.001365201    2.777    0.640
       466 -10.7366    246.1115    239.4191   9.0794726163e+01  -2.7444016552e+00    0.2208353    0.1773079  12.95  0.001937963    1.398    0.285
       467 -11.3529    119.7785    241.0580   1.1191975229e+02   1.3776018805e+01    0.3053429    0.1004567  36.17  0.001245012    2.271    0.560
       468 -10.7907     91.4991    242.5900   1.1709336300e+02   1.7183655581e+01    0.1989187    0.1366757  38.17  0.000697782    1.184    0.155
       469 -10.0113    109.6553    240.1510   1.1365456067e+02   1.5218244832e+01    0.2062488     0.124785 -49.88  0.001429994    2.360    0.576
       470 -10.5356    103.6364    240.0466   1.1472792059e+02   1.6007247484e+01    0.2115034    0.1186896  26.27  0.001178961    1.939    0.484
       471  -9.5472     56.2311     10.5448   7.9609560230e+01   6.9313667603e+01    0.1736963    0.1241001  27.34 0.0003660351    1.478    0.323
       472 -11.6109    217.8070    237.0674   9.4793604058e+01   1.0010210458e+00    0.3280458    0.1734523  43.67 0.0007720311    1.957    0.489
       473 -11.0021    178.0274    238.6143   1.0149355471e+02   6.1712335772e+00    0.1609408    0.1326213  23.95 0.0003565538    1.195    0.163
       474 -10.4426     97.0605    239.0803   1.1583834324e+02   1.6975650488e+01    0.2449897   0.08776908  50.44  0.001290972    2.363    0.577
       475  -9.7361     84.0127    238.0266   1.1812215710e+02   1.8743696815e+01    0.1731559   0.08789895  55.22   0.00076174    1.669    0.401
       476 -10.8492     43.4437    235.9916   1.2530888931e+02   2.3657134869e+01    0.3142736     0.123618  49.00  0.001998184    1.685    0.406
       477 -11.3324    105.6375    235.1858   1.1397166789e+02   1.6417081252e+01    0.2708367    0.1351268  43.88 0.0002550529    1.431    0.301
       478 -10.0327    133.5889    234.5536   1.0883427843e+02   1.2762336075e+01    0.2532763    0.1175505  53.85  0.001295575    2.473    0.596
       479  -9.6788    183.2407    232.9924   9.9936623148e+01   6.0557328715e+00    0.1450374    0.1090868  26.30 0.0003130884    1.067    0.063
       480 -10.6162    167.9419    238.7115   1.0322340034e+02   7.5403283137e+00    0.1598023    0.1456066  31.11 0.0004938937    1.341    0.254
       481 -10.7830    143.9516    232.2900   1.0673618604e+02   1.1619944292e+01    0.3334534    0.1362773  36.73  0.001318763    1.806    0.446
       482  -9.7725     44.7662    223.5583   1.2450250823e+02   2.5460302061e+01    0.1908405    0.1053993  60.79 0.0007632981    1.435    0.303
       483  -9.7358     48.7245    232.7261   1.2421335895e+02   2.3595515255e+01    0.1542954   0.09542734  45.63 0.0005164863    1.152    0.132
       484 -10.2522     45.4970    228.9094   1.2462078833e+02   2.4533263461e+01      0.28833    0.1688573  51.59  0.002116584    1.188    0.159
       485 -10.2163     74.5182    231.9640   1.1945338186e+02   2.0779131467e+01    0.1519672    0.1410363  59.79 0.0006347229    1.353    0.261
       486 -11.4169     73.4114    226.4496   1.1929661314e+02   2.1749970366e+01    0.3489199    0.1370516  51.12  0.001106325    1.983    0.496
       487  -9.7494     58.1003    231.2259   1.2242915467e+02   2.2795226936e+01    0.1981645    0.1319313 -63.77  0.001479418    1.996    0.499
       488  -9.0828    159.9574    231.0008   1.0373858723e+02   9.5367293600e+00    0.1291725     0.094502  33.60            0    1.012    0.012
       489 -11.7984    152.0220    227.4804   1.0475559352e+02   1.1088204509e+01    0.2218405    0.2026028 -76.50 0.0003247736    1.576    0.366
       490  -9.5455     80.9832    231.0802   1.1819870220e+02   2.0128729515e+01    0.1286306   0.09218416  48.92 0.0005975088    1.013    0.013
       491  -9.5105    248.6829    230.6795   8.9212581268e+01  -2.3658483693e+00    0.1075657   0.05605559  14.25 0.0007041717    1.661    0.398
       492 -10.3648    128.9428    241.2031   1.1030246202e+02   1.2542726333e+01     0.235641    0.0816448  48.26  0.001165581    2.624    0.619
       493 -10.2667    202.8398    227.4696   9.5943945303e+01   3.9201458483e+00    0.1601668    0.1287684   8.30 0.0002718571    1.226    0.184
       494  -9.7317    125.9830    228.3025   1.0960385771e+02   1.4634219653e+01    0.1616378    0.1047562  36.84 0.0004213563    1.170    0.145
       495 -10.3580    111.4319    227.6591   1.1224794274e+02   1.6707307999e+01    0.1890617    0.1232558  44.41 0.0003253701    1.130    0.115
       496 -10.9187    216.1819    226.2326   9.3601387510e+01   2.2205136082e+00    0.1648936    0.1277229  19.46 0.0003258171    1.148    0.129
