#   1 NUMBER                 Running object number                                     
#   2 MAG_AUTO               Kron-like elliptical aperture magnitude                    [mag]
#   3 X_IMAGE                Object position along x                                    [pixel]
#   4 Y_IMAGE                Object position along y                                    [pixel]
#   5 X_WORLD                Barycenter position along world x axis                     [deg]
#   6 Y_WORLD                Barycenter position along world y axis                     [deg]
#   7 A_WORLD                Profile RMS along major axis (world units)                 [deg]
#   8 B_WORLD                Profile RMS along minor axis (world units)                 [deg]
#   9 THETA_WORLD            Position angle (CCW/world-x)                               [deg]
#  10 FWHM_WORLD             FWHM assuming a gaussian core                              [deg]
#  11 ELONGATION             A_IMAGE/B_IMAGE                                           
#  12 ELLIPTICITY            1 - B_IMAGE/A_IMAGE                                       
         1 -10.3657    108.8215     25.0278   7.5450144124e+01   5.3712725220e+01    0.5335991    0.2647524  24.79  0.002183398    3.203    0.688
         2 -10.0989     63.2952     20.5595   8.6875723659e+01   6.2829548370e+01    0.5146293    0.2883122 -52.01  0.002314568    3.948    0.747
         3 -10.6116    119.0788     19.4876   7.1372227089e+01   5.2069280380e+01    0.4172047    0.2798545 -14.09  0.002378604    1.823    0.452
         4 -10.6878    143.0177     17.9652   6.6406997783e+01   4.6836084070e+01    0.4544198    0.3024546  43.32   0.00203213    1.516    0.340
         5 -10.8227    203.1083     17.9493   5.8350203154e+01   3.2985689171e+01    0.2731704    0.2599357 -48.80  0.001264271    1.360    0.265
         6  -9.5106    238.7948     15.2160   5.4503090361e+01   2.5592421752e+01    0.2436697     0.184876  17.47  0.001396318    2.950    0.661
         7 -11.0361    171.8963     13.4859   6.0961189195e+01   4.0605279313e+01    0.4049222    0.3055643 -87.60  0.001763685    1.218    0.179
         8  -9.4830      5.2120      9.0317   1.0664763202e+02   7.1425821042e+01    0.2491561    0.1155471 -34.57  0.001575852    1.810    0.448
         9 -11.8988    166.4294      5.3038   5.9641222089e+01   4.2649868986e+01    0.5853866    0.4927078  68.14  0.003996347    1.118    0.106
        10 -11.3559    204.8214      4.5886   5.5343056657e+01   3.4039225602e+01    0.5261054    0.2417838 -60.65  0.002658809    2.237    0.553
        11 -10.7033     79.2067      4.7775   7.5844714550e+01   6.1522953455e+01    0.2734485    0.2208353  36.35  0.001225497    1.036    0.035
        12  -9.6923    236.1012      1.8603   5.2243985831e+01   2.7652073440e+01    0.3270456    0.1364737  84.64  0.001676864    2.204    0.546
        13  -9.7690    148.7094      1.5734   6.1029862747e+01   4.7020517564e+01    0.3178506    0.1150723  62.22  0.001468167    2.101    0.524
        14 -10.1455    189.2525      1.5974   5.6207015659e+01   3.7803353479e+01    0.2408486   0.09873076  76.57  0.001142502    2.122    0.529
        15 -13.0636    135.9373    210.8624   1.1556554640e+02   1.0580057215e+01     1.138058    0.6069393  42.05  0.004959469    1.755    0.430
        16 -10.7500    109.2822    246.8795   1.2660511185e+02   7.6063316900e+00     0.458286    0.3391459 -38.64  0.001937384    1.821    0.451
        17 -11.9609    118.4655    206.9371   1.1894694970e+02   1.4576049897e+01    0.8254868    0.4248106 -56.78  0.003525457    2.012    0.503
        18 -11.3759    115.9167    217.9377   1.2123449092e+02   1.2558666918e+01    0.3295839    0.2494109 -84.32  0.001720311    1.482    0.325
        19 -11.9037    108.1499    217.4830   1.2292135458e+02   1.3978281139e+01    0.4649626    0.3520541 -74.44  0.001995458    1.387    0.279
        20 -11.9355    112.0019    209.9209   1.2091338284e+02   1.5023516772e+01    0.5708824     0.374496  71.52  0.002619251    1.875    0.467
        21  -8.9278    152.4867    217.4974   1.1296349213e+02   6.1871699179e+00    0.1418196    0.1326819  33.48 5.852708e-05    1.026    0.025
        22 -11.2888    209.0189    213.0069   1.0019050334e+02  -2.8582284782e+00    0.5326705    0.3253262  53.44  0.002493208    2.216    0.549
        23  -9.7933    160.3192    211.6674   1.1022065464e+02   5.9707103914e+00    0.2752256    0.2350835 -66.90  0.001500213    1.331    0.249
        24 -10.3747    153.4068    209.9799   1.1146240138e+02   7.5861169072e+00    0.3086764     0.269998 -53.79  0.001616123    1.211    0.174
        25 -10.7883    199.5575    207.1265   1.0099809367e+02  -1.6777078627e-01    0.3910961     0.277825   0.26  0.001936885    1.740    0.425
        26  -9.5530    144.4659    242.5483   1.1864662796e+02   2.6345308072e+00    0.3488758    0.2474841  14.88  0.001805861    1.787    0.441
        27 -11.2939    127.0262    203.9257   1.1645811818e+02   1.3731738490e+01    0.4572083    0.2479837  32.10  0.001899054    2.024    0.506
        28  -9.9227    150.2011    238.8510   1.1688331694e+02   2.3638680558e+00    0.3174645    0.2956288  11.40  0.001978098    1.138    0.121
        29  -8.7957    180.5063    244.4340   1.1144353711e+02  -3.6939577960e+00    0.1315766    0.1138146  22.70 0.0001027967    1.014    0.013
        30  -9.0408    233.4890    198.9844   9.2827335708e+01  -4.3428516378e+00    0.2073164     0.119793 -39.16   0.00103359    1.592    0.372
        31 -10.8960    152.2699    198.1241   1.0958200665e+02   1.0346801640e+01    0.2885955    0.2541555  13.30  0.001363595    1.244    0.196
        32  -8.3690      9.2700    198.6515   1.4259367704e+02   3.1546071779e+01    0.1281314   0.07237142  74.15 0.0004992479    1.622    0.384
        33  -9.3870    219.0006    196.4042   9.5060398830e+01  -1.5050656951e+00    0.2452407    0.1844656 -24.98  0.001333384    1.287    0.223
        34 -10.7946    200.8822    194.2146   9.8234795553e+01   2.0779858297e+00    0.4150478    0.2929519 -43.10  0.002045641    1.397    0.284
        35  -8.6728    168.6812    186.6646   1.0364841865e+02   9.6973324626e+00    0.1546855    0.1183547  -6.80 0.0007049046    1.700    0.412
        36  -9.9860     27.4781    182.6170   1.3711242862e+02   3.3533809651e+01    0.3670535    0.2494124  -6.16  0.001894998    2.596    0.615
        37  -9.6286    228.8522    190.8521   9.2103465348e+01  -2.1385085764e+00    0.3586846    0.1723405 -21.84  0.001226678    3.755    0.734
        38  -9.3646    177.4066    181.1236   1.0058929145e+02   9.1884201652e+00    0.3051613    0.1905475 -58.68  0.001303773    1.883    0.469
        39 -10.5239     79.7278    174.2556   1.2310513412e+02   2.8917200693e+01    0.2599207    0.1793322  43.51  0.001275983    1.476    0.323
        40 -10.4382    124.8060    166.9371   1.1015499948e+02   2.2869181518e+01     0.435265     0.346617 -43.90  0.001554927    1.302    0.232
        41 -10.0664    198.0316    162.2329   9.2220243163e+01   9.1003485203e+00    0.6765631     0.231677 -34.71  0.001869955    4.368    0.771
        42  -9.6879     94.4507    161.4829   1.1698352897e+02   2.9737435774e+01    0.1506288    0.1415009 -73.01 0.0001761037    1.025    0.025
        43 -11.1180     81.2575    144.7584   1.1733453412e+02   3.6071161830e+01    0.4871719    0.3959395 -54.25  0.001479796    1.156    0.135
        44 -10.1935    123.3634    144.0969   1.0562692480e+02   2.8680882074e+01    0.3803546    0.2343577  38.17  0.001594424    1.698    0.411
        45  -8.6193     20.2731    135.3727   1.3309107846e+02   4.5663317645e+01    0.1371744   0.07789177 -46.82 0.0005279361    1.682    0.406
        46 -11.5666     56.7665    128.6262   1.2124735764e+02   4.3521494699e+01    0.7235796    0.4489252 -42.68  0.003511587    1.600    0.375
        47 -12.0576    116.4798    121.3381   1.0206149835e+02   3.5424977849e+01    0.8952636    0.7388216 -42.33  0.004350559    1.203    0.169
        48  -9.5252    187.5048    118.9302   8.4521724075e+01   2.0368270912e+01    0.2354221    0.1449991 -45.33  0.001019778    1.556    0.357
        49  -8.7590      7.4464    125.4924   1.3533269400e+02   4.8958530434e+01    0.1254735   0.09927955 -66.71 0.0002689307    1.009    0.009
        50 -10.5792      2.1414    109.8597   1.3464306550e+02   5.2884494379e+01    0.5740427    0.1264428 -61.21  0.002297113    2.817    0.645
        51 -10.0625    228.8002    110.6436   7.5309944038e+01   1.3066369076e+01    0.5047783     0.242075 -38.42  0.002134586    2.027    0.507
        52 -10.6730    244.1693    100.4926   7.0914590330e+01   1.1805555662e+01    0.5182551    0.3783286  37.01  0.002790006    1.928    0.481
        53 -10.9671    242.1756    108.6507   7.2889929794e+01   1.0751600276e+01    0.7353613    0.4672177 -56.86  0.003772351    1.484    0.326
        54 -10.8643    245.7652    106.1326   7.1861282814e+01   1.0501831629e+01    0.5000076    0.4172806 -38.60  0.002993301    1.232    0.188
        55 -11.0358    160.8356    100.5856   8.5575383939e+01   3.0179821694e+01    0.6381836     0.492986 -44.40  0.002445464    1.295    0.228
        56  -9.8236    181.1129    100.9902   8.1437099914e+01   2.5397943693e+01    0.3484116    0.2799407 -39.07  0.001362927    1.282    0.220
        57  -9.6499     48.2779     99.1315   1.1752924719e+02   5.1434035316e+01    0.3366399    0.2055835 -44.34  0.001438685    1.447    0.309
        58 -10.5521     37.6583     98.6973   1.2101244870e+02   5.2672847663e+01    0.3861354    0.3251918 -24.87  0.001876772    1.170    0.146
        59 -10.7748     13.7394     96.1137   1.2856631117e+02   5.5245224270e+01    0.6314776    0.2526817 -49.70  0.003068825    1.919    0.479
        60  -9.0547    135.4127     98.1333   9.0939779444e+01   3.6456279751e+01    0.2159455    0.1424312 -55.10 0.0007801195    1.662    0.398
        61  -8.8909    107.8301     94.7529   9.7453668354e+01   4.2958361737e+01    0.2492986    0.1620677  -2.38 0.0009448067    2.754    0.637
        62 -10.9492    210.8310     87.4069   7.2943678870e+01   2.1125793740e+01    0.9126626    0.3836833 -43.90  0.003668575    2.203    0.546
        63  -8.8568     27.4335     89.3010   1.2241397812e+02   5.5680214992e+01    0.2512374   0.09635173 -53.69  0.001128897    2.065    0.516
        64  -9.3570    241.1261     88.3414   6.8801895568e+01   1.4508589143e+01    0.2863892    0.1729086 -49.81  0.001478876    1.433    0.302
        65  -9.3637     42.9821     88.9553   1.1686057398e+02   5.4242565843e+01    0.2093883    0.1772469 -33.88  0.001186115    1.030    0.029
        66  -9.8878    129.0935     83.7000   8.8527142200e+01   4.0666197472e+01    0.3417708    0.3115665  58.00  0.001719497    1.097    0.088
        67 -10.6924     84.2571     82.5651   1.0109933985e+02   4.9768145612e+01    0.5778921    0.3973508  11.89  0.002786014    1.807    0.447
        68 -10.4209    214.1170     70.2117   6.8559291432e+01   2.3293106923e+01    0.5729053    0.3492349 -54.67  0.002863073    1.549    0.355
        69 -11.5070      4.3525     67.2462   1.2583527107e+02   6.1860838938e+01    0.6567021    0.3928432 -66.36  0.003928981    1.732    0.423
        70 -10.7799    184.3452     64.2494   7.1705500144e+01   3.1113169888e+01    0.7271646    0.4493555 -29.76  0.003412732    1.959    0.490
        71 -11.1781    139.6748     64.4394   8.0440726462e+01   4.1615794175e+01    0.6654595    0.5520096  87.53  0.003581394    1.367    0.268
        72 -10.3546     86.9334     64.5888   9.4713251015e+01   5.2595488713e+01    0.4059011    0.3806022  15.32  0.002507977    1.076    0.071
        73  -8.7448    115.2131     62.4031   8.5819776079e+01   4.7376237963e+01    0.1976608    0.1302122  59.17 0.0009438797    1.650    0.394
        74 -10.1330     20.8038     55.7277   1.1620000584e+02   6.2914108711e+01    0.4538106     0.175192 -36.16  0.002147743    2.351    0.575
        75 -10.1960     95.4852     54.0204   8.8660434510e+01   5.2698213468e+01    0.4314818     0.304248  13.90  0.002245445    1.652    0.395
        76  -9.9865    234.1229     47.8900   6.1314148526e+01   2.2318356580e+01    0.3453885    0.2912782   7.40  0.002063859    2.070    0.517
        77  -8.4341    127.7844     50.4183   7.9024406420e+01   4.6430829647e+01    0.2075866    0.1159341  45.40  0.000958509    1.679    0.405
        78  -9.0675     13.6612     49.0611   1.1718170200e+02   6.4664924569e+01    0.2141097   0.09972029 -57.82  0.001092689    2.405    0.584
        79 -11.3696    199.5106     44.9036   6.4808359202e+01   3.0424127069e+01     0.725216    0.4469079 -45.75  0.003837048    1.600    0.375
        80 -10.7203     81.8174     45.0981   8.9825846379e+01   5.6558995865e+01    0.4471346    0.3853868 -24.44  0.002674266    1.214    0.176
        81 -10.3438     83.0143     40.5000   8.7843164585e+01   5.6978314817e+01    0.3486687    0.2734163  49.14  0.001862459    1.363    0.266
        82 -10.0828     49.7550     43.6279   1.0056478316e+02   6.1815656889e+01    0.3251023     0.251921  21.96  0.002115687    1.235    0.190
        83  -9.9336     50.5129     40.6622   9.9204469169e+01   6.2158982148e+01    0.3434627    0.2110572  35.12   0.00199606    1.635    0.389
        84 -10.6674    140.6312     38.3202   7.2673509931e+01   4.5109208475e+01    0.4641386    0.3858425 -87.03  0.002605573    1.316    0.240
        85 -10.4450     40.8085     34.4535   1.0073552611e+02   6.4326303464e+01    0.5788656    0.2231036 -44.43   0.00267871    2.910    0.656
        86  -9.9499    172.8033     36.5299   6.6588758464e+01   3.7781294218e+01     0.329377     0.269372 -34.68   0.00196911    1.408    0.290
        87 -10.4788    181.0071     26.1439   6.2848143441e+01   3.7114280120e+01    0.3962721    0.3292164  -2.81   0.00241883    1.725    0.420
        88 -15.1097     73.7382    226.7551   1.3169617191e+02   1.7335603209e+01     3.792771     2.338883  53.66   0.01294993    1.461    0.315
        89 -10.0776    131.7510    238.2774   1.2072758971e+02   5.6048766289e+00    0.3426898    0.2376591  30.76   0.00181085    1.462    0.316
        90 -10.0247    138.3540    236.7012   1.1908659777e+02   4.7954197275e+00    0.4236203    0.2186066  30.61  0.001855289    2.090    0.522
        91 -13.0895     33.9605    206.8362   1.3811383523e+02   2.7098531511e+01     1.666524     0.773643  75.81  0.007228456    2.613    0.617
        92  -9.5515    124.2632    243.2290   1.2300319969e+02   5.8822453627e+00    0.3093526    0.2229873 -23.51  0.001584752    2.129    0.530
        93 -12.9172     30.1935    217.7672   1.3988698190e+02   2.5036476119e+01     1.574938    0.7765325  81.24   0.00767974    2.115    0.527
        94 -10.1924     43.9061    235.7466   1.3869821117e+02   1.9437929246e+01    0.6427115    0.2103155 -80.59  0.002320059    4.062    0.754
        95 -12.3078    125.7234    226.0521   1.2025537166e+02   9.1265014715e+00    0.6425509    0.5811856  75.18  0.003819036    1.104    0.094
        96 -10.9652    146.2947    221.8601   1.1505642859e+02   6.3962160370e+00    0.5099294    0.4215005  22.14  0.002811679    1.285    0.222
        97  -9.9928    218.6658    220.3316   9.9645811121e+01  -5.6964465457e+00    0.3743784    0.2238832 -49.85  0.001868505    1.991    0.498
        98 -10.5415    191.6578    218.2121   1.0467576811e+02  -8.7815430679e-01    0.5432475     0.522162 -43.09   0.00335839    1.187    0.158
        99 -10.1840    213.6903    218.3216   1.0024846095e+02  -4.5608475850e+00     0.260824    0.2260019  73.06  0.001517919    1.700    0.412
       100 -12.0450    127.3496    216.4522   1.1842275753e+02   1.0895411189e+01    0.7880067    0.3024778  50.71  0.002746951    2.954    0.662
