#   1 NUMBER                 Running object number                                     
#   2 MAG_AUTO               Kron-like elliptical aperture magnitude                    [mag]
#   3 X_IMAGE                Object position along x                                    [pixel]
#   4 Y_IMAGE                Object position along y                                    [pixel]
#   5 X_WORLD                Barycenter position along world x axis                     [deg]
#   6 Y_WORLD                Barycenter position along world y axis                     [deg]
#   7 A_WORLD                Profile RMS along major axis (world units)                 [deg]
#   8 B_WORLD                Profile RMS along minor axis (world units)                 [deg]
#   9 THETA_WORLD            Position angle (CCW/world-x)                               [deg]
#  10 FWHM_WORLD             FWHM assuming a gaussian core                              [deg]
#  11 ELONGATION             A_IMAGE/B_IMAGE                                           
#  12 ELLIPTICITY            1 - B_IMAGE/A_IMAGE                                       
         1 -15.2343     10.0330    136.2987   1.1319559654e+02   4.5579518200e+01     5.367968     1.582748 -73.03   0.01984652    2.874    0.652
         2 -13.5867      6.9358     56.4009   1.0012797766e+02   6.4751521843e+01     1.082367    0.9655358  20.64  0.006056259    1.387    0.279
         3 -13.7339     21.5267     45.2993   8.9582180935e+01   6.5874847453e+01     1.473417    0.9473137  36.44  0.008440331    1.955    0.488
         4 -13.5418    234.4952     31.1398   3.2753448845e+01   2.4850463145e+01    0.8297061     0.659017  75.50  0.005728197    1.327    0.246
         5 -11.6839     57.6834     33.0877   6.8232324017e+01   6.3224851864e+01    0.6182081    0.5120837 -19.08  0.003919242    1.200    0.167
         6 -11.3555    233.1632     15.9240   2.9837642015e+01   2.6922112172e+01    0.5601273    0.3202971 -46.06  0.003463567    1.515    0.340
         7 -12.3464    137.8239     10.5056   3.8688073421e+01   4.8719025569e+01    0.5158846    0.2981676 -42.81  0.002762228    1.915    0.478
         8 -12.1191      3.2545      4.7188   8.2695133208e+01   7.4106763196e+01    0.5834351    0.2672345 -37.07  0.003447702    1.903    0.474
         9  -9.5083    166.3309      2.3321   3.2731586463e+01   4.2802425072e+01     0.123719   0.08175397  46.16 0.0001852473    1.723    0.420
        10 -11.2723     11.1877    232.8701   1.2069053386e+02   2.2405887314e+01    0.2600562    0.1718194 -87.44  0.001038388    1.328    0.247
        11  -9.6585     60.9721    249.4848   1.1178623740e+02   1.3422172492e+01    0.1787438    0.1475992  84.65 0.0006270827    1.194    0.162
        12 -10.9440     44.9783    250.5338   1.1510930789e+02   1.5150734646e+01    0.4942092   0.09903168  32.23  0.001726832    4.390    0.772
        13 -10.3301     33.2133    249.8144   1.1738263000e+02   1.6634162619e+01    0.2331611    0.1400612  62.25  0.001419968    1.413    0.292
        14 -11.1351      2.6596    248.7088   1.2309223938e+02   1.9976885195e+01    0.4433027    0.1856573 -84.92   0.00243792    2.176    0.540
        15 -12.5489     35.5193    232.5997   1.1572992642e+02   1.9943218570e+01    0.5542499    0.4290427  66.41   0.00187811    1.070    0.066
        16 -11.8284     88.4890    225.5011   1.0335568981e+02   1.4731818571e+01    0.7283846    0.3845851  60.14  0.002866719    2.326    0.570
        17 -10.6226     70.6879    227.3311   1.0761088339e+02   1.6788671487e+01     0.547121    0.2537285  55.13  0.002402414    2.293    0.564
        18 -11.8141     66.5546    220.0441   1.0778113872e+02   1.8946029426e+01    0.8185284    0.3998632  55.48  0.003677392    2.143    0.533
        19 -10.6769     62.9530    215.4696   1.0812651028e+02   2.0451298042e+01     0.322984    0.2106815  40.38  0.001219322    1.423    0.297
        20 -12.3772     31.4050    206.0433   1.1452741674e+02   2.6354372439e+01     1.237296     0.682838  66.09  0.006265198    1.807    0.446
        21  -9.6575     14.2968    247.2720   1.2086649124e+02   1.9136687552e+01    0.1621202   0.09787726  62.61  0.001028689    1.328    0.247
        22 -14.7128     10.9187    202.5515   1.1888459200e+02   2.9160890128e+01     1.706762     1.025665 -57.59  0.009684011    1.772    0.436
        23 -12.9671     16.8241    189.0960   1.1652376283e+02   3.1822682882e+01    0.7666124    0.4435062  54.91   0.00275867    1.654    0.395
        24 -11.1633    103.3777    242.2066   1.0200851655e+02   9.1435610089e+00    0.2710367    0.1867045  47.72  0.001251272    1.319    0.242
        25 -11.5445     85.7659    222.4568   1.0361802323e+02   1.5782166993e+01     1.670201    0.8423508 -79.32  0.004984922    2.782    0.641
        26  -8.7412     25.4724    226.4627   1.1739185751e+02   2.2353451867e+01    0.1214053    0.1002046  72.95  0.000212018    1.033    0.032
        27 -12.3427     46.1180    214.8572   1.1194586218e+02   2.2668509048e+01    0.8954982    0.4055595  62.74  0.003294972    2.565    0.610
        28 -10.9863     54.6735    205.3412   1.0899845294e+02   2.3855670666e+01     0.506369    0.2661753 -74.58  0.001577229    1.906    0.475
        29  -9.6086     49.9324    200.2853   1.0960145104e+02   2.5637930737e+01    0.2312262    0.1684073  88.83 0.0007070902    1.317    0.241
        30 -11.3466     40.9648    179.7686   1.0959288762e+02   3.1722354401e+01    0.2704786    0.2471125 -51.76 0.0005315862    1.220    0.181
        31 -11.4984     49.0248    173.1596   1.0665003253e+02   3.2483763417e+01     0.271297    0.2557288 -57.43 0.0004279159    1.146    0.127
        32 -12.6183     36.7681    196.3206   1.1238407195e+02   2.8095102131e+01     1.372711    0.5682484  64.46  0.005152407    3.253    0.693
        33 -10.4852     62.3951    163.0764   1.0150396375e+02   3.3422919572e+01    0.2384647     0.230656  31.36 0.0003860453    1.134    0.118
        34 -12.9635     47.5600    159.4428   1.0519514779e+02   3.6187338202e+01     0.601622    0.3712826 -28.45  0.001840186    2.258    0.557
        35 -11.4907     71.3409    156.3926   9.7828011070e+01   3.3938869862e+01    0.5127919    0.4254461 -34.34  0.002670508    1.320    0.242
        36 -11.9378     67.7739    143.4710   9.6562571216e+01   3.7796590515e+01    0.7607476    0.4475746  59.27  0.002805827    2.250    0.556
        37  -9.8409     88.1155    143.6598   9.0440618382e+01   3.4680359280e+01    0.2660828    0.2109854 -69.18 0.0007265027    1.307    0.235
        38 -10.1477     44.0099    142.6737   1.0372492065e+02   4.0950684326e+01    0.2754887     0.192892  83.64  0.001350647    1.623    0.384
        39 -11.2169     75.6858    141.3350   9.3726962898e+01   3.7212911502e+01    0.3232862    0.2518876 -53.47 0.0005342173    1.206    0.171
        40  -9.7193     92.1547    140.1461   8.8490711735e+01   3.4908692227e+01     0.235041     0.205193 -28.57 0.0003896534    1.206    0.171
        41 -12.0750    102.6343    131.6802   8.3457805247e+01   3.5199114023e+01    0.9071802    0.4820361  27.68  0.002561706    2.252    0.556
        42 -10.3585     89.5495    127.8160   8.6524679809e+01   3.8455291707e+01    0.2718473    0.2627936  13.57 0.0003891621    1.073    0.068
        43 -10.6360    114.5197    124.3170   7.8197492497e+01   3.4743285896e+01    0.5466293    0.2933795  26.34  0.001967363    2.469    0.595
        44 -11.7908     22.5405    122.6687   1.0741720462e+02   4.8138957158e+01    0.4553673    0.3157901 -71.74  0.001624086    1.283    0.221
        45 -10.2343    102.4543    119.5917   8.0567325169e+01   3.8178714244e+01    0.2635495    0.2536829 -26.21 0.0002023738    1.016    0.016
        46 -11.1434     41.6201    118.2535   1.0022295458e+02   4.7509844896e+01    0.3551081    0.3306221   3.89  0.002112764    1.186    0.157
        47 -10.8347     31.6552    109.7731   1.0206605163e+02   5.0623766311e+01    0.6767594    0.2350068 -68.24  0.002389317    2.988    0.665
        48 -11.5562      3.4404    107.7493   1.1164769484e+02   5.3124124794e+01    0.6858494    0.2877435 -59.49  0.003248144    1.788    0.441
        49 -10.5173     62.1723    108.1598   9.0889337072e+01   4.7547362791e+01    0.2688104    0.2444865 -37.23   0.00120994    1.017    0.016
        50 -13.4419    244.0274     99.5078   4.5798846187e+01   1.2986070646e+01     1.006271    0.7442859 -50.73   0.00605561    1.142    0.124
        51 -11.5469     41.2013    104.0308   9.7444029009e+01   5.1110532655e+01     0.627803    0.4597634 -60.66  0.003344282    1.265    0.209
        52 -10.0903     62.6738     99.3133   8.8501005236e+01   4.9608840064e+01    0.3160401     0.250002  75.76  0.001568374    1.750    0.429
        53 -12.3888     41.5213     83.0692   9.2233954139e+01   5.6035367533e+01     1.241569    0.6436466 -54.04  0.005749929    1.746    0.427
        54 -11.6708     35.0704     71.3539   9.1636801054e+01   5.9312823333e+01    0.5406596    0.4337735 -67.25  0.003137204    1.497    0.332
        55 -10.9654     17.2526     83.2178   1.0209596863e+02   5.8186374162e+01    0.4465448    0.2909755 -30.12  0.002326726    1.462    0.316
        56 -10.1894    161.0529     77.1330   5.3792431225e+01   3.4348062762e+01     0.503484    0.2829112 -68.32  0.001801542    3.094    0.677
        57 -11.1903    145.7768     69.3516   5.4803268628e+01   3.9245614790e+01    0.4607882    0.4113954   4.76  0.002515106    1.294    0.227
        58  -9.1795     26.4796     69.5059   9.4813043340e+01   6.0536262616e+01    0.1337915    0.1091424 -32.58 0.0001072996    1.019    0.019
        59 -10.5498    170.8194     64.6056   4.8562005422e+01   3.4145936298e+01    0.3385848    0.1982721  69.15  0.001526021    1.853    0.460
        60 -10.2451     31.2496    243.3051   1.1734645641e+02   1.8168538108e+01    0.3699985    0.1630789  69.26  0.001773007    2.435    0.589
        61 -12.6457     21.0229     54.3522   9.2825140573e+01   6.4164103371e+01    0.6814928    0.5777763  48.35  0.003477859    1.664    0.399
        62 -11.1396     20.8533    241.0187   1.1925731980e+02   1.9742852832e+01    0.4675449    0.2351878  86.73  0.001909027    1.915    0.478
        63 -11.7558     54.2009     49.9675   7.6353088278e+01   6.1095303811e+01    0.8757102    0.4250433  43.53  0.003917973    2.406    0.584
        64 -12.9848    221.0099     39.2516   3.5681484059e+01   2.6567492034e+01    0.7461451    0.5935985  82.86   0.00487601    1.208    0.172
        65 -10.1584     16.4841    235.5332   1.1979568316e+02   2.1327104995e+01    0.2068839    0.1402988  55.92  0.000689246    1.218    0.179
        66 -10.2017     92.8175     40.9920   5.9080325085e+01   5.5505433367e+01    0.2316591    0.1513966   7.36  0.001091422    2.035    0.509
        67 -11.8532     35.7491     34.2135   7.8372587908e+01   6.6265104259e+01    0.5645838    0.4671716 -12.52  0.003065448    1.083    0.077
        68 -11.9851    110.2536    241.2560   1.0038521411e+02   8.3347953820e+00    0.4459514    0.3207939 -56.68  0.002426671    1.570    0.363
        69 -13.8338    116.5310    232.2376   9.7825722348e+01   9.1948475354e+00     1.502158    0.9069233  55.85  0.006097485    1.917    0.478
        70 -13.7159    131.9631    231.5156   9.4255864628e+01   6.9925648547e+00     1.055516    0.7641762  40.63  0.004913008    1.273    0.214
        71 -11.3053      1.9835    238.9975   1.2277511928e+02   2.1994276532e+01    0.3025368    0.1386905 -80.12  0.001527145    1.946    0.486
        72 -10.4505    159.3951     16.5312   3.7315460476e+01   4.3076227834e+01    0.2763004    0.1551655 -74.74  0.001317099    2.190    0.543
