#   1 NUMBER                 Running object number                                     
#   2 MAG_AUTO               Kron-like elliptical aperture magnitude                    [mag]
#   3 X_IMAGE                Object position along x                                    [pixel]
#   4 Y_IMAGE                Object position along y                                    [pixel]
#   5 X_WORLD                Barycenter position along world x axis                     [deg]
#   6 Y_WORLD                Barycenter position along world y axis                     [deg]
#   7 A_WORLD                Profile RMS along major axis (world units)                 [deg]
#   8 B_WORLD                Profile RMS along minor axis (world units)                 [deg]
#   9 THETA_WORLD            Position angle (CCW/world-x)                               [deg]
#  10 FWHM_WORLD             FWHM assuming a gaussian core                              [deg]
#  11 ELONGATION             A_IMAGE/B_IMAGE                                           
#  12 ELLIPTICITY            1 - B_IMAGE/A_IMAGE                                       
         1 -11.2963    232.8924     60.8511   1.9689323001e+01   2.2249596712e+01    0.3736283    0.2727821 -82.48  0.002076216    1.550    0.355
         2 -10.5407     87.6251     24.5746   3.0328373154e+01   6.0173984940e+01    0.5926117    0.2843547 -48.27  0.002407451    2.355    0.575
         3 -12.1978     96.6187     22.2760   2.6998350442e+01   5.8162347863e+01    0.4630816    0.3442744  72.16 0.0004913274    1.227    0.185
         4 -11.3011     20.7082     17.0500   6.0382129003e+01   7.5656731732e+01    0.4135343    0.2955227  26.00  0.001833881    1.314    0.239
         5 -10.4386     66.1106     16.1467   3.2970484882e+01   6.6638680489e+01    0.2953813    0.2256567 -32.34 0.0003408614    1.449    0.310
         6 -11.5955    183.2394     14.9922   1.2947141375e+01   3.7490200968e+01    0.7176197     0.407799 -21.78  0.002822543    2.066    0.516
         7 -12.9562    174.1048      3.1083   1.0389954803e+01   4.0745064255e+01     1.544698    0.5115967  89.01  0.006128734    3.196    0.687
         8 -12.9428    178.5671      6.4905   1.1019336432e+01   3.9405343895e+01     0.889351    0.4165528  62.13  0.004423707    2.314    0.568
         9 -10.1270      6.6667     15.2493   7.3157018439e+01   7.7633408547e+01    0.2607959    0.2026908 -80.36 0.0008564744    1.633    0.388
        10 -10.3684    127.8971     14.1917   1.8174440285e+01   5.0951816795e+01    0.2954307    0.2009583  63.05 0.0004241631    1.420    0.296
        11 -10.9286     49.6004     14.1160   3.8843283296e+01   7.0752996973e+01    0.3578855    0.2693432  48.94 0.0008998371    1.194    0.162
        12 -10.5827     45.6542     12.0668   3.9556739518e+01   7.1902326511e+01    0.2755706    0.2386296  28.36 0.0008983212    1.139    0.122
        13 -10.1514    114.8657      8.8628   1.8003387689e+01   5.4882242708e+01    0.2761968    0.2385238 -58.65 0.0005325721    1.151    0.131
        14 -11.7271    119.2219      9.1841   1.7508758475e+01   5.3713288463e+01    0.4204984    0.2975145 -12.77  0.000256256    1.797    0.444
        15 -11.3423    123.9135      6.5124   1.5895821954e+01   5.2751978652e+01    0.3765693    0.2276687 -83.25 0.0008892639    1.574    0.365
        16 -10.2667     34.9698     13.5382   4.6967282216e+01   7.3875154818e+01    0.2726338    0.2278074  21.40  0.000777529    1.175    0.149
        17 -10.0042     32.1514     10.2068   4.6576564322e+01   7.4928813218e+01    0.2286492    0.1905132 -39.77 0.0005848299    1.334    0.251
        18 -11.1577    191.8444     11.9521   1.1584774822e+01   3.5932698769e+01    0.2430135     0.177168 -43.75  0.001521833    1.206    0.171
        19 -10.6799    162.6687     11.8800   1.3703416038e+01   4.2544856411e+01    0.2168212    0.1608962  75.73 0.0006164972    1.324    0.245
        20 -10.4490     74.7972      9.6222   2.6584968164e+01   6.5247418796e+01     0.362613    0.2197469 -21.07  0.001751007    1.960    0.490
        21 -10.2282     78.0659      7.6699   2.4657994140e+01   6.4617001312e+01    0.2786685    0.2303748  54.17 0.0005144447    1.148    0.129
        22  -9.9862     27.5110     11.4552   5.0939668912e+01   7.5576324367e+01    0.2290476    0.2067032  18.58 0.0007008133    1.015    0.014
        23 -10.3127     79.3851     12.0561   2.6571536580e+01   6.3812680942e+01    0.3209967    0.2134355  81.64 0.0006419246    1.542    0.351
        24 -10.6479    104.6979      8.8103   1.9583553385e+01   5.7554655846e+01    0.4112008    0.3784471 -40.92  0.002503868    1.215    0.177
        25  -9.8370     99.2805      9.3345   2.0773935055e+01   5.8925923008e+01    0.2220424    0.1983819 -42.13   0.00048627    1.226    0.185
        26 -10.8794     96.5293      6.0434   1.9816985795e+01   5.9967886278e+01    0.2710586    0.2423524 -61.33 0.0003784518    1.154    0.133
        27 -11.3849     56.7288      8.7448   3.2246675107e+01   6.9800287676e+01    0.4276758    0.3248892  30.83  0.001332923    1.414    0.293
        28  -9.8766     69.8314      8.4300   2.7411069667e+01   6.6628812392e+01     0.369646    0.2051026 -10.70  0.001617408    2.534    0.605
        29 -10.4902    213.0372      8.7165   9.6333795579e+00   3.1907725003e+01    0.1805527    0.1636754 -67.64 0.0004897682    1.257    0.204
        30 -10.3115      3.5792      8.3193   7.2840021761e+01   7.9334485042e+01    0.2240385    0.1883513 -11.94 0.0005862524    1.058    0.055
        31 -10.9196     85.5485      7.4618   2.2729653733e+01   6.2704030706e+01    0.2753738    0.2565442  88.09 0.0007066611    1.075    0.070
        32 -10.8696     88.7044      5.6743   2.1173456151e+01   6.2053839156e+01    0.2596003    0.2218289  72.40 0.0004095214    1.038    0.036
        33 -10.1265     21.9166      6.2791   5.1718028777e+01   7.7369730275e+01    0.4217989    0.2410788 -15.13  0.001177995    2.875    0.652
        34  -8.7845    242.5411      5.4910   7.7089819542e+00   2.6792457831e+01    0.1095524   0.07694957 -51.79 3.884446e-05    1.007    0.007
        35  -9.9565    203.4480      4.8330   9.2032274118e+00   3.4216787289e+01    0.2015705    0.1624975  44.23 0.0007558147    1.795    0.443
        36  -9.6983    178.6682      1.6828   9.7310959986e+00   3.9844825526e+01    0.1676985    0.1393053  42.29 0.0005981944    1.659    0.397
        37 -10.7443    131.8488      4.1363   1.4139842536e+01   5.0929961808e+01    0.3784647    0.2036926  73.26  0.001522203    1.653    0.395
        38  -9.1929     16.3754      4.8140   5.5798483544e+01   7.8486247132e+01    0.1733865    0.1471631  29.81 0.0004486828    1.128    0.113
        39  -9.1131    229.9854      1.6926   7.3830943189e+00   2.9385330425e+01    0.1512447    0.1107469 -60.80 0.0005118801    1.081    0.075
        40 -11.0956    114.3635      1.8206   1.5297382989e+01   5.5663287619e+01    0.4319857    0.1752066  76.41  0.001028132    2.171    0.539
        41  -9.7391     37.5113      1.5973   3.6567836600e+01   7.5004891325e+01    0.2614999    0.1479925  56.69  0.001295607    1.639    0.390
        42  -8.4558     66.2752    103.2604   6.6140775560e+01   4.8365525483e+01    0.1472583    0.1215889 -18.55            0    1.468    0.319
        43 -10.8325     49.4659    101.2100   7.2591165180e+01   5.1495317611e+01    0.3239702     0.282391 -19.56 0.0007950997    1.298    0.230
        44  -8.6381    108.2946    101.2652   5.1208746170e+01   4.0801847893e+01    0.1465701    0.1234636   2.19 0.0002657637    1.508    0.337
        45 -10.2662     27.3325    100.0335   8.2293026645e+01   5.4449435244e+01    0.5062913    0.2466421 -33.26 0.0006877148    2.766    0.638
        46  -8.5327    159.6583     98.2807   3.8100687255e+01   3.0545361611e+01     0.141515    0.1080089 -79.33 0.0005045626    1.629    0.386
        47 -10.5278    236.8497     96.3049   2.6541759115e+01   1.6956110934e+01    0.2261108    0.1152891 -28.33  0.001047885    1.843    0.457
        48  -9.4573    103.1389     97.0820   5.1627825101e+01   4.2824560224e+01    0.3226404    0.2921288  49.57  0.001670363    1.086    0.079
        49 -10.3649     64.0111     96.0258   6.5287334761e+01   5.0616838068e+01    0.3693537    0.3192489 -77.80  0.001311766    1.204    0.169
        50  -9.5751     61.2190     91.2456   6.5223054675e+01   5.2314730732e+01     0.404984    0.2208543 -67.92  0.001562478    2.121    0.529
        51 -12.1906     41.1016     95.3177   7.5070039979e+01   5.4204996704e+01    0.6398339    0.3324889  28.91  0.002604319    1.872    0.466
        52 -11.3860      3.7213     96.3179   9.3015045754e+01   5.7193118529e+01    0.2615742    0.2485181   6.94 0.0003659925    1.126    0.112
        53 -10.3623     17.1866     94.0895   8.6244942566e+01   5.6976171256e+01     0.702274    0.1515464  34.05  0.002148619    3.665    0.727
        54  -8.9103     89.6938     94.6134   5.5293341407e+01   4.6170905367e+01    0.1622646    0.1250729 -14.43 0.0007017672    1.803    0.445
        55 -10.8275    131.9823     92.6641   4.2578526096e+01   3.7523308748e+01    0.3048437    0.2534353  46.02 0.0007551414    1.244    0.196
        56  -9.3035    108.5897     89.7378   4.7939316687e+01   4.3280964333e+01    0.2134773     0.145545 -58.90 0.0009373462    1.581    0.367
        57  -8.9550     12.2756     85.6894   8.7579140880e+01   5.9641676943e+01    0.1480277    0.1001084  58.28            0    1.556    0.357
        58 -10.7380    238.1775     81.1766   2.3383843425e+01   1.8766884843e+01    0.1671101    0.1118565 -53.17  0.001092169    1.371    0.271
        59 -11.4617     54.7655     78.8101   6.4657879108e+01   5.6547513566e+01    0.3822564    0.3058423  81.42 0.0005832685    1.455    0.313
        60  -9.4355      5.6892     80.0411   9.0371982110e+01   6.1567637781e+01    0.1961595    0.1702962 -76.49 0.0004370108    1.094    0.086
        61  -9.7644     88.7908     78.9765   5.0990218797e+01   4.9953540666e+01    0.2199844    0.2106011  -5.49 0.0003906635    1.176    0.149
        62  -9.7133     77.9602     77.9978   5.4623199939e+01   5.2442930295e+01    0.2280352    0.2160547  63.59  0.001199488    1.018    0.018
        63  -8.8902    144.0145     77.2700   3.5642233868e+01   3.7737632127e+01    0.1787038    0.1261226  57.98  0.000583845    1.445    0.308
        64  -8.4400     72.6719     77.7132   5.6603629215e+01   5.3566907349e+01    0.1535225    0.1246502  -3.31 0.0006126998    1.612    0.380
        65 -10.4179      2.7669     75.2073   9.1433048377e+01   6.3014591098e+01    0.2880574    0.2339578  -4.18  0.001601323    1.303    0.232
        66  -9.4111     77.0995     71.0956   5.2706170991e+01   5.4188957673e+01    0.2278069    0.2153644   5.84 0.0007636509    1.180    0.152
        67  -9.0672     63.9977     69.5139   5.7583501681e+01   5.7164217693e+01    0.2210126    0.1477892  39.21 0.0003339701    1.454    0.312
        68  -9.7316      7.9156     68.6431   8.7539171337e+01   6.4527706185e+01    0.1899949    0.1701841  18.16 0.0004453282    1.158    0.136
        69 -10.1019     83.0606     68.0189   4.9416367000e+01   5.3590198754e+01    0.2270641    0.2174094  61.82            0    1.019    0.019
        70  -9.4961    151.8320     66.4185   3.1078813692e+01   3.7805256229e+01    0.2311799     0.168133 -35.50  0.000798654    1.399    0.285
        71  -9.3020    139.7601     66.9725   3.3523007691e+01   4.0528144842e+01    0.1958363    0.1195396 -39.36 0.0008841293    1.618    0.382
        72 -10.5232     69.7002     65.5018   5.3755323951e+01   5.6958642417e+01    0.4551665    0.3405625  74.19  0.001981673    1.664    0.399
        73  -9.7374    192.0797     65.8942   2.4987719567e+01   2.9144019662e+01    0.1902512    0.1573406 -53.69 0.0004094274    1.036    0.035
        74  -8.9033    203.4753     65.4430   2.3552005357e+01   2.6960396660e+01    0.1278002    0.1035565 -53.01 3.572381e-05    1.046    0.044
        75  -9.9673     84.9791     63.4883   4.7133475597e+01   5.4118122272e+01    0.2796631    0.2290737 -52.91 0.0006760359    1.263    0.208
        76 -10.4860     85.2396     59.1260   4.5454691431e+01   5.4943882800e+01    0.4936533    0.3455577  85.49  0.002111824    1.995    0.499
        77  -9.7304     75.1092     64.3523   5.1146248172e+01   5.6089357958e+01    0.2170639    0.1900546  56.31 0.0007836577    1.107    0.096
        78 -10.4926      4.0972     63.8752   8.9160938748e+01   6.5988686741e+01     0.360223    0.2421158   6.58  0.001328567    1.553    0.356
        79 -11.0042      3.5407     59.4948   8.8848110187e+01   6.7166832493e+01    0.4086535      0.27632 -28.12  0.001179965    1.500    0.333
        80 -10.5231    244.6102    199.1904   4.3741431868e+01   2.4178271299e+00    0.1537805   0.07226008 -25.91 0.0009545968    1.753    0.430
        81  -9.7841    121.0068     61.9381   3.6056297779e+01   4.5898224463e+01    0.2205176    0.2012923 -87.12  0.001195604    1.036    0.035
        82 -10.7775     99.0083     61.5829   4.1847828562e+01   5.1256560137e+01    0.4909745    0.3201278 -70.51  0.002038403    2.072    0.517
        83  -9.2573    114.3061     60.9375   3.7374519219e+01   4.7702206368e+01    0.2035648    0.1882115 -55.45 0.0003539129    1.104    0.094
        84 -10.0511     35.1928     60.9142   6.9329739034e+01   6.3957316894e+01    0.2646215    0.2060732  19.59  0.000666082    1.308    0.236
        85 -10.4359     14.2374     61.2044   8.2233312406e+01   6.6080975354e+01    0.3607357    0.1812967   7.29  0.001513739    2.195    0.545
        86 -10.4300     57.3203     59.7923   5.7229370218e+01   6.0652495363e+01    0.2732061    0.2325182  34.04 0.0003794819    1.158    0.136
        87 -10.5722     67.7857     58.9067   5.2158650450e+01   5.8791695180e+01    0.2850133    0.2185683  57.78  0.001379158    1.343    0.255
        88 -11.5968     24.3737     57.1337   7.4735345563e+01   6.6204607291e+01    0.5408702    0.4966525 -15.29  0.002799286    1.085    0.078
        89 -10.2540     23.0056     51.1337   7.3810750669e+01   6.7841046377e+01    0.4285289    0.2263311 -39.69  0.001841224    2.027    0.507
        90 -10.2000     43.4797     62.7305   6.5299065326e+01   6.2320950856e+01    0.2694699    0.2573534  28.74  0.000514881    1.028    0.027
        91 -10.4547     78.1084     55.7987   4.6803145890e+01   5.7218295782e+01    0.3248211     0.216859  50.52 0.0009062222    1.430    0.301
        92  -9.2126     45.5048     56.5320   6.2047718023e+01   6.3472764473e+01    0.1466201    0.1410068  45.75 0.0005280954    1.041    0.039
        93 -11.6828     70.6145     51.6259   4.8121405901e+01   5.9702782850e+01    0.6209758    0.4230602  71.82   0.00270616    1.930    0.482
        94 -11.2235     63.2099     52.1188   5.1519408022e+01   6.1164886436e+01    0.3806172    0.3564793 -48.58  0.001934419    1.119    0.106
        95  -8.8298    123.3501     52.2733   3.2323665862e+01   4.6970265095e+01    0.1461045    0.1127178  34.07 0.0007000418    1.632    0.387
        96  -8.8184    111.5012     51.4838   3.4820833273e+01   5.0041993229e+01    0.1484939    0.1400827  60.00 0.0008080174    1.113    0.102
        97  -9.5012     15.4825     51.4354   7.9034241849e+01   6.8483095475e+01    0.1352962    0.1322957 -14.00 3.316434e-05    1.037    0.036
        98  -8.7670    145.6704     49.7172   2.7224262160e+01   4.1889919457e+01    0.1362513    0.1094855  34.36 0.0004389852    1.607    0.378
        99 -11.7216     94.0808     48.5573   3.8538002725e+01   5.4836531105e+01    0.2694613    0.2537353 -52.33  0.000115823    1.123    0.109
       100  -9.8569     34.8316     48.2391   6.5127489225e+01   6.7041033997e+01    0.2466517    0.2405034 -42.46 0.0008613046    1.060    0.057
       101  -9.0084    148.5537     47.4515   2.6064546754e+01   4.1529137172e+01    0.1407221    0.1263919 -73.92 0.0001064066    1.016    0.016
       102 -10.7534     52.0239     46.2409   5.4479643643e+01   6.4595733274e+01    0.5080449     0.263849  43.97   0.00213122    1.849    0.459
       103  -8.9048     91.6818     57.7006   4.2749792372e+01   5.3730660178e+01    0.1501018    0.1212512  18.35 0.0002286304    1.617    0.382
       104  -9.1923    142.1631     44.8675   2.6309032317e+01   4.3459959635e+01    0.1788229    0.1689085  34.35 0.0004354865    1.293    0.226
       105  -9.1050      7.4344     45.1091   8.3234405528e+01   7.0647729234e+01    0.2068198    0.1246791 -65.90 0.0009274237    1.582    0.368
       106 -10.8002    118.9943     42.8525   3.0016807516e+01   4.9546978981e+01    0.3573744    0.2380342 -44.06 0.0004165168    1.500    0.333
       107 -11.7815     38.4594     36.8705   5.7981946016e+01   6.8967502319e+01    0.6742235    0.3926286  25.28  0.002075883    1.908    0.476
       108 -10.8045     37.9678     43.5477   6.1284056734e+01   6.7622983174e+01    0.4705824    0.2691299  40.72  0.002128036    1.708    0.415
       109 -10.3350     32.7140     44.0786   6.4829946024e+01   6.8295951930e+01    0.4349899    0.1854644  36.01  0.001730007    2.219    0.549
       110  -8.7045     24.3085     44.3071   7.0592273638e+01   6.9337505675e+01    0.1461688    0.1010818 -25.05 0.0007007582    1.613    0.380
       111  -9.2578     20.1108     44.5436   7.3655153132e+01   6.9744345861e+01     0.206322    0.1319167  22.73   0.00100877    1.535    0.349
       112  -8.9698     71.4742     42.5032   4.3925575243e+01   6.1255950542e+01    0.1483305    0.1391483  52.49 -2.998334e-05    1.022    0.022
       113  -9.0242    174.0040     41.5286   2.0902203990e+01   3.6401961558e+01    0.1699242    0.1011314  44.57 0.0003884131    2.287    0.563
       114  -9.0959    107.0907     40.9021   3.2028892249e+01   5.2859926828e+01    0.1947388    0.1668366  42.91            0    1.289    0.224
       115  -9.2191     89.8446     39.4878   3.6186407363e+01   5.7405987250e+01    0.2574406    0.1789995  -6.13  0.001109688    2.281    0.562
       116 -10.1578      1.3508     39.6392   8.6735837954e+01   7.2318962701e+01     0.230387    0.1184674 -72.05 0.0002528471    1.878    0.467
       117  -9.1276    207.7708     37.9957   1.6732172690e+01   2.9701574708e+01    0.1650842    0.1190048 -44.76  0.001043572    1.143    0.125
       118  -9.6257     96.1813     38.0763   3.3760898523e+01   5.6051336303e+01    0.2088957    0.1882231  49.20 0.0003492079    1.155    0.134
       119  -9.4236     81.8820     35.8045   3.7147263885e+01   5.9952295891e+01    0.2068227    0.1852374  46.50 0.0002823362    1.125    0.111
       120 -10.4211     48.1225     33.7811   5.0773668167e+01   6.7823688181e+01    0.4429656    0.2663822 -24.45  0.001870605    2.387    0.581
       121 -10.0280     51.7849     33.3709   4.8606525261e+01   6.7170916243e+01    0.3073623    0.2453485  21.67 0.0006190847    1.380    0.275
       122  -9.9460    174.0404     34.4708   1.8980301525e+01   3.7302645244e+01    0.2399842    0.1713502 -44.38 0.0005080458    1.250    0.200
       123  -9.4383     57.5321     35.0039   4.6548271916e+01   6.5679772689e+01     0.204045    0.1444602 -39.78 0.0007319773    1.517    0.341
       124  -9.2007     13.3242     34.3422   7.5254416482e+01   7.2808379273e+01    0.1486645   0.09063771 -30.07 0.0007050858    1.731    0.422
       125 -10.1023    119.2092     34.9338   2.7129336151e+01   5.0647179022e+01    0.2215964    0.1800382 -68.81 0.0005070957    1.197    0.165
       126  -9.6707    139.5905     32.8881   2.2884323336e+01   4.5753918207e+01    0.2407043    0.1756978  63.48 0.0007291285    1.357    0.263
       127  -9.5868    154.1187     31.9777   2.0581944437e+01   4.2293337777e+01    0.2067979    0.1799939 -76.44 0.0004412569    1.026    0.025
       128 -10.0380     83.0249     31.3802   3.4794203235e+01   6.0360111216e+01    0.5397275     0.175254  52.19  0.001257162    2.744    0.636
       129 -10.1648     17.5409     31.3896   7.0583687507e+01   7.3064819548e+01    0.2252792    0.2203054   6.62  0.000448122    1.098    0.089
       130  -9.7156      3.7816     31.1806   8.2441149940e+01   7.4248259114e+01    0.2938098     0.165238  34.72 0.0005833848    1.878    0.467
       131  -8.7236     68.6484     31.7010   4.0068084854e+01   6.3767791251e+01    0.1500047    0.1091857  26.20 0.0007036536    1.692    0.409
       132  -8.9639    100.0285     29.9719   2.9433741958e+01   5.6265719864e+01     0.169296    0.1582299 -80.30 0.0003712132    1.068    0.063
       133  -9.8712     64.8950     30.0083   4.0765713728e+01   6.4908595787e+01    0.2174061     0.204571  67.22 0.0006747616    1.056    0.053
       134  -9.5278     59.1996     29.7893   4.3150844443e+01   6.6225543200e+01    0.2065597    0.1894495  66.28 0.0007148838    1.106    0.096
       135  -9.2121    149.3710     29.2690   2.0361297424e+01   4.3790776506e+01    0.1346903   0.09935839  45.23 0.0006994834    1.670    0.401
       136 -10.1424    160.7640     27.1832   1.8365155570e+01   4.1288946047e+01    0.2266572    0.1799652 -65.12 0.0006483931    1.089    0.082
       137  -9.7800    153.1365     27.8472   1.9450796424e+01   4.3045502251e+01    0.2042402    0.1570495 -68.43 0.0002570106    1.162    0.139
       138 -10.9318    143.4549     27.7172   2.0655140137e+01   4.5446357229e+01    0.3464876    0.1248844  57.92  0.001336607    2.680    0.627
       139  -9.2281    104.0093     28.2430   2.7788678097e+01   5.5476258515e+01    0.1989242    0.1651082  76.57 0.0002935229    1.098    0.090
       140  -9.1557     42.2385     28.5833   5.1450293796e+01   6.9919488222e+01    0.1888002    0.1266107  31.83 0.0004030485    1.494    0.331
       141 -10.3363    237.8002    187.5935   4.2883580421e+01   4.5322784827e+00    0.1294657   0.09600146  34.39 0.0009599337    1.748    0.428
       142 -10.5570     46.8626     26.7269   4.7757130062e+01   6.9353226262e+01    0.2293377    0.2162093 -13.60 0.0003281973    1.119    0.106
       143 -10.0080    120.3340     26.0479   2.3663475768e+01   5.1535581751e+01    0.3300523    0.1698754  54.22  0.001442561    1.932    0.482
       144  -9.8189     30.8048    183.5926   8.9610851999e+01   3.1831606076e+01    0.2028231    0.1039587  35.50 0.0004608593    1.610    0.379
       145  -9.1450     60.5639     25.9740   4.0547618135e+01   6.6538993280e+01    0.2003523    0.1424424 -34.04  0.001006795    1.547    0.354
       146  -9.2998     56.1473     25.8883   4.2519464058e+01   6.7538356063e+01    0.1899316     0.162855  18.67   0.00066498    1.280    0.218
       147  -9.0787     32.4679     26.4938   5.6670679197e+01   7.2039752246e+01     0.137733     0.126309  12.26 8.765117e-05    1.030    0.029
       148 -10.2552    111.1985     24.7507   2.4875557178e+01   5.4065967016e+01    0.2999678    0.1805658  83.18 0.0009544626    1.721    0.419
       149  -8.7273    250.8062     23.9899   1.1031198593e+01   2.3525764967e+01    0.1357798   0.06373843 -34.88 0.0003385135    1.630    0.387
       150  -8.9413    239.2003     24.2194   1.1653039242e+01   2.5452914745e+01    0.1564644   0.09104007 -53.27 0.0004009434    1.300    0.231
       151  -9.1342    169.9622     23.9881   1.6498601943e+01   3.9503770433e+01    0.1607077    0.1334586 -65.70 0.0004313749    1.006    0.006
       152  -9.3503    128.9151     24.1673   2.1566918718e+01   4.9557892530e+01    0.2138986    0.1682295 -75.09 0.0003581494    1.179    0.152
       153 -10.5903      2.8727     23.6044   8.0789204567e+01   7.6064511482e+01    0.2405619    0.1943997 -36.71 0.0006096984    1.128    0.114
       154  -9.0291    245.5824     23.4745   1.1180541623e+01   2.4445406173e+01    0.1097558   0.07918701 -48.61 5.998639e-05    1.028    0.027
       155  -9.8674    195.9082     22.6623   1.3971267644e+01   3.3914542068e+01    0.1961607    0.1569702 -35.95 0.0005749982    1.277    0.217
       156  -9.6179     72.9362     22.4909   3.3890552199e+01   6.4129149482e+01    0.2001069    0.1876646  65.98 0.0004602901    1.035    0.034
       157 -10.3523     38.3344     22.6634   5.0535357063e+01   7.1716966780e+01    0.2437285    0.2081005  25.50 0.0002802993    1.120    0.107
       158  -9.5459     21.5017     22.4400   6.2867763153e+01   7.4489122709e+01    0.2144853    0.1343463 -67.66 0.0007479012    2.197    0.545
       159 -10.3337    243.9926    179.9910   4.0802871407e+01   4.8436564102e+00    0.1468499     0.118194 -43.03 0.0009853056    1.663    0.399
       160  -9.3836    140.3648     22.0000   1.9205578281e+01   4.6905425624e+01    0.3071375   0.07239061  71.12 0.0009418318    3.992    0.750
       161  -9.7160     66.6032     20.8362   3.5332812959e+01   6.5891804564e+01    0.2431308    0.1783347  57.49 0.0003341711    1.237    0.191
       162  -9.3971     70.2172     18.3755   3.2705252379e+01   6.5348916022e+01    0.2833481     0.128152  67.09 0.0009423738    2.388    0.581
       163  -9.4152     20.7233    174.7313   9.2077158385e+01   3.4926038643e+01    0.1998352    0.1306579  51.95 0.0006108165    1.343    0.255
       164  -9.6260     30.6659     20.5685   5.4543294593e+01   7.3453859486e+01    0.2408479    0.1533302  44.93 0.0009949362    1.567    0.362
       165  -9.1693    159.0278     20.0762   1.6454022318e+01   4.2531335741e+01    0.2219388    0.1263336 -60.24 0.0007054132    1.630    0.386
       166  -9.3840     48.6545     19.8707   4.2852868077e+01   7.0112143809e+01    0.1783507    0.1754153  -5.04 0.0004287609    1.100    0.091
       167 -10.2609    147.5533     18.2273   1.7116055050e+01   4.5538471590e+01    0.2312064    0.2028207 -29.17 0.0008682561    1.318    0.241
       168  -9.5392    109.5517     19.3143   2.3038422627e+01   5.5152758433e+01    0.1696675    0.1426052  -9.83 0.0009299768    1.486    0.327
       169  -9.6364     14.6798     17.6665   6.6299331247e+01   7.6315153745e+01    0.2568237    0.1754897 -31.08  0.001318876    1.500    0.333
       170  -9.9866     11.5007     17.5160   6.9331741901e+01   7.6697591122e+01    0.2523992    0.1515841  19.86 0.0009823203    1.596    0.373
       171  -9.1221    224.4868    173.5015   4.2496681736e+01   7.8762253796e+00     0.112394    0.0888946 -18.53  9.40121e-05    1.045    0.043
       172  -9.6880     21.6712    170.0220   9.1498302324e+01   3.6023879270e+01    0.1908684    0.1698508  65.43 0.0005939996    1.064    0.060
       173  -8.9627      3.2089    156.5557   9.6724518147e+01   4.0880487976e+01    0.1676114    0.1303598   0.64 0.0004255558    1.475    0.322
       174 -10.0063     85.0216     15.8979   2.6967059277e+01   6.1929709865e+01    0.3928959    0.1779671  62.01  0.001643863    1.918    0.479
       175  -9.6292    249.3170    149.3219   3.4964627646e+01   8.1845289773e+00    0.1094168   0.06938778 -11.09 0.0005766018    1.664    0.399
       176  -9.7488    244.3193    148.3307   3.5412503741e+01   8.9080521507e+00    0.1119024   0.07122786 -10.77 0.0007048174    1.690    0.408
       177  -9.1578     39.9614    147.4687   8.3503989265e+01   4.0104561283e+01    0.2192391   0.09041747  46.37 0.0004817783    2.298    0.565
       178 -11.0162    239.9832    146.0141   3.5553549441e+01   9.7480111811e+00    0.1385227    0.1071622 -24.83 0.0004908558    1.010    0.009
       179 -10.2323     25.2712    146.1581   8.8535771492e+01   4.1929243576e+01    0.3599457    0.1977971  22.41 0.0007323264    1.770    0.435
       180  -8.7623     48.5832    143.5170   8.0007669362e+01   4.0158920667e+01    0.1481389    0.1388671  58.89 0.0001573264    1.017    0.017
       181  -9.3082      7.0995    143.3669   9.4786557795e+01   4.4099659511e+01    0.1994538    0.1659701  48.64 0.0008534869    1.096    0.087
       182 -11.0162    246.4085    137.7178   3.3272553826e+01   1.0057649049e+01    0.1765064    0.1228225   7.09  0.001194454    1.764    0.433
       183  -8.8893     28.4959    138.4914   8.6654795749e+01   4.3701682271e+01    0.1444485    0.1372618  64.54   3.3204e-05    1.042    0.041
       184  -9.4675      3.4850    138.4791   9.5832534956e+01   4.5636567658e+01     0.140743    0.1244267  63.39 4.168662e-05    1.012    0.011
       185  -9.1785     11.3593    133.2587   9.2609123258e+01   4.6543213657e+01    0.1997993    0.1230729  81.94 0.0009329452    1.585    0.369
       186  -9.7028     17.6280    132.1379   9.0141809178e+01   4.6385057358e+01    0.2484648    0.1776068  41.62 0.0005429545    1.307    0.235
       187 -10.9168    249.9686    128.8054   3.1251944515e+01   1.0785433706e+01    0.2128687    0.1255518 -33.69  0.001402883    1.285    0.222
       188  -9.1123     58.7378    129.0378   7.4190975286e+01   4.2695898672e+01    0.2024854    0.1931745  89.88 0.0002852161    1.057    0.054
       189  -9.5362     39.8470    126.5575   8.0929467741e+01   4.5782927401e+01     0.391802    0.1819774  87.72 0.0004860421    2.987    0.665
       190 -12.7478    244.2461    121.6783   3.0598715369e+01   1.2475996604e+01    0.4438904    0.2030731 -29.49  0.002422562    1.921    0.479
       191  -8.8257     69.5168    118.5719   6.8283279103e+01   4.3839379462e+01    0.1569903    0.1454984  57.61 0.0001999409    1.041    0.039
       192  -8.6457     53.7028    117.2809   7.4017337339e+01   4.6561751314e+01    0.1587868    0.1106232  60.16 0.0002836746    1.540    0.351
       193  -9.6255     13.9587    116.9441   9.0271700341e+01   5.0856648796e+01    0.2947969    0.1507314 -48.80  0.001230769    2.079    0.519
       194  -9.5936     91.8469    116.2387   6.0054635540e+01   4.0538456591e+01    0.2336427    0.2036061  60.16 0.0004977385    1.160    0.138
       195 -10.1677     34.0259    116.1127   8.1781144193e+01   4.9306949526e+01    0.2194957    0.2107576  65.34 0.0004066363    1.018    0.017
       196  -9.1684     80.2681    114.0131   6.3449377536e+01   4.3195582767e+01    0.2073383    0.2002396 -72.77 0.0003023228    1.057    0.054
       197  -9.5124     96.0475    111.9306   5.7680791078e+01   4.0786241025e+01    0.2273562    0.2212531 -16.61 0.0005196986    1.104    0.094
       198  -9.1190     79.4903    110.5221   6.2918834577e+01   4.4216538752e+01    0.1551112    0.1513042  52.09  0.000390682    1.031    0.031
       199 -10.1150    243.3307    108.2964   2.8179125814e+01   1.4394905071e+01    0.1073808   0.07854202  -7.83 0.0007027296    1.638    0.390
       200  -8.7721     49.9725    108.7319   7.3902816469e+01   4.9392152082e+01    0.1887066    0.1329316  28.00 0.0003147346    1.416    0.294
       201  -9.3157     18.6515    108.0156   8.7322554427e+01   5.2990448618e+01     0.199828    0.1822904 -81.35 0.0007792576    1.061    0.058
       202  -9.6001     13.8733    107.1850   8.9356363812e+01   5.3577094747e+01    0.2892951    0.1787503  78.86  0.001018555    1.666    0.400
       203 -11.7798    248.2293     99.8627   2.6059614240e+01   1.4817644961e+01    0.2814954    0.2106153   6.89  0.001929727    1.853    0.460
       204  -9.9567      2.0778    104.5435   9.4413658365e+01   5.4999025229e+01    0.2884778    0.1844872 -50.40  0.001403931    1.592    0.372
       205 -10.3209     78.8073    101.8217   6.1048576393e+01   4.6526656943e+01    0.5387348    0.2319809 -56.69  0.001898604    2.405    0.584
       206  -8.6572     86.6736    103.2838   5.8633921524e+01   4.4683550035e+01    0.1609781    0.1197707  70.45 0.0004041582    1.603    0.376
