#   1 NUMBER                 Running object number                                     
#   2 MAG_AUTO               Kron-like elliptical aperture magnitude                    [mag]
#   3 X_IMAGE                Object position along x                                    [pixel]
#   4 Y_IMAGE                Object position along y                                    [pixel]
#   5 X_WORLD                Barycenter position along world x axis                     [deg]
#   6 Y_WORLD                Barycenter position along world y axis                     [deg]
#   7 A_WORLD                Profile RMS along major axis (world units)                 [deg]
#   8 B_WORLD                Profile RMS along minor axis (world units)                 [deg]
#   9 THETA_WORLD            Position angle (CCW/world-x)                               [deg]
#  10 FWHM_WORLD             FWHM assuming a gaussian core                              [deg]
#  11 ELONGATION             A_IMAGE/B_IMAGE                                           
#  12 ELLIPTICITY            1 - B_IMAGE/A_IMAGE                                       
         1 -13.1551    171.0477     54.3285   6.1288464105e+01   3.5368872668e+01     1.839532     1.136701  30.98  0.004935512    2.141    0.533
         2 -13.5149    185.7849     39.9291   5.4333321463e+01   3.3649746641e+01     1.080765     1.027106  -9.04  0.003634854    1.154    0.133
         3 -12.8373    190.4895     34.0120   5.1870183492e+01   3.3218514212e+01    0.6641427    0.5636002 -43.58  0.001296131    1.174    0.148
         4 -13.9373    208.6604      8.9129   4.2621252045e+01   3.1516057309e+01     1.354656     1.081302  49.58  0.005021084    1.397    0.284
         5 -12.2320    190.4018     15.6966   4.6536125484e+01   3.5441190325e+01    0.5504714    0.4683074 -80.18  0.001996596    1.120    0.107
         6 -11.2255    241.1076      1.9232   3.8110489929e+01   2.4437056509e+01    0.6348526    0.1705963  74.53  0.002334427    3.569    0.720
         7 -10.2366      8.6387    217.7752   1.3015824613e+02   2.8274588759e+01   0.08245406   0.07625245  89.99  0.000672105    1.574    0.364
         8 -13.0564    247.3542    244.9208   9.0372847151e+01  -1.0664060157e+01     1.006547     0.745438  -7.69  0.007434261    1.294    0.227
         9 -11.8376     40.4885    213.5005   1.2434615900e+02   2.5709474809e+01    0.1845068    0.1312013  70.04  5.13245e-05    1.060    0.056
        10  -8.9940    156.5259    190.4658   9.8197087084e+01   1.2219972783e+01     0.137692    0.1239399  40.18 3.698769e-05    1.037    0.036
        11 -10.6806    150.9853    188.9467   9.9095380796e+01   1.3538304722e+01    0.3743078    0.1703943 -60.85  0.001399579    3.322    0.699
        12 -17.8905     39.0220    241.7137   1.2641867550e+02   2.0685380230e+01     6.582057     5.505762  50.22   0.05055471    1.478    0.323
        13  -8.8787     64.9572    187.0000   1.1719776064e+02   2.8071242827e+01    0.1863737   0.06580567  37.57 0.0007829418    2.809    0.644
        14  -9.8649    238.5165    185.5024   8.1429336025e+01  -2.0702960939e+00    0.1313764    0.1100143   6.06  0.000810444    1.009    0.009
        15  -9.6188    153.4887    184.4676   9.7795762102e+01   1.3916684111e+01    0.2448482    0.1343306 -61.88  0.001032372    2.484    0.597
        16  -9.8229    189.1595    178.4603   8.9304640813e+01   8.1243139368e+00    0.3747032     0.302055  84.80  0.001252835    1.809    0.447
        17  -9.8275    188.0072    173.7085   8.8598544439e+01   9.1847275100e+00    0.3850216    0.2549143 -67.58  0.001667815    2.542    0.607
        18 -19.1280     23.9888    103.4610   1.1660376437e+02   5.1810986780e+01     16.54163    0.8603962 -67.66   0.02858441   14.605    0.932
        19  -8.4276     64.3543    170.2849   1.1540386755e+02   3.1815517735e+01    0.1177762    0.1000868 -35.03 0.0002546099    1.666    0.400
        20 -11.1435     75.4281    248.1674   1.2079712000e+02   1.4996956432e+01     0.325178    0.1264834 -59.93  0.001739617    3.030    0.670
        21 -11.3551     53.6402    210.0679   1.2164507027e+02   2.4792655984e+01    0.1819738    0.1380443  58.41  0.000254616    1.167    0.143
        22 -11.4548     71.0538    207.6664   1.1808515195e+02   2.2980495980e+01    0.4498065    0.3039537  25.40   0.00255722    2.167    0.539
        23 -11.6248     61.3327    204.5909   1.1969015587e+02   2.4899276170e+01     0.302861    0.2026255 -55.03  0.001648085    1.869    0.465
        24  -9.5844    230.3197    166.3127   7.8987213860e+01   2.2421401475e+00     0.142271   0.09818904   7.21 0.0002527171    1.649    0.394
        25  -9.3275    186.9964    165.5594   8.7146501637e+01   1.0853418553e+01     0.267829    0.2031794 -56.22  0.001232849    1.576    0.365
        26  -9.3868      6.4960    161.2035   1.2722705087e+02   3.9995538811e+01    0.1614426    0.1342331  66.86   0.00032207    1.248    0.198
        27 -11.0278     93.4779    157.7018   1.0679557255e+02   3.0388770364e+01    0.2758971    0.2486296 -74.56 0.0005399102    1.099    0.090
        28 -11.8703     98.8759    151.1594   1.0436421255e+02   3.1001621713e+01    0.6052676    0.4536882 -37.70  0.003096591    1.654    0.395
        29  -9.4850     87.4448    202.9969   1.1433504799e+02   2.1561819275e+01    0.2047968    0.1963338  10.07 0.0009422923    1.482    0.325
        30 -10.9671    133.8493    145.6314   9.4754194745e+01   2.5791612421e+01     1.217746    0.3130321 -55.02  0.002982292    5.612    0.822
        31  -9.7241    113.4482    151.1911   1.0080342367e+02   2.8443516735e+01    0.3307458    0.2214031 -84.29   0.00148323    1.931    0.482
        32  -9.3019    174.8650    149.1241   8.6166939632e+01   1.6500240608e+01    0.2288532    0.2063578  86.72 0.0005198948    1.281    0.220
        33 -10.8700    193.7021    196.2072   9.1739949728e+01   4.3050563502e+00     1.049962    0.5441511 -63.24  0.003030628    7.056    0.858
        34  -9.3318     92.1237    146.8340   1.0527347957e+02   3.3121008462e+01    0.2192422    0.1849341  80.24  0.001223374    1.147    0.128
        35 -11.4307    109.2359    138.1822   9.9288444354e+01   3.2192270319e+01    0.6264181    0.3656686 -42.26   0.00270944    1.921    0.479
        36  -8.8431    127.9996    139.4921   9.4864481677e+01   2.8322325253e+01    0.2293913    0.1465594  44.34  0.001023303    1.562    0.360
        37 -11.8240     97.8883    137.0718   1.0197929573e+02   3.4449612065e+01    0.2926917    0.2774213 -60.65 0.0003194425    1.114    0.103
        38 -10.9437    105.9037    130.6629   9.8576028804e+01   3.4544947260e+01    0.3962511    0.3179075 -68.07  0.001204795    1.228    0.186
        39 -10.3419    135.7186    127.4475   9.0226576025e+01   2.9441316773e+01    0.7202328    0.1737178 -49.75   0.00188249    4.412    0.773
        40 -10.0424    115.9873    128.8434   9.5551822400e+01   3.3090235053e+01    0.3118489    0.2713753   3.01  0.000752985    1.445    0.308
        41  -9.6417    161.1057    128.2104   8.4356711524e+01   2.3763603060e+01    0.3050789    0.2252315  69.35  0.001362094    1.660    0.398
        42 -10.5424    103.9031    124.5200   9.7767738574e+01   3.6341634299e+01    0.2938576    0.2597687  -8.10 0.0007910209    1.407    0.289
        43  -9.5424    120.2999    123.5720   9.3222780141e+01   3.3459786553e+01    0.2649604    0.1798386 -32.57 0.0008456479    1.781    0.439
        44  -9.3306    152.8676    119.6512   8.4147733731e+01   2.7412004825e+01    0.2581106    0.2156626 -30.45 0.0005287236    1.266    0.210
        45  -9.5360    110.9588    118.0699   9.4388756282e+01   3.6536274052e+01    0.2190047    0.2103335 -68.04 0.0003167814    1.019    0.019
        46  -9.8968    231.2287    113.7177   6.6876094952e+01   1.0695711075e+01    0.2632931    0.2369372  -4.54 0.0008361855    1.121    0.108
        47  -9.5076    167.5657    112.5265   7.8918870960e+01   2.5523429014e+01    0.3558161     0.242593 -81.45  0.001361204    2.424    0.587
        48 -11.1191    119.1453    110.2331   9.0248918041e+01   3.6722945432e+01    0.5790336    0.4103427  70.24  0.002554115    1.831    0.454
        49 -10.0585    134.6599    106.0422   8.5076536579e+01   3.4386530915e+01    0.6070101     0.141908 -46.19  0.001569659    4.255    0.765
        50  -9.7055    205.4193    110.1602   7.0534844070e+01   1.7097398616e+01    0.3254633    0.2186259  41.39 0.0009388499    1.579    0.367
        51 -11.2738     71.8476    244.9729   1.2116022718e+02   1.6013927842e+01    0.2147232     0.159914 -73.33  0.001088694    1.524    0.344
        52  -8.2621    200.6604    100.3301   6.8873193064e+01   2.0000635713e+01    0.1615594    0.1198666 -71.03 0.0007051733    1.740    0.425
        53  -8.4234    167.6750     95.3149   7.4211879105e+01   2.8933735925e+01    0.1630899    0.1254774 -76.94  0.000225845    1.666    0.400
        54  -9.8426    188.3538     88.2410   6.7943281746e+01   2.5187437936e+01    0.4680031    0.3400942 -84.10   0.00201918    1.877    0.467
        55  -8.6980    152.6908     81.7003   7.3646652443e+01   3.5217664949e+01    0.1587907    0.1247128  12.92 0.0002354713    1.599    0.375
        56  -8.1438     79.3490     75.2923   9.2306567612e+01   5.1762048071e+01     0.144609    0.1066383 -13.95  0.000702931    1.670    0.401
        57  -8.6507     73.4783     73.4499   9.3698493465e+01   5.3074325389e+01     0.139769    0.1259288 -41.11 0.0001267704    1.024    0.024
        58  -9.9214     80.6150    194.6561   1.1478107200e+02   2.4268254701e+01    0.3556157    0.1895236  50.85  0.001852559    1.664    0.399
        59 -11.6353     58.5752    215.0180   1.2113203448e+02   2.3198896019e+01     0.238437    0.1572436  68.42 0.0005922206    1.236    0.191
        60 -11.5701    151.1267    195.8128   1.0020595897e+02   1.2234627710e+01    0.4100367    0.3273127  48.78  0.002370971    1.122    0.109
        61  -8.5961     95.5219     63.4422   8.3275463907e+01   5.1357265952e+01    0.1443938    0.1346649 -21.36 0.0001417126    1.011    0.011
        62 -12.1722    198.3875     23.3872   4.7742732262e+01   3.2501884338e+01    0.4651102     0.384731  86.32  0.001679757    1.147    0.129
        63 -11.5615     64.7284    195.5690   1.1814211816e+02   2.6295665000e+01    0.3381628    0.2199201 -49.91  0.001310945    2.039    0.509
        64 -10.5072     62.0090    219.9200   1.2090511103e+02   2.1814703944e+01     0.173808    0.1316187  80.85 0.0008270409    1.118    0.106
