#   1 NUMBER                 Running object number                                     
#   2 MAG_AUTO               Kron-like elliptical aperture magnitude                    [mag]
#   3 X_IMAGE                Object position along x                                    [pixel]
#   4 Y_IMAGE                Object position along y                                    [pixel]
#   5 X_WORLD                Barycenter position along world x axis                     [deg]
#   6 Y_WORLD                Barycenter position along world y axis                     [deg]
#   7 A_WORLD                Profile RMS along major axis (world units)                 [deg]
#   8 B_WORLD                Profile RMS along minor axis (world units)                 [deg]
#   9 THETA_WORLD            Position angle (CCW/world-x)                               [deg]
#  10 FWHM_WORLD             FWHM assuming a gaussian core                              [deg]
#  11 ELONGATION             A_IMAGE/B_IMAGE                                           
#  12 ELLIPTICITY            1 - B_IMAGE/A_IMAGE                                       
         1 -13.8379    215.4422     70.2421   4.8346562260e+01   2.2540081933e+01     9.205332     4.840885 -54.78    0.0403113    2.079    0.519
         2 -11.9408    247.9497     30.6255   3.5810214613e+01   2.1130662928e+01     1.756861    0.5957966 -30.48  0.007306293    3.200    0.687
         3 -14.1533    236.0942     46.2962   4.0270503086e+01   2.1546976226e+01     6.919094     1.199501  59.12   0.02251456    4.998    0.800
         4  -9.2151    205.0859     20.5385   3.7556506550e+01   3.1557172227e+01    0.5183644    0.2446311 -48.57   0.00249255    2.025    0.506
         5  -9.4591    232.1628     18.9278   3.4671526582e+01   2.5774573265e+01    0.5634345    0.1953057 -29.82  0.002404522    3.078    0.675
         6  -9.3198    135.0432     15.1686   4.5568344807e+01   4.8812491328e+01     0.352291    0.2130971 -16.25  0.001279054    1.948    0.487
         7  -8.0228    241.0473     12.4381   3.2616240313e+01   2.4651402688e+01    0.1684458    0.1304982 -53.37 0.0004629324    1.143    0.125
         8  -8.1237    193.4089      8.6260   3.5849585987e+01   3.5501637288e+01    0.2927928    0.1640126 -37.30  0.001570852    1.784    0.440
         9  -7.6637    224.1974      7.6435   3.2889069765e+01   2.8704104090e+01    0.1588231   0.09545045 -19.18 0.0004867611    2.242    0.554
        10  -8.6188    210.9938      6.4943   3.3716158993e+01   3.1713766180e+01    0.2831122    0.1706344 -23.27  0.001571482    2.007    0.502
        11  -7.9009    233.3894      6.1409   3.1878081046e+01   2.6910754335e+01    0.1539452    0.1198816 -59.54  0.000364687    1.104    0.094
        12  -8.3827    244.1504      1.6653   3.0242010931e+01   2.5167219718e+01     0.280461    0.1214359 -81.45  0.001373793    2.522    0.603
        13 -11.7618    176.6284     75.8257   5.6137030540e+01   3.0567163254e+01    0.6251758    0.5727203 -19.60  0.001189169    1.153    0.133
        14  -8.0372    115.0572    201.1420   9.9293862470e+01   1.6642700504e+01    0.1872585    0.1745897  11.06            0    1.168    0.144
        15  -8.6971    192.7437    194.5567   8.0931850391e+01   4.5964942794e+00    0.4038428    0.2249141 -64.26  0.001258255    5.418    0.815
        16  -9.1080     47.2381    191.7549   1.1381176557e+02   2.8345301961e+01    0.2067119    0.1860918 -76.81 0.0003361062    1.156    0.135
        17  -8.6987    184.9607    189.0168   8.1477480801e+01   6.9561456309e+00    0.2031859    0.1849366   6.51  0.001181291    1.033    0.032
        18  -8.6349    219.6019    185.7939   7.3905643383e+01   1.6093158712e+00    0.1900737     0.120066 -43.88 0.0009549154    1.702    0.413
        19  -7.2977    170.6360    186.2976   8.4028594961e+01   1.0032522266e+01    0.1414873    0.1151964  71.43  4.91995e-05    1.719    0.418
        20 -10.3183      2.3950    179.7954   1.2281056513e+02   3.5412987056e+01    0.3709807    0.1963928 -83.45  0.001978743    1.545    0.353
        21 -11.4874      4.2924    173.6338   1.2194831344e+02   3.6671845141e+01    0.8310521    0.4100431  88.35   0.00391631    1.825    0.452
        22  -7.4800    213.1681    179.6191   7.3888957209e+01   3.7421726028e+00    0.1891918    0.1217122  25.03 0.0004277976    1.626    0.385
        23  -8.8272     48.9525    176.0979   1.1165886874e+02   3.1808648504e+01    0.1890058    0.1669633  87.60  0.001179948    1.018    0.018
        24  -9.0079     28.9174    174.8347   1.1635606483e+02   3.4250467528e+01    0.1921689    0.1620366 -59.19 0.0007325975    1.273    0.215
        25  -9.9653     20.0726    171.9785   1.1817587649e+02   3.5750125258e+01    0.4278243    0.1567561 -83.03   0.00172459    2.870    0.652
        26 -11.8171    238.7592    145.1462   6.1995620127e+01   5.2850970287e+00     1.131539    0.5788296 -24.12  0.004851927    2.229    0.551
        27 -12.1418     35.8920    159.4226   1.1293599480e+02   3.7256670827e+01    0.8994007    0.7079171 -19.82   0.00278127    1.709    0.415
        28 -11.8062     48.7256    152.6695   1.0864701403e+02   3.7537596521e+01    0.9163045     0.767631 -55.32  0.003086424    1.176    0.150
        29  -7.5150    205.1782    166.1993   7.2651452942e+01   7.5588031049e+00     0.186552    0.1639364 -52.66 0.0005650296    1.353    0.261
        30  -7.9470    245.3559    154.2887   6.2854121415e+01   2.6381180587e+00    0.1363492   0.09473286  -1.15 0.0007025516    1.678    0.404
        31 -10.1760     61.4436    147.8520   1.0440279153e+02   3.7198168330e+01    0.6541562    0.4177596 -86.39  0.003051355    1.848    0.459
        32 -10.4434     67.2582    144.2003   1.0214208331e+02   3.7344266888e+01    0.8030872    0.5441389  58.63  0.003878776    1.706    0.414
        33 -11.2023    232.6234    164.0573   6.7067159398e+01   3.1216136895e+00    0.9297116    0.4659726 -22.40  0.003870836    2.416    0.586
        34  -9.4324    248.8127    143.5634   6.0039092894e+01   3.8350403459e+00    0.2529205    0.2258278  23.10  0.001601998    1.256    0.204
        35  -7.2421     94.7388    245.6937   1.0931758754e+02   1.0888530622e+01    0.1056414   0.09343228  -7.23 0.0001872015    1.523    0.343
        36  -8.3444    218.4193    121.9310   6.0238166572e+01   1.3152238001e+01    0.2210805    0.2039534  82.79 0.0006255062    1.289    0.224
        37  -7.3784    162.6906    121.2785   7.1255239251e+01   2.5099547549e+01    0.1511403    0.1253049 -85.72 0.0002538099    1.558    0.358
        38  -8.3941    135.0000    120.9359   7.7961885039e+01   3.1115010615e+01    0.2705232   0.08811613 -45.30 0.0008107499    3.000    0.667
        39  -7.6253    180.0172    116.0000   6.6106048373e+01   2.2369862985e+01     0.248436   0.08824636  48.52 0.0008026687    2.944    0.660
        40  -9.0565    134.6049    106.3588   7.4196298448e+01   3.4379930446e+01    0.4597884    0.1826715 -47.65  0.001529253    2.604    0.616
        41  -8.3481    137.9177    108.9271   7.4038127016e+01   3.3115990445e+01    0.2720044    0.2274825  20.42  0.001317924    1.307    0.235
        42 -10.4138    206.5369    110.0196   5.9489992156e+01   1.7751942049e+01     0.619153    0.3466332  48.20  0.002052846    1.923    0.480
        43  -8.1163     80.9368    106.1354   8.9824792057e+01   4.4665688283e+01      0.21245    0.1931022 -35.65 0.0003029139    1.027    0.026
        44  -7.4689    109.3425    111.7539   8.2625099549e+01   3.8354675426e+01    0.1497408    0.1218867  72.97 0.0001780313    1.568    0.362
        45  -8.5092    126.3445    103.1710   7.5513023688e+01   3.6825814002e+01     0.383785    0.2498143  59.92  0.001589332    1.949    0.487
        46  -8.7091    149.7071    102.6417   6.9384155996e+01   3.1825792238e+01    0.3177841    0.2833617  36.31 0.0007291856    1.143    0.125
        47 -10.4445    228.8125    100.0740   5.3473964964e+01   1.4864361165e+01    0.4262998    0.2365014 -52.89  0.001427017    1.940    0.484
        48 -11.3597    247.1078     55.5288   4.1141318059e+01   1.8030732699e+01     1.221105     0.313932 -44.04  0.001598796    3.105    0.678
        49  -9.9826    160.5567     97.5014   6.5446538417e+01   3.0384118015e+01    0.5895438    0.3031748  38.44  0.002173269    2.235    0.553
        50  -8.5499    135.4130     98.7731   7.1872965107e+01   3.5797708227e+01    0.2885249    0.2426681 -89.91 0.0009873817    1.512    0.339
        51  -8.5094    206.6536    241.9651   8.6521981578e+01  -5.1279276374e+00    0.2160722    0.1457298  20.66  0.000652036    1.248    0.199
        52  -9.2157    143.5993     93.0224   6.8170788949e+01   3.5133809400e+01    0.3422186    0.2823377 -54.20  0.001680018    1.292    0.226
        53  -8.7970    115.1380     93.7630   7.5952802266e+01   4.1164640254e+01    0.3851356    0.2423824  21.56 0.0008705175    2.132    0.531
        54 -10.5696    177.0101     89.4714   5.9779240966e+01   2.8088557046e+01    0.5829526    0.4510025  27.27  0.002015539    1.529    0.346
        55 -12.4831    229.9294     63.5849   4.4869556451e+01   2.0412139345e+01     1.268088    0.8276273  63.25  0.002916275    1.640    0.390
        56 -10.5376    158.9136     88.1467   6.3208490804e+01   3.2547388454e+01     0.348423    0.2955194 -28.24 0.0005553967    1.197    0.165
        57  -8.3472    245.3084    236.4217   7.8559206350e+01  -9.5871834804e+00     0.163137     0.134456 -33.24 0.0005299991    1.636    0.389
        58 -10.4084     98.0433     87.1622   7.9100561459e+01   4.5933555782e+01    0.2656791    0.2414052 -17.77 0.0002578627    1.050    0.048
        59  -8.1578    109.7522     85.9835   7.5199593054e+01   4.3880184052e+01    0.2108087    0.1922455 -34.57 0.0003666652    1.079    0.073
        60 -10.1387    194.8895     80.2126   5.4036800806e+01   2.5567843506e+01    0.3960806    0.2890326  39.57 0.0008358702    1.562    0.360
        61 -10.0075    200.4683     77.7161   5.2469349910e+01   2.4707019940e+01    0.3778886    0.2532308  42.68  0.001820022    1.701    0.412
        62  -8.2783    169.7990     77.4695   5.7915417851e+01   3.1903780091e+01    0.2299387    0.2042913   8.50 0.0005693903    1.272    0.214
        63  -9.8141    190.2023    135.4929   6.8767058818e+01   1.6350540700e+01     0.295183    0.2459146 -26.94 0.0002365553    1.153    0.132
        64  -8.4412    179.0000    134.9869   7.1004582539e+01   1.8782463659e+01    0.2581747   0.08431148 -41.59 0.0008019896    2.939    0.660
        65  -9.7505    130.3913     71.3191   6.4966052548e+01   4.2221167758e+01    0.4557495    0.1342389  49.57  0.001398223    3.319    0.699
        66 -10.7989    149.9382     66.0407   5.8726199810e+01   3.8561537723e+01    0.7893646    0.2488424  42.99  0.002317441    3.871    0.742
        67  -9.0343    145.3005     63.9743   5.9119912036e+01   4.0002576903e+01    0.2293348    0.1975789  13.48 0.0004270846    1.280    0.219
        68  -8.5607    133.6848    134.9965   8.1786536999e+01   2.8214899842e+01    0.2453524     0.213683  36.49 0.0007664355    1.168    0.144
        69  -9.8448    176.1744     50.3608   4.9152742245e+01   3.4634087933e+01    0.5173427     0.295773 -26.52  0.002329171    1.957    0.489
        70  -9.8511    170.3904     50.2695   5.0100515216e+01   3.6044532983e+01    0.3868211    0.3044846  43.65   0.00206073    1.333    0.250
        71  -9.3067    143.1251     51.9103   5.5842492409e+01   4.2396255823e+01    0.3368394    0.1932681  51.07  0.001277143    1.647    0.393
        72  -8.6445    195.0877    132.1730   6.6991738035e+01   1.5989998115e+01    0.2497254     0.210064  49.95 0.0007278879    1.301    0.231
        73  -9.0194    192.1898     42.7450   4.4677816869e+01   3.1849919286e+01     0.234161    0.1934874 -33.34 0.0004367965    1.271    0.213
        74  -8.7469    127.7846     41.6603   5.5913319478e+01   4.7477744048e+01    0.2248781    0.1989094 -37.77 0.0006664252    1.214    0.176
        75 -11.3592    184.6764     85.1196   5.7141591261e+01   2.7084468428e+01     1.342017      0.45837 -43.68  0.000421255    2.870    0.652
        76 -10.4835    147.5904     35.1973   4.9692353565e+01   4.3587569756e+01    0.5048702    0.3700359 -12.83  0.002636547    1.606    0.378
        77  -8.4404    190.4012     36.5235   4.3297434355e+01   3.3078385449e+01    0.2363514    0.1891591 -46.38  0.000666076    1.230    0.187
        78  -9.1381    129.7966     36.6501   5.3773279082e+01   4.7663923849e+01    0.3478004    0.2057388  14.28  0.001425043    2.645    0.622
        79  -7.3569    166.5508     35.9681   4.6638099997e+01   3.8884452592e+01    0.1754593    0.1177776  13.82 0.0004910701    2.218    0.549
        80  -8.6292    159.0195     34.9034   4.7568379660e+01   4.0848218624e+01    0.2014681     0.188984  78.78 0.0003977465    1.025    0.025
        81  -9.0928    126.9848     29.3215   5.1899369117e+01   4.9220840177e+01    0.2696099    0.1946639 -22.88 0.0001881584    1.503    0.335
        82  -8.4828    183.5291    131.5074   6.9201641695e+01   1.8531970233e+01    0.1530924    0.1432715 -20.16 0.0008098794    1.015    0.014
        83  -7.5734    201.4981    127.4919   6.4626565701e+01   1.5563368287e+01    0.1488843     0.137507 -30.01 -0.0001101155    1.018    0.017
        84  -9.1417    205.5068    224.3204   8.3804373756e+01  -2.3796386576e+00    0.2439079     0.229679 -70.79 0.0007811649    1.656    0.396
        85 -10.2938    225.4633    218.0402   7.8914429002e+01  -4.3832155452e+00    0.2215517    0.1914303  -1.83 0.0003300471    1.164    0.141
        86  -8.7121    195.8472    209.5847   8.3106101743e+01   1.4827305518e+00    0.2577371    0.2190278 -38.24 0.0005496909    1.339    0.253
        87  -7.5621    240.2434     16.9668   3.3608195325e+01   2.4311368777e+01    0.1501151   0.08887717 -39.03 0.0004834058    1.559    0.359
        88  -7.3599    237.2742     17.3148   3.3913426294e+01   2.4885896541e+01    0.1035735   0.09267892  35.49 0.0002971768    1.561    0.360
        89  -7.5101    120.1637     15.0990   4.8388075508e+01   5.2327740843e+01    0.1684667    0.1498929 -73.40 0.0004844181    1.325    0.245
        90  -8.9636    193.6873    218.5013   8.5123291525e+01   3.5700700186e-01    0.2835715    0.2133155  36.73 0.0008522175    1.330    0.248
        91  -8.2121    196.6860     12.5729   3.6488047515e+01   3.4344850313e+01    0.2449756    0.1053923  66.98   0.00113815    2.070    0.517
        92  -9.1308    195.0007    214.0372   8.4075123884e+01   8.7919523649e-01     0.227651    0.1898176 -18.83 0.0003051438    1.170    0.145
        93  -7.4300     85.7869    218.2207   1.0815756413e+02   1.7503884047e+01    0.1902272   0.08769454 -51.73 0.0004971802    2.443    0.591
        94  -7.1094    205.2640    209.9990   8.1310127121e+01  -8.8553221365e-02    0.1543067    0.1076984 -31.95 0.0002859776    1.416    0.294
        95  -7.6221    222.4588    206.0514   7.7279766106e+01  -2.1234041762e+00    0.1778608    0.1160883 -31.73  0.000295616    1.453    0.312
        96 -10.2074    162.8550    203.9799   8.9009218620e+01   7.9974807300e+00    0.2484677    0.2389272 -15.71 0.0003857372    1.122    0.109
        97  -7.7491     96.4644    127.5117   9.0275886397e+01   3.6985342290e+01    0.1520856    0.1438566 -42.17 6.725877e-05    1.017    0.017
