#   1 NUMBER                 Running object number                                     
#   2 MAG_AUTO               Kron-like elliptical aperture magnitude                    [mag]
#   3 X_IMAGE                Object position along x                                    [pixel]
#   4 Y_IMAGE                Object position along y                                    [pixel]
#   5 X_WORLD                Barycenter position along world x axis                     [deg]
#   6 Y_WORLD                Barycenter position along world y axis                     [deg]
#   7 A_WORLD                Profile RMS along major axis (world units)                 [deg]
#   8 B_WORLD                Profile RMS along minor axis (world units)                 [deg]
#   9 THETA_WORLD            Position angle (CCW/world-x)                               [deg]
#  10 FWHM_WORLD             FWHM assuming a gaussian core                              [deg]
#  11 ELONGATION             A_IMAGE/B_IMAGE                                           
#  12 ELLIPTICITY            1 - B_IMAGE/A_IMAGE                                       
         1 -13.6846    248.2658     56.9795   2.6260269445e+02  -6.0824208520e+01    0.1794641    0.1165864  -3.93  0.006473473    1.816    0.449
         2 -13.5079     36.3244     36.7245   2.5674674745e+02  -5.3863623000e+01    0.2581025    0.1805063 -80.07   0.01002673    1.473    0.321
         3 -13.6978     31.8599     24.5292   2.5596173202e+02  -5.3830626051e+01    0.3130356    0.1579641 -68.97   0.01049895    1.913    0.477
         4 -12.8747    250.2531     19.5747   2.6005147017e+02  -6.1346404624e+01    0.2408004   0.02222277  23.70  0.004615604    5.800    0.828
         5 -12.0460    249.7185      5.1988   2.5901950791e+02  -6.1489811699e+01    0.1003513   0.04951802  12.10  0.003220496    2.158    0.537
         6 -12.4035    203.7926     10.0033   2.5830967870e+02  -5.9875288259e+01    0.1234061    0.0388291 -46.97  0.003176391    3.266    0.694
         7 -11.7141    167.6616      3.0520   2.5709008981e+02  -5.8710353121e+01   0.07106119    0.0310566 -56.02   0.00222863    2.129    0.530
         8 -12.1166     99.8269      3.7564   2.5586778037e+02  -5.6368481634e+01   0.06979781   0.03132319 -37.22  0.002063786    2.564    0.610
         9 -12.1216    158.6676    220.6090   2.7019694533e+02  -5.5488051397e+01   0.04823559   0.03693192  66.54  0.001912474    1.518    0.341
        10 -13.2186     72.8149    249.1526   2.6933632240e+02  -5.2303018400e+01    0.2051761   0.05457967 -58.52  0.005222409    3.305    0.697
        11 -13.1777     89.6862    244.5193   2.6954637968e+02  -5.2912242970e+01    0.1609793   0.06845553  43.89  0.004788077    2.542    0.607
        12 -13.2349    100.9202    239.0664   2.6956377693e+02  -5.3356081054e+01   0.09494404   0.08605414  -7.75  0.002898943    1.152    0.132
        13 -11.4084     34.1134    248.4693   2.6830309465e+02  -5.1081990107e+01   0.04964764   0.04197539 -62.14   0.00129487    1.180    0.152
        14 -15.0457     59.3877    230.1877   2.6799687182e+02  -5.2168644224e+01    0.5893824     0.354403  -9.67    0.0192828    2.358    0.576
        15 -14.2439     25.7144    182.6072   2.6467148636e+02  -5.1765421924e+01    0.3400925    0.2167218  -4.75  0.007874774    1.930    0.482
        16 -13.0718     37.7663    175.5495   2.6456876239e+02  -5.2257173656e+01    0.2423866    0.1307668   0.45   0.00753643    2.508    0.601
        17 -12.6843      1.8604    249.3428   2.6755774870e+02  -5.0039654744e+01   0.04936258   0.04559328  47.26 0.0006899743    1.112    0.101
        18 -13.6841     13.8564    247.9425   2.6777663420e+02  -5.0443569219e+01    0.1972107   0.09375475  19.74  0.004458765    2.283    0.562
        19 -13.2853      2.3169    238.7938   2.6703878884e+02  -5.0209773446e+01    0.1065715   0.08910089  -5.88  0.004546145    1.277    0.217
        20 -14.6476      9.9274    205.8643   2.6553230087e+02  -5.0927775298e+01    0.1643816    0.1395798 -50.55  0.005118801    1.164    0.141
        21 -13.8622      4.1531    230.0297   2.6663848289e+02  -5.0396372297e+01    0.1657862   0.08733524 -55.60  0.005721053    1.811    0.448
        22 -15.1296      6.1360    220.7602   2.6621211515e+02  -5.0593770037e+01    0.4636363     0.163356 -75.99   0.00936136    4.763    0.790
        23 -12.8409     75.2628    214.0865   2.6754917987e+02  -5.2922758871e+01   0.08087953   0.04999136 -62.53  0.002369036    1.597    0.374
        24 -13.9183    168.0791    199.5299   2.6928005434e+02  -5.6129373768e+01    0.1965411    0.1179757 -57.06  0.007137097    1.616    0.381
        25 -12.1156    194.7641    200.1664   2.7011360564e+02  -5.6968509478e+01   0.08445801   0.04966218  56.25  0.002835969    2.114    0.527
        26 -11.8998     84.6690    202.5904   2.6716970277e+02  -5.3398912470e+01   0.05652609   0.03132885 -82.97  0.001788041    2.397    0.583
        27 -10.8970     23.8036    202.3418   2.6566939050e+02  -5.1428220513e+01   0.04521686   0.03221989 -62.07 0.0009955178    1.385    0.278
        28 -11.3484     83.5765    196.4440   2.6680703857e+02  -5.3454802657e+01   0.03453324    0.0284604 -52.75  0.001451022    1.196    0.164
        29 -12.7406    230.5782    176.8257   2.6983840081e+02  -5.8488362303e+01   0.07637255   0.04925577 -87.67    0.0026595    2.033    0.508
        30  -9.9896     94.0017    191.4853   2.6680074664e+02  -5.3866369677e+01   0.02645588   0.01786402 -64.81 1.144765e-05    1.479    0.324
        31 -13.0213    172.2497    187.6863   2.6871828975e+02  -5.6451282200e+01     0.111892   0.04615758 -45.43  0.003254031    2.596    0.615
        32 -12.9607    224.4095    184.4878   2.7010679163e+02  -5.8166770144e+01    0.1304852   0.05614178  41.78  0.003962689    2.371    0.578
        33 -12.0909     76.5273    218.5224   2.6781898353e+02  -5.2896363970e+01   0.05746072   0.03442953 -83.17  0.001488154    2.126    0.530
        34 -12.4579    210.4679    185.2102   2.6971516836e+02  -5.7712199129e+01   0.08421023   0.06447113  19.42  0.002453992    1.354    0.261
        35 -13.5314    207.0697    175.0891   2.6900614913e+02  -5.7767011524e+01    0.1021298   0.08332469 -65.14  0.004173333    1.232    0.189
        36 -10.3625     99.0117    180.9949   2.6634690990e+02  -5.4183464097e+01   0.02777886   0.02746023  89.84 0.0006691348    1.026    0.026
        37 -11.0125     73.2729    180.3532   2.6566970607e+02  -5.3352846821e+01   0.03638154    0.0209382  35.97  0.001280805    1.699    0.412
        38 -12.5565    191.9515    161.4322   2.6773729716e+02  -5.7494751728e+01   0.08426883   0.03830443  21.27   0.00257255    2.368    0.578
        39 -12.5103    179.6398    170.9882   2.6795253346e+02  -5.6949894005e+01    0.1021885   0.05069223  18.31  0.003220555    2.269    0.559
        40 -12.9099    168.8891    170.3322   2.6760789378e+02  -5.6612574119e+01    0.1293865   0.05280178 -63.91  0.003850482    2.428    0.588
        41 -12.0431    162.2776    162.2296   2.6694627414e+02  -5.6520670711e+01   0.07111502   0.05452552 -16.54  0.002695017    1.484    0.326
        42 -14.5374    230.8279    162.5839   2.6897412539e+02  -5.8726654603e+01      0.20358    0.1643067  70.45  0.008383887    1.399    0.285
        43 -11.3529     74.4099    168.8729   2.6506413478e+02  -5.3552155891e+01   0.04597188   0.03321684  72.88  0.001714651    1.644    0.392
        44  -9.7381    110.4966    167.0087   2.6585200067e+02  -5.4761232459e+01   0.02705258   0.01797695  22.64 0.0004454802    1.514    0.339
        45 -11.1249     55.7727    162.9633   2.6429856563e+02  -5.3020946171e+01   0.05268593    0.0344656  71.73  0.001871005    1.923    0.480
        46 -11.4155     61.0827    158.9076   2.6419791382e+02  -5.3251044232e+01   0.04995002   0.03660539 -88.31 0.0009434671    1.537    0.350
        47 -12.0528     71.8557    151.3357   2.6402691403e+02  -5.3709153682e+01   0.04382135   0.03932118   4.38 0.0004997075    1.139    0.122
        48 -12.6420     69.1883    144.5949   2.6358731060e+02  -5.3711295996e+01    0.1008131    0.0549394 -33.01  0.002997556    2.223    0.550
        49 -13.2835    222.0007    156.2093   2.6830989891e+02  -5.8544455593e+01    0.1496748   0.05578241  39.43  0.004290243    2.624    0.619
        50 -11.8002    144.6209    145.1809   2.6546606505e+02  -5.6192793643e+01   0.04627777   0.03683925 -32.94  0.001895747    1.325    0.245
        51 -12.5668     58.0020    146.8602   2.6345914791e+02  -5.3310708053e+01    0.0607534   0.03983739  76.04 0.0005551117    1.903    0.475
        52 -11.7132     80.0936    146.3341   2.6393806084e+02  -5.4048996429e+01   0.07882232   0.04375679  70.71  0.002129061    2.619    0.618
        53 -10.1724     95.4805    135.5029   2.6368234433e+02  -5.4704142804e+01   0.01802707   0.01780162  53.40 0.0001625727    1.025    0.024
        54 -11.3902     83.1090    132.9059   2.6324514458e+02  -5.4327885133e+01   0.03485198    0.0319996  33.28 0.0004346504    1.089    0.081
        55 -10.3865     94.2954    122.2899   2.6289146945e+02  -5.4839090021e+01   0.03880922   0.02642628  60.28  0.001318611    1.679    0.404
        56 -13.2647     13.0378    106.8248   2.6029262155e+02  -5.2309884917e+01    0.1589511    0.1253772 -13.17  0.006527546    1.362    0.266
        57 -12.3446      3.1695    114.5991   2.6052694647e+02  -5.1887383967e+01    0.1210381   0.07377805  18.11  0.004409576    1.645    0.392
        58 -12.5260      2.3537    102.4212   2.5984439366e+02  -5.2002085324e+01    0.1602745   0.04155044  15.94  0.003594204    4.386    0.772
        59 -10.1252    224.6658    118.6740   2.6603071741e+02  -5.9198436611e+01   0.01970411    0.0133845  60.05 0.0007051412    1.716    0.417
        60 -12.1595     24.0142    109.2840   2.6064548632e+02  -5.2649301387e+01   0.05448426   0.04205433  33.71  0.001772534    1.279    0.218
        61  -9.3370    205.4892    110.4613   2.6496783842e+02  -5.8686923511e+01   0.01797855   0.01783483 -36.98 0.0008093122    1.003    0.003
        62 -11.3289     50.5699    104.1575   2.6089653797e+02  -5.3602433390e+01    0.1062878   0.03735585 -68.82  0.002955532    2.785    0.641
        63 -12.8412    248.1715     93.7919   2.6508666244e+02  -6.0325010380e+01    0.1415599   0.07269924  26.29  0.004757915    1.894    0.472
        64 -12.8556     26.8753     88.6174   2.5954527739e+02  -5.2986218544e+01   0.08252537   0.06286415   0.09  0.003326254    1.392    0.281
        65 -11.8685     11.3199     87.0042   2.5916043239e+02  -5.2479193264e+01   0.06673034    0.0349737 -53.13  0.002271246    1.843    0.457
        66 -11.3321     26.1233     80.4193   2.5906844272e+02  -5.3053194926e+01    0.1013348   0.02745429 -63.61  0.002635077    3.123    0.680
        67 -12.9656    249.2006     67.6271   2.6335531551e+02  -6.0716521102e+01    0.1393939   0.05135229  22.92  0.003973018    2.649    0.622
        68 -11.0510     47.7436    239.1088   2.6816572060e+02  -5.1659954938e+01   0.04867314   0.02995653  49.70  0.001300277    1.806    0.446
        69 -11.1606    175.1373     73.5338   2.6183435472e+02  -5.8167558179e+01   0.04855908   0.03357139 -65.37   0.00187024    1.424    0.298
        70 -12.5100    199.6342     66.0508   2.6195215502e+02  -5.9083348157e+01   0.08469781     0.066642   9.56  0.003324869    1.315    0.239
        71 -12.0522    204.0948     59.8628   2.6165680717e+02  -5.9310216729e+01   0.05031197   0.03936155  67.83  0.001046631    1.406    0.289
        72 -12.9872    212.3239     54.5607   2.6150986520e+02  -5.9652111273e+01    0.1084154   0.06835917  72.39  0.003788438    1.965    0.491
        73 -11.9849    149.5339     67.4665   2.6085071417e+02  -5.7379815349e+01   0.07714915    0.0471844 -61.81  0.002817337    1.577    0.366
        74 -13.0567    227.8163     44.1525   2.6119617016e+02  -6.0299984615e+01    0.1185838   0.07785869  63.27  0.003939381    1.777    0.437
        75  -9.7826     37.8500    240.5128   2.6798949047e+02  -5.1322231396e+01   0.02969456   0.02352983  49.97 0.0006154983    1.333    0.250
        76 -12.8298     20.8308    225.0426   2.6677825724e+02  -5.1005860538e+01    0.1489475   0.07888086  58.38  0.001062627    2.609    0.617
        77 -11.6243     86.5272     40.9526   2.5790560467e+02  -5.5537488299e+01   0.08803645   0.04626571   0.82  0.002815399    2.246    0.555
        78 -11.7154    185.3458     38.6620   2.5981543513e+02  -5.8930363776e+01   0.07075375   0.04746326 -53.60  0.002698424    1.455    0.312
        79 -11.1477     28.0262    236.3009   2.6753053271e+02  -5.1070971500e+01   0.04859372   0.02423019  32.12 0.0008355873    1.926    0.481
        80 -11.6485     14.1107    164.4302   2.6344482748e+02  -5.1628403792e+01    0.4404341   0.08310882  30.79   0.01026295    3.922    0.745
        81 -11.1542    180.5989     16.4090   2.5824067815e+02  -5.9015013941e+01   0.04282589   0.02824814  54.35  0.001580204    1.644    0.392
        82 -11.2284     76.9371    229.6502   2.6842152050e+02  -5.2739108911e+01   0.03376609   0.02598028  14.37 0.0006073708    1.365    0.267
        83 -10.7000     22.0163    237.4737   2.6744394325e+02  -5.0860840045e+01   0.02780651   0.01775207 -64.41 0.0005609731    1.569    0.363
