#   1 NUMBER                 Running object number                                     
#   2 MAG_AUTO               Kron-like elliptical aperture magnitude                    [mag]
#   3 X_IMAGE                Object position along x                                    [pixel]
#   4 Y_IMAGE                Object position along y                                    [pixel]
#   5 X_WORLD                Barycenter position along world x axis                     [deg]
#   6 Y_WORLD                Barycenter position along world y axis                     [deg]
#   7 A_WORLD                Profile RMS along major axis (world units)                 [deg]
#   8 B_WORLD                Profile RMS along minor axis (world units)                 [deg]
#   9 THETA_WORLD            Position angle (CCW/world-x)                               [deg]
#  10 FWHM_WORLD             FWHM assuming a gaussian core                              [deg]
#  11 ELONGATION             A_IMAGE/B_IMAGE                                           
#  12 ELLIPTICITY            1 - B_IMAGE/A_IMAGE                                       
         1 -15.9389    185.3488    131.6143   7.2559018693e+01   1.7857826041e+01     3.571622     2.230943 -28.36   0.01449899    1.750    0.429
         2 -16.6698    137.0218     26.8453   5.1972962375e+01   4.7505722383e+01     6.542842     3.951007 -36.82   0.03179199    1.743    0.426
         3 -17.5055    231.8982     69.8147   4.9231758794e+01   1.8594254977e+01     8.964996     4.251785 -36.96   0.03957209    1.868    0.465
         4 -15.7199    213.3890    121.4420   6.4662737218e+01   1.3803418897e+01     3.063744     1.457291 -48.63   0.01129057    2.260    0.558
         5 -10.4170    199.3603     14.8544   3.9371356805e+01   3.3485970786e+01    0.1595193    0.1239297  -4.83 0.0008971685    1.710    0.415
         6 -12.5905    205.2680    199.3977   8.3087492568e+01   1.4278705262e+00    0.3044271    0.2047555   1.58  0.001539565    1.753    0.430
         7 -14.9308    164.0282    118.5971   7.3925953946e+01   2.5230877389e+01     1.754115     1.520238 -34.36  0.004465026    1.131    0.116
         8 -14.8810    160.6968     93.1181   6.7766714905e+01   3.1169540706e+01     2.504676     1.390348  45.89   0.01011389    1.861    0.463
         9 -10.7481    202.0769    248.2980   9.1961427500e+01  -5.3062277110e+00    0.1668382    0.1260712  25.35 0.0003813935    1.075    0.070
        10 -15.6155     64.7131    147.3487   1.0625706948e+02   3.6981085252e+01     1.835548     1.368045  -9.39  0.004508554    2.018    0.504
        11 -14.9817     27.9683    167.6077   1.1816620982e+02   3.6304649178e+01     1.016838    0.8746814 -65.94  0.004118239    1.252    0.202
        12 -12.8957    189.4179    148.2420   7.5637667978e+01   1.3700237840e+01    0.4001383    0.2902677 -57.33  0.001878695    1.636    0.389
        13 -13.9339    162.6485     79.4771   6.3411299504e+01   3.3272815989e+01    0.5640895    0.5127915 -13.97  0.001445569    1.171    0.146
        14 -13.1963    192.0000    153.4033   7.6275472962e+01   1.2168540146e+01    0.5614317    0.2732063 -47.47  0.001794265    2.178    0.541
        15 -10.6168     95.2389    220.9806   1.0922750231e+02   1.5884724296e+01    0.2451244    0.1043752  61.44 0.0009004133    3.567    0.720
        16 -11.6513    133.8071    146.3452   8.7908625778e+01   2.5543780342e+01     1.024148    0.2981786 -55.80  0.002507292    5.259    0.810
        17 -10.8688    132.3692    138.5969   8.6516005168e+01   2.7605549296e+01    0.3416733    0.1836988 -55.14  0.001327876    1.977    0.494
        18 -10.8621    149.5115    149.1835   8.4725727647e+01   2.1743675810e+01    0.2570859    0.2158337  66.75  0.001271684    1.353    0.261
        19 -11.0222    143.8958    147.3078   8.5649906256e+01   2.3301501044e+01    0.4257068    0.2662393 -58.97  0.001787836    1.821    0.451
        20  -9.6564    247.6107    174.2572   7.0420594441e+01  -1.5694623913e+00    0.1143552    0.1053174 -81.07 0.0006966691    1.686    0.407
        21 -12.9368    187.7003    168.2996   8.0410752231e+01   1.0145575113e+01    0.3899989    0.2868804  63.73  0.001863474    1.842    0.457
        22 -10.2967    137.5071     89.4764   7.2208543915e+01   3.7285776806e+01     0.227311    0.1898651 -81.48 0.0005681476    1.470    0.320
        23 -12.5417    135.3059    124.2583   8.2311043351e+01   3.0270102384e+01      1.77645    0.2858671 -48.56   0.00358347    7.013    0.857
        24 -12.0764    137.6911     94.0229   7.3496660218e+01   3.6318539994e+01     0.436244    0.3424267  60.39  0.001006362    1.406    0.289
        25 -13.0442    134.5858    108.1515   7.8275624599e+01   3.4006674153e+01     2.080143     0.310512 -46.69  0.004070401    7.387    0.865
        26 -12.0031    132.2045     98.7656   7.6273785606e+01   3.6548963235e+01    0.6334484    0.2976694 -46.41  0.001208493    2.109    0.526
        27 -13.4298     53.4397    154.4162   1.1030422014e+02   3.6682435488e+01    0.3883518    0.3462937 -16.87 0.0009189613    1.465    0.317
        28 -14.1800    182.4575     82.6782   6.0353554221e+01   2.7915075616e+01    0.9318792    0.6738277  34.19  0.004149199    1.636    0.389
        29  -9.8263     98.4639    129.4550   9.3458201665e+01   3.6186710153e+01    0.1505277    0.1420162 -54.25 0.0002056678    1.031    0.030
        30 -12.0818    112.4883    104.2968   8.3200747799e+01   3.9475897625e+01    0.8793398     0.777544 -60.84  0.004539404    1.167    0.143
        31 -13.3788    122.4985    103.2542   8.0130225749e+01   3.7662018392e+01    0.7066702    0.5621967  43.27  0.002628944    1.302    0.232
        32 -13.3356    124.0481    109.4657   8.1413218013e+01   3.5958681852e+01    0.7425355    0.5580886  51.65  0.002086266    1.421    0.296
        33 -11.9760    127.3832    106.1997   7.9629870987e+01   3.5982450911e+01    0.4624393    0.2907721 -50.53  0.001580928    1.600    0.375
        34 -10.5681    178.0855    110.0442   6.8626266766e+01   2.3780965415e+01    0.2327952    0.2230487 -20.93 0.0004856339    1.043    0.041
        35 -10.7617    140.2934    106.3515   7.6327676461e+01   3.3143493264e+01    0.3660707    0.2587925  12.98  0.001501764    2.051    0.512
        36 -11.7938    144.7146    103.6325   7.4475648907e+01   3.2732531273e+01    0.3722878    0.2940723  37.71 0.0005867993    1.330    0.248
        37 -11.1577    113.5873     94.9316   8.0242564398e+01   4.1325752329e+01    0.2476117    0.2147579  21.03 0.0004075259    1.243    0.196
        38 -11.9269    123.5272     90.7159   7.6237514378e+01   4.0134449248e+01    0.3515424    0.2686321 -40.03 0.0009333466    1.270    0.213
        39 -12.4477    202.4608    191.0357   8.2037105040e+01   3.3084118608e+00    0.3757584    0.2631873  27.33  0.002004173    1.381    0.276
        40 -14.4233    195.2041     76.1748   5.6293344971e+01   2.5986571541e+01     1.019816    0.8777975   8.12  0.004298247    1.410    0.291
        41 -12.0037    182.1402    207.2020   8.9092005689e+01   4.0716916157e+00      0.51775    0.2694343  13.63  0.001744795    4.229    0.764
        42 -11.2689    175.8055     52.8966   5.3084905349e+01   3.4427863123e+01    0.5406117    0.2045157 -40.27  0.001975686    2.527    0.604
        43 -12.4133    191.6820     45.5353   4.8500450206e+01   3.1568311057e+01      0.34758    0.2222691 -41.54  0.001696213    1.504    0.335
        44 -13.7373    192.8274    194.9033   8.4690354876e+01   4.3341716295e+00     1.092779    0.6186922 -65.66  0.003544641    5.238    0.809
        45 -10.6261    137.7619    171.1331   9.2086765632e+01   1.9222873337e+01    0.3430356    0.2243756  86.92  0.001331334    2.759    0.638
        46 -12.2463    177.1598    169.6539   8.2919234605e+01   1.1926887500e+01    0.2559971    0.2011031 -50.63 0.0006997088    1.375    0.273
        47 -11.0028    190.0948     35.6778   4.6018642969e+01   3.3277731258e+01    0.2027205    0.1677241 -55.85 0.0007439843    1.166    0.143
        48 -11.3725    166.9068     34.9258   4.9244131736e+01   3.9126722916e+01    0.2888382    0.2265851 -40.20 0.0006664555    1.301    0.231
        49 -10.2045    201.0871     34.5353   4.4285629813e+01   3.0751190122e+01    0.2030985    0.1475867 -52.10  0.001091558    1.307    0.235
        50 -12.3411    204.7010     27.4269   4.2014324107e+01   3.0769445243e+01    0.3191861    0.2339585 -36.34  0.001785959    1.369    0.270
        51 -12.9357    199.4052    163.0149   7.6894198991e+01   8.8826470469e+00    0.7725468    0.4455346 -68.62  0.002189282    5.875    0.830
        52 -11.0648     78.9551     18.5058   6.3285505483e+01   6.1362919285e+01    0.2319592    0.1745525 -16.09 0.0005358444    1.297    0.229
        53 -14.8230     12.8989    169.0124   1.2174858025e+02   3.7364071693e+01     2.336747     1.120587  89.60   0.01197545    1.903    0.475
