#   1 NUMBER                 Running object number                                     
#   2 MAG_AUTO               Kron-like elliptical aperture magnitude                    [mag]
#   3 X_IMAGE                Object position along x                                    [pixel]
#   4 Y_IMAGE                Object position along y                                    [pixel]
#   5 X_WORLD                Barycenter position along world x axis                     [deg]
#   6 Y_WORLD                Barycenter position along world y axis                     [deg]
#   7 A_WORLD                Profile RMS along major axis (world units)                 [deg]
#   8 B_WORLD                Profile RMS along minor axis (world units)                 [deg]
#   9 THETA_WORLD            Position angle (CCW/world-x)                               [deg]
#  10 FWHM_WORLD             FWHM assuming a gaussian core                              [deg]
#  11 ELONGATION             A_IMAGE/B_IMAGE                                           
#  12 ELLIPTICITY            1 - B_IMAGE/A_IMAGE                                       
         1 -10.7282    173.6885     22.7252   6.5900490459e+01   3.9094640418e+01    0.6346841    0.5308058 -37.57  0.003929581    1.359    0.264
         2 -10.2328    167.2900     20.4996   6.6241080524e+01   4.0868356897e+01    0.5325215    0.3480262  31.69  0.002506277    2.048    0.512
         3  -8.8855    120.1455      8.4708   7.0735522543e+01   5.2940367610e+01    0.2648694     0.204941  59.80  0.001185145    1.131    0.116
         4  -7.9434    165.0909    243.5054   1.1814245422e+02  -5.3912742664e-01    0.1997419    0.1139472  40.16  0.001007295    1.515    0.340
         5 -18.1500     75.3405    224.2106   1.3399079326e+02   1.8177198107e+01     5.050665     4.019229  85.03   0.01162695    1.113    0.101
         6  -9.4336    143.2286    183.6362   1.1267074680e+02   1.5458143321e+01    0.3535083    0.2939214 -85.52  0.001025542    1.351    0.260
         7  -8.6442      1.8389    182.7359   1.4511784612e+02   3.6089762507e+01    0.1828463    0.1224209 -72.45 0.0004518125    1.249    0.199
         8  -7.9404    177.6137    227.1932   1.1298959172e+02   1.3768243613e-01    0.1837027    0.1256495 -31.93 0.0009486959    1.683    0.406
         9  -9.9836    161.3721    176.1932   1.0702143926e+02   1.3468226128e+01    0.5186375    0.3332304 -68.65    0.0013538    2.124    0.529
        10  -8.9788    187.6838    167.3353   9.9358805080e+01   9.9421988035e+00    0.3679145    0.2073618 -59.05  0.001426483    2.311    0.567
        11 -10.5159    187.7482    177.1132   1.0141519232e+02   7.9087132889e+00    0.5697903    0.3814038  37.31  0.002310659    1.521    0.343
        12 -13.2363     51.4371    243.6937   1.4052727321e+02   1.7472117815e+01    0.3905241     0.341053 -56.22  0.001749889    1.624    0.384
        13  -8.9916    186.7549    172.0071   1.0055380214e+02   9.1622618564e+00    0.3414731    0.2060534 -44.94   0.00149489    1.651    0.394
        14  -8.8530    194.3066    171.9869   9.8960180937e+01   7.6333604605e+00    0.2944703    0.2355387 -70.59  0.001363853    1.554    0.357
        15  -8.6583    145.0174    237.3977   1.2131053650e+02   4.0216606297e+00    0.5367512    0.2393341 -62.32  0.002130569    3.305    0.697
        16  -8.5407     11.3509    166.9858   1.4165817988e+02   3.8883627092e+01     0.276312    0.1439699 -54.11  0.001355453    1.895    0.472
        17  -9.7758    188.5269    211.4356   1.0797076584e+02   1.0430980133e+00    0.4671799    0.2637868 -38.21  0.001491614    1.896    0.472
        18  -9.6090    151.7691    163.8374   1.0665858018e+02   1.8207514028e+01    0.4944734     0.304384  53.40  0.001636666    1.727    0.421
        19  -9.3023    140.1047    163.3925   1.0934740784e+02   2.0713065395e+01     0.330516    0.2571058  72.02 0.0005797679    1.484    0.326
        20  -8.8972    127.1636    163.2154   1.1247629516e+02   2.3346086611e+01    0.4609679    0.2974361  31.78    0.0019206    1.781    0.439
        21  -8.9055    250.1344    159.8687   8.5940810609e+01  -6.7658881188e-01    0.2145793    0.1731882 -36.63 0.0003883331    1.093    0.085
        22 -10.6319    145.9063    156.7428   1.0652117614e+02   2.1053304683e+01    0.6826605     0.498195  54.57  0.001703067    1.419    0.296
        23  -7.2915    177.7118    156.6602   9.9173913148e+01   1.4302414063e+01    0.1558091    0.1230882  -6.76  0.000602227    1.641    0.390
        24  -9.5595    175.0222    221.5990   1.1257351140e+02   1.6154454986e+00    0.4162258    0.2317597 -44.68  0.001962882    1.955    0.489
        25  -8.7194    250.6241    155.0043   8.4853732640e+01   9.9915540605e-02    0.1995579    0.1161181 -39.41            0    1.509    0.337
        26 -10.9857    181.9394    198.9886   1.0701888632e+02   4.6458036011e+00      1.08461    0.3579336 -51.78  0.003413591    3.893    0.743
        27  -8.9931      6.9812    154.4809   1.4138661923e+02   4.2135049676e+01    0.3355403    0.1281541  59.72  0.001359263    3.720    0.731
        28  -8.3785      2.6758    152.0222   1.4214747472e+02   4.3023358723e+01    0.1878875    0.1374819  82.35 0.0009526089    1.254    0.202
        29  -8.4858    172.9357    153.6236   9.9549897644e+01   1.5986772166e+01    0.2701432    0.2092159 -29.18 0.0003473919    1.434    0.303
        30  -9.3296    155.6068    153.6469   1.0352657647e+02   1.9709119763e+01     0.287393    0.2584767  87.52 0.0008033206    1.189    0.159
        31 -10.8457    134.2171    147.6016   1.0736466388e+02   2.5608975430e+01     1.040378    0.4260535 -58.83  0.003214419    3.218    0.689
        32  -7.8789    250.6285    150.0238   8.3817229982e+01   9.8631803965e-01    0.1986833    0.1163109 -38.69            0    1.502    0.334
        33 -10.1126    219.2842    148.4291   8.8907835145e+01   7.2673771482e+00         0.26    0.2580862  80.71 0.0003074264    1.085    0.078
        34  -9.0880    188.7828    154.9744   9.6414632166e+01   1.2297967325e+01    0.4708051    0.3482337  38.42  0.002239235    1.416    0.294
        35  -8.6856     20.7435    146.5652   1.3709397165e+02   4.2862069797e+01    0.3618255    0.1738861 -38.78  0.001636232    2.851    0.649
        36  -8.0044      9.6463    145.6908   1.3977034227e+02   4.3972556291e+01    0.2477524    0.1476472 -49.62  0.001390192    1.669    0.401
        37  -8.2221     12.7865    143.1930   1.3868670721e+02   4.4312572670e+01    0.1808838    0.1724175  21.31 0.0003543695    1.361    0.265
        38  -8.6085    143.4716    145.0849   1.0449920415e+02   2.4255149842e+01    0.2470464    0.1538635 -49.30  0.001031226    1.591    0.371
        39  -9.8511    124.5591    143.7941   1.0896043403e+02   2.8471729334e+01    0.4982328    0.2752527 -59.05   0.00138708    1.965    0.491
        40 -10.9456    183.7916    211.5326   1.0896920629e+02   1.8908292070e+00     1.105171     0.338882 -51.21   0.00345045    4.344    0.770
        41  -9.1782    182.6859    206.3309   1.0824414308e+02   3.0802187708e+00    0.2728746    0.2068447  58.53  0.001217208    1.526    0.345
        42  -9.5558    165.9767    216.2301   1.1354779300e+02   4.2763054139e+00    0.3270789    0.2489312 -49.26 0.0009131418    1.433    0.302
        43  -9.4046     24.3116    138.5154   1.3508383258e+02   4.4452570454e+01    0.3257982    0.2220537 -18.07  0.001277294    2.115    0.527
        44  -8.8848    177.0926    215.5955   1.1109574019e+02   2.3563662741e+00    0.2121047    0.1897413 -57.62 0.0004931401    1.269    0.212
        45  -9.1542    175.9674    207.7769   1.0992706829e+02   4.0570091329e+00    0.2887287    0.2028669 -42.90 0.0005293048    1.507    0.336
        46  -8.5807    157.0613    232.1643   1.1803561514e+02   2.8762445425e+00    0.1988485    0.1735632  16.73  0.000469931    1.234    0.190
        47 -10.8485    192.2561    194.1701   1.0391938969e+02   3.6213048639e+00     1.046034    0.4509786 -56.16   0.00348241    3.666    0.727
        48  -8.8766    238.2129    130.2943   8.1628640059e+01   6.9191378003e+00    0.2420071    0.2124063 -59.57 0.0001735866    1.123    0.110
        49  -8.3216    166.3768    131.0339   9.5742126521e+01   2.2370861637e+01    0.2194188    0.1960077 -51.27 0.0004111511    1.100    0.091
        50  -7.7414    153.3032    130.3269   9.8612883877e+01   2.5460028527e+01     0.158678    0.1281532  -3.50 0.0004399358    1.644    0.392
        51  -8.7582    132.9126    191.2350   1.1647113161e+02   1.5745599800e+01    0.2272597    0.2024369 -74.78 0.0003265087    1.144    0.126
        52  -7.9451    223.7879    129.1708   8.3808530060e+01   1.0063047935e+01    0.2219847    0.1877654 -66.23 0.0008098085    1.232    0.188
        53  -8.9705    122.3335    127.1110   1.0562894617e+02   3.2829144701e+01    0.2523432    0.1925176 -32.59  0.001168345    1.453    0.312
        54  -8.7828     90.6916    124.6897   1.1377943004e+02   3.9316346662e+01    0.4548679    0.1858771  38.36  0.001682069    2.584    0.613
        55  -8.7850    203.1806    189.1252   1.0067604615e+02   2.5206642957e+00    0.2688761     0.193615  69.56  0.001245049    2.085    0.520
        56  -8.0244    111.1642    122.1022   1.0741430271e+02   3.6203790414e+01    0.2256973    0.2057973 -23.55  0.000436343    1.177    0.150
        57  -8.7563    168.8972    188.5916   1.0782320900e+02   9.2952644848e+00    0.2602913    0.2093717 -60.95 0.0004463234    1.372    0.271
        58 -11.8632    245.8487    237.9220   1.0170345300e+02  -1.2532334455e+01    0.2425363    0.2039458  -0.50 0.0004413784    1.086    0.079
        59  -8.2108    181.0108    186.0156   1.0467556841e+02   7.4297892135e+00    0.3343228    0.1722904 -39.77    0.0013611    2.045    0.511
        60  -9.1037    123.7313    112.8358   1.0165311311e+02   3.5767796893e+01    0.2612016    0.2300499  63.37 0.0005111851    1.204    0.170
        61 -10.5130    113.0673    108.4838   1.0341050737e+02   3.8899839246e+01    0.8779885    0.3500601  47.72  0.003047143    2.701    0.630
        62 -10.2920     59.7585    109.4114   1.1946683814e+02   4.7497662203e+01    0.6514564    0.2937711  34.41  0.002819706    2.424    0.587
        63 -10.3089     63.4893    106.0238   1.1751902071e+02   4.7776554862e+01    0.4426459    0.3959811 -16.57  0.001861277    1.173    0.148
        64  -9.8830     68.2250    100.5310   1.1468779305e+02   4.8349914625e+01    0.4188171    0.3375812 -11.08  0.001603784    1.393    0.282
        65  -7.7330    193.0218    107.0102   8.4225461183e+01   2.1189264581e+01    0.1795624     0.167238 -61.46 -0.003769674    1.025    0.024
        66 -10.1872     63.9384    100.2818   1.1598262943e+02   4.8999436919e+01    0.5957788    0.4284868  76.62  0.002409252    2.169    0.539
        67  -9.4021    140.9097    227.6508   1.2071267561e+02   6.5997111553e+00    0.3917508    0.2591814 -63.29  0.002004466    1.769    0.435
        68  -8.7723    178.0681     84.3531   8.1374290749e+01   2.9003336848e+01    0.2493699    0.2050091 -49.79 0.0004460504    1.207    0.172
        69  -8.4719    141.0113     85.0546   8.9616675382e+01   3.7667017461e+01     0.224319    0.2176269  71.59            0    1.027    0.026
        70  -9.8552    233.9595     74.9095   7.0063498072e+01   1.7606934180e+01     0.277549    0.2344955 -57.81 0.0003619295    1.073    0.068
        71  -7.6978    196.2974    185.6737   1.0138578941e+02   4.5040531490e+00     0.141216    0.1172107 -87.45 0.0005405861    1.630    0.387
        72  -8.9112    238.3195     70.7910   6.8602623410e+01   1.7325060645e+01    0.2394706    0.2116015  59.40 0.0007113339    1.328    0.247
        73  -8.6868    120.1597     68.2908   8.9917381838e+01   4.5326006703e+01    0.2395573    0.2066081 -40.55 0.0003575384    1.208    0.172
        74 -10.9837    147.3996     65.5502   8.2541665214e+01   3.9597323043e+01    0.6109569    0.4034582  56.11  0.002057128    1.447    0.309
        75  -7.8424    235.9843     63.7666   6.7375564866e+01   1.8940459205e+01     0.167271    0.1062037  68.14 0.0005906147    1.587    0.370
        76  -8.8500    143.9587     59.9559   8.1666676990e+01   4.1297469826e+01    0.2313005    0.1745686 -78.21   0.00111453    1.695    0.410
        77  -9.3987    150.2321     48.9894   7.7143544829e+01   4.1436210663e+01    0.3217121    0.2855824  30.27  0.001254279    1.221    0.181
        78 -11.7837    157.8078     51.9126   7.6490988827e+01   3.9204303644e+01    0.9875712    0.8841945 -10.04  0.004991015    1.311    0.237
        79 -10.2201    162.9285     42.4145   7.2891835853e+01   3.9286185100e+01    0.4274547    0.3699774  28.20 0.0006886934    1.350    0.259
        80  -7.8630    101.9623     58.6933   9.1875275150e+01   5.0681293789e+01    0.1927128    0.1711258  31.83 0.0004104189    1.073    0.068
        81  -7.9151    176.7800     57.8100   7.4624228398e+01   3.3729867607e+01     0.193017    0.1544116 -82.41 0.0002532094    1.299    0.230
        82 -10.1794    132.2090     45.7364   7.9993643433e+01   4.6101080599e+01    0.2424447    0.2189641  47.16 0.0002194029    1.017    0.017
        83  -7.6435    143.3069     41.7193   7.6404783485e+01   4.4063422479e+01     0.134609    0.1042417 -81.17  0.000241218    1.558    0.358
        84  -9.2780    227.5830     26.3673   6.0329009678e+01   2.6073257044e+01    0.3130839    0.2186752 -38.00  0.001859469    1.573    0.364
        85  -9.2862     29.8685    246.7894   1.4460122618e+02   1.9556688539e+01    0.3171657    0.1552638  81.76  0.001619949    1.911    0.477
        86  -9.7776    168.5237     25.5076   6.7387123844e+01   4.0019293976e+01    0.4537894    0.2571859  77.19  0.002181257    1.775    0.436
        87  -8.5676    165.0937    226.9654   1.1553759809e+02   2.4079004816e+00    0.2668933    0.2099122  72.19  0.001448869    1.595    0.373
        88  -8.0390    200.4951     19.5388   6.1711083724e+01   3.3093539841e+01    0.1289071    0.1081708  84.40 2.431105e-05    1.053    0.050
        89  -7.7346    172.5466     11.4972   6.3170154358e+01   4.0547981234e+01     0.128566    0.1078646  74.95 0.0002086768    1.028    0.028
