#   1 NUMBER                 Running object number                                     
#   2 MAG_AUTO               Kron-like elliptical aperture magnitude                    [mag]
#   3 X_IMAGE                Object position along x                                    [pixel]
#   4 Y_IMAGE                Object position along y                                    [pixel]
#   5 X_WORLD                Barycenter position along world x axis                     [deg]
#   6 Y_WORLD                Barycenter position along world y axis                     [deg]
#   7 A_WORLD                Profile RMS along major axis (world units)                 [deg]
#   8 B_WORLD                Profile RMS along minor axis (world units)                 [deg]
#   9 THETA_WORLD            Position angle (CCW/world-x)                               [deg]
#  10 FWHM_WORLD             FWHM assuming a gaussian core                              [deg]
#  11 ELONGATION             A_IMAGE/B_IMAGE                                           
#  12 ELLIPTICITY            1 - B_IMAGE/A_IMAGE                                       
         1 -13.3514    207.6634      2.4052   2.8935822140e+02   6.5544893813e+00   0.07300425   0.04180105  24.63  0.002464129    1.787    0.440
         2 -14.2471    185.9238     25.7069   2.8975161220e+02   6.4109618952e+00   0.08816469   0.06551372 -56.95  0.005172529    1.317    0.241
         3 -13.9265    192.9344     18.0909   2.8962414462e+02   6.4584654792e+00   0.06139789   0.05116558  65.32  0.003971601    1.328    0.247
         4 -12.6569    199.1572     10.7981   2.8950779057e+02   6.5067697384e+00   0.03013655   0.02403399 -33.37  0.001219835    1.323    0.244
         5 -16.0452      1.6933     73.0930   2.9218495228e+02   6.9270642610e+00    0.7574896    0.0427186 -62.64   0.02581668   14.047    0.929
         6 -11.6466    247.6950    249.0032   2.9037261036e+02   3.4605724393e+00   0.02697401   0.01805185  15.75  0.002775234    1.629    0.386
         7 -11.0294    161.8224    249.5507   2.9137334690e+02   3.9516796076e+00   0.01519832  0.009589106  30.92  0.001542243    1.565    0.361
         8 -12.0170    142.8153    241.0080   2.9154334385e+02   4.1609140651e+00   0.01965748    0.0117999  29.70  0.001017991    1.646    0.393
         9 -12.2950    139.4764    248.5042   2.9162688349e+02   4.0931146761e+00   0.03641706     0.019473 -69.39  0.003315398    2.044    0.511
        10 -11.0467    144.6187    248.7726   2.9156869672e+02   4.0602552641e+00   0.01439353   0.01179955  69.96 0.0009069401    1.377    0.274
        11 -12.0842    126.5455    249.7672   2.9178477227e+02   4.1532033566e+00   0.02197914   0.01637822 -33.40  0.001512483    1.448    0.309
        12 -14.6241    103.2489    245.6588   2.9203123464e+02   4.3355751510e+00    0.2591147    0.1329353   3.35  0.008406959    3.232    0.691
        13 -14.2996     52.8836    227.9910   2.9251207520e+02   4.8316396159e+00    0.1302645   0.04216493 -66.14  0.003785673    3.470    0.712
        14 -15.5982     60.5628    212.3056   2.9232928243e+02   4.9697347491e+00    0.3567987    0.1231556  39.67   0.02708609    2.868    0.651
        15 -11.3701     40.7806    213.9756   2.9256955442e+02   5.0643705171e+00    0.0206949   0.01353811  38.16  0.001270615    1.528    0.346
        16 -16.3780      9.8493    237.8899   2.9307184513e+02   4.9643754333e+00    0.7086005    0.1374309 -60.76   0.04270608    4.443    0.775
        17  -9.5288    124.1349    209.1601   2.9157056280e+02   4.6390969812e+00  0.009226072  0.007683248  63.50 0.0003930363    1.322    0.243
        18 -10.4259    228.3442    204.7736   2.9033266645e+02   4.0863114166e+00   0.01368291   0.01009519  75.06 0.0008813816    1.664    0.399
        19 -10.9111    193.0241    194.8395   2.9068367991e+02   4.4065454028e+00   0.04888361   0.02318045  89.18  0.002665312    6.583    0.848
        20  -9.5042     75.3622    198.8014   2.9207648083e+02   5.0413418840e+00   0.01071372  0.008589343  38.66 0.0008820657    1.257    0.204
        21 -10.4026     68.3405    196.9117   2.9214697686e+02   5.1038410303e+00    0.0189134   0.01216637  61.67  0.001783107    1.966    0.491
        22 -12.0007     74.7427    192.1123   2.9204380095e+02   5.1226856567e+00   0.02301065   0.01286152 -39.27   0.00212385    2.000    0.500
        23 -11.9514     79.0107    185.4725   2.9195448597e+02   5.1752342601e+00   0.01642407   0.01187377 -42.14 0.0007859462    1.416    0.294
        24  -9.0681    181.5735    192.2234   2.9080116840e+02   4.5033174033e+00  0.008997736  0.005917866 -49.34 0.0002531407    1.497    0.332
        25 -12.1192    173.8136    220.9483   2.9106314591e+02   4.2145683573e+00   0.02751815   0.01472411  15.42    0.0024438    2.220    0.550
        26  -9.4391     94.5160    179.1664   2.9173627093e+02   5.1589692408e+00   0.01283503  0.007339325  57.79  0.001133166    2.293    0.564
        27 -13.3214     74.8981    171.0841   2.9191651578e+02   5.3662492448e+00   0.02628058   0.01334901 -40.94   0.00170119    2.202    0.546
        28 -11.5008     69.9510    134.5411   2.9175589363e+02   5.8195739897e+00   0.02017279   0.01342491  24.89  0.001271924    1.523    0.343
        29 -12.9132     58.1145    130.6551   2.9187066035e+02   5.9330729082e+00     0.125237   0.04588437 -76.91  0.006236421    7.355    0.864
        30 -13.3357     90.2391    165.0444   2.9170174198e+02   5.3478368066e+00    0.2031329   0.02159548  37.96  0.001823648    6.405    0.844
        31 -13.2910     67.8319    144.4283   2.9183967440e+02   5.7168965666e+00   0.05317177   0.03380159  78.96  0.004922761    2.249    0.555
        32 -11.4266     86.8810    173.9515   2.9179405402e+02   5.2637049281e+00   0.01294349   0.01186521 -42.99 0.0003868785    1.083    0.077
        33 -10.9175    138.2990    171.5096   2.9118075007e+02   4.9946912700e+00   0.01404881   0.01186131  15.85  0.001358093    1.221    0.181
        34  -9.6997    230.2298    166.2259   2.9007985651e+02   4.5229332587e+00   0.01053383  0.005621006 -77.81 0.0008812806    2.464    0.594
        35 -10.4804     37.2289    161.1153   2.9229596778e+02   5.6994635641e+00   0.01647508   0.01292252 -71.51  0.001850636    1.325    0.245
        36 -10.5681    104.1639    149.1089   2.9144429261e+02   5.4525415362e+00   0.01552781   0.01227315 -58.39 0.0007948902    1.244    0.196
        37  -9.8277    106.5678    145.1774   2.9139277756e+02   5.4843261261e+00   0.01511228  0.009759294 -44.25  0.001292854    1.580    0.367
        38 -12.2854     93.1268    148.5588   2.9156958943e+02   5.5227529509e+00   0.01372129   0.01216136 -27.23  0.000550291    1.167    0.143
        39  -9.0859     22.7520    150.4085   2.9240086718e+02   5.9073513903e+00  0.008784382  0.006422298   8.37 0.0003839633    1.527    0.345
        40 -10.2260    134.0023    145.9573   2.9107790363e+02   5.3164752779e+00   0.03185625  0.009107717 -69.51  0.001724238    5.787    0.827
        41 -11.4496     56.6126    144.7272   2.9197222991e+02   5.7781835475e+00   0.02304567   0.01411876  30.27  0.002315911    1.612    0.380
        42 -10.9206     40.6901    143.8557   2.9215264210e+02   5.8801559953e+00   0.01938041   0.01186201  57.72  0.001826195    2.037    0.509
        43  -9.0122     25.8282    139.1823   2.9229803193e+02   6.0201361265e+00  0.008915725  0.007570898 -20.56 0.0003836085    1.261    0.207
        44 -10.1812    113.4613    135.1691   2.9125259554e+02   5.5607369052e+00   0.01654929   0.01006155 -38.72 0.0009730826    1.804    0.446
        45 -10.9468    101.1571    132.1297   2.9137777232e+02   5.6672389000e+00   0.01504865   0.01081566 -36.95 0.0008205146    1.480    0.324
        46 -11.7650     44.8003    129.3839   2.9201830778e+02   6.0246653017e+00   0.02046443    0.0109113 -57.74  0.001924232    1.798    0.444
        47 -10.0399    118.6222    127.7160   2.9114786057e+02   5.6174593644e+00   0.01095941  0.007246185 -30.75 0.0009294333    1.760    0.432
        48  -9.6160    160.6826    127.3313   2.9065569803e+02   5.3782258478e+00  0.007009007   0.00498444  63.38 0.0005796444    1.687    0.407
        49  -9.8394    109.3597    122.8190   2.9122647118e+02   5.7279629899e+00  0.009858266  0.008756976  39.98 0.0003980118    1.140    0.123
        50  -9.6266    135.0000    119.9747   2.9091070787e+02   5.6125385512e+00   0.01101012  0.003740953 -62.75  0.000787557    2.921    0.658
        51 -10.6712     45.1644    114.4560   2.9192487118e+02   6.1960499261e+00   0.01329415   0.00816183  66.68  0.001200293    2.276    0.561
        52 -10.8925    168.2047    112.9627   2.9048199083e+02   5.5014539635e+00   0.01647349    0.0126186  63.38 0.0009232969    1.499    0.333
        53  -9.5300    205.3081    110.3523   2.9003451933e+02   5.3163296963e+00   0.01455816  0.008716405   4.45  0.001318448    2.215    0.548
        54  -9.6444     66.5165    104.5169   2.9161640670e+02   6.1882915050e+00  0.006550033  0.006443704  68.16 0.0002444153    1.041    0.039
        55 -10.7592     22.7344     93.3388   2.9206034816e+02   6.5707253644e+00   0.03261848  0.006108024  36.20    0.0019938    4.325    0.769
        56  -9.5678    154.0295     76.0249   2.9042548938e+02   6.0125283421e+00  0.008003734  0.007765045 -51.39 0.0005179713    1.020    0.020
        57 -12.1267    200.7745    248.4807   2.9091432151e+02   3.7385741253e+00    0.0266945   0.01256391  29.97  0.002366165    2.068    0.516
        58 -11.1684    171.5987    245.9583   2.9123827256e+02   3.9368312016e+00   0.01626336  0.009804354 -34.17   0.00123041    1.946    0.486
        59 -13.9204     10.7770    206.5532   2.9287478929e+02   5.3234583607e+00   0.07221925    0.0322359  18.63  0.005137006    2.667    0.625
        60 -11.4735    183.6312    214.1491   2.9090837085e+02   4.2366827414e+00   0.01808123   0.01148033 -42.37  0.001816629    1.640    0.390
        61 -10.2535     33.3634     24.2019   2.9152241366e+02   7.3121993368e+00  0.009427394  0.006336945 -76.80 0.0007304698    1.686    0.407
