#   1 NUMBER                 Running object number                                     
#   2 MAG_AUTO               Kron-like elliptical aperture magnitude                    [mag]
#   3 X_IMAGE                Object position along x                                    [pixel]
#   4 Y_IMAGE                Object position along y                                    [pixel]
#   5 X_WORLD                Barycenter position along world x axis                     [deg]
#   6 Y_WORLD                Barycenter position along world y axis                     [deg]
#   7 A_WORLD                Profile RMS along major axis (world units)                 [deg]
#   8 B_WORLD                Profile RMS along minor axis (world units)                 [deg]
#   9 THETA_WORLD            Position angle (CCW/world-x)                               [deg]
#  10 FWHM_WORLD             FWHM assuming a gaussian core                              [deg]
#  11 ELONGATION             A_IMAGE/B_IMAGE                                           
#  12 ELLIPTICITY            1 - B_IMAGE/A_IMAGE                                       
         1 -14.8590    160.9268     50.5988   7.5952196592e+01   3.8491767955e+01     1.066159     1.050021  71.74  0.003586457    1.091    0.083
         2 -15.1569    173.1792     20.9843   6.5908327227e+01   3.9290922265e+01     1.338604    0.8859351 -87.04  0.005965475    1.611    0.379
         3 -14.1476    189.9638     14.8958   6.2193251350e+01   3.5965329879e+01    0.5400545    0.3240494 -67.03  0.002149754    1.791    0.442
         4 -14.0858    198.5513     22.2623   6.2907055673e+01   3.3112577808e+01    0.6241786    0.5603681  11.99  0.003985367    1.549    0.355
         5 -12.9377    191.6221      3.5257   5.9330816887e+01   3.6744256513e+01    0.3590117    0.2006058 -84.01  0.001860197    1.843    0.457
         6 -11.9865    129.3363    241.8442   1.2538782600e+02   5.7757021522e+00    0.1885511    0.1755455  87.77 0.0004918581    1.162    0.139
         7 -20.2678     73.9447    176.8933   1.2836029966e+02   2.9027957405e+01     16.87085     7.515074 -65.09   0.07032085    2.140    0.533
         8 -10.0023    131.3953    235.4662   1.2409880544e+02   6.6288511825e+00    0.1318835    0.1158949  56.05 0.0001367354    1.020    0.020
         9 -11.2135    110.7151    241.8555   1.2912199437e+02   8.8770465177e+00    0.1923187    0.1677533  80.54 0.0006367664    1.128    0.113
        10 -10.3918     27.3531    228.1623   1.4380678223e+02   2.3463338009e+01    0.0921013   0.08165159  41.95 0.0003324999    1.535    0.349
        11 -11.0933    138.0888    226.1475   1.2135766578e+02   7.2661149172e+00    0.4175103    0.2685008  79.02  0.001186572    2.363    0.577
        12 -13.5045    236.5979    174.0250   9.1536260705e+01  -9.8130235695e-01    0.4497743     0.347997  68.74  0.002373518    1.863    0.463
        13 -10.6314    158.8137    240.5921   1.1925537627e+02   9.4286850838e-01    0.1933925     0.174613 -23.89 0.0005189604    1.287    0.223
        14 -12.6191    193.7197    170.7625   9.9180011464e+01   7.8343922369e+00    0.6196062     0.359952 -58.11  0.001045405    2.195    0.544
        15 -11.4571    115.6085    239.5347   1.2785203683e+02   8.5180764323e+00    0.1895478    0.1465877  33.83 0.0005317804    1.387    0.279
        16 -13.5133    160.4392    164.1322   1.0506225389e+02   1.6143021990e+01    0.8306469    0.4378311 -66.13  0.002738968    3.217    0.689
        17 -10.6892     24.9532    213.9711   1.4314844736e+02   2.6737196497e+01     0.130563   0.09956272  81.39 0.0008782609    1.014    0.014
        18 -11.0612     21.1359    209.9448   1.4355505301e+02   2.8020821687e+01    0.1581514   0.09702937 -71.53 0.0003791342    1.440    0.305
        19 -10.7960     23.0151    156.0700   1.3785150636e+02   4.0142283532e+01     0.191204    0.1546407 -83.52 0.0003901744    1.041    0.039
        20 -12.0257    187.4597    154.4312   9.6941213387e+01   1.2515830907e+01    0.6193861     0.362314  43.41  0.002626254    1.750    0.429
        21 -11.0376    191.6094    151.7791   9.5473592321e+01   1.2186406702e+01    0.3780185    0.2082816 -59.34  0.001087215    2.416    0.586
        22 -12.7782    164.3642    152.4981   1.0160567504e+02   1.7894614630e+01    0.3893915    0.3801294  -5.27  0.001022157    1.077    0.071
        23 -11.3049     18.3601    151.9427   1.3848595282e+02   4.1529373734e+01    0.5221859    0.1619055 -67.16  0.002191779    2.458    0.593
        24 -13.7571     11.7165    205.7521   1.4502921921e+02   2.9891981143e+01    0.5830006    0.3360987 -59.81  0.003513084    1.830    0.454
        25 -10.4261    222.9659    198.5397   9.8993068998e+01  -2.9252232405e+00    0.1917711    0.1286116  37.22 0.0003270567    1.489    0.328
        26 -11.8572    174.4552    148.9431   9.8524331926e+01   1.6489805825e+01    0.3802584    0.2940143 -63.68  0.001255058    1.437    0.304
        27 -11.6479    135.1042    235.5098   1.2334396088e+02   5.9806564119e+00    0.4121048    0.2500629 -68.16  0.001491339    2.097    0.523
        28 -11.1932    139.5364    192.7325   1.1553119540e+02   1.3977041215e+01    0.3118258    0.1779285 -61.80  0.001313331    2.024    0.506
        29 -11.3963     27.8545    138.1228   1.3425369735e+02   4.3941546550e+01    0.1979876    0.1750176 -45.55 0.0006451029    1.245    0.197
        30 -10.3505    166.4944    133.4512   9.6687236127e+01   2.1623418743e+01     0.156723    0.1523124 -79.89 7.255147e-05    1.016    0.016
        31 -12.9637    160.3084    127.9132   9.6765046872e+01   2.4221541596e+01    0.5021028    0.3757499 -62.69  0.001491261    1.471    0.320
        32 -11.7558    133.9343    196.3574   1.1744709931e+02   1.4240449829e+01    0.3009323    0.2459055 -77.59 0.0004398049    1.326    0.246
        33 -15.7991     40.9929    152.2344   1.3288128613e+02   3.9243708969e+01     1.568973    0.7764047 -58.53  0.007608343    1.718    0.418
        34 -10.7409     23.5563    191.4767   1.4147816609e+02   3.1867877000e+01    0.2551152    0.1337773 -48.99  0.001045597    2.439    0.590
        35 -11.2131    231.2712    113.7069   7.9429509981e+01   1.1225695392e+01    0.2506494    0.2408371 -37.77 0.0007529916    1.120    0.107
        36 -10.9840    167.7623    112.7548   9.1281826329e+01   2.5745698842e+01    0.3200973     0.224029 -82.79  0.001308005    2.062    0.515
        37 -11.0260    141.6502    188.0753   1.1419642259e+02   1.4598755675e+01    0.2091735    0.1884786 -55.85 0.0005177708    1.148    0.129
        38 -10.8807    205.3488    110.2641   8.3080211751e+01   1.7548024471e+01    0.3084975    0.2089029  49.42  0.001033195    1.556    0.357
        39 -12.2819     27.7713    105.6977   1.2888205532e+02   5.1474187878e+01    0.3150527    0.2301571 -15.30  0.001170333    1.642    0.391
        40 -10.4481     15.3955    187.7321   1.4282991147e+02   3.3526041792e+01    0.1587498   0.08932375 -66.86 0.0005413225    1.526    0.345
        41 -12.3703     39.5733     94.8569   1.2287241447e+02   5.2782234924e+01    0.4573905    0.3390144  -9.89  0.001669175    1.563    0.360
        42 -13.0932     47.6902     92.8065   1.1973479887e+02   5.2362320404e+01    0.4406224    0.3386076   0.80  0.001828521    1.490    0.329
        43 -11.6840      3.3524     89.9498   1.3365844962e+02   5.6649210879e+01    0.2066933    0.1608853 -22.94 0.0009393456    1.394    0.283
        44 -10.6777    135.0480     85.4726   9.1638231278e+01   3.8742896305e+01    0.2321112    0.1463052  49.46  0.000593352    1.566    0.361
        45 -10.8267    144.2344     82.9970   8.8700646616e+01   3.7115708014e+01    0.2090339    0.1970375 -43.48 0.0004246442    1.083    0.076
        46 -14.2815    149.8369     65.0584   8.2308029953e+01   3.8930218250e+01     1.319972    0.8641766  36.93  0.003915253    1.714    0.417
        47  -7.7336    116.6013    246.4016   1.2851262294e+02   7.0494813133e+00    0.1248772     0.108775  50.21 0.0002265194    1.113    0.101
        48 -13.6017    165.4993     41.9353   7.2724017682e+01   3.8589532508e+01    0.4994201    0.4447263  77.60 0.0009651559    1.036    0.035
        49 -11.3193     13.6137     59.9165   1.2350572949e+02   6.2110983855e+01    0.1812973     0.158545  -3.31 0.0004130027    1.268    0.211
        50 -10.0454     35.8677    245.2308   1.4355287173e+02   1.9000728228e+01    0.1961417    0.1050097  73.77 0.0008944358    1.647    0.393
        51 -10.2489    157.7345    244.9602   1.2011840495e+02   3.6855843109e-01    0.1633281    0.1537527  39.64 0.0002795365    1.098    0.089
        52 -11.5933    101.2861    244.7425   1.3132685376e+02   9.8418970001e+00    0.2121952    0.1851014 -51.46 0.0009189572    1.466    0.318
