#   1 NUMBER                 Running object number                                     
#   2 MAG_AUTO               Kron-like elliptical aperture magnitude                    [mag]
#   3 X_IMAGE                Object position along x                                    [pixel]
#   4 Y_IMAGE                Object position along y                                    [pixel]
#   5 X_WORLD                Barycenter position along world x axis                     [deg]
#   6 Y_WORLD                Barycenter position along world y axis                     [deg]
#   7 A_WORLD                Profile RMS along major axis (world units)                 [deg]
#   8 B_WORLD                Profile RMS along minor axis (world units)                 [deg]
#   9 THETA_WORLD            Position angle (CCW/world-x)                               [deg]
#  10 FWHM_WORLD             FWHM assuming a gaussian core                              [deg]
#  11 ELONGATION             A_IMAGE/B_IMAGE                                           
#  12 ELLIPTICITY            1 - B_IMAGE/A_IMAGE                                       
         1 -13.8699     69.0575    148.5251   4.9112246348e+01   3.5979737154e+01     3.837669     1.702887 -86.47  0.001289356    6.115    0.836
         2 -13.6897    234.1258     47.1747   3.5235465983e+02   2.4517861255e+01     1.109921    0.9957066  43.83  0.008494535    1.646    0.392
         3 -13.5467    217.9071     56.9624   3.5573003527e+02   2.6089219669e+01     1.304574     1.131951  23.20  0.006977964    1.744    0.427
         4 -10.9036      2.2739     22.7753   5.1977148308e+01   7.5570850163e+01    0.4485512    0.1688165 -62.15  0.001940319    2.656    0.624
         5 -11.1771      3.5462     10.7458   4.4711607422e+01   7.7856996704e+01    0.3374091    0.2957679  24.78  0.001150572    1.244    0.196
         6 -10.1501      2.0901      2.9744   4.1234226516e+01   7.9399804856e+01    0.4198541    0.1956286 -46.68  0.002165738    2.113    0.527
         7  -9.4142    108.8208      2.5830   3.5272020159e+02   5.6850748625e+01     0.189447    0.1084839 -89.66 0.0006467167    1.685    0.406
         8 -12.2539    120.0117    230.5216   4.6956316709e+01   1.0597731022e+01    0.7533145    0.1681191  31.69  0.002693312    3.451    0.710
         9  -9.5596     74.7903    248.7394   5.9160822181e+01   1.2337450914e+01    0.4439701    0.1493833 -49.74   0.00189738    3.599    0.722
        10  -9.2561     53.0315    250.5948   6.4283522874e+01   1.4228457453e+01    0.3338653   0.09606854  24.89  0.001277822    2.793    0.642
        11 -10.8804     42.6409    246.6098   6.6432866704e+01   1.6011409458e+01    0.4039523    0.2818258 -77.51  0.002550947    1.687    0.407
        12 -12.9542     54.6787    235.5084   6.2867613562e+01   1.7009718477e+01     2.552681     1.322285 -52.23  0.004369069    2.309    0.567
        13 -13.8648     53.4087    217.5127   6.1802028574e+01   2.0942712751e+01     2.480886     1.298125 -82.14  0.006523916    2.307    0.566
        14 -14.6773     21.8153    180.0246   6.7702785971e+01   3.3057606507e+01     2.732447     2.021746  10.26  0.006824931    1.496    0.332
        15 -15.5349     31.8312    172.6167   6.4083048797e+01   3.4044749999e+01     10.87592     4.412076  77.31   0.03629322    3.536    0.717
        16 -10.5574     90.4069    226.2267   5.3379716812e+01   1.4916861855e+01    0.3583541    0.2357036  23.43  0.001428799    1.330    0.248
        17 -10.5312     87.3876    223.2914   5.3801175870e+01   1.5862357534e+01    0.4199479    0.2926666 -41.14  0.002362782    1.642    0.391
        18 -11.4511     81.6789    221.6883   5.5038571848e+01   1.6862471342e+01    0.5720223    0.3693042  38.19  0.002091021    1.359    0.264
        19 -10.6655    163.7802    223.4338   3.6669591289e+01   6.6865916793e+00    0.5248718    0.2602639 -48.87  0.002745917    2.239    0.553
        20  -9.9171     72.4715    225.9995   5.7737827869e+01   1.7030647570e+01    0.2398132    0.2106643  11.50 0.0005213804    1.147    0.128
        21  -9.9426    174.6118    223.4962   3.4553830871e+01   5.4497953786e+00    0.2187136    0.1490825  17.08 0.0006838856    1.309    0.236
        22 -11.0366     39.5053    233.0006   6.6372017907e+01   1.9050826109e+01    0.4260438    0.2711038 -68.65  0.001528432    1.797    0.443
        23  -8.3546     85.4161    210.4712   5.2880801211e+01   1.8780726885e+01    0.1334608    0.1200992  27.24 7.444768e-05    1.015    0.015
        24 -14.5208     10.1176    206.8890   7.2432061136e+01   2.7468417356e+01     1.805614    0.9142273  13.38  0.003681428    2.158    0.537
        25 -10.3458    103.5703    203.0733   4.7363089942e+01   1.8049791111e+01    0.3009278    0.2500815 -25.03 0.0002982796    1.286    0.222
        26  -9.3920    210.9196    199.0936   2.4276892861e+01   5.1478878414e+00    0.2089838     0.144745 -13.37  0.001002431    1.267    0.211
        27 -11.5778    107.3370    189.9642   4.4560682872e+01   2.0371922644e+01    0.5122774    0.3122534 -52.10  0.002487382    1.711    0.416
        28 -10.3703     78.0148    187.0200   5.2011239901e+01   2.5040359116e+01     0.502079    0.2641501 -71.41  0.002004938    2.231    0.552
        29 -11.1293     64.9486    184.8512   5.5443707544e+01   2.7228757752e+01    0.3691228    0.2487135 -86.44 0.0004925377    1.716    0.417
        30 -14.9021      8.6045    240.0061   7.4006624248e+01   2.0379055406e+01     1.989423      1.86448  26.31   0.01476451    1.251    0.201
        31 -10.2304    116.0066    182.2936   4.1164629769e+01   2.0815428191e+01    0.2017623     0.179834  17.79 0.0006235391    1.062    0.058
        32  -8.5407     74.5589    179.4901   5.2006006893e+01   2.7314096786e+01    0.1432565    0.1353999  40.30 8.091077e-05    1.009    0.009
        33  -9.6991    103.6976    171.9023   4.2695194117e+01   2.4995651122e+01    0.3731022    0.2220649  66.83  0.001434289    2.811    0.644
        34 -10.8087     56.6864    169.1263   5.6004374210e+01   3.2214405087e+01    0.4123727    0.2688223  80.77  0.001057257    1.797    0.443
        35 -10.7918     86.7505    165.2724   4.6382966574e+01   2.9119207495e+01    0.8160995    0.4531629  61.58  0.001997091    2.595    0.615
        36  -9.8165    180.2153    167.0571   2.4180672362e+01   1.4330538211e+01     0.304489    0.1603652 -48.36  0.001477948    1.901    0.474
        37  -9.4856    110.5560    167.1580   4.0046892410e+01   2.5046480150e+01    0.2563429    0.2119027  60.30 0.0003618991    1.373    0.271
        38 -10.7133    231.6293    166.1936   1.5553713459e+01   7.6937970671e+00    0.3283352    0.1291608  45.81  0.001573537    3.733    0.732
        39 -11.8304     66.6502    125.8681   4.5837921482e+01   4.2360069158e+01     1.115069    0.7886387 -70.81  0.005101786    1.476    0.322
        40 -13.0228     55.1434    144.0806   5.3057716131e+01   3.9063305744e+01     1.176666      0.57116 -48.95  0.001341856    2.177    0.541
        41  -8.5559    198.3657    241.1737   3.2705471986e+01   4.1554199510e-01    0.1340294     0.094029 -40.78 0.0004183486    1.661    0.398
        42 -11.2750     57.7165    156.5932   5.4028125492e+01   3.5374587067e+01    0.5440726    0.3338458 -37.04 0.0009002967    2.000    0.500
        43 -11.3652    237.2052    152.4153   1.2365984624e+01   9.0645764083e+00    0.4535182    0.2443392  -6.23  0.001948635    4.150    0.759
        44  -8.4509    111.9915    149.5175   3.6392068539e+01   2.8934001817e+01    0.2060552    0.1206701  57.32 0.0005512415    2.288    0.563
        45  -8.1375    102.7250    149.7228   3.9019112082e+01   3.0436560532e+01    0.1458944    0.1158151 -18.16 0.0002024839    1.494    0.331
        46  -9.6049     36.6122    147.9334   5.9990564677e+01   4.0186152056e+01     0.262672    0.1944587  42.91 0.0005438855    1.295    0.228
        47  -9.8214     46.7487    146.5784   5.6309365044e+01   3.9423560274e+01    0.3290469    0.2354706  56.13  0.001568004    1.416    0.294
        48  -8.7545    134.4417    148.4839   3.0391378699e+01   2.5325939992e+01    0.2600772    0.1388522 -60.63  0.001028143    2.339    0.572
        49 -10.4018    108.9322    145.0461   3.6348064712e+01   3.0514708868e+01    0.3658489    0.2701222 -57.79 0.0009620815    1.385    0.278
        50 -10.1598     20.1238    137.7164   6.4753697836e+01   4.4569978175e+01    0.6885198    0.2751441  64.15   0.00229055    3.243    0.692
        51  -9.9228     26.9742    144.4948   6.2983068375e+01   4.2088122760e+01    0.3747998    0.2329137  56.15    0.0017157    1.619    0.382
        52  -9.1480     24.2952    141.7158   6.3647270009e+01   4.3100582688e+01    0.2381222     0.186371  67.30 0.0004269976    1.245    0.197
        53  -9.9641     36.7483    142.5999   5.9291009918e+01   4.1639225303e+01    0.3027345    0.2432608 -82.25 0.0008272294    1.220    0.180
        54  -8.6057    133.2904    142.9385   2.9527929380e+01   2.6740377723e+01    0.2332936    0.1191192 -68.73 0.0007027442    4.178    0.761
        55 -10.7998     94.1533    132.4363   3.8074575077e+01   3.6151458323e+01    0.6203082    0.4680251 -68.91  0.002236739    1.430    0.301
        56 -10.5812     73.1466    134.9107   4.5347836265e+01   3.8968007873e+01     0.439099    0.2851511  66.26  0.001821467    1.952    0.488
        57  -9.8405     73.8439    129.5873   4.4073976742e+01   4.0261162181e+01    0.3453023    0.2193716 -73.90  0.001324923    1.802    0.445
        58 -11.4481     80.9064    131.8155   4.2159450217e+01   3.8544958207e+01    0.3213859    0.2884803 -50.87 0.0003567776    1.129    0.114
        59 -10.5767     29.1385    134.4493   6.1052948922e+01   4.4671709997e+01    0.4821908    0.2991394  80.14 0.0009010662    1.756    0.431
        60 -10.8178     34.2764    133.0898   5.8959582471e+01   4.4535893724e+01    0.4253826    0.2765967  61.40  0.001085658    1.639    0.390
        61  -9.6812     40.4060    132.1754   5.6542198301e+01   4.4124140389e+01    0.4116838    0.2537304 -68.57 0.0009724371    1.573    0.364
        62 -10.6078     43.4610    131.4959   5.5302967940e+01   4.3959387191e+01    0.3887222    0.2752556 -53.07  0.001434157    1.420    0.296
        63  -9.8237    105.5776    130.5928   3.4260981222e+01   3.4574798281e+01    0.4317601    0.2859204 -51.46  0.001113586    1.494    0.331
        64  -9.2544    106.4577    126.4578   3.3081555430e+01   3.5406551010e+01    0.2876252    0.2342626  10.20 0.0009277544    1.474    0.322
        65 -10.4838     35.8399    126.3987   5.7426382263e+01   4.6233979552e+01    0.2925337    0.2492103  52.97 0.0005768008    1.164    0.141
        66 -10.5690     92.4987    121.7862   3.6246720768e+01   3.9099640913e+01     0.536672    0.3685449  -5.29  0.001941977    2.347    0.574
        67 -12.3429     18.4448    243.0984   7.1853738861e+01   1.8927422470e+01    0.2437831    0.2211484  51.53 0.0006422921    1.162    0.139
        68  -8.8357    113.9773    121.5248   2.9805998897e+01   3.5153778939e+01    0.2145481    0.1379092  13.46 0.0008100044    2.553    0.608
        69 -12.0486     75.7137    145.6804   4.6473858639e+01   3.5751591310e+01    0.8729826    0.5834211 -18.52   0.00181772    2.137    0.532
        70 -10.0905     31.8608    120.2766   5.8087543216e+01   4.8357984623e+01    0.3628188    0.2435477  78.34  0.001277041    1.648    0.393
        71  -9.9810     25.4049    115.9882   6.0096538797e+01   5.0181343695e+01    0.4226878    0.2914083   7.19  0.002000565    1.636    0.389
        72 -10.8398    244.5975    115.2531   4.6829361192e+00   1.3553908911e+01    0.3021513    0.1646898 -57.17  0.001676418    2.241    0.554
        73  -9.2509    104.2034    116.0094   3.1291079239e+01   3.8324239432e+01    0.2424935     0.216071  38.82 0.0003606324    1.144    0.126
        74 -14.7650      4.3921    213.5639   7.4156827018e+01   2.6388302064e+01     3.930392     1.197188  11.58    0.0132193    4.635    0.784
        75  -8.8323    194.9468    229.4840   3.1663165984e+01   2.3813977734e+00    0.1723963    0.1240388 -25.90 0.0006323183    1.232    0.188
        76 -10.6243     24.1531    105.1181   5.9008921427e+01   5.3319845727e+01    0.3529112    0.3137302 -28.74 0.0008952051    1.187    0.157
        77 -11.0730     97.8721    223.8713   5.1324461275e+01   1.4498225864e+01    0.6350515    0.3582712 -40.27  0.002683144    2.063    0.515
        78 -11.4138     54.7829     88.4976   4.1879288177e+01   5.3994776302e+01    0.5918818    0.3675794 -56.30  0.002612704    1.586    0.370
        79  -8.2345     24.3210     86.6455   5.5632520900e+01   5.8340802555e+01     0.156689    0.1045449  61.02 0.0007046578    1.755    0.430
        80  -9.0110     35.1903     83.8878   4.9677827672e+01   5.7899308316e+01    0.2215172    0.1931522  58.61 0.0005570899    1.226    0.184
        81  -9.6280     72.6867     79.4078   3.1892371495e+01   5.3081156783e+01    0.4245548    0.2721799  77.45  0.001593652    2.694    0.629
        82 -10.1981    103.9245    238.9920   5.1570687282e+01   1.0922387894e+01    0.3145815    0.1775765 -56.07  0.001097512    2.065    0.516
        83 -11.1158    208.9691     62.5244   3.5781394530e+02   2.6961084361e+01    0.4044717    0.3022377 -28.73  0.001248521    1.468    0.319
        84  -8.2901    188.9875    238.0000   3.3929423591e+01   1.7689184881e+00     0.164778   0.05465286  27.00            0    2.763    0.638
        85 -11.3377     51.9762    160.5161   5.6407683351e+01   3.5045243115e+01    0.4782192    0.3367265 -13.92  0.002198033    1.852    0.460
        86  -8.3481     65.6946     73.6869   3.2864393639e+01   5.5709129553e+01    0.1511362    0.1192052 -11.36 0.0003343011    1.619    0.382
        87 -10.4529     18.7958     35.8605   4.4144839019e+01   7.1262130032e+01    0.2995996    0.1223942 -37.98  0.001164722    2.806    0.644
        88 -10.9592      2.3922     49.5569   6.0333435496e+01   6.9474384847e+01    0.5068117    0.1276783 -67.56  0.001763528    3.366    0.703
        89 -10.4299     47.0592    229.3438   6.4287962650e+01   1.9062625987e+01    0.4696077    0.2474498  10.09  0.002206594    2.248    0.555
        90  -9.4054     60.6261     21.5482   1.3334165558e+01   6.6450503909e+01    0.2488419    0.2180795  71.20 0.0007111554    1.191    0.160
        91  -7.9089     73.6746     17.3208   6.6590356320e+00   6.3998657220e+01    0.1376069    0.1006534 -75.49 0.0007046903    1.681    0.405
        92  -8.4627    189.5042     15.4652   3.4859545237e+02   3.6771483410e+01    0.1224573   0.09487214 -64.29 0.0001157313    1.006    0.006
        93 -10.5136     39.2961    229.6603   6.6218547572e+01   1.9770267576e+01    0.3141273    0.1654416  46.41 0.0008099215    1.613    0.380
        94 -10.2037     72.9093    233.7783   5.8335043127e+01   1.5406488823e+01     0.316049    0.2395116 -85.98  0.001339365    1.614    0.380
        95  -8.5557    129.6042     10.5090   3.5279699583e+02   5.0989317088e+01    0.1304915    0.1105952 -78.84  7.48852e-05    1.028    0.027
