#   1 NUMBER                 Running object number                                     
#   2 MAG_AUTO               Kron-like elliptical aperture magnitude                    [mag]
#   3 X_IMAGE                Object position along x                                    [pixel]
#   4 Y_IMAGE                Object position along y                                    [pixel]
#   5 X_WORLD                Barycenter position along world x axis                     [deg]
#   6 Y_WORLD                Barycenter position along world y axis                     [deg]
#   7 A_WORLD                Profile RMS along major axis (world units)                 [deg]
#   8 B_WORLD                Profile RMS along minor axis (world units)                 [deg]
#   9 THETA_WORLD            Position angle (CCW/world-x)                               [deg]
#  10 FWHM_WORLD             FWHM assuming a gaussian core                              [deg]
#  11 ELONGATION             A_IMAGE/B_IMAGE                                           
#  12 ELLIPTICITY            1 - B_IMAGE/A_IMAGE                                       
         1 -10.2876     33.0000      9.0004   8.0837056972e+01   7.0232559713e+01      1.03308   0.04805722 -39.28  0.001663587   22.198    0.955
         2 -10.6895     33.0000     44.0205   9.5624562333e+01   6.4418243397e+01     1.620671    0.1729318 -53.45  0.003025905   13.632    0.927
         3 -11.8950    221.3220     17.9085   4.0000716653e+01   2.7860341901e+01    0.7231042     0.614336 -77.27  0.002917704    1.017    0.017
         4 -11.7242    207.1714     33.6504   4.5483748719e+01   2.9331272287e+01    0.8234786    0.8151175 -81.64  0.005165923    1.167    0.143
         5  -8.8674     12.6769      3.6827   8.8966746087e+01   7.3134895792e+01    0.1182286   0.06583232 -15.99 0.0007043518    1.668    0.400
         6  -8.6792     48.0106      2.4965   7.0546510861e+01   6.8948107170e+01    0.1714887    0.1057479  38.86 0.0007371668    1.573    0.364
         7 -11.2521     83.8851    227.3291   1.1414522960e+02   1.6707703513e+01    0.8368361    0.2648848 -64.65  0.003527594    3.428    0.708
         8 -11.4922    114.5056    240.1133   1.0950576743e+02   9.8134990359e+00    0.6735045    0.2182286 -60.08  0.002816341    3.816    0.738
         9 -11.9066    114.5623    229.6209   1.0829414866e+02   1.1661661060e+01    0.5739151    0.4088093 -77.32  0.003433048    1.651    0.394
        10 -13.6831     73.1930    248.2081   1.1802533960e+02   1.4358383710e+01     4.224867    0.7070857  38.53   0.01466629    4.685    0.787
        11 -14.0092     47.3702    198.9063   1.1886853888e+02   2.7360849340e+01     5.242998     2.128627  72.11   0.02042259    3.560    0.719
        12  -9.6349     94.1032    221.6522   1.1150699085e+02   1.6304144275e+01    0.2795037    0.2058611 -61.91  0.001203437    1.525    0.344
        13 -15.4095      8.6604    238.4165   1.2862300549e+02   2.3682053102e+01     10.35257     1.813457 -79.38   0.03733515    5.399    0.815
        14  -9.9423    164.4220    217.9165   9.6570642927e+01   5.4637619982e+00    0.3316179    0.1323373 -50.92   0.00137086    3.090    0.676
        15  -9.0897     28.3758    196.7263   1.2260143775e+02   2.9961545248e+01     0.198372    0.1250927 -72.64 0.0005596807    1.460    0.315
        16  -7.9310    114.4910    194.4992   1.0366027955e+02   1.8555399896e+01    0.1374198    0.1238988  59.35 0.0008105657    1.017    0.017
        17  -9.7414     63.7573    179.6613   1.1326278385e+02   2.9571432434e+01    0.3758844    0.2550172 -31.55  0.001572398    2.439    0.590
        18  -9.8986     68.7194    174.0621   1.1140170686e+02   3.0191800964e+01    0.3019852    0.2418123 -32.18 0.0007638079    1.736    0.424
        19  -7.6970     99.3177    180.6531   1.0507580885e+02   2.4082939476e+01    0.1490041    0.0994918  72.74 0.0007048519    1.727    0.421
        20 -10.7199    101.2406    228.8989   1.1086988497e+02   1.3851113779e+01    0.4045635    0.1199608  46.87  0.001604992    2.832    0.647
        21 -12.8021     10.3662    206.6294   1.2675218407e+02   2.9676120921e+01    0.9114744    0.5668039  27.92  0.003626672    2.093    0.522
        22  -9.5610    114.5886    174.3338   1.0044555680e+02   2.2914411869e+01    0.3913656    0.1438927 -61.71  0.001306712    3.387    0.705
        23  -7.9937    110.0000    174.0097   1.0148840308e+02   2.3785840982e+01     0.233933   0.08031601 -56.61 0.0008089296    2.988    0.665
        24  -9.2730     94.7695    168.5720   1.0429592761e+02   2.7577335802e+01    0.2068843    0.1221522  49.96 0.0009553938    1.662    0.398
        25 -10.1185     78.2871    164.1824   1.0769388779e+02   3.1150323987e+01    0.3144244     0.239694 -60.54 0.0005371391    1.291    0.226
        26 -10.9339     84.5942    158.8349   1.0527214191e+02   3.1473482362e+01    0.6793535    0.3757263 -47.41    0.0022534    1.993    0.498
        27 -11.4992     65.6019    160.3910   1.1031751140e+02   3.3832997975e+01    0.4601354     0.270362 -46.43  0.001339988    1.989    0.497
        28 -10.1197     32.5860    156.2137   1.1800902547e+02   3.8684299150e+01    0.6460273    0.1349435 -71.57  0.002066717    4.298    0.767
        29 -10.4179     22.1288    155.2032   1.2044462749e+02   3.9911255489e+01    0.3833141    0.1957627 -83.51  0.001991941    1.720    0.419
        30  -9.6442    134.1437    143.0986   8.9550140787e+01   2.6311702027e+01    0.6845856     0.121933 -46.16  0.001569968    5.784    0.827
        31 -10.2209     73.8474    154.6872   1.0736857490e+02   3.4060016994e+01    0.3277247    0.2147981 -81.49  0.001573138    1.595    0.373
        32 -11.0091     69.0753    144.4186   1.0698062767e+02   3.7218206447e+01    0.6790521     0.439072  65.06  0.003298181    1.763    0.433
        33 -10.2351     87.3111    141.8874   1.0160125623e+02   3.5129732988e+01     0.285714    0.2504026 -42.84 0.0005423971    1.240    0.194
        34 -10.8174     32.9539    133.7259   1.1521515710e+02   4.4029458067e+01     1.307514   0.07502896 -68.76  0.001928319   18.800    0.947
        35  -8.8257    102.1352    139.5477   9.7133598762e+01   3.3214838611e+01    0.3119622    0.1833457 -40.22  0.001308746    1.969    0.492
        36 -11.0263    128.3564    230.7656   1.0567652535e+02   9.2629375230e+00    0.3793541    0.2587248 -46.23  0.002207833    1.808    0.447
        37 -10.3540     58.3676    131.3053   1.0774690795e+02   4.1833788214e+01    0.4828919    0.2153626 -69.82  0.001965314    2.266    0.559
        38  -9.6332    115.0863    128.6006   9.1248115995e+01   3.3434713868e+01    0.7855693   0.07070897 -49.84  0.001372243    9.696    0.897
        39  -9.4045    108.5455    131.4507   9.3670320881e+01   3.3993859705e+01    0.5308715    0.2462391  46.17  0.002013632    2.242    0.554
        40  -8.7847     97.2522    127.7545   9.5984417658e+01   3.6900392673e+01    0.2745942    0.2010624 -20.14 0.0004744843    1.901    0.474
        41  -8.7290     41.0000    124.9405   1.1168597877e+02   4.5366568998e+01    0.2288488   0.06569967 -66.12 0.0008065553    2.971    0.663
        42 -10.1055    135.0000    121.4203   8.4236700332e+01   3.1049580073e+01    0.6954445   0.08859283 -46.50  0.001327143    7.765    0.871
        43 -10.8251    124.6825    229.7278   1.0628148126e+02   1.0036374992e+01    0.3206663    0.2225188 -68.96  0.001873444    1.736    0.424
        44 -10.0395    114.7973    111.6734   8.7204081731e+01   3.7432647554e+01     0.647529    0.1188614 -49.49  0.001484803    5.529    0.819
        45 -10.8598     33.0000     99.4533   1.0980558996e+02   5.2280950003e+01    0.9984437   0.08946776 -63.58  0.002348458    7.165    0.860
        46  -9.6277    134.6398    105.0779   8.0059856659e+01   3.4748596922e+01    0.4804103    0.1476952 -42.83  0.001412762    3.249    0.692
        47 -10.5267    121.0901    225.6482   1.0649592707e+02   1.1347710124e+01    0.3866208    0.2137406 -50.75  0.002009778    2.140    0.533
        48 -10.2183    141.9889    230.5071   1.0292022651e+02   7.0915754747e+00    0.1827071    0.1772544 -79.22 0.0008845108    1.214    0.176
        49  -8.6621    107.0329    119.7486   9.1394120222e+01   3.7047876610e+01    0.2047656    0.1963106  42.94 0.0003223263    1.086    0.079
        50  -8.8176    113.9922     82.5015   7.9224838183e+01   4.3998715097e+01     0.214083     0.136131  69.44 0.0008103871    2.542    0.607
        51 -10.5914     33.0000     70.4955   1.0349121181e+02   5.8936637058e+01     1.077394   0.06092723 -59.49   0.00164087   18.029    0.945
        52 -10.9717    134.9113    232.4539   1.0458537409e+02   7.9120751571e+00    0.7340212    0.2023938 -54.31   0.00273117    4.412    0.773
        53 -11.7939     40.3242    234.3074   1.2294381079e+02   2.1041928393e+01    0.8269388    0.4129005  80.79  0.001955775    1.940    0.485
        54  -8.8865    115.0000     63.0073   7.2655558077e+01   4.7567844241e+01     0.245477   0.08380445 -38.32 0.0007996212    2.923    0.658
        55 -10.2447     13.0696     60.1603   1.0882800618e+02   6.2686743720e+01    0.2261992    0.1394953 -55.56  0.001012156    1.265    0.209
        56  -8.7152    138.8434     44.6067   6.0298296459e+01   4.5020236667e+01    0.2038881    0.1387711  70.93 0.0005615103    1.669    0.401
        57 -10.3210    119.3810    241.3363   1.0870091379e+02   8.8531036040e+00    0.2136664    0.2038642 -22.48   0.00120764    1.377    0.274
        58 -10.6659    197.8672     39.9007   4.8357408871e+01   3.0801116187e+01    0.6732754    0.3175012  58.93  0.002861681    2.022    0.505
        59 -12.2620     37.2606    207.5666   1.2163917026e+02   2.6703927705e+01    0.8475572    0.6601589  20.87  0.005291251    1.864    0.463
        60 -10.6582    214.0046     25.8070   4.2689001253e+01   2.8660079195e+01    0.4511234    0.2959347  43.40 0.0009867506    1.914    0.478
        61  -8.1723    115.0000     18.9726   5.6603042054e+01   5.4011455235e+01    0.2168695   0.07780852 -25.47 0.0008094677    2.991    0.666
        62 -11.4413     89.0628    228.1402   1.1320495089e+02   1.5805296544e+01    0.6830851    0.3338013 -88.40  0.001239783    3.282    0.695
