#   1 NUMBER                 Running object number                                     
#   2 MAG_AUTO               Kron-like elliptical aperture magnitude                    [mag]
#   3 X_IMAGE                Object position along x                                    [pixel]
#   4 Y_IMAGE                Object position along y                                    [pixel]
#   5 X_WORLD                Barycenter position along world x axis                     [deg]
#   6 Y_WORLD                Barycenter position along world y axis                     [deg]
#   7 A_WORLD                Profile RMS along major axis (world units)                 [deg]
#   8 B_WORLD                Profile RMS along minor axis (world units)                 [deg]
#   9 THETA_WORLD            Position angle (CCW/world-x)                               [deg]
#  10 FWHM_WORLD             FWHM assuming a gaussian core                              [deg]
#  11 ELONGATION             A_IMAGE/B_IMAGE                                           
#  12 ELLIPTICITY            1 - B_IMAGE/A_IMAGE                                       
         1 -13.1512    213.6829     47.0811   1.1208833835e+01   2.8507713829e+01    0.5680357    0.5361367 -64.42  0.001435048    1.314    0.239
         2 -13.0101    241.1979     24.6880   5.2496555371e+00   2.6541038745e+01    0.7066196    0.4930292 -55.60  0.004174883    1.021    0.021
         3 -11.7646      4.9535      8.6335   5.3763845342e+01   7.6781540995e+01    0.6799605    0.3499468  29.95  0.003628852    1.670    0.401
         4 -10.1489      2.3462      2.4893   5.2074308600e+01   7.8041908241e+01    0.2769229    0.2309435 -43.74   0.00175701    1.565    0.361
         5 -10.2958    125.0030    244.0388   6.3557571228e+01   7.8514337707e+00    0.2363372     0.159273 -45.07 0.0009329641    1.613    0.380
         6  -9.6398    139.9807    249.9897   6.1009899652e+01   5.2795859561e+00     0.177341    0.1375007  40.01 0.0009425279    1.654    0.395
         7  -8.6894     93.9779    249.9406   7.1443024470e+01   1.0052585036e+01    0.2030768      0.13547  49.31  0.001130801    1.803    0.445
         8  -8.8095     76.1963    245.0778   7.5254198590e+01   1.2826748523e+01    0.3312316   0.06976964 -58.72  0.001162053    4.495    0.778
         9 -15.0601     67.8777    145.7572   6.4493878181e+01   3.7223557215e+01     11.33514     5.953366 -83.08   0.03718013    3.415    0.707
        10 -11.3018     43.5243    238.0457   8.2860422760e+01   1.7512203470e+01    0.2995488    0.2130256 -77.29 0.0004484784    1.650    0.394
        11 -12.1589    146.5756    228.5520   5.6701078483e+01   8.2424887593e+00     0.566758    0.3235543  12.92  0.002817948    1.657    0.396
        12 -13.0585    127.5537    230.2123   6.1179273898e+01   1.0074481432e+01     2.112123    0.6002603  28.30  0.008078878    2.982    0.665
        13 -10.6213    106.9905    234.4382   6.6567947769e+01   1.1587710768e+01    0.3054128    0.2475238  -8.45   0.00119588    1.156    0.135
        14 -12.4937    108.5715    229.0916   6.5518263251e+01   1.2448319145e+01     1.420242    0.5827687  28.56  0.006259957    2.076    0.518
        15  -9.0334    185.0069    236.5067   5.0115642055e+01   2.9580437421e+00    0.1746505     0.122935 -27.25 0.0005889933    1.230    0.187
        16  -8.9973    184.7846    229.2984   4.9108150099e+01   4.0863374319e+00    0.2016155    0.1206886 -40.89 0.0009247679    1.619    0.382
        17 -10.4312    102.8980    239.2674   6.8129854927e+01   1.1113140980e+01    0.3469788    0.1981715 -50.81 0.0004902757    1.920    0.479
        18 -10.5357    173.7573    223.9477   5.0419658426e+01   6.0717676553e+00    0.3531566    0.1835013   2.90  0.001748088    2.290    0.563
        19  -9.6261     72.1721    224.8868   7.4244266784e+01   1.7417827102e+01    0.2254021    0.1700934  18.78 0.0005225148    1.165    0.142
        20 -11.6848     88.5180    222.9911   6.9778646557e+01   1.5989959391e+01     1.439368       0.5712  33.55  0.006040136    2.167    0.538
        21  -9.8913     67.1200    220.8996   7.5163174511e+01   1.8839530810e+01    0.1981328     0.187453 -71.69 0.0004698494    1.216    0.178
        22  -9.7416     80.9172    220.6092   7.1474081205e+01   1.7366225369e+01    0.2326536    0.1992127  25.48 0.0006578825    1.067    0.063
        23 -10.1190    125.1329    238.8667   6.2873553540e+01   8.7605852207e+00    0.1811166    0.1571191  17.17 0.0003888127    1.181    0.154
        24  -8.7593    144.3723    212.2564   5.4774760471e+01   1.1455096546e+01    0.1621911    0.1224256 -53.39 0.0004963495    1.582    0.368
        25 -14.3245     44.0794    177.7357   7.7124288149e+01   3.1791541220e+01     4.359908     2.081059 -68.44   0.01773461    2.170    0.539
        26 -10.1815    118.5156    201.5091   5.9200861579e+01   1.6837264363e+01    0.2519135       0.1096  37.49  0.000750131    2.286    0.563
        27  -9.8441    211.2313    198.7702   3.9742614577e+01   6.1147286974e+00    0.1976195    0.1503312 -12.67 0.0004992507    1.105    0.095
        28 -10.0738    192.5970    194.2506   4.2178138477e+01   8.8867356154e+00    0.6454533    0.3153636 -61.08  0.001732574    9.742    0.897
        29 -11.6679     68.3234    192.7160   7.1561078664e+01   2.5246418460e+01    0.4333932    0.2862771  77.80  0.001209477    2.096    0.523
        30 -13.7175     27.7870    248.7856   8.7474372266e+01   1.6695132602e+01     1.005242     0.747635  18.41  0.006292331    1.211    0.174
        31  -9.6032     55.4638    193.9650   7.5498617046e+01   2.6432081282e+01    0.2633924    0.2013447  76.00   0.00134749    1.525    0.344
        32 -10.2655     52.7799    190.1830   7.5866917846e+01   2.7668733117e+01     0.351234    0.2248265  74.66  0.001262117    2.000    0.500
        33  -9.6593     74.4400    191.0399   6.9559725723e+01   2.4902882675e+01    0.4295976     0.227494 -71.86  0.001766987    2.363    0.577
        34 -11.2674    129.0228    185.3327   5.3982295217e+01   1.8809183973e+01    0.3483851    0.2479286  15.18  0.001811639    1.402    0.287
        35  -9.4954    207.5299    189.8687   3.8895311135e+01   7.9010788961e+00    0.1765876   0.09460423 -38.21  0.001012416    1.538    0.350
        36 -14.2911      5.9598    186.8229   8.9844758074e+01   3.2778545324e+01     1.377017    0.9749703  59.31  0.006160713    1.360    0.265
        37  -9.0854    141.9931    182.9927   5.0509090559e+01   1.7466030696e+01    0.1681337    0.1480715 -17.78  0.000412052    1.032    0.031
        38 -10.1161     63.4727    182.4415   7.1662772972e+01   2.8368509533e+01    0.3105956    0.2289004  78.34  0.001174362    1.677    0.404
        39 -10.4191    116.1808    181.4717   5.6543657479e+01   2.1466263367e+01    0.2427894    0.2007411   9.12 0.0007166406    1.162    0.140
        40 -10.5383    173.8396    171.5572   4.1714112083e+01   1.5208587574e+01    0.3244352    0.2800699 -71.22  0.001986471    1.613    0.380
        41  -9.7513    174.7134    180.0871   4.3075201780e+01   1.3543822244e+01    0.2624763    0.1983605 -30.74 0.0008867884    1.151    0.131
        42 -10.3817    172.2979    176.0647   4.2829217692e+01   1.4596654012e+01    0.3332526    0.2821846 -43.31  0.001723459    1.243    0.196
        43 -10.8218    180.9267    168.9147   3.9891639574e+01   1.4712193816e+01    0.6679577    0.3124949 -53.73  0.002903307    2.686    0.628
        44 -10.6746    177.4947    169.9911   4.0729896493e+01   1.4989319883e+01    0.3139843    0.2257621 -50.43  0.001332903    1.478    0.323
        45 -14.1328      2.9709    249.7261   9.3465330598e+01   1.8494261465e+01    0.5361651    0.2185807  29.05   0.00270245    1.858    0.462
        46  -9.0965     96.6848    175.0424   6.0726372248e+01   2.5743487059e+01    0.2005527    0.1790555 -42.79 0.0003776089    1.145    0.127
        47 -10.8295    104.2231    171.4902   5.8006882621e+01   2.5473958171e+01    0.5958804    0.4369994  47.26  0.002931796    1.507    0.336
        48  -8.9307    101.5506    166.9618   5.7946372401e+01   2.6933013080e+01    0.2180117    0.1451095 -53.38 0.0003830218    1.539    0.350
        49  -8.4047     68.2780    173.2354   6.8887562238e+01   3.0089843508e+01    0.1424747    0.1100531 -16.32 0.0001696134    1.438    0.305
        50  -9.5515    118.3444    170.5113   5.4047451137e+01   2.3576262451e+01    0.2438944    0.1993567  49.56 0.0005457742    1.403    0.287
        51 -14.1152     14.0432    242.9084   9.0537359794e+01   1.9050139212e+01      0.59005    0.3263652  18.03  0.001497375    1.641    0.391
        52 -17.5678      6.5147    219.7984   9.1398447469e+01   2.4714710842e+01     2.844822     2.652662  73.64   0.01285037    1.125    0.111
        53 -10.5590     47.1603    229.2680   8.1240424711e+01   1.9054905773e+01    0.2399548    0.2047205  45.59  0.001122853    1.135    0.119
        54  -9.5043    110.9106    167.3998   5.5445812086e+01   2.5409156837e+01    0.2785792    0.2143872 -76.66  0.001269268    1.708    0.414
        55 -13.5397     20.4474    172.0411   8.4194925374e+01   3.5541785292e+01     2.987081     1.125412  47.94   0.01046496    2.766    0.638
        56 -15.3451      8.1573    140.4632   8.5621538255e+01   4.5049294722e+01     8.376973     1.766784 -78.08   0.02203793    5.028    0.801
        57 -11.9934    237.8223    162.1289   2.9796041811e+01   8.7600262081e+00    0.4620175     0.265886 -18.90  0.002787069    1.983    0.496
        58 -10.7612    127.7414    159.7567   4.9625435931e+01   2.4481163159e+01    0.3872944    0.2515528 -61.59  0.001376845    1.858    0.462
        59 -11.4868     31.6732    163.0144   7.9523947803e+01   3.6957107135e+01    0.3547558    0.2382781  45.38 0.0006272587    1.481    0.325
        60 -12.0758     85.3661    144.6015   5.8545161867e+01   3.4870415319e+01    0.5987834    0.5619146  23.45  0.001610669    1.040    0.038
        61  -9.1055     96.4181    161.5103   5.8424564015e+01   2.9008930650e+01    0.2725749    0.2315758  78.91 0.0008031438    1.458    0.314
        62 -11.0926     90.8500    153.6469   5.8607586365e+01   3.1775707188e+01    0.6329733    0.4661781 -86.52  0.002603657    1.852    0.460
        63 -10.8777     47.4994    160.2862   7.3779039615e+01   3.6016404594e+01    0.5112368    0.2826847  61.80  0.001844294    2.391    0.582
        64  -9.6409     42.1588    154.8467   7.4866750443e+01   3.8079073858e+01    0.2464473    0.2064184  25.83 0.0005306338    1.161    0.139
        65 -11.4750     33.8992    155.9149   7.7907813013e+01   3.8659655717e+01    0.6706921    0.3615836  50.84  0.001138904    2.028    0.507
        66  -9.5691     40.3086    146.9527   7.4406892125e+01   4.0422300797e+01    0.3149594    0.2061576  56.39 0.0006997954    1.721    0.419
        67  -9.6698     51.3616    156.1935   7.1871096530e+01   3.6652664416e+01    0.3097213    0.2572832 -19.42 0.0008694985    1.292    0.226
        68 -11.2080     47.5001    152.5689   7.2668990447e+01   3.8083236130e+01    0.7121469    0.2476695  40.82  0.002354087    2.845    0.649
        69  -8.2905    114.2707    153.3304   5.1849230600e+01   2.8091233408e+01    0.1511182    0.1103972 -20.02 0.0002731571    1.586    0.369
        70 -11.0181    133.5508    145.2857   4.5281470399e+01   2.6636465199e+01     1.156295    0.2932054 -53.05   0.00305622    5.152    0.806
        71  -8.8146    124.0050    151.0241   4.8832149686e+01   2.7000374102e+01    0.1763661    0.1630474 -30.43 0.0003950605    1.045    0.043
        72 -10.9802     79.3815    150.4626   6.1575436452e+01   3.4325739339e+01    0.3184465    0.2660451  25.53 0.0006258014    1.164    0.141
        73 -10.6871    108.9527    145.3449   5.1683071116e+01   3.0809414461e+01    0.2948615    0.2784494  38.92 0.0006879304    1.096    0.087
        74 -10.1824     28.8104    143.3462   7.8147381717e+01   4.2593206235e+01    0.5026821    0.3243397  11.09  0.002277585    1.628    0.386
        75 -10.5289     36.8604    142.3987   7.5010119927e+01   4.2038206936e+01    0.3335393    0.2509421 -69.40 0.0007658251    1.349    0.259
        76  -9.3071    108.4215    137.2528   5.0115556610e+01   3.2768429066e+01    0.4030467    0.2060433 -64.14 0.0008188413    2.761    0.638
        77  -8.6199     39.1774    137.6362   7.3418688853e+01   4.3084237643e+01    0.2152093    0.1418531   3.98 0.0009338854    1.706    0.414
        78 -10.1413     44.8295    135.1144   7.0868309112e+01   4.3112054237e+01    0.3280098    0.2549953  43.54 0.0006328111    1.308    0.235
        79 -10.5667     44.2630    130.8776   7.0352838965e+01   4.4324467725e+01    0.4793414    0.4206888  13.90  0.002479656    1.137    0.120
        80 -11.7815    104.4425    131.6118   5.0007486126e+01   3.4772827796e+01    0.8039666    0.5293807  10.45  0.002925257    2.128    0.530
        81 -10.6464    110.0797    127.2582   4.7420430445e+01   3.4749132020e+01     0.462671    0.3220272 -25.49  0.001718693    1.759    0.432
        82  -9.5382    241.5121    134.1668   2.4598424475e+01   1.2399020966e+01    0.1669246   0.08281124 -40.31  0.001005091    1.510    0.338
        83 -11.6589     88.3747    132.1611   5.5001977586e+01   3.7441713029e+01    0.2940887    0.2770619 -24.90 0.0004300613    1.067    0.063
        84 -13.0285     55.1331    231.8486   7.9372892961e+01   1.7704823557e+01     3.395849      0.74439 -64.98   0.01151294    4.496    0.778
        85 -10.5474    135.0000    122.0461   3.9842025399e+01   3.1233892672e+01    0.6673373    0.0859548 -47.60  0.001352192    8.296    0.879
        86  -8.8690     29.7159    125.0139   7.5139141287e+01   4.7537512202e+01      0.20106    0.1902885 -58.12 0.0002837985    1.051    0.049
        87  -9.6366    127.8187    123.0717   4.1798985654e+01   3.2366405500e+01     0.220097    0.1938054 -77.91 0.0008561103    1.288    0.224
        88  -8.9129    107.9769    122.7825   4.6971698780e+01   3.6144383367e+01    0.2111119    0.1939082  30.00 0.0005463793    1.091    0.084
        89 -10.4089    116.5290    121.8189   4.4397193787e+01   3.4756656872e+01    0.2864165    0.2340781  -0.36  0.001004998    1.475    0.322
        90 -10.3425     97.6719    121.5072   4.9689187329e+01   3.8337910865e+01    0.3088228    0.2506256   7.36  0.001249259    1.426    0.299
        91  -8.5020     92.4371    122.3945   5.1511880057e+01   3.9078694602e+01    0.1501372    0.1451379  42.29 -1.505311e-05    1.044    0.042
        92  -9.9902    147.1920    243.5290   5.8632045995e+01   5.6140663434e+00    0.1992675     0.178504  28.77 0.0006353289    1.440    0.306
        93  -9.0939     43.1879    229.8615   8.2330510339e+01   1.9308174370e+01    0.3072714    0.2310662  87.44  0.001108143    1.548    0.354
        94 -10.3863     25.3661    118.3831   7.5884233397e+01   4.9772218441e+01    0.5919328    0.2967868  23.47  0.002420177    1.938    0.484
        95  -9.8022    107.0989    116.2443   4.5655986136e+01   3.7769314734e+01    0.2619193    0.2153418 -55.92 0.0002991159    1.252    0.202
        96  -9.7688     34.8965    116.0904   7.1451746156e+01   4.9405913119e+01    0.4793166     0.214527  50.44  0.001640502    2.912    0.657
        97 -10.9430    244.1151    114.5955   2.0922156768e+01   1.4853877755e+01    0.2350011     0.133024 -54.75  0.001482334    1.770    0.435
        98 -10.9039     52.7855    108.2923   6.2395518032e+01   4.9136772950e+01    0.5024678    0.3995217  85.12  0.001644655    1.557    0.358
        99 -11.4488     29.5047    108.2474   7.2305982859e+01   5.2092800834e+01    0.6858044    0.2900806  34.96  0.001849809    2.278    0.561
       100 -11.2959     24.2602    104.9959   7.4054212594e+01   5.3489766562e+01    0.4812934    0.3315895  28.16  0.001651775    1.437    0.304
       101 -10.7014    115.1181    108.3441   4.1493546727e+01   3.7915851324e+01    0.2625378    0.2054541 -33.46  0.001250006    1.366    0.268
       102  -9.6523     19.7511    108.3566   7.6693725188e+01   5.3001279034e+01    0.1981007    0.1896894  88.06 0.0009023637    1.105    0.095
       103  -9.6712    133.5375    104.1514   3.5914817548e+01   3.5089777647e+01    0.4453426    0.2516302 -67.10  0.001684685    2.919    0.657
       104  -9.8070     67.4074    104.4046   5.5719242221e+01   4.7791338265e+01    0.3838054      0.26713 -26.88  0.001695243    1.740    0.425
       105 -10.4290    112.5537    103.8641   4.1038547726e+01   3.9365293280e+01    0.3127125    0.1958997  60.95  0.001233224    1.966    0.491
       106 -10.6711     30.9560     95.7558   6.9071754921e+01   5.5210717115e+01    0.8364415      0.19985  41.30  0.002180107    5.002    0.800
       107  -9.3705     46.0081     95.2817   6.2113834742e+01   5.3393681982e+01    0.2237468     0.197688  52.20 0.0002971108    1.222    0.182
       108  -9.8774     49.2407     93.2383   6.0178886567e+01   5.3423246322e+01    0.2232771    0.1974543 -12.24 0.0002930347    1.156    0.135
       109  -9.2085    113.5281     94.4890   3.8311799001e+01   4.1078788184e+01    0.1429583    0.1418448  64.63 0.0002545445    1.033    0.032
       110  -8.8329     71.7134     94.0411   5.1348415224e+01   4.9475921601e+01    0.2017257    0.1935741 -11.29 0.0002628584    1.061    0.058
       111 -10.5032     53.5187     90.4938   5.7606246382e+01   5.3423863490e+01    0.2811647    0.2639274  69.87 0.0007095769    1.183    0.154
       112  -9.0392     39.4712     89.3652   6.3558817920e+01   5.5766133483e+01    0.2433048    0.1625658  46.21 0.0008711232    1.633    0.388
       113  -9.5117     73.9828     87.8002   4.8733562047e+01   5.0455209572e+01    0.3679374    0.2169074  53.70   0.00117234    1.954    0.488
       114  -8.3656    161.2720     87.3562   2.6361740711e+01   3.2569454010e+01    0.1260593     0.103978  -6.27 0.0004147212    1.643    0.391
       115  -8.6595     90.1146     87.2105   4.3046804580e+01   4.7399458598e+01    0.2004428     0.171709  77.78 0.0004511007    1.327    0.246
       116 -11.1929     52.2924     82.2442   5.5792330371e+01   5.5552660033e+01    0.7723485    0.4122494  58.70  0.002688826    3.197    0.687
       117 -11.5433     22.8342     83.3175   7.0213131353e+01   5.9251852172e+01    0.4907731    0.3287345 -30.13 0.0009406892    1.545    0.353
       118  -9.3497     37.8095     84.5336   6.3075212315e+01   5.7172242044e+01    0.3524839    0.1049569  36.59  0.001130678    3.108    0.678
       119  -8.6944     63.0189     79.6742   5.0506455322e+01   5.4274309932e+01    0.2060772     0.188836  33.75 0.0006518807    1.040    0.039
       120  -9.9990     28.2001     84.9868   6.7891762589e+01   5.8253935621e+01    0.2487947    0.1985386  21.75 0.0004987387    1.219    0.179
       121  -9.5885    184.6959     76.8549   2.0473136548e+01   2.9713672775e+01    0.1878742    0.1489838 -26.62 0.0007576242    1.465    0.318
       122  -8.5536     71.5633     78.8070   4.6918838763e+01   5.2855188234e+01    0.1920555    0.1458543 -62.48 0.0004597763    1.531    0.347
       123  -8.3492    131.2680     75.6713   2.9022297992e+01   4.0772361088e+01    0.1402284    0.1024874 -72.69 0.0003406136    1.578    0.366
       124  -9.7394     53.4810     75.0542   5.3077757783e+01   5.6968842148e+01    0.2916583    0.1903588  50.64  0.001302358    1.704    0.413
       125  -9.6742     82.9520     72.1900   4.0796063814e+01   5.1893354468e+01    0.2385897    0.2128133 -51.97 0.0004671627    1.191    0.160
       126 -10.4187     17.3627     80.9933   7.2538765518e+01   6.0365212264e+01     0.252304    0.2386527  -0.27 0.0003035628    1.056    0.053
       127  -8.2471    126.2928     70.6260   2.8679324740e+01   4.2708610887e+01     0.146758    0.1026009 -73.16  0.000702396    1.732    0.423
       128  -8.9396    140.9978     67.7138   2.4983345469e+01   3.9963867099e+01    0.1813964    0.1617829  83.92 0.0001757044    1.069    0.065
       129 -12.3376    191.3822     62.5957   1.6549532060e+01   3.0503991460e+01    0.7829469    0.5242976  38.77 0.0007673729    2.290    0.563
       130 -13.0485    206.0968     53.0867   1.3066537998e+01   2.9086000693e+01    0.8068038    0.6600164 -54.30  0.003663892    1.088    0.081
       131 -10.0914     38.7983    248.6222   8.4771107216e+01   1.5756747602e+01     0.235936    0.1348088  48.89  0.001207362    1.665    0.400
       132  -9.4268    134.6724     61.0230   2.4329301829e+01   4.2386838623e+01     0.322978     0.175959 -69.70  0.001004728    2.824    0.646
       133 -10.8766     13.4755     59.9699   6.9388230038e+01   6.5796113935e+01    0.2703815    0.2355454 -42.01 0.0005291493    1.138    0.121
       134 -11.5450     15.3173     46.1202   6.3718240885e+01   6.8664819338e+01    0.4618433     0.216933  35.22  0.001762283    2.099    0.524
       135 -11.0571      5.1414     40.3063   6.8724955232e+01   7.0890239696e+01    0.5204747    0.2602025 -19.66  0.002277971    2.343    0.573
       136 -11.3041     45.6891    241.2207   8.2545049170e+01   1.6640947266e+01    0.2313987    0.1865635 -69.53  0.001440185    1.451    0.311
       137 -11.1329     29.6433     35.9197   5.0462503756e+01   6.8705442215e+01    0.4057594    0.2184967  36.15 0.0009790917    1.669    0.401
       138  -8.2749     68.6164    247.2381   7.7318218526e+01   1.3173732261e+01    0.1391458    0.1173162 -36.07 0.0002212031    1.339    0.253
       139 -11.3825      2.3973     23.2069   6.3976603691e+01   7.4556149521e+01    0.3617371    0.2406089 -55.18  0.001456691    1.714    0.417
       140  -9.5204     60.9291     21.1838   2.8807969654e+01   6.4759884122e+01    0.2005952    0.1944097  55.35 0.0006351827    1.132    0.117
       141  -8.5662    189.6652     14.6755   6.2976296618e+00   3.6563879885e+01   0.09883837   0.08283284  47.09 0.0007051095    1.713    0.416
       142  -9.4450     82.9905    245.8922   7.3670794857e+01   1.1963795062e+01    0.1820394    0.1524647  12.69 0.0003050061    1.032    0.031
