#   1 NUMBER                 Running object number                                     
#   2 MAG_AUTO               Kron-like elliptical aperture magnitude                    [mag]
#   3 X_IMAGE                Object position along x                                    [pixel]
#   4 Y_IMAGE                Object position along y                                    [pixel]
#   5 X_WORLD                Barycenter position along world x axis                     [deg]
#   6 Y_WORLD                Barycenter position along world y axis                     [deg]
#   7 A_WORLD                Profile RMS along major axis (world units)                 [deg]
#   8 B_WORLD                Profile RMS along minor axis (world units)                 [deg]
#   9 THETA_WORLD            Position angle (CCW/world-x)                               [deg]
#  10 FWHM_WORLD             FWHM assuming a gaussian core                              [deg]
#  11 ELONGATION             A_IMAGE/B_IMAGE                                           
#  12 ELLIPTICITY            1 - B_IMAGE/A_IMAGE                                       
         1 -13.6983     66.0897    142.6421   1.3225094264e+02   3.7905666273e+01      2.73985     1.260233 -88.22  0.003355827    5.651    0.823
         2 -14.5699    195.7152     16.5498   6.8389142439e+01   3.3731674386e+01     2.815456     1.607036  29.41   0.01221703    2.371    0.578
         3 -10.9899     32.7240     15.4333   1.1000732787e+02   6.7993067491e+01    0.3228522   0.07579669 -38.45  0.001211828    3.602    0.722
         4 -11.7129     94.8518    241.0643   1.3793514801e+02   1.4974774384e+01    0.3019619    0.1932047 -55.13  0.001942082    1.977    0.494
         5 -11.0121    249.1497    248.0414   1.1253431780e+02  -9.0603659348e+00     0.319027    0.1531529 -29.67  0.001942279    2.356    0.576
         6 -11.3824    143.0282    249.7683   1.3058510211e+02   6.6782278798e+00    0.2583843    0.1629445  43.66  0.001568828    1.223    0.182
         7 -12.5427    108.0923    248.6496   1.3639662437e+02   1.1963421702e+01    0.6581332    0.2128867  46.29  0.002753834    2.353    0.575
         8 -11.7963     97.9917    249.5327   1.3816306044e+02   1.3238193558e+01    0.3759335    0.2168344  45.77  0.001997267    1.366    0.268
         9 -10.8043    101.5251    246.5082   1.3730202113e+02   1.3207447628e+01    0.2032541    0.1425426 -89.97 0.0008072181    1.599    0.375
        10 -12.7664     65.8306    248.5419   1.4332603949e+02   1.7581363057e+01    0.6445514    0.4615271  43.94  0.003971349    1.385    0.278
        11 -12.5280     79.9376    247.3291   1.4095482551e+02   1.5988177904e+01    0.8336604    0.3058671  60.54  0.003937749    3.200    0.688
        12 -12.3468     82.0759    242.9365   1.4024816258e+02   1.6399164139e+01    0.4803378    0.2558043  66.58   0.00294973    1.870    0.465
        13 -11.7894     41.6132    206.8123   1.4437447813e+02   2.7598991261e+01    0.4924164    0.2027917 -72.75 0.0009274099    2.258    0.557
        14 -15.1322      5.2292     17.4442   1.2371168696e+02   7.0017834318e+01     20.30391    0.9841225 -54.67   0.03568015   19.237    0.948
        15 -13.9880     32.6632    246.0272   1.4834462741e+02   2.1788293418e+01     1.715736    0.5616577  42.93   0.01014187    2.372    0.578
        16 -15.7727      8.3553    240.1969   1.5170638217e+02   2.5165197154e+01     7.717488      0.68108 -69.81   0.03103704    6.533    0.847
        17 -11.6274     35.4455    230.2975   1.4701452397e+02   2.4088507891e+01    0.2932743     0.194833  68.69  0.001167139    1.128    0.113
        18  -9.4952    229.6762    230.0131   1.1291614119e+02  -4.3617036111e+00     0.158636    0.1282459   8.75 0.0005263871    1.127    0.113
        19 -11.5270    161.6067    226.5385   1.2441271263e+02   7.0391978285e+00    0.3573432    0.1455762  40.79  0.001711509    2.019    0.505
        20 -10.9214    174.4899    221.6888   1.2136692159e+02   5.6116754527e+00    0.3703416    0.1671406  54.12  0.001606724    2.838    0.648
        21  -8.5956     96.2359    218.3362   1.3546271860e+02   1.8543393257e+01   0.09741582   0.08993909 -30.40 0.0001762664    1.541    0.351
        22  -9.1505    152.6573    213.0050   1.2417239163e+02   1.0580445883e+01    0.1570827    0.1482579  40.52 0.0003648292    1.117    0.105
        23 -10.7404     37.3140    226.6775   1.4648570760e+02   2.4507371609e+01    0.2745447    0.1379289 -77.97  0.001801769    1.865    0.464
        24  -9.4880    180.3092    232.6648   1.2190185343e+02   3.1445694969e+00    0.1126797    0.0868753  63.88 0.0007042938    1.677    0.404
        25 -10.5134    193.3635    195.5069   1.1359636692e+02   6.1903508610e+00    0.7063635    0.3646197 -61.44  0.002127151    6.966    0.856
        26 -11.7956     76.4655    188.7551   1.3602683126e+02   2.6809736382e+01    0.2770733     0.228265 -45.79 0.0007999116    1.568    0.362
        27 -11.6804     71.7232    195.9343   1.3775504141e+02   2.6037917121e+01      0.34265    0.2543602 -54.00  0.001426494    1.609    0.379
        28 -10.3357     66.7753    196.2064   1.3874693999e+02   2.6624795664e+01    0.3121763    0.1490148  60.35  0.001439853    2.156    0.536
        29  -9.7008    120.2233    188.2397   1.2698407767e+02   2.0325585650e+01    0.3321812    0.1911569  23.80  0.001406874    2.670    0.625
        30  -9.1752    126.0488    186.1799   1.2546893739e+02   1.9742615401e+01    0.3275595    0.1404056  31.00  0.001225991    3.283    0.695
        31  -9.5023     93.1756    178.5229   1.3127555484e+02   2.6484854604e+01    0.4137807    0.1813173  62.72  0.001497351    3.868    0.741
        32 -11.1826     84.7605    176.5507   1.3280404437e+02   2.8112740724e+01    0.2222751    0.1980325  89.76 0.0002892205    1.066    0.062
        33 -13.3014     72.6490    174.0628   1.3507197320e+02   3.0294201069e+01    0.4438208    0.2655824 -43.81  0.002327654    2.237    0.553
        34 -10.9235    123.4898    175.0000   1.2424361255e+02   2.2325990878e+01     0.360453    0.1769022  39.69  0.001632584    1.959    0.490
        35 -12.4737     50.4285    129.9438   1.3421182838e+02   4.2609114774e+01      0.43005    0.2870387  46.09  0.001325143    1.612    0.380
        36 -10.8339    162.6490    249.1573   1.2715562939e+02   3.7650724849e+00    0.2124122     0.127207  47.21  0.001335162    1.376    0.273
        37  -9.6670    105.1872    146.9969   1.2354901555e+02   3.1198437144e+01     0.272816    0.2002067 -28.93  0.001387301    1.796    0.443
        38 -12.0979     91.6427    150.5999   1.2739723885e+02   3.2574772040e+01    0.2647032    0.2449366 -26.15 0.0005803648    1.306    0.234
        39 -12.5763     46.2834    148.5210   1.3776187195e+02   3.8945636752e+01    0.5009007    0.2969203 -70.01  0.002877094    1.462    0.316
        40  -9.7248    134.2257    147.4627   1.1682053691e+02   2.5933493015e+01    0.4906797    0.1195189 -50.73   0.00139366    4.543    0.780
        41  -8.8102    192.2482    144.3163   1.0354802217e+02   1.4795084070e+01    0.1432018    0.1087068   1.52  0.000268676    1.521    0.343
        42 -14.1384     11.4295    207.1483   1.4963263766e+02   3.0576677778e+01     1.170164    0.7978325  48.44  0.007393727    1.429    0.300
        43 -10.3036    102.7934    151.0123   1.2483711232e+02   3.0729583246e+01    0.3271903    0.2636515 -39.62 0.0009033128    1.407    0.289
        44 -10.0903    112.5446    136.4171   1.1972371013e+02   3.2223268142e+01    0.3190705    0.2472648 -21.07  0.001117878    1.679    0.404
        45 -12.6366     90.8858    167.5593   1.3022186252e+02   2.9078070809e+01     1.510901    0.5394661  50.35   0.00571992    3.052    0.672
        46 -10.7454    100.2110    133.7408   1.2224046090e+02   3.4903076662e+01    0.2683226    0.2255286 -29.83 0.0004234812    1.379    0.275
        47 -13.0686     48.3421    229.7253   1.4486443018e+02   2.2751213384e+01    0.3795112    0.3113802  65.05 0.0008603209    1.184    0.155
        48 -15.4670     56.9684    217.0449   1.4244399483e+02   2.3956817010e+01     6.354848     1.042693  43.56   0.01783735    3.994    0.750
        49  -9.3758    108.9551    123.6833   1.1792309960e+02   3.5617695820e+01    0.1878893    0.1762757  48.25 0.0003599108    1.098    0.090
        50 -10.9919     18.9252    124.1691   1.4137528760e+02   4.6864720502e+01    0.1814082    0.1352057  80.13 0.0006182654    1.283    0.221
        51 -11.1456    168.2617    113.5069   1.0118611053e+02   2.5646421260e+01    0.4058179    0.3291701 -77.11  0.001082907    1.629    0.386
        52 -12.0150    124.6563    243.6348   1.3307306207e+02   1.0305628277e+01    0.5187275     0.263395  67.80  0.002464656    3.231    0.691
