#   1 NUMBER                 Running object number                                     
#   2 MAG_AUTO               Kron-like elliptical aperture magnitude                    [mag]
#   3 X_IMAGE                Object position along x                                    [pixel]
#   4 Y_IMAGE                Object position along y                                    [pixel]
#   5 X_WORLD                Barycenter position along world x axis                     [deg]
#   6 Y_WORLD                Barycenter position along world y axis                     [deg]
#   7 A_WORLD                Profile RMS along major axis (world units)                 [deg]
#   8 B_WORLD                Profile RMS along minor axis (world units)                 [deg]
#   9 THETA_WORLD            Position angle (CCW/world-x)                               [deg]
#  10 FWHM_WORLD             FWHM assuming a gaussian core                              [deg]
#  11 ELONGATION             A_IMAGE/B_IMAGE                                           
#  12 ELLIPTICITY            1 - B_IMAGE/A_IMAGE                                       
         1 -15.3775     63.9606     84.5931   4.9549472170e+01   5.3267451617e+01     4.377853     1.194317  38.98   0.01308899    3.468    0.712
         2  99.0000     41.8029     25.9357   3.7397104357e+01   6.9815995002e+01     4.305336      1.59234  48.88   0.01497669    3.524    0.716
         3 -13.6856      3.7581     55.1106   7.2564671378e+01   6.7349157215e+01     2.121854    0.7478415 -67.48  0.005953129    2.335    0.572
         4 -13.6653     37.4212     54.7577   5.2714734672e+01   6.4469616308e+01     2.444815     1.509937 -41.08   0.01161194    1.603    0.376
         5 -12.3008     57.4425     24.5583   2.8410333473e+01   6.7054875417e+01     2.222274     1.393488  81.87  0.007761148    4.188    0.761
         6 -13.3674     74.8178     20.8519   1.9339603907e+01   6.3687824498e+01     1.901186      1.05923  69.43  0.005986942    2.211    0.548
         7 -13.0098     14.6845     36.1373   6.0239290933e+01   7.1224311881e+01    0.8944644    0.4597799 -36.54  0.002665066    1.909    0.476
         8 -13.6154      6.1743     33.7905   6.5669142378e+01   7.2368830928e+01    0.9365979    0.6522659 -45.49  0.004111427    1.242    0.195
         9 -13.2989    204.8997     40.3379   2.3889157470e+00   2.8329012962e+01     2.358131     1.227425 -68.82   0.01074766    2.281    0.562
        10 -13.0221    189.8668     44.2363   5.0131764127e+00   3.1254269851e+01     1.098989    0.8118526  72.63  0.002292563    1.387    0.279
        11 -12.3877    233.9975     37.0736   3.5911995076e+02   2.2649438399e+01     1.070166    0.3687677 -60.53  0.003921578    4.060    0.754
        12 -12.6873     64.8812      4.6299   1.3800638810e+01   6.7944066653e+01    0.6459095    0.4105093  -3.88 0.0004061208    1.890    0.471
        13 -13.0810     25.4225     39.3022   5.4114802029e+01   6.9458643808e+01     2.139132    0.9969305 -39.97  0.006692409    2.158    0.537
        14 -12.6538    221.5267     39.1019   5.7619544085e-01   2.4918653836e+01    0.7990972    0.4457744 -63.29 0.0008899672    1.824    0.452
        15 -10.3943    163.7903     30.8531   4.3563341105e+00   3.9335132159e+01      1.22832   0.09436931 -39.03  0.003188207    5.430    0.816
        16 -11.4315    210.7208     21.9470   3.5729570872e+02   2.9197814666e+01     0.488555     0.432509  65.00  0.002920278    1.339    0.253
        17 -12.3745    218.8532     28.8977   3.5836788956e+02   2.6672365331e+01     0.659522    0.4601166  45.74   0.00312319    1.911    0.477
        18 -12.8351    226.9923     22.8470   3.5637769351e+02   2.5658393443e+01    0.4178695    0.2543773  78.47  0.000897202    1.739    0.425
        19 -10.3757    136.1470     24.2996   6.1599893872e+00   4.7345051765e+01    0.7040687    0.3989046  20.62  0.002655141    3.163    0.684
        20 -10.4450    136.2242     19.7930   4.5401587515e+00   4.7836051672e+01    0.4294594    0.2394141  45.25  0.001385789    2.013    0.503
        21 -11.8257    123.9866     23.5224   7.9612807398e+00   5.0683928028e+01    0.4916261    0.4354393  17.49  0.001143588    1.326    0.246
        22 -11.1373    102.0474     20.1100   1.1121794308e+01   5.6911620090e+01    0.4210697    0.3040856 -19.41   0.00136132    1.574    0.365
        23 -11.4606    202.1257     20.6862   3.5763338258e+02   3.1249459303e+01    0.3448941    0.2122268 -41.37 0.0009419996    1.399    0.285
        24 -10.5960    204.5064     16.9186   3.5649957258e+02   3.1118203919e+01    0.4207913    0.1991537 -87.03  0.001898416    2.297    0.565
        25  99.0000    229.3617     15.7306   3.5461098369e+02   2.5936411909e+01    0.5608802    0.2356016 -75.13  0.002591572    2.749    0.636
        26  99.0000    233.2673      6.8296   3.5241933567e+02   2.6055700596e+01    0.7757841    0.3060603 -67.63  0.003712748    2.553    0.608
        27 -11.7674    228.5557     10.0469   3.5337281372e+02   2.6683121297e+01    0.5753099    0.2464406 -66.89  0.002606971    2.309    0.567
        28 -11.6418    220.5074     12.1796   3.5430882163e+02   2.8131664555e+01    0.3891437    0.2725815  68.53  0.001254901    1.593    0.372
        29 -11.7455    220.9131      7.3018   3.5315048652e+02   2.8537072437e+01    0.2176657    0.1687865 -54.65 0.0002858833    1.030    0.029
        30 -12.4863    249.8463     10.8361   3.5250262586e+02   2.2474546689e+01    0.3537103    0.1859951 -28.99  0.001032852    1.729    0.422
        31 -13.6034    244.2949      8.3609   3.5223638486e+02   2.3760564719e+01    0.7721337    0.3286178 -67.61  0.004038698    2.290    0.563
        32 -10.1472    187.0649     14.4214   3.5718372551e+02   3.5424073946e+01    0.2708233    0.1766956 -19.46  0.001434932    1.772    0.436
        33 -10.4982    109.5267     10.3684   5.3352022348e+00   5.5965387362e+01    0.4303845    0.3248431  70.58  0.002289234    1.188    0.158
        34 -11.1795    114.5220     12.5322   5.3285241413e+00   5.4415964905e+01    0.4729116    0.2387951 -40.42  0.001584822    2.050    0.512
        35 -12.2793    116.0358      7.9165   3.1809584085e+00   5.4452003399e+01    0.8314297    0.4172721 -56.20  0.002981318    2.341    0.573
        36 -10.8568     92.9427     11.3717   9.2900995555e+00   6.0247248069e+01    0.4054043    0.1966036 -28.02  0.001124721    2.196    0.545
        37 -10.3881    156.6300      7.9843   3.5802765126e+02   4.3660551977e+01    0.2415262    0.1775261  68.33 0.0007846348    1.304    0.233
        38  -9.2612    144.2460     10.2447   1.2091287507e-01   4.6687204745e+01     0.196453    0.1386909 -65.57            0    1.376    0.273
        39 -10.1732    142.8646      6.8573   3.5912114541e+02   4.7370721825e+01    0.1918406    0.1676067  73.28  0.000320242    1.111    0.100
        40 -10.3131    150.1794     13.2206   4.2083485251e-01   4.4831020775e+01    0.2851932    0.2236547 -75.69  0.001364101    1.179    0.152
        41  -9.5383    146.7556     12.3267   5.2743010559e-01   4.5820808457e+01    0.2034762    0.1225571 -34.84 0.0009849761    1.660    0.398
        42 -10.3238    124.9366      9.7920   2.5334071754e+00   5.1886250492e+01    0.4625424    0.1394027 -34.66   0.00166392    3.045    0.672
        43  -9.9306     88.5521     11.9501   1.0663532458e+01   6.1322809382e+01    0.1907047    0.1426926 -17.52 0.0005553227    1.502    0.334
        44 -11.0987     54.4733      8.0474   2.0026459999e+01   6.9964550404e+01    0.2312766    0.1853178  42.67  0.001331226    1.117    0.105
        45  -9.5507     38.1038     12.3574   3.1441026580e+01   7.2705285070e+01    0.1736938    0.1460063  25.92 0.0002823963    1.083    0.077
        46 -10.0430    130.8900      9.0961   1.4183129961e+00   5.0354578644e+01    0.3033318    0.1716488  30.67  0.001193336    2.467    0.595
        47 -10.0318    102.0641      9.9428   6.6054327595e+00   5.7992844998e+01     0.286494    0.1825843  61.74 0.0007850324    1.381    0.276
        48 -11.7651     87.5087      1.5265   5.7227186612e+00   6.2565989921e+01    0.4799315    0.1477017  57.61 0.0006590552    2.506    0.601
        49 -10.4811     78.3086      9.6522   1.2322700164e+01   6.4157684489e+01    0.5396577    0.1624936  54.40  0.001644076    2.649    0.623
        50 -11.3229     75.7339      6.1373   1.1184075105e+01   6.5152105097e+01    0.7054293    0.3455271  45.84  0.003120006    1.881    0.468
        51  -9.5962     81.7576      8.6202   1.0795370158e+01   6.3396172589e+01    0.2169628      0.12518  58.32  0.001018265    1.512    0.338
        52  -9.6280     84.7733      6.9779   9.1479787864e+00   6.2788526187e+01    0.2447372    0.1837446 -13.70 0.0006493269    1.507    0.336
        53 -10.2316     26.4362      9.7312   3.7558771339e+01   7.5084572932e+01    0.3247384    0.1990176  11.40  0.001211601    2.005    0.501
        54 -11.9552    193.9672      8.1057   3.5497861249e+02   3.4432234834e+01     0.262004    0.2273628 -79.99 0.0008582363    1.105    0.095
        55 -13.1709    173.1460      5.9020   3.5591640173e+02   3.9663583290e+01    0.4754646    0.2938402 -13.55  0.002357231    2.026    0.506
        56 -10.4350     46.8943      7.6000   2.3330162258e+01   7.1641580720e+01    0.5153782    0.2590736  46.61  0.002418185    1.786    0.440
        57  -9.3086    215.5113      8.4341   3.5371431020e+02   2.9572260947e+01    0.1251871   0.09730365 -59.62  0.000143867    1.029    0.029
        58  99.0000    210.4575      5.9060   3.5339494346e+02   3.0917971285e+01    0.3362736    0.2168869  41.53  0.001846033    2.273    0.560
        59 -10.5988    217.5112      2.5129   3.5221070139e+02   2.9721687972e+01    0.2149251    0.1691106 -76.60 0.0005483603    1.150    0.131
        60 -11.0472    214.5155      1.4654   3.5211433014e+02   3.0462400999e+01    0.2288015    0.2023074  71.66  0.000782729    1.356    0.262
        61  -8.4674    101.9037      5.5409   4.6595556096e+00   5.8442395035e+01    0.4858111    0.2503952  62.67  0.002194816    1.660    0.398
        62 -10.6116      3.8720      5.6483   5.5097328522e+01   7.8529962463e+01    0.4061469    0.1945501 -12.24  0.001370286    2.758    0.637
        63  -9.2713    188.7823      4.9893   3.5450640079e+02   3.5952090133e+01    0.1449049   0.09729113 -32.49 0.0003901445    1.462    0.316
        64 -10.3222    184.0155      3.3380   3.5438489240e+02   3.7244947907e+01    0.2584635    0.2076056  76.49  0.001048578    1.255    0.203
        65  -9.9527    154.6976      2.5800   3.5648972216e+02   4.4652575475e+01    0.3288595    0.1838771 -12.13  0.001533766    2.282    0.562
        66 -10.8309    122.5231      3.8051   5.6222181225e-01   5.3072419359e+01    0.2196781    0.1814968  85.31 9.627141e-05    1.081    0.075
        67 -11.0122     57.1058      3.0676   1.5727235926e+01   6.9917968194e+01    0.4054285    0.2786792  36.95  0.002190501    1.353    0.261
        68 -11.1236     46.1703      2.3739   2.0095150014e+01   7.2409125287e+01    0.2433295    0.1908701  17.73 0.0005631774    1.245    0.197
        69 -10.3223    232.6139      1.8020   3.5134428883e+02   2.6674355355e+01    0.2503836    0.1283402 -74.37  0.001417832    1.825    0.452
        70 -11.5705     11.4758     98.2589   7.5072644372e+01   5.5729528894e+01     0.314472    0.2279662 -67.70 0.0007426474    1.249    0.199
        71 -10.5185    250.2375     97.2393   1.0667057838e+01   1.2098015594e+01    0.2369836    0.1392151 -39.27  0.001046735    1.384    0.277
        72 -10.3425    250.5180     93.5223   9.8663486221e+00   1.2543028197e+01    0.2289465    0.1337188 -33.67 0.0005449361    1.359    0.264
        73 -13.8081    204.3687     78.7311   1.2068614239e+01   2.3172343136e+01     1.169976    0.7035764  79.15  0.003275105    2.300    0.565
        74  -9.5330    244.5147     96.9586   1.1244490297e+01   1.3070343550e+01     0.185064   0.09953622 -32.75 0.0004474517    1.511    0.338
        75  -9.6610    165.4748     96.4639   2.3056703399e+01   2.8751138052e+01    0.1467751    0.1407058  -9.40 0.0008078144    1.079    0.073
        76 -10.9343    101.7533     54.4470   2.5351506106e+01   5.1856311831e+01      1.97179    0.7457537  45.40  0.005521114    2.682    0.627
        77 -10.0486    182.5851    115.2162   2.4465990335e+01   2.1770585131e+01    0.2438606    0.1958361  47.03 0.0002383028    1.320    0.242
        78  -9.9895     26.9746     96.7558   6.8203999995e+01   5.4922803547e+01    0.1777121    0.1219904  20.30  0.000541208    1.565    0.361
        79 -10.1046    158.1291     95.6302   2.4332186540e+01   3.0563475745e+01    0.3100928    0.1451378  60.27  0.001111608    2.642    0.621
        80 -10.9675     49.8312     95.1748   5.8141359597e+01   5.2727408070e+01    0.2062302    0.1715469 -31.53  0.000353369    1.313    0.238
        81 -11.9416     45.4977     93.1181   5.9507545433e+01   5.3839388985e+01    0.4343269    0.2546042  15.07  0.001426927    2.073    0.518
        82 -12.4832    223.8833     87.5644   1.1629812538e+01   1.8018340059e+01    0.4053756    0.3180888 -27.21  0.002111503    1.176    0.150
        83 -11.1122    207.0541     89.7939   1.4374976485e+01   2.0960227989e+01    0.3413593    0.1575502 -43.29 0.0008731706    1.973    0.493
        84 -12.0345    213.5372     89.7797   1.3476590195e+01   1.9678230897e+01    0.3505089     0.216333  51.52  0.001137834    1.826    0.452
        85 -10.8343    227.1983     92.0030   1.2219528429e+01   1.6772801121e+01    0.2527571    0.1909435  73.53 0.0003982809    1.680    0.405
        86 -11.1067    112.9607     75.4705   2.9428542018e+01   4.5133751526e+01    0.3498882    0.2966595  -1.77  0.000723421    1.447    0.309
        87 -12.1390    114.8552     86.4876   3.2350075099e+01   4.2421308800e+01    0.5972937    0.3904862  34.26  0.001592301    1.732    0.423
        88 -11.9828    115.0900     80.9107   3.0559469019e+01   4.3526460176e+01    0.6522475    0.5132444  10.57 0.0006932638    1.685    0.407
        89 -10.2166    248.0229     87.6072   8.8934404990e+00   1.3732453473e+01    0.1548164    0.1374265 -37.86 0.0005405799    1.109    0.098
        90 -11.7729    248.6920     82.8980   7.8325559560e+00   1.4237015925e+01    0.3829541    0.2393016 -64.25            0    2.046    0.511
        91 -11.8070    236.6879     86.3278   9.8465460207e+00   1.5854305027e+01    0.4161267    0.2857756  84.02  0.001695248    2.049    0.512
        92 -12.0858    162.1635     83.6873   2.0246949447e+01   3.1781150012e+01     0.753728    0.5076774  43.78  0.003520844    1.599    0.375
        93 -11.6098    105.6577     87.0791   3.5275096812e+01   4.4380895461e+01    0.3811894    0.3576041  45.66  0.001857968    1.051    0.049
        94 -10.9999    202.0067     85.1844   1.3979298970e+01   2.2691711515e+01    0.2503854    0.1768466 -36.40 0.0006598628    1.269    0.212
        95 -11.6735    147.9933     84.5133   2.3406369585e+01   3.4982276997e+01     0.451256    0.4052147  76.70  0.001247179    1.156    0.135
        96 -12.1261    147.3552     79.3299   2.2034145530e+01   3.6083298506e+01    0.3627859    0.3119811 -58.35 0.0001918325    1.179    0.152
        97 -13.1325     61.3798     43.7182   3.6017001952e+01   6.2887331167e+01    0.7011148    0.5484812 -87.98  0.000593641    1.896    0.472
        98 -11.4499    218.8536     83.1329   1.1236553247e+01   1.9612247732e+01     0.201019    0.1547244   6.83 0.0004502055    1.701    0.412
        99 -13.5738    201.6401     61.9118   8.2240240878e+00   2.6188479355e+01     1.095924    0.7639079 -82.87  0.005798769    1.675    0.403
       100 -14.6708    129.0389     89.5353   2.9389748498e+01   3.8495516806e+01     2.424377     2.204422  24.65   0.01248703    1.190    0.160
       101  -9.7312     96.0000    112.9568   4.5459022369e+01   4.0425152670e+01    0.2577682   0.08990523 -52.37 0.0008012032    2.934    0.659
       102  -9.8107    238.0080     80.7686   8.4866014513e+00   1.6371175665e+01    0.1605732    0.1374329 -43.81            0    1.068    0.063
       103 -11.8184    230.2444     78.9561   8.9347960989e+00   1.8031757629e+01    0.3332868    0.2621448 -43.96  0.001306372    1.093    0.085
       104 -10.2573     82.0088     79.2224   4.0837519323e+01   5.1194781546e+01    0.3519758    0.2336555  32.65 0.0008834912    1.604    0.377
       105 -11.3479     86.9224     76.3576   3.8115457874e+01   5.0825194797e+01    0.4552287    0.2968541 -38.93   0.00040808    1.636    0.389
       106 -12.2284     83.2702     71.5399   3.7827597750e+01   5.2656017432e+01    0.5174005    0.3818138  41.13 0.0006173783    1.337    0.252
       107 -11.0425     66.4149     70.3397   4.4102925817e+01   5.6246543332e+01    0.4789378    0.2018074  40.77  0.001427816    2.342    0.573
       108 -12.1430     73.9589     75.0683   4.2581800617e+01   5.3738443566e+01    0.7473269    0.4567803  53.99  0.002809796    1.872    0.466
       109 -11.4985    249.8613     73.9418   5.8274437545e+00   1.5193725996e+01    0.3346521    0.2148457 -39.53  0.001048732    1.228    0.185
       110 -10.4873    250.0120     67.6970   4.4921404132e+00   1.5958511237e+01    0.3099762    0.1477361 -30.86  0.001061497    1.760    0.432
       111 -11.7062    241.2352     72.7283   6.3990220720e+00   1.6858276764e+01    0.3726225    0.2394887  63.03   0.00223514    1.872    0.466
       112 -11.6985    246.0320     52.5313   1.5891003298e+00   1.8538052326e+01    0.7142633    0.2177753 -44.86  0.001740961    2.574    0.612
       113 -12.0418    138.1290     71.3808   2.1664602102e+01   3.9773458578e+01    0.8867701    0.4533113  57.68  0.002532033    1.977    0.494
       114 -11.3514    144.2257     67.8242   1.9221919290e+01   3.8883084978e+01    0.3595052    0.3337939  53.18 0.0005013821    1.103    0.093
       115 -10.2286    136.3194     62.0557   1.9094381737e+01   4.1854433936e+01    0.3116446    0.2470375  60.61 0.0004599682    1.235    0.190
       116 -11.4093    136.9641     57.5295   1.7470471065e+01   4.2445157457e+01    0.4936056    0.2958253 -55.13  0.001127717    1.888    0.470
       117 -11.4338    148.0137     65.1354   1.7608795209e+01   3.8393182026e+01    0.7086498    0.4172479 -66.11  0.002749627    2.393    0.582
       118 -11.0969    144.4453     60.1010   1.6749553622e+01   4.0121632947e+01    0.7764375    0.4521834  24.18  0.002685402    3.345    0.701
       119 -10.7711    142.8560     54.3590   1.5220013423e+01   4.1445564597e+01    0.2732525    0.2517903  45.78 0.0001462613    1.159    0.137
       120 -10.4334    146.2654     52.3313   1.3905578846e+01   4.0885779191e+01    0.2595833    0.2181156  57.43 0.0006759758    1.191    0.161
       121  -9.8998    155.3814     76.7449   1.9610258187e+01   3.4603871752e+01    0.2664821    0.1814729  68.87 0.0008359666    1.627    0.385
       122 -13.4467     78.8312     49.5969   3.1224735024e+01   5.8108389372e+01    0.9341145    0.6358578  34.36  0.004292451    1.551    0.355
       123 -10.8080    127.3195     58.8402   2.0081783598e+01   4.4684930831e+01    0.5601566    0.2924637  35.44  0.001981342    2.755    0.637
       124 -12.3249    173.6983     56.9720   1.0696629913e+01   3.3334888476e+01    0.3405834    0.2903934  76.41 0.0004670534    1.182    0.154
       125 -11.3085    160.6292     50.8183   1.0923694789e+01   3.7460378871e+01    0.4529388    0.3685758   1.85  0.001833724    1.591    0.371
       126 -11.3029    162.8115     57.0063   1.2427954021e+01   3.5995855170e+01    0.4804803    0.3842974  84.95  0.001728506    1.291    0.225
       127 -10.6695    156.7659     54.5105   1.2697614725e+01   3.7884566796e+01    0.4072367    0.1866522  60.77  0.001609524    2.137    0.532
       128 -10.9928    123.3606     53.6705   1.9234425987e+01   4.6564215292e+01    0.3515961    0.2495351  64.88 0.0006103106    1.400    0.286
       129  -9.8737    173.7363    112.1325   2.5407282887e+01   2.4135856213e+01    0.3194222    0.1551028  30.53  0.001092066    3.366    0.703
       130 -10.8806    167.8130     51.5402   1.0013455279e+01   3.5564309026e+01    0.4943224    0.3187974  32.31  0.001663936    2.201    0.546
       131 -11.8709    172.2526     44.4514   7.2954527422e+00   3.5457945118e+01    0.4803527    0.3472717  82.64 0.0004622109    1.410    0.291
       132 -10.8360     72.0106    109.9651   5.2916707635e+01   4.5523353994e+01    0.2254076    0.2188658  71.91            0    1.001    0.001
       133 -11.1956    160.9847     40.3542   7.6640084163e+00   3.8833389809e+01    0.4743438    0.2808382  56.55  0.002198716    1.696    0.410
       134 -11.8364    160.1588     36.0455   6.4494674688e+00   3.9610051282e+01    0.6366976    0.2945538  66.17  0.002646428    2.068    0.516
       135 -10.9997    130.7353     51.7438   1.6868695228e+01   4.4979574348e+01    0.3280511     0.256422  71.84  0.001614309    1.277    0.217
       136 -14.7144     16.3097     66.9141   6.7777200260e+01   6.3622170534e+01     3.545596     1.271223  18.39   0.01367672    2.937    0.659
       137  -9.9214    249.6793     49.6805   6.9351401094e-01   1.8224586164e+01    0.2216982     0.156807 -17.53 0.0008390446    1.609    0.379
       138 -12.0470    248.0620     42.5642   3.5929649967e+02   1.9354596488e+01    0.4715371    0.2639691 -43.21 0.0004189611    1.372    0.271
       139 -10.5341     34.1000     49.7712   5.2799151111e+01   6.6053428655e+01    0.2216931    0.1914013 -53.81 0.0006028147    1.159    0.137
       140 -12.0638    238.2936     51.2636   1.9483253456e+00   2.0122977711e+01    0.4126355    0.2195536 -54.33  0.001854374    1.758    0.431
       141  -9.7542    149.6243     48.1722   1.1955596073e+01   4.0646258827e+01     0.204364    0.1429461 -14.34 0.0009309487    1.822    0.451
       142  -8.3091    143.9389     37.1976   9.3359619247e+00   4.3663788920e+01    0.1953954    0.1514475 -84.89 0.0003054333    1.312    0.238
       143 -11.4801    142.4729     46.4493   1.2691732761e+01   4.2746562292e+01    0.3559256    0.2544673  39.70  0.001684678    1.616    0.381
       144 -12.0892    150.5448     41.7195   9.7205372781e+00   4.1327547321e+01    0.5119947    0.4085877  45.87  0.001628635    1.374    0.272
       145 -11.3134    155.1669     42.5868   9.2488768770e+00   4.0016714677e+01    0.3318825    0.3023521  17.46  0.001051793    1.318    0.241
       146 -10.2068    146.4757     39.5454   9.6894015411e+00   4.2683104735e+01    0.2801471    0.2202197  52.63  0.000579453    1.312    0.238
       147 -10.8947    133.2607     46.3594   1.4469301582e+01   4.5157384478e+01     0.401479     0.297299 -43.68  0.001444668    1.362    0.266
       148 -10.0330    135.6511     43.3032   1.2931137208e+01   4.4984471613e+01    0.2379748    0.1827846 -78.20 0.0007988852    1.408    0.290
       149 -11.5697    133.4485     40.0166   1.2215535741e+01   4.6032709013e+01    0.4375616    0.4208137  50.46  0.002467548    1.116    0.104
       150  -9.3092    241.2889     47.6881   9.1544699743e-01   1.9995890699e+01    0.1264259   0.07176956 -54.18 0.0004383522    1.583    0.368
       151 -12.5406    178.5115     38.5965   4.8009729128e+00   3.4694831787e+01    0.6736186    0.5403415 -18.59  0.001882026    1.437    0.304
       152 -11.7457     96.6243     42.5094   2.2186499615e+01   5.5165439550e+01    0.6161135    0.3700657  61.72  0.002120387    1.702    0.413
       153  -9.0533    232.2666    103.2630   1.4058900061e+01   1.4273103258e+01    0.1151075   0.08929743  -3.36 0.0006835668    1.458    0.314
       154 -10.6976    125.6822     45.2915   1.5711203529e+01   4.7294987450e+01    0.3207154    0.1871973  52.73  0.001077667    1.647    0.393
       155  -9.5203    121.5030     45.4575   1.6720069147e+01   4.8357164122e+01    0.1521786    0.1423313  82.66 0.0003723922    1.028    0.027
       156 -10.9870     40.5762     39.5273   4.4874730540e+01   6.7387949587e+01    0.4414852     0.256406  18.98  0.001240457    2.071    0.517
       157  -9.3119    104.9432     43.0000   1.9976550258e+01   5.3000985779e+01    0.2534261   0.08287872  57.05  0.000796011    2.898    0.655
       158 -11.4502     90.4448     34.3000   2.0582107145e+01   5.7981765391e+01    0.6547268    0.2893252  50.39  0.002039649    2.079    0.519
       159 -10.7078    131.7003     32.4682   9.8580024415e+00   4.7518951153e+01    0.5231073    0.1960924 -42.58  0.001882042    2.674    0.626
       160 -10.6790    196.1265    107.9859   2.0377431527e+01   2.0275148845e+01    0.3971706    0.2164478 -40.36  0.001853147    1.683    0.406
       161 -11.9170    148.8418    104.0278   2.8608755822e+01   3.1061708550e+01    0.4781881    0.3181198 -86.22  0.001815016    2.743    0.635
       162 -10.8822    144.6077    103.0435   2.9329351513e+01   3.2205192793e+01    0.3701611    0.3128403 -11.46  0.001495898    1.363    0.266
       163 -10.1786    121.8494     33.0328   1.2005449080e+01   5.0057118071e+01    0.2139641    0.1981953  76.61 0.0005330638    1.004    0.004
       164 -10.0382    111.6791     32.8545   1.4194653376e+01   5.2762243825e+01    0.2622298    0.1895713  53.62 0.0008515238    1.305    0.233
       165  -9.5168    241.3707     30.1292   3.5707000736e+02   2.2019067563e+01    0.2511255    0.2085942  86.25   0.00107893    1.336    0.251
       166  -9.7994    237.6604     30.6996   3.5743944280e+02   2.2666758173e+01    0.1255787   0.09717315 -51.47 0.0005592689    1.020    0.020
       167 -11.6737     83.1509     29.4387   2.0715968079e+01   6.0488164047e+01    0.8038718    0.2201586  49.25  0.002526812    3.247    0.692
       168 -10.4398    148.1770     25.0654   4.6123161867e+00   4.4070428336e+01    0.2649288    0.1981513  79.53 0.0008049722    1.254    0.202
       169 -11.1170    153.3027     25.3945   4.0143646941e+00   4.2690389164e+01    0.5747867    0.3003527 -78.87    0.0023065    2.407    0.585
       170 -10.2657    158.0166     30.2011   4.9158601398e+00   4.0894126754e+01    0.1956302    0.1144947  60.48            0    1.658    0.397
       171 -11.7032    159.0789     26.5198   3.6162193164e+00   4.1061523786e+01    0.3908066    0.2346479 -19.60  0.001807969    1.971    0.493
       172 -11.0852    103.3530     29.0621   1.4667231617e+01   5.5448994610e+01    0.3151531    0.2666494 -39.25  0.001681492    1.255    0.203
       173  -9.2334    138.6163     29.7200   7.6682430202e+00   4.6034298559e+01    0.1534245    0.1028879  41.14 0.0004776538    1.725    0.420
       174  -9.4682    114.4235     28.2259   1.1718800767e+01   5.2653240234e+01    0.1571852   0.09787229  43.54 0.0004909697    1.699    0.412
       175 -10.6376    234.5538     24.2338   3.5620614538e+02   2.3990295901e+01    0.2823361    0.2608753 -15.73  0.002044522    1.369    0.270
       176 -10.4394    130.5180     19.3165   5.2564662240e+00   4.9413681115e+01    0.2819204    0.1738158  76.15 0.0002450857    1.535    0.349
       177 -11.3306     63.4477    108.0786   5.5644558334e+01   4.7384687957e+01    0.2791414     0.212134  44.00 0.0003524529    1.303    0.232
       178 -12.1692    160.8117    105.1109   2.6265510047e+01   2.8198237731e+01    0.3228468    0.2681963 -51.69 0.0002882892    1.232    0.189
       179 -10.1321    177.0369     23.1715   5.5177605252e-01   3.6914035542e+01    0.5322744    0.2848874  47.02   0.00239719    2.325    0.570
       180 -11.0948    161.1755     99.8679   2.4825080231e+01   2.9092822728e+01    0.2892984    0.2497953  -3.39  0.001053292    1.317    0.241
       181 -10.8415    112.8571     22.9982   9.9421879242e+00   5.3714772257e+01    0.4343098    0.2956742  40.47  0.002080119    1.590    0.371
       182 -11.9390    244.0698     22.9441   3.5535225131e+02   2.2294612791e+01    0.4926598    0.2137393  80.41  0.002396357    2.604    0.616
       183 -10.1952    242.4085     19.1390   3.5462829486e+02   2.3014799628e+01    0.3925642     0.158318  82.31  0.001561139    2.809    0.644
       184 -11.3516     97.6445     22.1957   1.3126865463e+01   5.7810353238e+01    0.2541453    0.2506253  36.65 0.0005698657    1.084    0.078
       185  -9.9147     86.2954    107.5462   4.7321413862e+01   4.3595889428e+01    0.3038562    0.1450036  42.36  0.001125639    2.040    0.510
       186 -10.2117     15.7976    106.7076   7.4269800927e+01   5.3184371693e+01    0.2129678    0.1675602 -29.20 0.0006509422    1.446    0.308
       187 -10.4737    210.2465    105.0641   1.7483849096e+01   1.7998641049e+01    0.3484878    0.2778226 -68.06  0.001696504    1.554    0.356
       188 -10.7025    162.9765     21.0330   1.4348989660e+00   4.0686486091e+01    0.2271287    0.1819168 -76.47 0.0003802789    1.144    0.126
       189  -9.9284    159.4306     18.0989   9.2587340254e-01   4.1916826123e+01    0.2491803    0.1458758 -44.18 0.0003476965    1.611    0.379
       190  -9.9871    174.9679     18.8668   3.5951639143e+02   3.7900618399e+01     0.196753    0.1584783 -57.96 0.0003576853    1.112    0.101
       191  -9.6903    170.4914     19.4703   1.4449863185e-01   3.8952625827e+01    0.1348829    0.1232682 -84.15  3.50917e-05    1.081    0.075
       192  -9.7289    194.1784     17.9391   3.5755109932e+02   3.3373423701e+01    0.2120503    0.1408185 -56.90  0.001178301    1.316    0.240
       193 -10.9123     36.1813    248.9812   7.8602516405e+01   1.8527705494e+01     0.162549    0.1224689 -37.03  0.001098648    2.047    0.512
       194 -10.8909    181.1429    244.1936   4.8308872773e+01   1.7069760770e+00    0.2027967    0.1466546  14.19 0.0009601584    1.024    0.023
       195 -13.6389    101.7243     69.4783   3.0800930816e+01   4.8987421610e+01     1.656825     1.243581  -8.82  0.007302116    1.846    0.458
       196 -13.6734    118.0671     62.7690   2.3748520834e+01   4.6322407029e+01     1.216426    0.8816251 -60.84  0.004283627    1.579    0.367
       197 -13.0954     55.4215     71.8449   4.9417628920e+01   5.7780625458e+01    0.8179771    0.7370648 -68.79  0.001000408    1.161    0.139
       198  -9.6266    218.6003    239.7558   4.1099692180e+01  -2.0840072051e+00    0.1255446   0.09158801 -27.35 0.0005366657    1.572    0.364
       199 -10.4549     15.9399    238.6451   8.2434898880e+01   2.2364952132e+01    0.1676156    0.1445441  88.08 0.0006505813    1.369    0.269
       200  -9.8114    236.7389    146.0023   2.2258475799e+01   7.5342462706e+00    0.1669242    0.1292592 -19.80 0.0003770456    1.050    0.048
       201  -9.9166    222.7371    121.4482   1.9271754062e+01   1.3270920875e+01    0.2233914    0.1291572  54.11  0.001156813    2.142    0.533
       202 -12.7438     51.4384     44.8666   4.1345366138e+01   6.4502922886e+01    0.8498858    0.4557057  17.11  0.002398545    3.161    0.684
       203 -13.2731     79.4569     41.2571   2.7420275490e+01   5.9476790152e+01     1.181194    0.4443746  46.06  0.004166645    2.537    0.606
       204 -10.2917     94.2534     16.0586   1.1178193990e+01   5.9407307437e+01    0.2060498    0.1795071  34.58 0.0006099785    1.184    0.155
       205  -9.7982     73.1308    119.1134   5.4524748813e+01   4.3001523685e+01    0.2051257    0.1712091  67.84  0.001016283    1.259    0.205
       206  -9.2520    102.2454     14.9627   8.8048387926e+00   5.7434452351e+01    0.1675911    0.1236017 -26.88 0.0006731158    1.485    0.327
       207 -10.0531    160.1027     14.1280   3.5960705782e+02   4.2159517485e+01    0.1918725    0.1726764  69.28 0.0002949111    1.171    0.146
       208  -9.5499    229.2270    118.6771   1.7761888892e+01   1.2581974078e+01    0.1556047    0.1109252  34.86 0.0003726543    1.607    0.378
       209 -14.3907     76.4121     58.9214   3.5882086040e+01   5.6783595245e+01    0.9184219    0.5784605  46.38  0.002143427    1.563    0.360
       210 -12.5292     86.3688     63.4290   3.3817702945e+01   5.3711027621e+01    0.6694873    0.6080767  85.71 0.0006193648    1.216    0.178
       211 -12.1124     74.7485    101.5422   4.9897915057e+01   4.7185736353e+01    0.4845436     0.310392 -85.93  0.001878655    2.353    0.575
       212 -11.4590    169.1294     98.3903   2.2842874349e+01   2.7591681496e+01     0.663274    0.4547054  -0.32  0.002838908    2.272    0.560
       213 -10.6153     46.9537    101.9872   6.0792607780e+01   5.1320873297e+01    0.2179184    0.2095193 -81.39            0    1.005    0.005
       214 -11.4916    216.0406     99.7973   1.5446584619e+01   1.7704667110e+01    0.3093981    0.1713845 -34.71  0.001549964    1.568    0.362
       215 -13.4978     53.7498     57.2942   4.5202887326e+01   6.1437216252e+01      1.40014    0.9942588  72.95   0.00204848    2.154    0.536
       216 -11.8775    152.1590     98.5079   2.6390555229e+01   3.1381030082e+01    0.6487461    0.4087035 -58.93   0.00273099    1.958    0.489
       217 -12.1143     87.7927     97.5942   4.4201021694e+01   4.5725804906e+01    0.6920729    0.4942229  -1.79  0.002832341    2.164    0.538
       218 -11.4932     83.9968     97.6901   4.5554421482e+01   4.6438356681e+01    0.6122361    0.4005468 -22.27  0.001379804    2.332    0.571
       219 -12.6686    199.4272     96.3079   1.7064586061e+01   2.1491299004e+01     0.622907    0.2876608 -34.37   0.00161459    1.983    0.496
       220 -12.6098    168.4837     78.9534   1.7748551661e+01   3.1111729444e+01      1.00904    0.4906877 -51.29   0.00179317    2.313    0.568
       221 -11.3237    154.3224     63.0455   1.5744393794e+01   3.7162247844e+01    0.6858645     0.305625 -44.22  0.002621408    2.207    0.547
       222 -13.9885    177.1033     83.7890   1.7538277023e+01   2.8321109920e+01     1.688547     1.172213   5.68  0.007479118    2.257    0.557
       223 -13.1804    179.8512     70.6122   1.3544384295e+01   2.9810889798e+01     3.419699      1.02758  67.14  0.008993161    5.837    0.829
       224 -12.0654    164.3246     65.4853   1.4665739611e+01   3.4307759817e+01     1.346709    0.4738697  49.73   0.00462675    3.012    0.668
       225 -13.1390    184.9188     59.4003   9.7505876721e+00   3.0318478465e+01     1.315953    0.8836739 -50.92  0.002775519    1.412    0.292
       226 -12.1202    231.6276     57.3921   3.9151162155e+00   2.0626529144e+01    0.6837612    0.4333678 -32.19  0.002225553    1.383    0.277
       227 -10.1749    203.8228    116.4862   2.1081489909e+01   1.7417673625e+01    0.3518655      0.23497  79.38  0.001610174    2.701    0.630
       228  -9.9773    171.9213    116.6694   2.6867345411e+01   2.3693138175e+01    0.1948653    0.1841131  46.65 0.0004856565    1.118    0.105
       229 -10.7653    125.8550    115.8797   3.7407238126e+01   3.3635580308e+01    0.2282585    0.2087664  -0.34 0.0002626845    1.191    0.161
       230 -13.4146    242.8964     60.7771   3.6403297432e+00   1.8089038580e+01     1.094238    0.5692666  50.12  0.001251113    2.464    0.594
       231 -13.5925    195.9232     82.7758   1.4268375232e+01   2.4341686891e+01     1.857766     1.101326   2.38  0.006635685    3.943    0.746
       232 -13.6860    205.9787     68.2222   9.2674125158e+00   2.4362993764e+01     1.162459    0.5039065  59.15   0.00510914    2.481    0.597
       233 -13.8278    217.3799     69.5583   8.2251418041e+00   2.1818917464e+01      0.99923    0.6843373  77.70  0.002383166    1.739    0.425
       234 -13.8745    215.2403     57.3149   5.5308641999e+00   2.3918662666e+01     1.385424     1.037782  60.78  0.003854573    1.505    0.336
       235 -12.5063    230.9754     46.6886   1.5382295759e+00   2.2092589887e+01    0.7114348    0.3765287  54.99   0.00377404    2.272    0.560
       236 -10.9734    225.3473     97.1852   1.3609878412e+01   1.6368270826e+01    0.3789116    0.1302739 -43.66   0.00151266    2.705    0.630
       237 -11.7671     95.2913     90.1291   3.9522216916e+01   4.5949894789e+01    0.5878127    0.4390273  59.76  0.001313562    1.463    0.317
       238 -12.7914    102.6190     96.1135   3.8883981982e+01   4.3028252067e+01    0.7365268    0.4274153  35.39 0.0004295329    1.853    0.460
       239 -10.9756     99.6967     93.2975   3.9006843676e+01   4.4292875678e+01    0.2510633    0.2350005 -59.35 0.0002228839    1.088    0.081
       240 -11.8228     56.7921     99.2249   5.6226919876e+01   5.0685725849e+01    0.3881141    0.1637484  37.29  0.001434083    2.284    0.562
