#   1 NUMBER                 Running object number                                     
#   2 MAG_AUTO               Kron-like elliptical aperture magnitude                    [mag]
#   3 X_IMAGE                Object position along x                                    [pixel]
#   4 Y_IMAGE                Object position along y                                    [pixel]
#   5 X_WORLD                Barycenter position along world x axis                     [deg]
#   6 Y_WORLD                Barycenter position along world y axis                     [deg]
#   7 A_WORLD                Profile RMS along major axis (world units)                 [deg]
#   8 B_WORLD                Profile RMS along minor axis (world units)                 [deg]
#   9 THETA_WORLD            Position angle (CCW/world-x)                               [deg]
#  10 FWHM_WORLD             FWHM assuming a gaussian core                              [deg]
#  11 ELONGATION             A_IMAGE/B_IMAGE                                           
#  12 ELLIPTICITY            1 - B_IMAGE/A_IMAGE                                       
         1 -13.1916    200.7060     32.6738   5.8481921031e+01   3.0830096015e+01     1.136891    0.8634699  -9.21  0.005625536    1.429    0.300
         2 -13.7671    217.5110     15.4004   5.1300534935e+01   2.8427032383e+01     1.302633     0.954893  25.40  0.006573305    1.643    0.391
         3 -11.9826      2.3375     15.7391   1.1195328719e+02   7.2104587330e+01    0.7325897     0.121226 -60.36  0.002650053    4.202    0.762
         4 -11.9778      3.6259      3.4510   1.0628813885e+02   7.4348272352e+01    0.5012951    0.3433425 -23.62  0.003575294    1.397    0.284
         5 -10.9438    143.0021    240.9951   1.1347949912e+02   1.0255919260e+01    0.1578406     0.144873 -78.79  0.001224071    1.401    0.286
         6 -11.7179    184.4806    249.1532   1.0784523050e+02   3.1896680936e+00    0.4182773    0.2184906  33.14  0.002688516    1.666    0.400
         7  -9.7181    174.9849    250.4892   1.0945819746e+02   4.4398865445e+00    0.1676918   0.07654914  42.91 0.0006678548    1.581    0.367
         8 -11.9698    179.0479    244.4403   1.0814394268e+02   4.4946598108e+00    0.3553263    0.3108349 -10.35  0.001757018    1.473    0.321
         9 -10.6324    168.9641    249.2754   1.1025676149e+02   5.4541067623e+00    0.2050142    0.1494564  33.27 0.0003080999    1.230    0.187
        10 -12.1209    170.0225    243.9721   1.0950557757e+02   5.8909720034e+00    0.4398328    0.2249259  55.24  0.002474394    2.026    0.507
        11 -10.7578    162.1288    250.3313   1.1143040622e+02   6.3358811480e+00    0.2995018    0.1017833  44.26  0.000685133    2.123    0.529
        12 -11.6340    150.1289    247.8121   1.1304293311e+02   8.3770750982e+00    0.2728461    0.2357705 -59.87  0.002320576    1.569    0.363
        13 -10.8374    143.1790    248.9022   1.1424040155e+02   9.2526454881e+00    0.2569677    0.1635473  64.19  0.001689589    1.684    0.406
        14 -11.4627    116.6674    238.4915   1.1747779127e+02   1.4390544349e+01    0.4202575     0.275371 -43.71  0.002909678    2.390    0.582
        15 -12.0169    122.1161    233.7844   1.1615193416e+02   1.4261046055e+01    0.6382586     0.347433 -65.72  0.004091085    2.392    0.582
        16 -11.1359    109.8209    247.7969   1.1936701631e+02   1.4082205824e+01     0.383222    0.2385466 -84.44  0.002754137    2.047    0.512
        17 -12.5910    135.1818    234.6118   1.1409314294e+02   1.2237410136e+01     1.399597    0.4336693 -50.81  0.006862597    4.203    0.762
        18 -11.9510    125.9725    243.0464   1.1640198057e+02   1.2458941497e+01    0.3505007    0.2985537  81.06  0.001415782    1.320    0.243
        19 -12.0918    102.7816    238.9919   1.1975697993e+02   1.6249089427e+01    0.3861175    0.3737628 -81.36  0.003428004    1.504    0.335
        20 -10.4625     97.0974    239.1040   1.2067697078e+02   1.7002040289e+01    0.2196961    0.1316896  57.93   0.00069036    1.280    0.219
        21 -11.3767     92.3929    241.8367   1.2163770571e+02   1.7238873698e+01    0.4431974    0.2360297  86.99  0.002799743    2.439    0.590
        22 -11.2870     87.9422    236.7767   1.2196265769e+02   1.8552282140e+01     0.494877    0.1632974  54.13  0.002579279    2.519    0.603
        23 -10.4642     84.5364    229.7590   1.2197666788e+02   2.0044410613e+01    0.2307301    0.1703081 -66.11  0.001611837    1.679    0.404
        24 -11.0740     99.3579    248.3728   1.2104329562e+02   1.5411372933e+01    0.3264384    0.2139676  79.92  0.002488316    1.608    0.378
        25 -10.1436    102.5450    247.4823   1.2047832141e+02   1.5107397700e+01    0.1646474    0.1455451  45.76  0.001169062    1.414    0.293
        26  -9.6504     81.5740    247.7803   1.2375029919e+02   1.7794542848e+01    0.2749822    0.1103121 -80.06  0.001513476    3.621    0.724
        27  -9.6775     90.5479    250.5309   1.2256192409e+02   1.6269547547e+01    0.1825201    0.1219061  36.94 0.0008294698    1.656    0.396
        28 -11.4103     86.6111    248.2079   1.2300403009e+02   1.7095064370e+01    0.2996086    0.2079338  41.83   0.00078283    1.442    0.307
        29 -11.4356     59.9962    245.7294   1.2692113518e+02   2.0715280680e+01    0.3681397    0.1816227  55.20  0.002043198    1.415    0.293
        30  -9.5562     66.6722    244.0215   1.2580056384e+02   2.0169628306e+01    0.2113811    0.1117229  36.13 0.0009402701    2.115    0.527
        31  -9.8530     50.2951    250.0809   1.2860790782e+02   2.1201996656e+01    0.2108392    0.1110503  45.95  0.001585995    1.497    0.332
        32 -12.6700     11.1362    215.4327   1.3303096596e+02   3.0649353392e+01     1.421108    0.6486375  56.92   0.01022276    1.537    0.350
        33 -12.5092     11.2953    206.2935   1.3263274055e+02   3.2173543758e+01     1.221298    0.6655753  48.15  0.009209866    1.527    0.345
        34 -12.8182      4.6622    226.2734   1.3441987657e+02   2.9489644190e+01     1.001624    0.4834418  66.75  0.007679525    1.418    0.295
        35 -12.7629     41.8644    206.8467   1.2753106790e+02   2.8970795159e+01     1.449555    0.5403977  70.98  0.007259594    3.015    0.668
        36 -13.4755      6.0721    245.8838   1.3482704152e+02   2.6360179745e+01    0.9060662    0.3905694  59.43  0.007024669    1.483    0.326
        37 -12.5272     13.6938    238.6265   1.3350200698e+02   2.6725580007e+01    0.6786988    0.2403489  41.38  0.003824804    2.272    0.560
        38 -12.9052     26.9727    226.0338   1.3099357100e+02   2.7369826958e+01    0.3871955    0.3327097  76.54 0.0007544205    1.437    0.304
        39 -13.9358     33.1213    218.7497   1.2966310370e+02   2.7911320754e+01    0.7825719     0.576291  65.92  0.006610739    1.119    0.106
        40 -10.5317     83.9579    240.7362   1.2288893785e+02   1.8493762344e+01    0.3354562    0.1798602  63.37  0.001601837    1.579    0.367
        41 -13.1313     27.1296    247.4118   1.3187703202e+02   2.4079944101e+01    0.8979093    0.5210956  55.14   0.00753488    1.199    0.166
        42  -9.1799     66.9336    239.9286   1.2550635041e+02   2.0738367170e+01    0.1658121   0.08194546  64.94  0.000714666    1.706    0.414
        43  -8.6505     61.0154    239.0000   1.2637110976e+02   2.1586219682e+01    0.1558284   0.04324225  41.05 0.0007916595    2.868    0.651
        44  -9.9972     48.5039    237.2866   1.2821198330e+02   2.3292934805e+01    0.2334542   0.08112756  49.18  0.001419595    1.972    0.493
        45  -9.6468    173.1047    236.1518   1.0811222371e+02   6.3241013755e+00      0.14173    0.1077272  55.32 0.0003465641    1.309    0.236
        46 -11.5756    128.7893    234.9333   1.1517096740e+02   1.3133811275e+01    0.3403817    0.1791071  61.04   0.00203933    1.972    0.493
        47 -10.9713    244.8722    243.0999   9.8006500100e+01  -4.9377244490e+00    0.1535265    0.1185647  32.47  0.001253286    1.261    0.207
        48  -9.5106     54.6177    235.3298   1.2715267813e+02   2.2891147051e+01    0.1673758   0.08112001  64.39  0.001129393    1.653    0.395
        49 -10.4677    168.6260    233.5838   1.0852857569e+02   7.3126296305e+00    0.2354482    0.1520307  28.43  0.001082729    1.602    0.376
        50 -11.1062     98.8417    223.0713   1.1903428598e+02   1.9132714148e+01    0.3774428    0.1761838  50.01  0.001787367    1.642    0.391
        51 -10.6155     98.3316    231.0297   1.1981310256e+02   1.8006193293e+01    0.2244743    0.1990025   0.57  0.001744556    1.955    0.488
        52 -11.5386    105.4166    228.4641   1.1841616236e+02   1.7403382083e+01    0.3854498    0.2402679  35.09   0.00250606    1.761    0.432
        53 -10.8091    113.3385    230.6759   1.1730414573e+02   1.5960383371e+01    0.2341399    0.2155164  73.46  0.001050442    1.296    0.229
        54  -9.9838    156.8115    232.3058   1.1030242412e+02   9.2799929402e+00    0.1643581    0.1561905 -12.26 0.0005728648    1.386    0.279
        55  -8.5886     92.2950    232.6831   1.2093863866e+02   1.8578328895e+01    0.1083067   0.06086062  65.11 0.0002429203    1.605    0.377
        56 -10.0272    250.3598    231.1681   9.5513420041e+01  -4.7127322873e+00    0.1256066   0.09133714 -27.02  0.000951251    1.741    0.426
        57  -9.2133     45.6663    231.0759   1.2831740637e+02   2.4568190116e+01    0.1524805   0.08667416  73.63 0.0009675475    1.421    0.296
        58  -9.0636     56.6869    229.1342   1.2645451589e+02   2.3606895105e+01    0.1829349   0.07933306 -83.75  0.001101766    2.520    0.603
        59 -10.3380     79.3360    225.8233   1.2253069816e+02   2.1326524374e+01    0.3194084    0.1657034 -75.52  0.001746175    2.137    0.532
        60  -9.4831     77.1482    220.7991   1.2250821405e+02   2.2400831784e+01    0.1625201     0.105781  64.29 0.0003892806    1.204    0.170
        61 -10.2493    117.1547    224.6870   1.1608988108e+02   1.6278352101e+01    0.2368757    0.1928113  35.17 0.0009991985    1.417    0.294
        62  -9.4846     92.3510    226.0844   1.2038670359e+02   1.9562778388e+01    0.2020545    0.1059979  59.74 0.0008766647    1.618    0.382
        63 -10.0262     51.6137    225.2866   1.2703700867e+02   2.4806083325e+01    0.1616538    0.1276349  67.98 0.0003482761    1.188    0.158
        64  -9.2562     64.9343    224.5848   1.2481891046e+02   2.3334418986e+01    0.1809759     0.112688 -52.51  0.001217412    2.497    0.600
        65  -9.2683    164.3190    223.9989   1.0807455066e+02   9.1692199286e+00    0.1445207    0.1265259  43.98 0.0003692479    1.131    0.116
        66  -9.8915     87.4444    223.4872   1.2099173445e+02   2.0623370015e+01    0.1962091    0.1397476  61.68 0.0008257251    1.059    0.056
        67 -10.8617    142.0990    219.7894   1.1132026863e+02   1.3217077039e+01    0.2980278    0.2157146 -55.15  0.001856022    1.737    0.424
        68 -11.1067    109.3248    232.0668   1.1809435095e+02   1.6329199578e+01    0.3627913    0.1869844  70.23  0.002047359    2.480    0.597
        69 -10.4823     70.8046    219.3560   1.2346700512e+02   2.3442318059e+01    0.4114507    0.2161995  79.08  0.002558822    2.007    0.502
        70  -8.6200     99.2878    218.3085   1.1852352532e+02   1.9807365014e+01   0.09245194   0.08365204  26.41 0.0002934478    1.574    0.365
        71  -9.0842     93.9503    218.7490   1.1948021643e+02   2.0481386829e+01    0.1395165   0.07526954  45.02 0.0006230498    1.516    0.340
        72  -8.6531     89.2881    218.6440   1.2026937333e+02   2.1135780475e+01    0.1137124   0.06480767  68.30 0.0007024796    1.677    0.404
        73 -12.5092    116.2822    250.1338   1.1855306305e+02   1.2890682418e+01     1.250139    0.2313924  41.03  0.004765506    4.641    0.785
        74  -9.5994     88.1258    212.8187   1.1995763552e+02   2.2230650426e+01    0.2092496    0.1291462  87.99 0.0009907868    1.740    0.425
        75 -10.5098     63.0951    209.2737   1.2403050593e+02   2.6072787837e+01    0.4009508    0.2371073 -58.56  0.002659201    2.142    0.533
        76 -10.7427     55.9116    209.4602   1.2528815376e+02   2.6910328038e+01    0.5256652    0.2316654  73.87   0.00279066    2.482    0.597
        77  -9.1297     55.6751    204.7042   1.2498939630e+02   2.7755026630e+01    0.1363859    0.1187329 -47.24 0.0002165633    1.865    0.464
        78  -8.7731    130.6115    211.4463   1.1234436114e+02   1.6219770178e+01    0.1134038   0.09130751  54.98 9.994817e-05    1.020    0.020
        79  -9.6822    112.3131    208.3052   1.1523791471e+02   1.9501117978e+01    0.1750786    0.1430004  84.89 0.0005483124    1.245    0.197
        80 -10.1333    110.6102    205.5114   1.1524102337e+02   2.0205411061e+01    0.1714499     0.146632  68.69 8.809834e-05    1.107    0.097
        81  -8.8504     90.5051    208.9753   1.1918761437e+02   2.2534506348e+01    0.1433968     0.101819 -75.81 0.0003645554    1.502    0.334
        82  -9.2831    156.1339    208.1651   1.0744859396e+02   1.2618641208e+01    0.1633655    0.1335415  39.32 0.0002664559    1.114    0.102
        83 -11.0743    122.0781    245.4691   1.1724039141e+02   1.2692727812e+01    0.4085689    0.2169157  65.59  0.001506233    2.156    0.536
        84  -8.7235     74.4180    208.4779   1.2198642403e+02   2.4775941207e+01    0.1108153   0.08139461  66.63 0.0001312042    1.042    0.040
        85  -8.6426     69.7156    208.2677   1.2279579528e+02   2.5415239766e+01    0.1093223   0.06218311  65.39 0.0002285261    1.495    0.331
        86 -10.4837    246.8364    206.3689   9.2206362673e+01  -1.9407446025e+00    0.2864623    0.1093546  27.84  0.001268088    3.087    0.676
        87  -9.6622     91.0692    205.0571   1.1871486418e+02   2.3108843522e+01    0.2770965    0.1432322  35.96    0.0012274    2.113    0.527
        88 -10.7744     83.8484    201.5524   1.1968650238e+02   2.4701532673e+01    0.1948345    0.1612398  76.99 0.0002565481    1.125    0.111
        89  -9.6032     43.1039    200.2488   1.2689232451e+02   2.9984977299e+01    0.2278213    0.1358945 -57.74  0.001108208    2.215    0.548
        90 -11.9688     55.7794    194.0631   1.2416555400e+02   2.9626347114e+01    0.3803987    0.2398057 -58.34   0.00130423    1.975    0.494
        91 -10.3402     21.3003    193.9786   1.3035035457e+02   3.3383209072e+01    0.2807541    0.2514837 -60.54   0.00096529    1.728    0.421
        92 -10.5048     27.5431    195.4309   1.2933495657e+02   3.2501183357e+01    0.2939909    0.1488799  84.99  0.001413038    1.684    0.406
        93 -10.6375     30.6277    193.1663   1.2865510988e+02   3.2593427227e+01     0.210414    0.1629968 -66.58  0.000641664    1.629    0.386
        94  -9.6836    103.0221    196.2517   1.1561371153e+02   2.2881025464e+01    0.1635704    0.1236986  57.53 0.0003661392    1.075    0.070
        95 -10.3022    249.6875    194.0815   8.9710452290e+01  -1.1611218460e+00    0.2356966     0.139908  31.58  0.001453799    1.396    0.284
        96  -9.0214     78.0803    193.9081   1.2002479274e+02   2.6822022303e+01    0.1365366    0.1186155  57.31            0    1.257    0.204
        97  -9.6349    191.4955    191.4926   9.8793601845e+01   8.9168461016e+00    0.2080959    0.1763025  34.15 0.0006112693    1.018    0.018
        98 -13.3968     40.7097    242.3974   1.2965758028e+02   2.3387751318e+01    0.9130588    0.5466756  74.79  0.002415588    1.312    0.238
        99 -10.5376    250.3713    187.6272   8.8476411126e+01  -6.0517225279e-01    0.3023337    0.1326883 -19.58  0.001489299    2.611    0.617
       100 -11.3603      4.4617    186.2102   1.3292511855e+02   3.6335430101e+01      0.29177     0.190604  68.86 0.0002755673    1.095    0.086
       101  -9.6899     10.9532    188.5011   1.3188939405e+02   3.5346032580e+01     0.205818    0.1068438  68.45  0.000832225    1.451    0.311
       102  -9.5265      8.4867    185.4656   1.3218046954e+02   3.6120680050e+01     0.165514    0.1021207  59.30 0.0005496706    1.266    0.210
       103  -8.7682     76.9654    188.5114   1.1971222918e+02   2.7946004747e+01    0.1574254    0.0969156  46.68 1.165344e-05    1.441    0.306
       104  -8.6156     40.7846    188.5714   1.2651188786e+02   3.2351621240e+01    0.1595739   0.07212131  52.05 0.0009501327    1.782    0.439
       105  -8.6559    145.5448    187.4620   1.0650157917e+02   1.7526968943e+01    0.1238957    0.1048919  52.53 0.0001121624    1.009    0.009
       106 -10.2888     83.6673    186.6665   1.1824182951e+02   2.7367039546e+01    0.2003578    0.1606285  70.28 0.0002947844    1.015    0.014
       107 -10.6104     71.5641    186.8066   1.2057736331e+02   2.8975092769e+01    0.2565813     0.221926  25.60 0.0005064685    1.680    0.405
       108 -11.6392     62.4362    186.1244   1.2225624153e+02   3.0267968774e+01    0.2166463    0.2005648 -89.12 0.0005037856    1.373    0.272
       109  -9.3110     24.3943    183.9500   1.2922580421e+02   3.4916164223e+01    0.1613545    0.1136814  58.50 0.0009426614    1.215    0.177
       110  -8.9162     36.3686    182.8704   1.2693140531e+02   3.3891559365e+01     0.149269   0.08091269 -67.48 0.0009477481    1.843    0.457
       111  -8.9059     85.6868    180.2968   1.1715857067e+02   2.8260813932e+01    0.1236369   0.07542753  69.00 0.0001705638    1.601    0.376
       112  -8.8627     47.7628    179.6416   1.2451663212e+02   3.3244543684e+01    0.1524113   0.08181935  50.81 0.0009389042    1.579    0.366
       113 -10.5873      3.9011    179.0575   1.3270174577e+02   3.7700561019e+01    0.2090512    0.1322138  40.97   0.00109164    1.677    0.404
       114 -11.9253    248.1974    172.6538   8.6068403979e+01   1.3733036910e+00    0.5281281    0.3578183 -12.98  0.003248253    1.432    0.302
       115 -12.0144    245.4125    163.2986   8.4700007321e+01   2.9273033509e+00    0.5324792    0.2426123 -38.51  0.002530867    2.529    0.605
       116 -12.0375    247.1360    158.1841   8.3417275103e+01   3.2281500425e+00    0.9233713    0.6963646 -89.23  0.004680864    3.000    0.667
       117  -9.0860    102.9683    175.8215   1.1317824245e+02   2.6537850114e+01    0.1677022     0.138334  64.11            0    1.027    0.026
       118 -10.4267     65.3129    175.4964   1.2069599307e+02   3.1917628909e+01    0.2514784    0.1753029  52.51 0.0004521716    1.280    0.219
       119 -10.8152     73.4817    174.1120   1.1891500402e+02   3.1117659579e+01    0.2063815    0.1815462  83.57 0.0004520868    1.173    0.147
       120 -10.6281     19.3109    174.4293   1.2959802224e+02   3.7204036811e+01     0.294182    0.1434321  77.00  0.001818164    1.736    0.424
       121 -11.6519     59.3599    172.7340   1.2161753328e+02   3.3199656268e+01    0.2692305    0.2491972 -47.02 0.0007419898    1.588    0.370
       122  -9.7144     12.2756    172.6014   1.3082412064e+02   3.8195562116e+01    0.2355035    0.1145787 -83.82    0.0015103    1.665    0.399
       123 -11.4420      2.4544    171.7150   1.3262112034e+02   3.9201786789e+01    0.4721328    0.1896401  87.18  0.002256798    2.040    0.510
       124 -10.6363     14.5781    167.1195   1.3006379101e+02   3.9049768551e+01    0.2853446    0.1863151  48.08  0.001660256    1.476    0.322
       125 -11.5833     11.2017    158.6601   1.3021366963e+02   4.1010293019e+01    0.4880164    0.1771966  81.55  0.002385251    2.781    0.640
       126  -9.6826      5.3083    167.3013   1.3186157066e+02   3.9811824696e+01    0.1576132    0.1189241  88.51 0.0007123617    1.168    0.144
       127 -10.7484      8.8711    165.7983   1.3109471238e+02   3.9804145978e+01    0.2910185    0.1572663 -67.29  0.001222401    1.820    0.451
       128  -9.8798     27.5796    171.5809   1.2782219694e+02   3.6955856111e+01    0.2499394    0.1469337 -53.92 0.0009554852    2.288    0.563
       129  -8.7766    124.6299    171.4713   1.0821521100e+02   2.3831056919e+01    0.1238524    0.1094226  68.07 -8.777612e-08    1.034    0.033
       130  -9.2788     51.9020    171.0284   1.2295714256e+02   3.4430747938e+01     0.171647    0.1322516  72.24 0.0005437666    1.038    0.037
       131  -9.7962    166.9198    170.1276   9.9687277920e+01   1.6503773816e+01    0.1867594    0.1664953  44.08 0.0003842186    1.007    0.007
       132  -8.7485     90.6320    168.3290   1.1473305723e+02   2.9825700455e+01    0.1348472   0.08016226  70.27 0.0007034182    1.816    0.449
       133 -11.7362     81.3332    165.8933   1.1636417041e+02   3.1644364435e+01     0.527202    0.3741498  37.71  0.002213209    1.568    0.362
       134 -10.7141     81.9243    158.3959   1.1529713216e+02   3.3058167910e+01    0.3888773    0.2786079 -51.56  0.002186145    1.659    0.397
       135 -10.7442     68.3617    166.3237   1.1911732079e+02   3.3320182886e+01    0.2182147    0.1667744  72.86 0.0003161531    1.087    0.080
       136  -8.9359     64.7128    167.2771   1.1997577404e+02   3.3601948037e+01    0.2250204    0.1474644  48.47 0.0003928437    1.416    0.294
       137 -10.6150     44.6066    165.0577   1.2389998924e+02   3.6449179019e+01    0.2988954    0.2470495 -18.25  0.001726008    2.194    0.544
       138  -9.1837     37.9800    163.1305   1.2509238676e+02   3.7556662596e+01    0.2397076   0.08604746  54.56  0.001174208    2.549    0.608
       139 -10.0878     31.3540    163.1993   1.2645237094e+02   3.8229545419e+01    0.2237194    0.1636925  76.84 0.0002553543    1.045    0.043
       140  -9.1222     24.2299    162.0148   1.2780924712e+02   3.9165871607e+01    0.1514423    0.1109944  81.89 0.0004086501    1.024    0.024
       141  -9.2779     43.3026    161.0367   1.2380708091e+02   3.7402023480e+01    0.1579957    0.1174856  85.73 0.0003322567    1.077    0.072
       142  -8.8384    228.3628    155.2727   8.5838897727e+01   7.0172229719e+00    0.1683746    0.1154981 -36.13 0.0004800519    1.587    0.370
       143 -10.7681     26.5587    155.4508   1.2683354773e+02   4.0265293212e+01    0.3813473    0.1194863  36.65  0.001888005    3.032    0.670
       144  -9.9206     32.4464    153.3659   1.2541604630e+02   4.0112096301e+01    0.2829623    0.1257915  89.89  0.001071887    2.216    0.549
       145 -11.1577    249.3768    150.9095   8.1593310202e+01   3.6981934674e+00    0.4596863    0.2822557 -28.61  0.002551026    1.593    0.372
       146 -13.0528    247.8979    100.9708   7.0596830399e+01   1.0373586917e+01     1.109574    0.6399091 -18.69  0.005255108    1.723    0.420
       147 -11.4228    248.5431    142.1890   7.9895842591e+01   4.9161262005e+00    0.5745867    0.3132609  -8.32  0.002671474    2.241    0.554
       148 -13.1381    248.0278    134.8753   7.8397905135e+01   5.9289418557e+00     1.433851    0.7302854 -20.18  0.006735541    2.014    0.504
       149 -10.5505     95.3244    150.4292   1.1124832931e+02   3.2680445394e+01    0.2883942    0.2032641  64.96  0.000998118    1.368    0.269
       150 -11.0303     21.1978    148.9615   1.2746028319e+02   4.2095652473e+01    0.4273992   0.09116787  42.91  0.001914934    3.526    0.716
       151 -12.1172     68.2714    144.2470   1.1647202363e+02   3.7867330575e+01    0.6315321    0.3788466  79.89  0.002695478    1.817    0.450
       152 -10.3215     57.6060    147.4115   1.1928846211e+02   3.8554911774e+01    0.3306225     0.220728  40.30  0.002028927    1.608    0.378
       153  -9.3444     41.0568    147.4907   1.2299418853e+02   4.0436618262e+01    0.1563345     0.105825  44.63 0.0005306787    1.521    0.343
       154 -12.6827      5.5289    142.1261   1.3033890645e+02   4.4817578375e+01      0.53162    0.3777235 -64.26  0.003917572    1.519    0.342
       155 -11.3534      9.2900    144.3394   1.2967795539e+02   4.4066499919e+01    0.2453386    0.1567081 -76.36  0.000561901    1.323    0.244
       156 -10.5929      9.7703    141.0343   1.2934279264e+02   4.4710472118e+01    0.1685835    0.1252004  85.36 0.0002978689    1.020    0.020
       157  -9.8421    235.9626    145.9979   8.2679671303e+01   6.7917467343e+00    0.2096698      0.14026  15.10 0.0005560517    1.602    0.376
       158 -10.3838     83.1090    149.4890   1.1383201102e+02   3.4710398713e+01    0.2152942    0.1801993 -75.18  0.000367032    1.158    0.137
       159  -9.7908    133.2341    140.6669   1.0117412919e+02   2.8104604396e+01    0.3448268    0.1846438 -57.70  0.001340991    2.089    0.521
       160 -10.0259     38.1296    141.2342   1.2301549065e+02   4.2066820485e+01    0.2761731   0.09860961  55.20 0.0009329343    2.939    0.660
       161 -11.0866     16.7548    140.0878   1.2773019830e+02   4.4330639040e+01    0.2913147    0.1554171  59.51  0.001803745    1.698    0.411
       162  -9.8275    107.8258    136.2455   1.0606591587e+02   3.3565811798e+01    0.3646241     0.246295 -24.63  0.001659511    2.669    0.625
       163 -10.0575     59.8023    136.2988   1.1738783963e+02   4.0654582549e+01    0.2082652    0.1548505  82.64 0.0003029048    1.203    0.169
       164  -9.5101     55.9465    135.5550   1.1820489341e+02   4.1287512474e+01    0.1661669    0.1151776  42.50 0.0005279105    1.537    0.350
       165 -10.3459     47.5267    135.6903   1.2021667240e+02   4.2238629990e+01    0.2119071    0.1769493 -31.76  0.001392985    1.774    0.436
       166 -11.3433      2.5233    132.0526   1.3032284390e+02   4.7131376792e+01     0.333806     0.156899 -88.92  0.001982887    1.684    0.406
       167  -9.0072     94.5291    133.1876   1.0863965927e+02   3.6401780281e+01     0.174283    0.1180379 -48.74 0.0005102901    1.607    0.378
       168 -10.6107     44.7824    130.4567   1.2023847468e+02   4.3678706906e+01    0.2851659    0.1568075  72.92  0.001105805    1.957    0.489
       169 -11.6554     13.3663    127.7316   1.2748401598e+02   4.7225977707e+01    0.2263644    0.1823467  58.71 0.0008946358    1.299    0.230
       170  -9.4196     66.3217    127.3220   1.1452733486e+02   4.1777271689e+01    0.1210957   0.09503557 -39.39 0.0007045676    1.675    0.403
       171  -9.4532     48.1552    126.1719   1.1886644627e+02   4.4243476896e+01     0.168358    0.1468869 -82.99 0.0003825122    1.128    0.113
       172  -9.8278     29.5247    126.5039   1.2348814956e+02   4.6091001552e+01    0.1189377   0.09190832  89.36 1.809014e-05    1.018    0.018
       173 -12.2609      3.7370    122.2827   1.2932416633e+02   4.9109139288e+01    0.4281555    0.2853369 -62.45  0.002322134    1.497    0.332
       174 -13.3966      9.8764    112.8779   1.2699735148e+02   5.0699847065e+01    0.8927955    0.3493124 -88.00  0.004333097    2.410    0.585
       175  -9.7914     32.7656    114.9780   1.2132601661e+02   4.8320050589e+01    0.1639783   0.08238766 -71.75 0.0005844535    1.627    0.385
       176 -10.0080    167.8058    112.8642   8.7585625263e+01   2.6269715884e+01    0.3119292    0.2554688 -80.54 0.0009813027    1.517    0.341
       177 -10.2767    231.8469    116.1813   7.6670408542e+01   1.1653266096e+01    0.2072644    0.1875099 -40.59 0.0007071035    1.234    0.190
       178 -10.7556    249.7182    117.9456   7.4343621290e+01   7.7736009555e+00    0.5265574    0.2917503 -10.48  0.001871437    2.108    0.526
       179  -9.0087    203.4630    111.5143   8.0342160738e+01   1.8511421418e+01    0.1460681    0.1347976   8.89   6.8551e-05    1.048    0.046
       180  -8.8531     35.1419    107.3720   1.1967954437e+02   4.9789555387e+01     0.155074    0.1003974  51.50 0.0002554576    1.631    0.387
       181 -12.5097     15.0947    101.6391   1.2442814031e+02   5.2787836785e+01    0.4323045    0.2853102 -66.61   0.00158256    1.270    0.212
       182 -10.5010     20.8947     93.8525   1.2179553933e+02   5.4078274844e+01    0.1782346    0.1332425 -60.89 0.0004351362    1.241    0.194
       183  -8.5831     71.6846    100.2555   1.0829358850e+02   4.7081496008e+01    0.1296144   0.09500562  77.19  0.000230333    1.531    0.347
       184 -12.2598    248.2748    112.9108   7.3386545204e+01   8.7190644421e+00     1.048943    0.5973535  -0.53  0.004548142    2.389    0.581
       185 -11.1333      2.0000     77.9887   1.2538830638e+02   5.8883052031e+01    0.4527585   0.04953301 -73.53  0.001241556    6.817    0.853
       186  -8.6936    184.5164     77.4656   7.4709530297e+01   2.8509646103e+01    0.1518417    0.1467026  -0.03 6.977979e-05    1.030    0.029
       187 -12.0463    199.4963    246.1090   1.0517989433e+02   1.2934985708e+00    0.4393321    0.1686808  49.31  0.002316189    2.456    0.593
       188 -11.0639    159.1147    244.1303   1.1124328417e+02   7.4934003863e+00    0.1697006    0.1374908  56.30  0.000465156    1.216    0.178
       189  -9.8705     20.0014     27.0000   1.0718471156e+02   6.8671090766e+01    0.1617587   0.06771772  24.45 0.0008077288    2.979    0.664
       190 -10.4856     73.9259    243.4802   1.2464638195e+02   1.9362353744e+01    0.2536905    0.1882468  61.53  0.001313981    1.093    0.085
