#   1 NUMBER                 Running object number                                     
#   2 MAG_AUTO               Kron-like elliptical aperture magnitude                    [mag]
#   3 X_IMAGE                Object position along x                                    [pixel]
#   4 Y_IMAGE                Object position along y                                    [pixel]
#   5 X_WORLD                Barycenter position along world x axis                     [deg]
#   6 Y_WORLD                Barycenter position along world y axis                     [deg]
#   7 A_WORLD                Profile RMS along major axis (world units)                 [deg]
#   8 B_WORLD                Profile RMS along minor axis (world units)                 [deg]
#   9 THETA_WORLD            Position angle (CCW/world-x)                               [deg]
#  10 FWHM_WORLD             FWHM assuming a gaussian core                              [deg]
#  11 ELONGATION             A_IMAGE/B_IMAGE                                           
#  12 ELLIPTICITY            1 - B_IMAGE/A_IMAGE                                       
         1 -12.4217      2.1103     82.5116   1.1398700794e+02   5.8777236620e+01     2.751185   0.06865571 -69.43  0.004640541   16.500    0.939
         2 -13.8436    209.7698    122.0734   6.2639693261e+01   1.4598534944e+01     3.216642     2.744178  75.81   0.01724718    1.391    0.281
         3 -12.3421    228.6798     68.9794   4.7154310911e+01   1.9592052168e+01     2.448251     1.410343 -69.36   0.01098369    2.236    0.553
         4 -12.6710    232.0117     50.9924   4.2637317155e+01   2.1514605293e+01     1.279905     0.891086  78.40  0.005320442    1.463    0.316
         5 -11.3284    195.3823      9.5249   3.6760254015e+01   3.5077101438e+01    0.7587655    0.6276053 -77.05  0.004419241    1.066    0.062
         6 -12.4518    204.9106     36.5548   4.2382906971e+01   2.9657246115e+01     2.119385    0.8991853  78.62  0.008186595    2.885    0.653
         7 -13.0904    197.2997     59.2245   4.9155830047e+01   2.8283914314e+01     1.960488    0.9557714 -44.12  0.008242793    1.966    0.491
         8 -13.7493    178.1346     43.2229   4.7835954132e+01   3.5282467712e+01     1.706679     1.317398 -82.13  0.006094901    1.348    0.258
         9 -13.7725    180.4899     14.8651   3.9780236300e+01   3.8124290876e+01     2.130366     1.543969 -80.01  0.008364077    1.339    0.253
        10 -11.1586    225.3771     23.4104   3.7113730047e+01   2.6581122910e+01    0.8275013    0.5882471  74.22  0.004904639    1.345    0.257
        11 -11.8631    210.0760     19.8673   3.7775868426e+01   3.0485849949e+01     1.310641    0.6931757  64.48  0.006685341    1.776    0.437
        12 -11.5424    240.5689      8.9226   3.2774443120e+01   2.4945905480e+01    0.8365924    0.5100272  62.17  0.004075576    1.786    0.440
        13 -11.3320    240.4558      2.7093   3.1520992327e+01   2.5640744133e+01     1.287023    0.5399561  87.19   0.00628803    2.388    0.581
        14 -11.2200     13.2307      3.4393   8.4187540968e+01   7.3307782435e+01    0.9886631    0.4130489 -13.67  0.003808293    4.634    0.784
        15 -10.8048      2.5013      2.9799   9.0564092619e+01   7.4283104999e+01    0.7261925    0.1644514 -47.24  0.003053496    3.905    0.744
        16 -10.5402      7.2429      1.5469   8.6850306210e+01   7.4114030988e+01    0.4562643    0.1530157  23.26  0.002281335    2.974    0.664
        17  -9.4774     22.9630      2.0000   7.7842505535e+01   7.2459941090e+01    0.1737167   0.05649351  33.54 0.0008031107    2.947    0.661
        18 -12.5795     15.7475    165.4355   1.1973479898e+02   3.8185672513e+01     2.790201    0.8943256  76.59  0.005949333   11.414    0.912
        19  -9.3918     61.1503    249.9349   1.1688320334e+02   1.4967361823e+01    0.1873808    0.1234661  63.60 0.0007006645    1.270    0.212
        20 -10.7515      4.5353    228.5061   1.2611358438e+02   2.5433824588e+01    0.3609628     0.186814  22.37  0.002036074    2.836    0.647
        21 -10.2760      1.4588    225.2976   1.2652551756e+02   2.6353747550e+01    0.5110477     0.125625 -85.25  0.000940429    4.111    0.757
        22  -9.7169      7.4967    250.0024   1.2654281766e+02   2.1052013166e+01    0.2446572   0.09630935  48.57 0.0009402166    1.844    0.458
        23 -10.3667      2.3260    248.1719   1.2734002081e+02   2.1890754995e+01    0.4131092    0.1845808 -84.56  0.002559419    1.978    0.494
        24 -10.8052      1.9953    239.7421   1.2705556445e+02   2.3496796889e+01    0.5983521      0.16046 -83.17  0.002733672    3.483    0.713
        25 -12.9018     35.4185    198.5822   1.1802780517e+02   2.8614377743e+01     1.076947    0.8456491 -78.05  0.005339612    1.216    0.178
        26  -9.9549    208.1058    196.7346   7.8893172111e+01   1.3751136214e+00    0.4537981    0.2656945 -44.08  0.002124523    1.864    0.464
        27 -11.1098    177.3821    204.0977   8.6548173689e+01   5.3691680005e+00    0.7084885    0.5555375 -15.41  0.003083796    1.380    0.275
        28 -11.3562    202.4080    198.7026   8.0394302889e+01   2.0030802065e+00    0.8686934    0.5034305 -40.53  0.004300896    1.789    0.441
        29 -11.1426    224.7567    198.2286   7.5983366919e+01  -1.5831040571e+00     0.658533    0.5474699  53.02  0.003410386    1.664    0.399
        30 -10.0697    216.9822    195.2282   7.6883826283e+01   1.5175423066e-01    0.3543594    0.2815388  37.69  0.001545837    1.344    0.256
        31  -9.3926      7.8332    187.9966   1.2323839547e+02   3.3675541576e+01    0.1912981    0.1078942 -56.12  0.001086011    1.979    0.495
        32 -10.9860    168.9518    182.5298   8.4375089673e+01   1.0992890859e+01    0.6866817    0.6030971 -32.67  0.002777837    1.174    0.148
        33 -10.6578    197.7551    182.0609   7.8123294923e+01   5.7445278924e+00    0.7064148    0.4842128  48.70  0.003426758    1.637    0.389
        34 -10.3805    190.3619    177.7485   7.8790011184e+01   7.9001536699e+00    0.5170346    0.4119759  23.44  0.002772233    1.228    0.186
        35  -9.5567    239.3073    157.8769   6.5337567731e+01   2.6146715886e+00     0.824254    0.5842325  88.17  0.003594009    3.342    0.701
        36 -11.5862    247.6671    177.2645   6.7844772046e+01  -1.8775756116e+00    0.7519528    0.4943886 -35.97  0.003303928    1.402    0.287
        37 -11.0063    249.6506    161.9587   6.4453038336e+01   2.3185778327e-01    0.9203089    0.2835696 -35.88  0.003469931    2.914    0.657
        38  -9.8003     54.9952    180.6664   1.1169960651e+02   3.0446680386e+01    0.3462579    0.2369835 -34.85  0.001765122    2.099    0.524
        39  -9.7842    159.1649    175.2583   8.5167746681e+01   1.4338009893e+01    0.4918901    0.2723579  53.73  0.001982342    2.168    0.539
        40 -10.0586     60.9912    174.6985   1.0948144730e+02   3.1103350214e+01    0.2895483    0.2517453 -41.51 0.0008804278    1.384    0.278
        41  -9.7128    198.9772    249.4773   8.9629498068e+01  -5.2724760374e+00    0.3518337    0.1253583  33.29  0.001571226    2.396    0.583
        42 -11.3349     25.0490    208.4282   1.2099077456e+02   2.7561421674e+01    0.3682413    0.3088333 -34.57 0.0008659291    1.794    0.442
        43 -12.4734      2.7945    140.5300   1.2081429710e+02   4.5063556511e+01     1.321651     0.119966 -71.85  0.003782042    5.573    0.821
        44 -11.7711      2.1774    128.5544   1.1984822580e+02   4.7954009472e+01    0.9479516    0.1950758 -76.46  0.003065316    4.359    0.771
        45 -10.2573    223.9584    167.8778   7.0131270340e+01   3.5757805621e+00    0.5852346    0.3269865 -36.90  0.002797924    1.671    0.402
        46 -12.6745    172.4042    122.5694   7.0300504766e+01   2.2666640252e+01     1.446786     1.185433  61.15  0.005667625    1.327    0.246
        47 -13.8648    182.2809    146.2989   7.3771579070e+01   1.5671211061e+01     2.583971     1.426803 -50.49  0.008341441    1.977    0.494
        48 -12.3577    236.7900    131.0150   6.0025157257e+01   7.6290841455e+00     1.326032    0.7327547 -41.16  0.004631435    1.621    0.383
        49 -13.4943    206.7915    153.1409   7.0257496842e+01   9.3966525584e+00     2.498093    0.9885431 -39.41  0.009388448    2.422    0.587
        50  -8.6239    220.9923    247.4960   8.5207462804e+01  -8.1120750180e+00    0.1584407   0.09278869  49.33 0.0008105884    2.665    0.625
        51 -11.6358     58.3514    161.0501   1.0834114917e+02   3.4759827333e+01    0.5204165     0.286209 -45.25  0.001368078    2.125    0.529
        52 -11.3773    160.5744    154.2754   8.0459697474e+01   1.8504017180e+01    0.8502361    0.6516182 -42.30  0.002895744    1.320    0.242
        53 -12.1044    158.2066    139.5338   7.7679480055e+01   2.2184392785e+01     1.220897    0.7053612 -58.62  0.003925247    2.174    0.540
        54 -10.5841     79.1449    158.5318   1.0235992910e+02   3.2501666633e+01    0.3840863    0.3193335 -19.95  0.001171794    1.542    0.352
        55  -9.4797      9.4842    168.5072   1.2148311441e+02   3.7983179097e+01    0.1228927    0.0977332  88.54 0.0001503698    1.007    0.007
        56  -9.9418    103.2952    152.0990   9.4621512270e+01   3.0144868328e+01    0.3460309     0.228974  19.43  0.001484548    1.988    0.497
        57 -10.2886     69.9647    145.5049   1.0271812155e+02   3.7062373916e+01    0.3695043    0.3483427   6.86  0.001135131    1.227    0.185
        58 -10.5465     67.5261    142.4937   1.0289775140e+02   3.8152525009e+01    0.4366259    0.2674553  51.15  0.001345636    1.765    0.433
        59 -10.4670     82.7108    142.2393   9.8473385334e+01   3.5986343322e+01    0.3107609    0.2483585 -52.48 0.0005213149    1.225    0.184
        60 -11.9476      2.0765    115.9588   1.1854109793e+02   5.0960566320e+01     1.185564    0.1623569 -70.40  0.003747491    4.459    0.776
        61 -10.8092    162.6582    129.3858   7.4201681920e+01   2.3402227687e+01    0.5481984     0.381579 -52.53   0.00244521    1.516    0.340
        62  -8.7963    107.2427    131.6135   8.9199951062e+01   3.4388075566e+01    0.2780326     0.204097  29.25  0.001284652    1.484    0.326
        63  -9.7099     71.8899    164.6777   1.0527149297e+02   3.2050939840e+01    0.2623053    0.2397266 -46.93 0.0004368016    1.224    0.183
        64 -11.6496    143.6639    122.6568   7.7164854302e+01   2.9034541287e+01    0.7525108    0.6625732 -27.21  0.002549863    1.193    0.162
        65  -9.6265    249.7532    119.4620   5.5532177414e+01   7.1807279864e+00    0.2758011     0.229497 -35.84  0.001668496    1.035    0.034
        66  -7.6260    105.2764    120.2768   8.7103578767e+01   3.7465689151e+01    0.1486938    0.1205111 -14.25 0.0001672151    1.496    0.332
        67 -11.2366    244.0780    105.6223   5.3339028755e+01   1.0530390413e+01    0.8822523    0.5938247  35.81  0.004586323    1.897    0.473
        68  -9.8674    248.2263     72.3148   4.5508274813e+01   1.4992780720e+01    0.7113171    0.5333526 -49.26  0.004234025    1.137    0.121
        69  -9.2192     31.7718    247.5736   1.2217276800e+02   1.8944210585e+01    0.1648937   0.07562988  48.17 0.0009566721    1.666    0.400
        70 -10.0106    198.1113    241.6396   8.8595611195e+01  -4.0477360298e+00    0.3422086    0.3056135 -82.60  0.002238674    1.887    0.470
        71 -10.4262    167.3459     70.0468   5.7317566258e+01   3.3865701216e+01    0.6584343    0.3839093 -50.90  0.002794304    1.865    0.464
        72 -12.3867    147.7276     70.7877   6.1732665364e+01   3.8538437625e+01     1.258292    0.6248469 -44.38   0.00494663    2.100    0.524
        73 -12.5580    155.4394     68.8794   5.9447664054e+01   3.6987830629e+01     1.009027    0.8229676  59.13  0.003506718    1.197    0.164
        74 -11.1297    132.7810     82.2258   6.8847747599e+01   3.9971337982e+01    0.7017986    0.4670894  57.40  0.002421254    1.604    0.377
        75  -8.5457     20.8532    239.1846   1.2368482973e+02   2.1725973942e+01    0.1336242    0.1168213  80.41 0.0003479572    1.289    0.224
        76  -8.3220     61.2967    234.6566   1.1563625500e+02   1.7865416533e+01    0.1300862   0.07354197  64.97 0.0006818122    1.667    0.400
        77 -10.0839     83.5311    228.7531   1.1051529494e+02   1.6003210778e+01    0.2825063    0.1247786 -69.82  0.001293993    2.615    0.618
        78 -10.0897    158.8472    226.7679   9.4215800720e+01   4.4945359171e+00    0.3313745    0.3099276  78.71  0.001866237    1.318    0.241
        79 -11.4096      1.6907    161.0651   1.2276430963e+02   4.0303849129e+01    0.8995491    0.0683826 -74.35    0.0023665    6.983    0.857
        80 -10.0654     97.5653     52.7046   6.9270416959e+01   5.3040745339e+01    0.4082765    0.3010397 -20.61  0.001906869    1.439    0.305
        81 -11.1284     97.0263     46.2479   6.7098341339e+01   5.4189372863e+01     0.645397    0.5981758  31.33  0.002409135    1.077    0.072
        82  -9.1172     13.3508     59.7933   1.0485143558e+02   6.3195916229e+01     0.180921   0.08530243 -51.65  0.000504327    1.628    0.386
        83 -10.1140     87.8843    226.5118   1.0935687324e+02   1.5821776513e+01    0.2510264    0.1711652  67.84 0.0007183459    1.469    0.319
        84  -8.8160    130.4695     37.5382   5.5083950806e+01   4.7855150765e+01    0.1413941    0.1311781  58.34 0.0001697364    1.042    0.040
        85 -10.5992    224.7271    214.1203   7.8907494847e+01  -4.0136956523e+00    0.4716562    0.3354885  24.64  0.002466718    1.268    0.211
        86 -12.4879     14.5382    214.1585   1.2347493347e+02   2.7399306343e+01    0.8920228    0.5596678  36.29  0.005735536    1.664    0.399
        87  -9.5742     61.2251     25.8168   7.1498788905e+01   6.3907907935e+01    0.3484981    0.1821806  29.79  0.001712902    1.903    0.475
        88 -11.1819      6.4034    208.7866   1.2476969714e+02   2.9289042407e+01    0.3737717    0.2798031 -53.10  0.001718072    1.769    0.435
        89 -12.1003     11.2405    206.1441   1.2365739077e+02   2.9406824371e+01    0.7624738    0.3994525  26.23  0.004092439    2.342    0.573
        90 -10.3158    196.7171    212.6109   8.4061872874e+01   6.2829089608e-01    0.3248527    0.2098247  16.48  0.001676213    1.636    0.389
        91 -11.5958    190.6618    206.9337   8.4283238525e+01   2.5879094577e+00    0.9897574    0.5625309 -24.71   0.00437002    2.158    0.537
        92  -8.9607     58.3078    211.3435   1.1417240769e+02   2.3070408278e+01    0.1174432   0.09700476 -38.12 0.0007043582    1.694    0.410
