#   1 NUMBER                 Running object number                                     
#   2 MAG_AUTO               Kron-like elliptical aperture magnitude                    [mag]
#   3 X_IMAGE                Object position along x                                    [pixel]
#   4 Y_IMAGE                Object position along y                                    [pixel]
#   5 X_WORLD                Barycenter position along world x axis                     [deg]
#   6 Y_WORLD                Barycenter position along world y axis                     [deg]
#   7 A_WORLD                Profile RMS along major axis (world units)                 [deg]
#   8 B_WORLD                Profile RMS along minor axis (world units)                 [deg]
#   9 THETA_WORLD            Position angle (CCW/world-x)                               [deg]
#  10 FWHM_WORLD             FWHM assuming a gaussian core                              [deg]
#  11 ELONGATION             A_IMAGE/B_IMAGE                                           
#  12 ELLIPTICITY            1 - B_IMAGE/A_IMAGE                                       
         1 -13.8794    204.5360     48.1738   2.5728714954e+01   2.9816386376e+01     1.146229    0.8324276  40.71  0.007287137    2.287    0.563
         2 -13.2150    234.8727     21.3570   1.8667010951e+01   2.7775137210e+01    0.7131284    0.5193475 -66.73  0.004025773    1.063    0.059
         3 -10.7811     13.3843     10.8752   6.2348448809e+01   7.3006687620e+01    0.2051747    0.1353741  32.53 0.0006286257    1.337    0.252
         4  -8.5450    158.3072      8.6914   2.2014507115e+01   4.3473963543e+01    0.1191079   0.06877849 -71.30 0.0005054425    1.613    0.380
         5 -10.7767    102.6572    239.9954   8.2768375616e+01   9.1709377902e+00    0.5710908    0.2442509 -41.39  0.001414432    2.617    0.618
         6  -9.6420    241.7032    249.9020   5.5447049912e+01  -7.0354257234e+00    0.1524179    0.1018375 -25.53 0.0005077167    1.093    0.085
         7  -9.5161    114.6509    249.4715   8.1032791015e+01   5.7965940556e+00    0.2871087    0.2015864  27.52  0.001600513    1.274    0.215
         8  -9.6389    101.0168    250.2241   8.4435324809e+01   7.2478848467e+00    0.1987968     0.170557  11.04  0.001206915    1.015    0.014
         9 -16.1658     39.2033    183.0747   9.3453773374e+01   3.0676893237e+01     11.75228     2.065473  37.02   0.03221868    4.338    0.769
        10 -10.4420    192.4760    193.9558   5.5162064310e+01   7.0072393824e+00    0.3260836     0.182491 -63.84  0.001345126    3.385    0.705
        11 -15.5611     56.1072    234.0184   9.4097834315e+01   1.5984965050e+01     3.974612     2.664654 -36.90   0.01850691    1.739    0.425
        12  -9.8851    126.0179    213.5493   7.3138097126e+01   1.1876972448e+01    0.2482227    0.2083304 -73.02 0.0007150616    1.540    0.350
        13 -10.8761    161.5465    186.9297   6.0220129957e+01   1.2580634916e+01    0.4702497    0.2349666 -56.62  0.001730713    2.380    0.580
        14 -15.8240      8.3289    207.8853   1.0479799175e+02   2.6998660576e+01     1.139335     0.686776 -22.05   0.00455014    2.204    0.546
        15 -10.3518    140.8946    187.1990   6.5023470798e+01   1.5567216001e+01    0.3965601    0.1607832 -37.56  0.001402304    2.816    0.645
        16 -10.9827     76.5041    183.9780   8.2071424015e+01   2.5882397157e+01      0.73276    0.4198412 -85.72  0.002691509    2.765    0.638
        17 -10.2783    176.8678    184.8938   5.6622281373e+01   1.0817832939e+01    0.2176874     0.167514 -19.58  0.001236763    1.255    0.203
        18 -18.1829      8.2333    232.0525   1.0629709815e+02   2.1124147899e+01     8.356814     2.784058 -76.27   0.01717477    3.005    0.667
        19  -9.8930     67.6109    249.0859   9.2619392114e+01   1.1336933276e+01    0.3384293    0.1951554 -30.74  0.001570914    2.260    0.557
        20 -11.1344     98.4289    180.8671   7.5110366900e+01   2.3516130123e+01    0.5064609    0.3078987  25.00  0.001685211    1.642    0.391
        21  -9.9739    121.9793    181.1773   6.8696685913e+01   1.9830537822e+01    0.2401137     0.153711 -34.38  0.001064976    1.650    0.394
        22 -10.9368    127.9134    178.8376   6.6727507111e+01   1.9449929722e+01    0.4972314    0.3262803  89.18  0.001854351    3.173    0.685
        23 -10.5255    172.6813    177.8127   5.6191603850e+01   1.2827820136e+01    0.2911841    0.2450213 -33.43 0.0007126839    1.057    0.054
        24 -10.7156    179.6818    167.9466   5.2955874998e+01   1.3765246056e+01    0.3478678    0.2954997  27.24   0.00171351    1.288    0.224
        25 -11.2083    182.0069    173.4823   5.3527837289e+01   1.2335695600e+01    0.4260239    0.2834603 -50.25   0.00198505    1.455    0.313
        26 -10.1917    178.7096    174.3387   5.4333568614e+01   1.2644181635e+01    0.2625819    0.1762765 -62.07 0.0007902196    1.888    0.470
        27 -10.4130    198.9300    171.1815   4.9971771963e+01   1.0397871976e+01    0.5332364    0.2306582 -57.28  0.001767012    3.485    0.713
        28 -10.8759    111.1185    173.2011   7.0157848977e+01   2.3441982953e+01    0.3018123    0.2554967  -5.16  0.001533324    1.229    0.186
        29  -9.5396     74.7419    173.9143   8.1001429858e+01   2.8750773982e+01    0.2764989    0.2160991 -89.73 0.0008893421    1.549    0.354
        30  -9.3280     69.1350    172.9505   8.2596240668e+01   2.9777533185e+01    0.2290508    0.2151236   0.57 0.0007323803    1.054    0.052
        31 -11.0908    103.0800    171.1573   7.2041029593e+01   2.5215618876e+01      0.45292    0.2981385  59.52  0.001884783    2.063    0.515
        32 -10.4801    229.3285    169.3291   4.4736998654e+01   6.8245621325e+00    0.1846063   0.09890953 -34.34   0.00102512    1.633    0.388
        33 -11.4363    247.2466    165.4211   4.1588843649e+01   5.3900918287e+00    0.4474115    0.2041241 -52.13   0.00237435    2.183    0.542
        34 -11.2372     81.1916    151.0427   7.4852881843e+01   3.3777777796e+01    0.5708577    0.3820221  75.37  0.002259645    2.301    0.565
        35 -11.9509     82.9912    165.5667   7.7006754420e+01   2.9735552705e+01     1.203892    0.7328295  28.89  0.004430081    1.608    0.378
        36 -13.8556     68.6465    144.2780   7.7682776700e+01   3.7445129214e+01     1.764475     1.272268 -81.68   0.00451092    1.733    0.423
        37 -12.1793     73.3569    158.0526   7.8703674800e+01   3.3126770247e+01    0.6309576    0.3336613 -51.80  0.001866454    1.846    0.458
        38  -9.4013     39.4211    161.6963   9.0624666184e+01   3.6463234639e+01    0.2760549    0.2279776  56.88  0.001328154    1.290    0.225
        39  -8.7799     91.5382    161.4806   7.3631136715e+01   2.9472050073e+01    0.1541009    0.1505302   9.43 8.576032e-05    1.028    0.028
        40 -11.7870     56.7599    132.1378   7.9474986380e+01   4.2328279331e+01    0.8904974    0.5521839 -34.02  0.002799632    1.799    0.444
        41  -9.6648    110.6193    166.7825   6.9085386305e+01   2.5083695771e+01    0.3233626      0.18435 -57.95 0.0008518914    1.866    0.464
        42 -10.4504     31.9633    154.9068   9.2245839288e+01   3.9094272856e+01    0.4947084    0.4415735  88.44  0.001942129    1.168    0.144
        43 -11.4817     26.5408    148.2543   9.3250085518e+01   4.1436205455e+01    0.8674173    0.5705626 -10.40  0.001643706    1.757    0.431
        44  -9.0729     92.6255    155.9610   7.2236744077e+01   3.0701601106e+01    0.2090972    0.1911996 -57.56 0.0004321913    1.132    0.117
        45 -10.9016    133.6427    145.3926   5.8632098515e+01   2.6155562109e+01     1.177283    0.2725391 -54.54  0.002622115    6.692    0.851
        46 -11.5998     88.4962    146.6058   7.1640856362e+01   3.3745494314e+01    0.6850566    0.4630358  -7.23  0.002807847    2.032    0.508
        47 -10.3151     54.3642    147.8123   8.3274746532e+01   3.8477668579e+01    0.7707528    0.3885359 -47.21  0.003010163    1.969    0.492
        48 -10.2879     58.5161    145.5165   8.1411758350e+01   3.8545736077e+01    0.3267561    0.2229469  52.28  0.001372419    1.676    0.403
        49  -8.7594     40.5161    146.5485   8.7974728628e+01   4.0485000443e+01    0.1511555    0.1445608 -29.43 0.0001236443    1.020    0.019
        50  -9.3752     36.2946    144.1274   8.9116645282e+01   4.1602624491e+01     0.257892     0.199244  -7.39 0.0006603078    1.395    0.283
        51 -11.6544     68.5365    163.5227   8.1227259160e+01   3.2362991455e+01    0.4684156    0.3667113  -9.31  0.002220595    1.425    0.298
        52 -10.5555     26.3572    138.2266   9.1881917774e+01   4.4193052307e+01    0.3972908    0.3179619  60.44  0.001207173    1.400    0.286
        53 -10.9580    104.7622    131.8555   6.3485485244e+01   3.4538130201e+01    0.7010205    0.4152357 -27.04   0.00197484    2.410    0.585
        54 -11.4889     90.0846    133.1291   6.8262342096e+01   3.6845324502e+01    0.2948961    0.2710332 -22.15 0.0003777132    1.104    0.095
        55 -10.2643     44.0076    131.0560   8.4009323014e+01   4.4258025455e+01    0.5487381    0.3214623 -74.61  0.002107955    2.020    0.505
        56  -9.8732    137.2406    129.1745   5.4227411387e+01   2.9055042076e+01    0.2960306    0.2555368  37.24 0.0009785271    1.201    0.167
        57 -10.8400     67.3072    127.8795   7.4780726247e+01   4.1894242497e+01    0.4089131    0.3473878  84.71  0.001357135    1.417    0.294
        58 -10.5338    111.6646    126.6952   6.0317243143e+01   3.4456014231e+01    0.3302815    0.2513311  15.42 0.0007221129    1.564    0.361
        59  -9.1859     93.3597    124.9855   6.5374129464e+01   3.8239132091e+01    0.2124448    0.1906216 -48.67 0.0004278413    1.132    0.117
        60 -10.1434     47.2734    124.3318   8.1459422287e+01   4.5626152632e+01    0.3330526    0.2654376 -20.34  0.001645056    1.308    0.236
        61 -10.2963     98.8740    121.9793   6.2960755730e+01   3.7938677017e+01    0.3216902    0.2444642  13.01  0.001038783    1.556    0.357
        62 -10.4553    104.5546    121.4443   6.1133397913e+01   3.6998654383e+01     0.287119    0.2483027  75.21 0.0005114634    1.339    0.253
        63  -9.9016     67.0317    124.4828   7.4134916022e+01   4.2797709105e+01    0.3758281    0.2523823   6.33  0.001049832    1.813    0.448
        64  -9.4423    135.0000    119.9595   5.2678926852e+01   3.1438941689e+01    0.2426414   0.08128513 -47.08 0.0006996042    2.928    0.658
        65 -10.2546     54.9406    118.1289   7.7207314005e+01   4.6193343720e+01    0.3778784    0.2760562  56.19  0.001742875    1.651    0.394
        66  -9.7651     32.0961    118.5260   8.6324202775e+01   4.8901096884e+01     0.224692    0.1441015  18.60   0.00102446    1.569    0.363
        67  -9.2280    107.9024    116.6280   5.9005778415e+01   3.7446519779e+01    0.2084576    0.1805865  43.64 0.0004175415    1.141    0.124
        68  -9.7730     40.1354    112.9988   8.1946259670e+01   4.9429539714e+01    0.2295709    0.2002302  60.07 0.0005713359    1.330    0.248
        69  -9.6522    205.3095    110.4556   3.7613816527e+01   2.0328070095e+01    0.2103261    0.1994718  81.36 0.0008552776    1.206    0.171
        70 -11.2649     51.9801    107.6096   7.5959269166e+01   4.9231551192e+01    0.6136373    0.3380492 -66.89  0.002455302    2.238    0.553
        71 -10.6622    115.5479    108.7986   5.4959740279e+01   3.7641005578e+01    0.3565248     0.199815  38.97  0.001508093    1.823    0.451
        72  -8.8421    108.2989    106.3677   5.6357137373e+01   3.9603825153e+01    0.1532911    0.1184184  -8.44 0.0005567227    1.732    0.423
        73 -10.1100    141.2834    211.3509   6.9070638652e+01   1.0288765091e+01    0.2386976    0.2203268 -40.95   0.00070883    1.209    0.173
        74  -9.8860     43.1061    104.2502   7.8784293521e+01   5.1251918713e+01    0.3291007    0.1523286  36.37 0.0008293245    2.143    0.533
        75 -11.2903     33.4825    100.2101   8.1957199532e+01   5.3403399444e+01    0.5032538      0.27775  43.25  0.001879415    2.076    0.518
        76 -11.0059     33.8784    108.7409   8.3641918281e+01   5.1230347457e+01    0.3604858    0.3129461  50.81  0.001817515    1.308    0.235
        77 -11.2634     16.8617     89.9618   8.7246051189e+01   5.7536939387e+01    0.5697145    0.1315832  28.87  0.001843025    3.698    0.730
        78 -10.6630     30.9887     85.3530   7.9516133333e+01   5.7225544060e+01    0.3472296    0.2484089 -37.98  0.001084981    1.342    0.255
        79 -11.6433     33.9939     69.5390   7.3700799960e+01   6.0332420122e+01    0.4715995    0.3001068  19.01  0.001190849    1.491    0.329
        80 -12.1140    187.1679     60.8625   3.0125664124e+01   3.1362155574e+01    0.3928585    0.3537868  77.37 0.0007357962    1.244    0.196
        81  -8.7025    141.3414     61.6471   3.7129280456e+01   4.0696849510e+01    0.1419677   0.09413805 -77.74 5.842295e-05    1.809    0.447
        82  -9.3070    124.7705    247.9948   7.8427501451e+01   4.8976743436e+00    0.1870074    0.1363384 -44.60 0.0004954921    1.464    0.317
        83 -10.1579    108.8568    239.9118   8.1213959883e+01   8.4335163205e+00    0.3277263    0.1726148 -42.91  0.001521635    1.994    0.498
        84  -9.7816     39.6341     37.1860   5.9624350391e+01   6.5368405047e+01    0.3208343    0.1515924  48.73   0.00100484    2.497    0.600
        85 -10.0080    125.0000    243.9758   7.7833558231e+01   5.6589779680e+00    0.2605371    0.1670652 -60.42  0.001000778    1.957    0.489
        86  -9.6511     60.4624     21.1465   4.4497402893e+01   6.3620140354e+01    0.2252305     0.148714  49.25 0.0004211847    1.240    0.194
        87  -8.9564    189.4773     15.4401   2.0708762081e+01   3.6508719550e+01     0.110639   0.08314509 -78.00  8.95192e-05    1.006    0.006
        88  -9.3182     89.8869    235.8208   8.5487788983e+01   1.1625709782e+01    0.2485787    0.1728578  67.93  0.001180368    2.005    0.501
