#   1 NUMBER                 Running object number                                     
#   2 MAG_AUTO               Kron-like elliptical aperture magnitude                    [mag]
#   3 X_IMAGE                Object position along x                                    [pixel]
#   4 Y_IMAGE                Object position along y                                    [pixel]
#   5 X_WORLD                Barycenter position along world x axis                     [deg]
#   6 Y_WORLD                Barycenter position along world y axis                     [deg]
#   7 A_WORLD                Profile RMS along major axis (world units)                 [deg]
#   8 B_WORLD                Profile RMS along minor axis (world units)                 [deg]
#   9 THETA_WORLD            Position angle (CCW/world-x)                               [deg]
#  10 FWHM_WORLD             FWHM assuming a gaussian core                              [deg]
#  11 ELONGATION             A_IMAGE/B_IMAGE                                           
#  12 ELLIPTICITY            1 - B_IMAGE/A_IMAGE                                       
         1 -12.0137    193.9756     28.0177   6.0016865239e+01   3.3037757370e+01     1.725238    0.9283062 -11.91  0.006891942    2.186    0.543
         2 -11.9445    201.2085     22.5169   5.7293478376e+01   3.1755166805e+01     1.021698    0.8080184 -49.92  0.004947275    1.301    0.232
         3 -11.2649    207.8088     15.2651   5.4246006210e+01   3.0795107631e+01    0.6866645    0.4676197  28.56  0.001757959    1.709    0.415
         4  -8.2517     58.5069      9.5018   8.5555387146e+01   6.6497462171e+01    0.1270405    0.1069914 -19.63 -0.000133187    1.048    0.046
         5 -10.7905    221.0122      2.9818   4.9231815026e+01   2.8565691531e+01    0.5692036    0.3849207  53.20  0.001860694    1.513    0.339
         6 -10.4147    217.6615      2.3187   4.9353399044e+01   2.9488636851e+01    0.4153703    0.2522379  78.97  0.001568454    1.683    0.406
         7  -8.7891     95.4444    237.4612   1.2205655409e+02   1.8058628171e+01    0.1747722    0.1280631  68.33 0.0005096318    1.179    0.151
         8  -8.4331     39.5440    238.5423   1.3070307709e+02   2.4539577616e+01    0.1412221   0.08981854  77.72  4.61678e-05    1.277    0.217
         9 -11.2135     30.5769    247.1767   1.3238007377e+02   2.4229346715e+01    0.5371056     0.469476 -72.28  0.005289909    1.829    0.453
        10 -10.0288     41.0916    248.2111   1.3092217805e+02   2.2994897147e+01    0.2921919    0.1487383  73.08  0.001276308    1.622    0.384
        11  -9.2580     38.0217    243.0154   1.3113252632e+02   2.4053664735e+01    0.1916162    0.1113492  70.87 0.0006504496    1.294    0.227
        12 -12.2044      3.7398    245.4408   1.3606119200e+02   2.7032660500e+01     1.025118    0.5884278  67.83  0.008237327    1.127    0.112
        13 -14.7224      7.0366    202.6166   1.3415285889e+02   3.3320685219e+01     12.38122     1.283816 -79.82   0.03941392    9.577    0.896
        14 -10.5539    135.5772    230.7172   1.1499575209e+02   1.3369361455e+01    0.2986127    0.2110822  31.68  0.002131071    1.542    0.352
        15 -10.8971    126.5006    230.6198   1.1646794088e+02   1.4707402390e+01     0.452294    0.1722553  44.60   0.00249587    1.962    0.490
        16  -9.9252     67.2271    189.4590   1.2292483719e+02   2.9256280385e+01    0.2898129    0.2138959 -44.38  0.001963348    2.141    0.533
        17 -10.0284     72.2055    182.8749   1.2139317326e+02   2.9798711499e+01    0.2435313    0.2001421 -55.99 0.0007996903    1.593    0.372
        18 -11.3718    116.1139    229.8888   1.1809464920e+02   1.6292143289e+01    0.5578871    0.2224118  48.66  0.003182669    1.885    0.469
        19  -9.6601     81.3860    171.6383   1.1844312734e+02   3.0641514278e+01    0.2314309     0.205483  79.76 0.0005803052    1.147    0.128
        20 -11.5981     68.6867    168.6399   1.2066361115e+02   3.2875812504e+01     0.375852    0.2454828 -47.58  0.001482355    2.125    0.529
        21 -10.7145     86.8073    164.3052   1.1648356775e+02   3.1267615769e+01    0.4799864    0.3751584  49.32  0.001497078    1.229    0.186
        22  -8.4738     33.0000    156.4361   1.2677307899e+02   3.9268991946e+01    0.2279949   0.05214677 -73.07 0.0009229019    3.840    0.740
        23 -11.5464     67.9851    144.3312   1.1802400986e+02   3.7749649712e+01    0.7495171    0.4327652  78.14  0.004005485    1.975    0.494
        24  -9.2125    101.5035    146.5295   1.1088480636e+02   3.2519323367e+01    0.3548615    0.2143803 -46.78  0.001865673    1.936    0.483
        25 -10.4216     89.1763    146.9798   1.1367241667e+02   3.4303647643e+01    0.2400096     0.226821 -69.50 0.0004939217    1.235    0.190
        26  -9.1210     32.5753    145.8232   1.2596137757e+02   4.1419195744e+01    0.2770845   0.09348314 -76.67  0.001307652    2.702    0.630
        27 -13.3389     52.1240    209.4902   1.2709984151e+02   2.7650423174e+01     2.064525    0.8176704  56.21   0.01234419    2.010    0.503
        28 -10.1622     58.5238    132.5289   1.1867302064e+02   4.1363051585e+01    0.3370487    0.1756092 -69.99  0.001823131    1.741    0.425
        29  -8.7004     28.2427    138.3850   1.2624019699e+02   4.3339275897e+01    0.1536503   0.08411516  50.04 0.0009511434    1.724    0.420
        30  -8.6979    110.9507    134.5060   1.0675758578e+02   3.3366960453e+01    0.2179918    0.1838065  -2.95  0.001095506    1.697    0.411
        31  -9.2922     33.0000    131.5905   1.2451322347e+02   4.4295774808e+01    0.4966373   0.05411061 -70.91  0.001330543    7.804    0.872
        32  -9.1653     98.4490    131.2652   1.0907696451e+02   3.6074173650e+01     0.230286    0.2254247  -7.63   0.00108941    1.267    0.211
        33  -7.9129    238.3510    149.6657   8.4733720513e+01   6.2364327567e+00    0.1192004     0.104985 -73.80 0.0007046553    1.783    0.439
        34  -7.8707    108.0776    121.8651   1.0506138465e+02   3.6419329674e+01    0.1658157    0.1577617   8.57  0.000365353    1.266    0.210
        35  -7.4775    134.6748    119.3261   9.8290998555e+01   3.2046674718e+01    0.1442026    0.1090894  86.18 0.0003767025    1.693    0.410
        36  -9.8867    167.9497    112.5831   8.9419072647e+01   2.6381090418e+01    0.3315585     0.286884 -72.93 0.0006691799    1.370    0.270
        37  -7.6396     42.4812    231.4650   1.2991466478e+02   2.5272875884e+01    0.0960437   0.06663984  64.31 0.0008090931    1.035    0.034
        38  -8.6671     33.0000    107.9796   1.2180081546e+02   4.9321349777e+01    0.3295697   0.05554178 -69.03  0.001049202    4.915    0.797
        39 -10.9461     95.4877    231.4136   1.2157309821e+02   1.8904208602e+01    0.5370675    0.3029521 -82.15  0.002577313    2.185    0.542
        40  -8.9554    242.9717     92.5222   7.0978663994e+01   1.2627859450e+01    0.2036662    0.1006585  33.08 0.0008092173    2.461    0.594
        41  -9.3301     52.1410    232.8993   1.2851120549e+02   2.3998539810e+01    0.2513132    0.1360777  37.34  0.001397144    1.962    0.490
        42  -8.5315    163.3539    248.3113   1.1240337254e+02   7.1678719683e+00    0.1031079   0.06650981  26.69 0.0007044439    1.728    0.421
        43  -8.9724     94.7193    246.0265   1.2281158285e+02   1.6986637602e+01    0.1420968    0.1026256  59.28  0.001177096    1.051    0.049
        44  -8.9411     53.1179    228.1853   1.2809150689e+02   2.4595297526e+01    0.1647801    0.1087429  78.02 0.0003969704    1.270    0.213
        45  -7.8755     90.3287    245.2986   1.2343163071e+02   1.7646938620e+01   0.08584008   0.07032634  33.96 0.0006191384    1.638    0.390
        46 -11.2702     42.1589    220.8971   1.2940769348e+02   2.6926752055e+01    0.3020918    0.2748171 -48.32  0.001081732    1.931    0.482
        47  -8.7984    105.6059    240.2216   1.2067513444e+02   1.6331470409e+01    0.1105844   0.09442233 -60.97 0.0007004059    1.634    0.388
        48  -9.7902     54.4154    238.4946   1.2847382708e+02   2.2922489472e+01    0.2647523    0.1366881  48.35   0.00112861    1.436    0.304
