#   1 NUMBER                 Running object number                                     
#   2 MAG_AUTO               Kron-like elliptical aperture magnitude                    [mag]
#   3 X_IMAGE                Object position along x                                    [pixel]
#   4 Y_IMAGE                Object position along y                                    [pixel]
#   5 X_WORLD                Barycenter position along world x axis                     [deg]
#   6 Y_WORLD                Barycenter position along world y axis                     [deg]
#   7 A_WORLD                Profile RMS along major axis (world units)                 [deg]
#   8 B_WORLD                Profile RMS along minor axis (world units)                 [deg]
#   9 THETA_WORLD            Position angle (CCW/world-x)                               [deg]
#  10 FWHM_WORLD             FWHM assuming a gaussian core                              [deg]
#  11 ELONGATION             A_IMAGE/B_IMAGE                                           
#  12 ELLIPTICITY            1 - B_IMAGE/A_IMAGE                                       
         1 -13.0945    241.3633      7.1124   3.4375359683e+02   2.5054275822e+01      3.50163     1.357605  78.36   0.01746798    2.804    0.643
         2 -11.8594    220.0110      2.3587   3.4367026811e+02   2.9871933048e+01     3.436098    0.1534854  75.81   0.00819559   10.401    0.904
         3 -10.8604    215.8688     18.5872   3.4794899638e+02   2.9127225911e+01    0.3145085    0.2779818 -56.28 0.0004875599    1.091    0.083
         4  -8.5579    142.0441     13.2413   3.5337563829e+02   4.7668277062e+01    0.2204504    0.1973443 -35.63 0.0004967434    1.168    0.144
         5 -10.2023    234.5864     25.4896   3.4835798114e+02   2.4488821756e+01    0.3449535    0.1922728 -19.95  0.001714986    1.944    0.486
         6  -9.4476    232.1569    250.7867   3.2518783920e+01  -3.2717610039e+00    0.1266417   0.05987345  23.93 0.0002465601    1.672    0.402
         7 -16.4502    221.8658     84.8283   3.6503627772e+00   1.9490186088e+01     8.374402     3.605559  44.30   0.03632421    2.939    0.660
         8  -9.9267    168.2883    250.0868   4.3040907141e+01   3.8400014314e+00    0.2479313    0.1553808  18.97 0.0008653525    1.290    0.225
         9  -9.7043    163.2156    248.8234   4.3809256581e+01   4.5995615445e+00    0.2637677    0.2037536  53.14  0.001878953    1.867    0.464
        10 -12.4192    159.8571    240.6170   4.3452292105e+01   6.0595829447e+00    0.3126939    0.2226946  29.70 0.0006586448    1.151    0.131
        11  -9.6670    174.8550    236.6243   4.0195958705e+01   4.7212388847e+00    0.2964105     0.193849  33.59  0.001510467    1.353    0.261
        12  -9.5390    156.5062    236.5020   4.3581036313e+01   7.0283036028e+00    0.2072309    0.1606542  23.91 0.0005424913    1.041    0.039
        13  -9.7261    166.2371    236.1531   4.1715275356e+01   5.8514062130e+00    0.1916614    0.1515704  21.72 0.0002561404    1.077    0.071
        14  -9.8962    103.7343    233.6206   5.3779178139e+01   1.4199344611e+01     0.282567    0.1773189  60.14  0.001676578    1.905    0.475
        15  -8.6487     65.4142    218.0338   6.0688246737e+01   2.1664053038e+01    0.2193521    0.1361453  41.85 0.0003798276    1.266    0.210
        16 -18.6221    203.2961    153.2140   2.1436461871e+01   1.2535965501e+01     2.866846     2.317241  17.42   0.01806794    1.197    0.165
        17 -16.6793    232.9107    207.2144   2.6109916775e+01   1.2381689529e+00     1.662718    0.9744743  27.05    0.0111836    1.549    0.355
        18 -17.4848    198.8144    205.0039   3.1380152671e+01   5.7713111232e+00     3.586594     2.429528 -65.86   0.01678003    4.448    0.775
        19 -17.2843    160.9756    150.0910   2.8927827113e+01   2.0311725182e+01     6.376612     3.915765  -9.52   0.02646904    2.720    0.632
        20 -16.7575    238.5672    185.8905   2.1757621211e+01   3.0656014844e+00     1.288792    0.9543671   0.77  0.009347409    1.098    0.089
        21  -8.3548     94.0910    168.4383   4.8271322758e+01   2.7953349825e+01    0.2301994     0.185656 -41.70 0.0003277361    1.431    0.301
        22 -10.7531    109.9091    147.7501   4.0669862236e+01   2.9944362041e+01    0.5840501    0.3088112 -53.11  0.002524388    1.975    0.494
        23 -16.8503    213.2584    190.7095   2.6579290970e+01   5.7360662027e+00     1.568416    0.7233552 -38.32  0.008381842    2.208    0.547
        24  -8.4745      2.4155    152.6760   7.2483654267e+01   4.2248729033e+01    0.2118151    0.1554553  18.49 0.0008333862    1.559    0.359
        25  -7.8919     65.6769    143.3345   5.2554851099e+01   3.7996414641e+01    0.1553462   0.09912325  64.46 0.0007050619    1.709    0.415
        26  -7.8264    101.1861    137.8883   4.1175471230e+01   3.3695380382e+01    0.1957319    0.1722407 -21.17 0.0004391947    1.328    0.247
        27  -8.0544     95.0088    135.5558   4.2484853454e+01   3.5308027971e+01    0.2170546     0.195132 -64.63 0.0004804073    1.138    0.121
        28  -8.0147     87.0056    120.3134   4.1805589416e+01   4.0346147760e+01    0.2114584    0.1834287  43.02 0.0002983643    1.140    0.123
        29 -10.8593    105.2814    109.3473   3.3698903955e+01   3.9564188418e+01    0.5078854    0.3726779  43.38  0.001163704    1.354    0.261
        30 -16.7881    207.3212    234.3375   3.4244283138e+01   1.1187205813e+00     6.364878     2.530862  41.63   0.03229874    3.120    0.680
        31  -8.5668    166.3217    244.9981   4.2790284737e+01   4.7048996735e+00    0.3457709    0.1590517  37.20 0.0008767852    1.844    0.458
        32 -10.0046    140.3143     95.4126   2.0667161856e+01   3.5114524122e+01    0.3163271    0.2747056 -43.74 0.0005597185    1.132    0.117
        33 -11.9285     81.9873     90.7672   3.6310407593e+01   4.8439798155e+01    0.8988038     0.628294 -38.71  0.004104819    1.582    0.368
        34 -10.7476    148.3169     88.9544   1.7044401769e+01   3.4554586115e+01    0.7666793    0.4325397 -31.98 0.0005652885    1.931    0.482
        35  -9.8806    158.4554     89.9252   1.5168207178e+01   3.2069977047e+01    0.5731137    0.2860716 -35.07  0.002141041    2.016    0.504
        36 -11.8010    153.8654     82.9434   1.4156316574e+01   3.4388117647e+01    0.3742559    0.3589361 -67.18 0.0003318608    1.028    0.027
        37 -11.1299     78.7701     82.6852   3.5151518880e+01   5.0967393396e+01    0.5579682     0.371297  66.69  0.002363714    1.979    0.495
        38  -8.8766    121.7747     89.0302   2.3520473841e+01   4.0570028538e+01    0.2170781    0.1944225 -46.70 0.0003968401    1.110    0.099
        39  -9.9055    115.8513     87.8138   2.4786472409e+01   4.2144483050e+01    0.4849966    0.2681177 -39.60  0.001838701    1.889    0.471
        40 -12.1934     71.1495     86.6688   3.9114586736e+01   5.1378988558e+01    0.8511081    0.6972277  87.41  0.003517492    1.372    0.271
        41 -10.1283    141.3163     85.4189   1.7607039053e+01   3.6836073290e+01    0.4549472    0.3558028 -29.14  0.001006966    1.367    0.268
        42  -7.2433    134.3042     75.6588   1.6320064666e+01   4.0338536653e+01    0.1601262    0.1180149 -73.29 0.0007040324    1.679    0.405
        43  -8.8215    126.7274     74.9772   1.7959844344e+01   4.2264083703e+01    0.2663387    0.2227036  65.22 0.0002640443    1.231    0.188
        44  -9.4492    157.2917     71.9196   1.0264802985e+01   3.5520350420e+01    0.4280835    0.3265205  33.96  0.001576103    1.557    0.358
        45  -8.6082    113.7856     73.8401   2.1040184423e+01   4.5514592894e+01    0.2888885    0.2067812  38.73 0.0008818105    1.517    0.341
        46  -8.6009     27.3608     72.5612   5.4414403746e+01   6.0939796091e+01    0.3075225    0.1553004  31.06  0.001373809    2.043    0.511
        47  -8.7931    103.5209     80.3240   2.6124288996e+01   4.6463566154e+01    0.3048149    0.2574435 -18.14  0.001051051    1.409    0.290
        48  -9.6524    231.2868     57.3893   3.5613995733e+02   2.1360444726e+01    0.4259017    0.3030958  58.05   0.00186517    1.661    0.398
        49  -9.6163    250.6096     63.9683   3.5585049632e+02   1.6964860504e+01    0.2690142     0.166483 -53.25  0.001594495    1.562    0.360
        50 -11.0024    238.4620     56.7907   3.5532958368e+02   2.0062381713e+01    0.5903975    0.3703246 -38.43  0.003460404    1.273    0.214
        51 -10.6072    247.0767     67.1647   3.5687611745e+02   1.7191933023e+01    0.3766489    0.2075621 -28.93 0.0004928672    1.536    0.349
        52 -10.4107    243.1945     64.6715   3.5668307610e+02   1.8201218914e+01    0.4932581    0.2406807 -42.43  0.001656576    1.667    0.400
        53  -8.6430    174.9948     67.5651   5.8724753803e+00   3.2052218469e+01    0.2957379    0.2396576 -62.33 0.0009446283    1.252    0.202
        54  -9.8824    164.8182     62.8057   6.1898563466e+00   3.5214974985e+01     0.289555     0.246336 -31.54 0.0003497535    1.182    0.154
        55  -9.4600     50.4445     64.2929   4.1097391599e+01   6.0166850524e+01    0.2696439    0.2228637  56.03 0.0007461549    1.324    0.245
        56  -8.6856    201.5064     62.7592   7.6342531450e-01   2.6780541854e+01    0.2866484    0.2261399 -35.53 0.0008466685    1.145    0.127
        57  -8.5212    129.6313     63.2154   1.3431048388e+01   4.3759238827e+01    0.2621581    0.2081901  60.13 0.0002861011    1.264    0.209
        58 -19.6788    224.1210    165.4268   2.0344206511e+01   7.6153863199e+00     5.411166     3.179866 -23.75   0.03146755    1.549    0.354
        59  -8.5872    250.5431     55.0353   3.5389121645e+02   1.8060741274e+01    0.2832576    0.1197342 -37.91  0.001309669    1.769    0.435
        60 -11.0275    249.6912     49.7198   3.5278474565e+02   1.8846059815e+01    0.2688295    0.2154757 -31.13 0.0002838633    1.142    0.124
        61  -9.1562    245.6482     49.2626   3.5300372398e+02   1.9638509286e+01    0.2233778    0.1509127 -49.02 0.0006099803    1.253    0.202
        62  -7.6998    180.6468     55.0939   1.4662075515e+00   3.2605956377e+01     0.192897    0.1300899 -19.51 0.0003684365    1.691    0.409
        63  -7.4444    136.6592     55.6825   9.3243850800e+00   4.3315545392e+01     0.155025    0.1180688  23.79 0.0007048963    1.711    0.415
        64  -8.9324    220.4606     53.1555   3.5618715001e+02   2.4065059898e+01    0.2290962    0.1964127  66.24 0.0003905481    1.342    0.255
        65 -10.1584    126.5158     50.5183   9.7765120984e+00   4.6718313035e+01     0.373834    0.3059802 -11.63 0.0005724448    1.459    0.315
        66  -9.9744     21.1269     51.2178   5.2372547569e+01   6.6883176764e+01    0.4622257    0.2924617  46.39  0.001696388    1.818    0.450
        67  -8.8618    228.9702     51.0826   3.5486388185e+02   2.2609718530e+01    0.3289837    0.2170212  -9.39  0.001751729    1.956    0.489
        68  -9.6138    223.8440     49.3399   3.5492372812e+02   2.3858009960e+01    0.4175066    0.3465065 -55.29 0.0005808039    1.096    0.088
        69  -8.8065    191.5590     47.2274   3.5782586955e+02   3.1153216200e+01    0.4292094    0.2337078 -39.28  0.001507852    1.605    0.377
        70  -7.8198    241.0392     46.7476   3.5280556105e+02   2.0798935306e+01     0.164783    0.1327129 -43.73 0.0004805197    1.011    0.011
        71  -9.4586    204.3134     44.1290   3.5555227491e+02   2.8671668653e+01    0.5453693    0.2142646  55.35  0.001844421    2.795    0.642
        72  -8.9707    188.9760     37.1639   3.5531454477e+02   3.3064502241e+01       0.3164    0.1935676  73.44  0.001576011    1.713    0.416
        73  -8.0918    240.4993     35.5007   3.5027032577e+02   2.2212855752e+01    0.1217614   0.09951168 -42.83 -0.0006276976    1.052    0.050
        74  -9.5595     18.2467     34.0243   4.8512862638e+01   7.1210776874e+01     0.250181    0.1778582  83.60  0.001298882    1.946    0.486
        75  -9.4781    105.1791    244.2241   5.4480315463e+01   1.2352861903e+01    0.2001106    0.1573648  31.76 0.0002341436    1.049    0.046
        76  -9.4213    247.4347    243.9536   2.9324810785e+01  -4.1333804637e+00    0.1274411   0.08780275   2.34 0.0001208942    1.043    0.041
        77 -10.8567    249.2791    239.9963   2.8510628820e+01  -3.9407617588e+00    0.2002849    0.1318592  27.04  0.001044915    1.566    0.361
        78  -7.9399    159.7805     25.4204   3.5524838775e+02   4.1700814356e+01    0.2030488    0.1210321  58.09 0.0009450048    1.700    0.412
        79  -6.6591    243.0762    239.1951   2.9307201984e+01  -3.2486938528e+00    0.2086251    0.1017593  13.20 0.0006970572    1.885    0.469
