#   1 NUMBER                 Running object number                                     
#   2 MAG_AUTO               Kron-like elliptical aperture magnitude                    [mag]
#   3 X_IMAGE                Object position along x                                    [pixel]
#   4 Y_IMAGE                Object position along y                                    [pixel]
#   5 X_WORLD                Barycenter position along world x axis                     [deg]
#   6 Y_WORLD                Barycenter position along world y axis                     [deg]
#   7 A_WORLD                Profile RMS along major axis (world units)                 [deg]
#   8 B_WORLD                Profile RMS along minor axis (world units)                 [deg]
#   9 THETA_WORLD            Position angle (CCW/world-x)                               [deg]
#  10 FWHM_WORLD             FWHM assuming a gaussian core                              [deg]
#  11 ELONGATION             A_IMAGE/B_IMAGE                                           
#  12 ELLIPTICITY            1 - B_IMAGE/A_IMAGE                                       
         1 -13.5596     22.8810     53.5295   9.1637668174e+01   6.3833118531e+01       1.1786    0.9073288 -77.93  0.006947987    1.976    0.494
         2 -12.5793    215.9571     11.8324   3.1702977072e+01   3.0190778326e+01    0.2910173     0.272721  17.14 0.0007494306    1.599    0.375
         3 -12.5919    198.9776     10.5673   3.2885502305e+01   3.4013167057e+01    0.7109704    0.1905598 -52.76   0.00258315    4.107    0.757
         4 -12.8692     65.3379     10.4537   5.6684396196e+01   6.4063884026e+01    0.3407204    0.2099915  40.37 0.0006704262    1.355    0.262
         5 -11.4557     36.6500     11.0547   6.8142938082e+01   6.8859552243e+01    0.2016978    0.1427438  27.92 0.0002179142    1.225    0.184
         6 -10.7533    114.9812      7.7102   4.3121632742e+01   5.3763194604e+01    0.1808755    0.1735659  50.27 0.0006213741    1.139    0.122
         7 -10.8804    128.5338      5.5670   4.0079590609e+01   5.0808440974e+01    0.2778176    0.1597757  49.34  0.001497979    1.591    0.372
         8 -11.4315    189.4997      4.2731   3.2332078939e+01   3.6763628526e+01    0.2463871     0.182898  71.38  0.000513071    1.244    0.196
         9 -10.7109     65.8390      1.3835   5.2572312105e+01   6.4782845283e+01    0.1768809   0.08535983  44.22 0.0007205644    1.661    0.398
        10 -11.3315    149.6810    222.8319   8.9376765860e+01   6.1288603926e+00    0.4790927    0.2871982 -56.86  0.002330859    2.031    0.508
        11 -11.0715     70.2548    248.8116   1.0988688213e+02   1.3029405652e+01    0.3383778    0.2530691   0.90 0.0009554244    2.142    0.533
        12 -11.6279     14.4387    249.9964   1.2095859137e+02   1.9452434375e+01     0.239078    0.1341778  29.37   0.00143048    2.003    0.501
        13 -12.5271    238.2162    213.5058   7.0164972099e+01  -5.6623883167e+00    0.6481655    0.3481586 -55.14  0.002748629    3.871    0.742
        14  -9.9116    154.4896    212.5257   8.6640463409e+01   7.3214324738e+00     0.139229    0.1261769  18.21 0.0002445155    1.017    0.017
        15 -10.3098    192.8352    209.5825   7.7989971762e+01   1.5937952312e+00    0.2309369    0.1849179  87.78   0.00119869    2.245    0.555
        16 -10.6042    176.6055    209.8402   8.1389222186e+01   4.1640843863e+00    0.1889564    0.1305467 -55.27 0.0009570891    1.785    0.440
        17 -10.9726     86.7924    206.9583   1.0155469686e+02   1.9533758621e+01    0.3606402    0.2514839 -34.07  0.001784736    1.934    0.483
        18 -10.5644     18.9263    203.8409   1.1710529006e+02   2.8802792201e+01    0.3180159    0.1302758  57.53  0.001437761    2.416    0.586
        19  -9.9961      2.5172    203.0397   1.2064192602e+02   3.0510842539e+01    0.1707721    0.0989632 -82.14 0.0003214335    1.466    0.318
        20  -9.9007    124.6130    198.2930   9.1141654032e+01   1.5356334356e+01    0.1532076    0.1069864  64.02 0.0007013506    1.767    0.434
        21 -10.9925      4.7041    197.4139   1.1980249222e+02   3.1596125307e+01    0.2487277    0.1559577  70.90 0.0007288724    1.392    0.281
        22 -10.4959    133.2419    195.5065   8.8608750045e+01   1.4471768505e+01    0.2593624    0.2015009 -53.02 0.0007610524    1.362    0.266
        23 -11.5769    162.4174    194.1166   8.1627614636e+01   9.6222143605e+00    0.4918119     0.302082  51.25  0.002228058    1.893    0.472
        24 -10.9484    179.8685    217.1018   8.1968283245e+01   2.3191906989e+00    0.1955725    0.1870537  53.00  0.001173874    1.303    0.232
        25 -10.3506    172.8606    191.3065   7.8804231763e+01   8.3471310009e+00    0.2435058    0.1982343 -55.26  0.001305764    1.402    0.287
        26 -10.0097     66.7547    190.2323   1.0427110007e+02   2.6351383720e+01    0.2091848    0.1187115  18.64 0.0008837233    2.431    0.589
        27 -10.3637     66.0000    193.9755   1.0494249987e+02   2.5559604099e+01    0.2241302   0.07555839 -65.16 0.0008021565    2.941    0.660
        28 -10.4300    183.3540    184.1848   7.5190812540e+01   7.8974777542e+00    0.2042965    0.1298001 -52.47 0.0008685707    1.777    0.437
        29 -11.9405     44.0837    181.1781   1.0891242693e+02   3.1460693498e+01    0.3156379    0.1839866 -77.05  0.001543907    1.650    0.394
        30 -10.3314     63.7836    180.8120   1.0377094272e+02   2.9048628930e+01    0.3182339    0.2412104 -18.05  0.001591664    1.870    0.465
        31 -10.3789     63.1547    176.9694   1.0340308946e+02   3.0080675448e+01    0.2656715    0.1760896  56.50  0.001003228    1.551    0.355
        32 -10.6879    147.4019    179.6384   8.2330511776e+01   1.5379331149e+01    0.2911452    0.1401582 -63.13 0.0009578489    3.405    0.706
        33 -12.1119     37.4322    178.0084   1.1025413616e+02   3.2997744852e+01    0.4962249    0.1764629 -72.22  0.001910505    2.704    0.630
        34 -10.5815    191.8862    177.5819   7.2118814957e+01   7.6681518425e+00    0.2898356    0.1879147 -57.23  0.001341969    1.946    0.486
        35 -10.1816    129.4675    176.9722   8.6162405222e+01   1.9278735099e+01    0.2124176     0.135425 -80.40 0.0008097619    2.598    0.615
        36 -11.4775     11.7821    172.7766   1.1623746545e+02   3.6787794166e+01    0.4766577    0.1736666 -70.74  0.002087659    2.267    0.559
        37 -10.2868    159.3898    175.2277   7.8672532392e+01   1.4095056468e+01    0.2110676    0.1408572 -57.96 0.0008428552    1.730    0.422
        38 -10.3571      3.6416    174.3297   1.1837399811e+02   3.7081167039e+01    0.1366586   0.07500298  64.19 0.0007042919    1.791    0.442
        39 -10.4030    175.6810    171.4901   7.4286701992e+01   1.1823761797e+01    0.2694684    0.1309398 -44.24   0.00108786    2.023    0.506
        40 -11.7810     44.7829    170.8303   1.0746768603e+02   3.3934460364e+01    0.4830751    0.1730662 -71.52  0.001773731    2.829    0.647
        41 -11.8190     48.8984    164.6922   1.0553774967e+02   3.4979020248e+01    0.4644102    0.2712449  27.09  0.002140396    1.907    0.475
        42  -9.3226    198.0000    168.9944   6.9154234285e+01   8.2279101170e+00    0.2380205   0.07619089 -42.93 0.0008052025    2.962    0.662
        43 -11.3082     29.0810    167.1279   1.1120788210e+02   3.6566546274e+01     0.303376    0.1626043   5.43  0.001275879    3.169    0.684
        44 -10.1477    139.3201    165.6390   8.1490332177e+01   2.0013585328e+01    0.1581214    0.1215085  82.19 0.0007042679    1.771    0.435
        45 -10.9410     99.4955    164.2962   9.1541425213e+01   2.7624634893e+01    0.3084436    0.2559233 -34.70  0.001562832    1.338    0.252
        46 -10.8424     79.3451    163.4135   9.6903741209e+01   3.1116664015e+01    0.4444829    0.2438595  85.05  0.001478463    3.556    0.719
        47 -10.9397     93.6429    160.9965   9.2522282634e+01   2.9425170742e+01    0.3078193    0.2325462  81.77  0.001451688    1.596    0.373
        48 -10.8882     31.4739    160.4617   1.0977882399e+02   3.7983920706e+01    0.2510718    0.1192703 -84.62  0.001033032    2.378    0.579
        49 -12.7502    120.5501    157.3134   8.4545094081e+01   2.5518044860e+01     0.919407    0.4058317  30.03  0.002565074    2.874    0.652
        50 -10.7106    219.0026    156.5173   6.2654527478e+01   6.8420657664e+00    0.2791145    0.1916046 -37.58 0.0007901704    1.307    0.235
        51 -11.3104    167.8281    156.7209   7.2905831853e+01   1.6403320934e+01    0.4144609    0.3237359 -63.11  0.001875294    1.484    0.326
        52 -10.8841    189.9817    149.6107   6.6662395050e+01   1.3514539873e+01    0.3818579    0.2404076 -66.56  0.001555686    2.473    0.596
        53 -11.5402    108.6922    146.8265   8.5532547602e+01   3.0245816748e+01     0.683632    0.3394807  60.66  0.002098908    3.701    0.730
        54 -10.9608    148.7818    145.0495   7.4739551202e+01   2.2771594086e+01    0.4301821    0.2901521 -86.43  0.001632033    2.646    0.622
        55 -10.3000    181.6950    141.6833   6.6601098307e+01   1.6751873454e+01    0.3076003    0.1747884 -61.43  0.001172332    2.517    0.603
        56 -11.3065     21.9805    139.4858   1.0982697887e+02   4.4132638492e+01    0.3740308    0.2955941   3.32  0.001395978    1.568    0.362
        57 -10.7465      1.4247    136.9028   1.1555611673e+02   4.6311691853e+01    0.1969036     0.103821 -74.45 0.0006587813    1.566    0.362
        58 -10.6407     55.0233    145.0160   1.0076888117e+02   3.9192168941e+01    0.2384132    0.1648734  71.35  0.001008014    1.726    0.421
        59 -10.7140     82.5218    131.5162   8.9817664434e+01   3.8579318454e+01     0.149675    0.1439867 -75.62 0.0002033167    1.038    0.037
        60 -11.5794     98.1758    127.0397   8.4108400089e+01   3.6957055794e+01    0.5447257    0.3584531 -85.66  0.001852623    2.501    0.600
        61 -10.1345    117.3142    125.6409   7.8300611577e+01   3.3614095296e+01    0.1621324    0.1244765  86.97 0.0007043221    1.750    0.428
        62 -10.8927     58.9264    124.1529   9.5667641156e+01   4.3926086384e+01    0.3165381    0.2103021 -86.07  0.001416683    1.978    0.494
        63 -11.6577     43.6986    123.7263   1.0053346218e+02   4.5916103331e+01     0.465882    0.2840573 -87.55  0.002060401    2.161    0.537
        64 -10.7799    188.9876    124.0841   6.1125230014e+01   1.8760943880e+01    0.2237744    0.2115255 -65.29 0.0007251173    1.068    0.063
        65 -10.9329     28.7721    123.1826   1.0530403794e+02   4.7587589667e+01    0.2341843    0.1258616  66.52 0.0009546876    2.827    0.646
        66 -10.5782      2.7818    116.9759   1.1281490129e+02   5.1073441871e+01    0.3647495    0.1352935  84.31 0.0009621823    7.177    0.861
        67 -11.0708    108.4839    113.3378   7.7715919878e+01   3.8195768955e+01    0.5250251    0.2781824 -62.83  0.001867383    2.657    0.624
        68  -9.9305    185.4870    113.9967   5.9435504646e+01   2.1458579599e+01    0.2255197    0.1388892 -43.34 0.0007357437    1.541    0.351
        69 -11.4021     92.0669    111.6718   8.2202896963e+01   4.1696973201e+01    0.6833535    0.2822143 -60.41  0.002130308    3.447    0.710
        70 -11.3028     78.6610    112.2349   8.6582449683e+01   4.3880625987e+01    0.5704718    0.3044367 -73.41  0.001892745    3.493    0.714
        71 -11.6386     13.8849    109.8646   1.0810514792e+02   5.2069746449e+01    0.5308353      0.26176 -78.99  0.002411944    2.177    0.541
        72 -12.2230    121.8096    107.7228   7.2504163054e+01   3.6709674041e+01     0.527093     0.316458  58.75  0.002115892    2.038    0.509
        73 -11.9131    140.7756    105.4545   6.7003803833e+01   3.3067663382e+01    0.4528148    0.3196215 -77.50  0.001910701    2.037    0.509
        74 -11.7015    149.8661    104.6189   6.4619206066e+01   3.1206358920e+01    0.3030867    0.2245671 -51.22 0.0008026081    1.369    0.270
        75 -12.0506     64.0995    102.3657   8.8996825457e+01   4.8457218930e+01    0.4270718    0.3018119 -70.50  0.001550787    1.682    0.405
        76 -11.2673      7.2096    102.8680   1.0930297213e+02   5.4187216823e+01    0.3753309    0.2223483 -86.11   0.00193593    1.875    0.467
        77 -12.0220    128.1650    102.0316   6.9282351133e+01   3.6556047375e+01    0.3968494    0.2631632 -74.57  0.001558508    2.384    0.581
        78 -10.8964    128.0841     96.8902   6.7899488030e+01   3.7634410957e+01    0.2626839     0.221305 -39.03 0.0006010183    1.206    0.171
        79 -12.8944    111.0360    100.3673   7.3525409290e+01   4.0543557152e+01    0.8842262    0.5560684  67.31  0.003449462    2.435    0.589
        80 -10.7886     81.7033     99.7278   8.2381186675e+01   4.6258020044e+01    0.2992093    0.1869072 -72.54  0.001182372    2.511    0.602
        81 -10.5302     77.6725     97.9343   8.3232306287e+01   4.7344576321e+01     0.207537    0.1878981 -45.32  0.000661094    1.084    0.077
        82 -11.0346     94.4375     96.7202   7.7480946731e+01   4.4617061979e+01    0.2978599    0.1456973 -52.31  0.001144828    2.180    0.541
        83 -11.6199     45.1772    102.1969   9.5607144779e+01   5.0985742149e+01    0.5191365    0.2959596  74.83  0.001792592    4.171    0.760
        84 -10.9660    123.5175     90.5378   6.7322789413e+01   3.9916288032e+01    0.2757117    0.1400009 -53.07  0.001032814    2.323    0.569
        85 -11.1136     34.0093     88.9693   9.6665084754e+01   5.5276609926e+01    0.4530014    0.1842723 -68.29  0.001635187    3.348    0.701
        86 -11.5770     87.3321     87.7096   7.7171051434e+01   4.7866509502e+01    0.4435522     0.251065  63.42   0.00155165    3.386    0.705
        87 -10.9285     79.6208     87.8026   7.9748210961e+01   4.9226895836e+01    0.2547711    0.2287156  36.51 0.0006930522    1.148    0.129
        88 -11.0590     48.7453     84.9526   9.0027761885e+01   5.4497490390e+01    0.5208937    0.3068589  73.06  0.001629519    5.537    0.819
        89 -11.2539    104.4469     83.2421   7.0536988212e+01   4.5428400436e+01    0.3780099    0.2106292 -61.50   0.00139645    2.809    0.644
        90 -11.1661     23.8587     79.2962   9.8336175295e+01   5.8399690608e+01    0.4623392    0.1730351 -66.64  0.001727839    3.299    0.697
        91 -10.2787    157.6176     75.8156   5.5239370508e+01   3.4813620892e+01    0.2147148    0.1302813 -49.26 0.0009542626    1.707    0.414
        92 -11.2009     62.2331     70.7212   8.0756732336e+01   5.5585554959e+01    0.3266142    0.1292478 -47.72  0.001282503    2.492    0.599
        93 -11.4152     81.8061     72.2666   7.4290292447e+01   5.1978319042e+01    0.4351981    0.2045828 -56.12  0.001565377    3.180    0.686
        94 -10.2240    105.3346     71.6635   6.6736974455e+01   4.7434681183e+01    0.1473962    0.1173318 -86.95 0.0006986922    1.744    0.427
        95 -10.9983     50.8953     69.4282   8.4708544614e+01   5.7488318326e+01    0.3932181    0.1861954 -64.09  0.001342692    4.164    0.760
        96 -11.8662     44.1364     65.1373   8.6086648666e+01   5.9229863724e+01    0.4937393    0.2124365 -40.57  0.001826394    2.195    0.544
        97 -11.2329     35.9438    223.4252   1.1491920973e+02   2.2598234439e+01    0.2438437    0.1669316 -84.55  0.000870648    1.364    0.267
        98 -12.4444     37.1629     63.6947   8.8535284161e+01   6.0355594535e+01    0.4761426    0.4190699  78.17  0.002922064    1.641    0.391
        99 -12.7493     36.5303     56.8235   8.6621347393e+01   6.1768659385e+01    0.5072893     0.422746  31.08  0.001579585    1.359    0.264
       100 -12.1471      6.9637     65.7234   1.0216129240e+02   6.2584009499e+01    0.4107079    0.2981539  38.86  0.001940935    1.749    0.428
       101 -11.1318    235.0454     66.0462   4.1151967330e+01   1.9204621367e+01    0.1871874    0.1551045 -62.25 0.0003428386    1.004    0.004
       102 -13.0647      9.7009     49.2550   9.6503448238e+01   6.5743819940e+01    0.3686684    0.2509432 -21.98  0.001027951    1.309    0.236
       103 -10.4318     91.7421     48.7197   6.3174202135e+01   5.4089705986e+01     0.213526    0.1079885 -46.58 0.0009050099    2.398    0.583
       104 -10.4799     43.2368     45.6500   7.9822636554e+01   6.2947247166e+01    0.2133888    0.1661846 -24.49 0.0006393352    1.165    0.142
       105 -10.9827    141.5718     40.7850   4.8458277152e+01   4.3945411531e+01    0.1899436    0.1239962 -46.89 0.0008627276    1.654    0.395
       106 -12.2830     74.9193     39.4476   6.5205700696e+01   5.8764423993e+01    0.2922739    0.2619929  46.88 0.0009486986    1.237    0.192
       107 -10.4368    126.8631     35.2263   4.9692551733e+01   4.8130607774e+01    0.1995661    0.1732545  85.33 0.0005000245    1.204    0.170
       108 -11.2911     73.2039     32.1139   6.2965548925e+01   6.0094441782e+01    0.2394698    0.1773238  73.14   0.00125888    2.134    0.531
       109 -11.6213      1.8294     28.8609   9.3850432575e+01   7.0023213171e+01    0.3911087    0.1226642 -49.17  0.001873669    2.520    0.603
       110 -10.2358    178.9325     25.6665   3.8565951637e+01   3.6920426604e+01    0.1810585    0.1426362  84.67 0.0004530563    1.110    0.099
       111  -9.8169     28.4047     26.4717   7.9028583841e+01   6.7910334905e+01    0.1194687   0.09596609  -6.65 1.213575e-05    1.022    0.022
       112 -10.1171    156.2515     25.0726   4.1482926601e+01   4.2340571700e+01    0.1804724    0.1630682 -87.77 0.0006695885    1.066    0.062
       113 -10.5857     41.9723     20.5248   7.0140026542e+01   6.6906434091e+01    0.2334521    0.1059398  38.53 0.0004314821    2.047    0.511
       114 -10.5505     37.8271     18.4924   7.1072322345e+01   6.7776203180e+01    0.2323072    0.1808204 -34.96  0.001146692    1.514    0.340
       115 -10.3735     90.4509     18.9172   5.2645904370e+01   5.8160323449e+01    0.2156386    0.1582968  60.54 0.0003886114    1.342    0.255
       116 -11.4577     25.6514    246.7570   1.1865221193e+02   1.8893739524e+01    0.1802634    0.1610833  78.08 0.0005946025    1.238    0.192
       117 -12.3639     37.0865    244.2462   1.1624727615e+02   1.8101904779e+01    0.3774114    0.2313819  47.49 0.0009568915    1.349    0.259
       118 -11.7531    210.3395    237.7129   7.9380641920e+01  -5.5538080939e+00    0.3217661    0.2331619  57.67  0.001764978    2.504    0.601
       119 -13.1545     19.4164    236.5072   1.1923708592e+02   2.1642289920e+01    0.3864884     0.224767  42.19 0.0006633388    1.520    0.342
       120 -10.7415     10.4667    232.0621   1.2073429966e+02   2.3477083041e+01    0.2311586    0.1680998 -37.25  0.001441565    2.220    0.550
       121 -12.0383     72.5752    229.0841   1.0745669275e+02   1.6729161340e+01    0.3532043     0.292442 -80.72  0.001197734    1.244    0.196
       122 -10.4847     50.2133    227.1567   1.1216246035e+02   2.0081355058e+01    0.2639454    0.1206941  55.27  0.001235744    2.087    0.521
