#   1 NUMBER                 Running object number                                     
#   2 MAG_AUTO               Kron-like elliptical aperture magnitude                    [mag]
#   3 X_IMAGE                Object position along x                                    [pixel]
#   4 Y_IMAGE                Object position along y                                    [pixel]
#   5 X_WORLD                Barycenter position along world x axis                     [deg]
#   6 Y_WORLD                Barycenter position along world y axis                     [deg]
#   7 A_WORLD                Profile RMS along major axis (world units)                 [deg]
#   8 B_WORLD                Profile RMS along minor axis (world units)                 [deg]
#   9 THETA_WORLD            Position angle (CCW/world-x)                               [deg]
#  10 FWHM_WORLD             FWHM assuming a gaussian core                              [deg]
#  11 ELONGATION             A_IMAGE/B_IMAGE                                           
#  12 ELLIPTICITY            1 - B_IMAGE/A_IMAGE                                       
         1 -10.8979     26.4382     35.7363   7.2064195048e+01   6.7720192036e+01    0.3669182     0.187171 -50.73   0.00176805    2.396    0.583
         2 -10.4658     49.8115     30.7017   5.8088471688e+01   6.4955112073e+01    0.4317241    0.1648905 -27.89  0.001634196    3.641    0.725
         3 -10.7262     12.8083     29.0333   7.7468116848e+01   7.0395927925e+01    0.3824517    0.1695998 -53.07  0.001797103    2.688    0.628
         4 -10.6950     40.7444     14.1371   5.4725093293e+01   6.8672499175e+01    0.2446002    0.1683943  16.20  0.000391192    1.377    0.274
         5  -9.4116     97.3085     14.6666   3.6234878558e+01   5.6923549128e+01     0.124635   0.09256222 -77.52 0.0003168588    1.671    0.402
         6  -9.2537     13.5189    250.5348   1.1066090635e+02   1.7382783889e+01    0.1192413   0.09864321  51.06 5.757123e-05    1.003    0.003
         7  -9.9692    193.2939    225.3368   6.5913914403e+01   1.1319876453e+00    0.1345027   0.08124537 -13.97  0.000287988    1.646    0.393
         8 -10.2204     60.2458    223.1321   9.7403475058e+01   1.8666461224e+01    0.2855701    0.1383984  47.54  0.001000508    2.086    0.521
         9 -11.0467    126.3487    220.4973   8.0131114754e+01   1.0741771713e+01     0.261796    0.2307417  43.93 0.0006891622    1.308    0.235
        10  -9.2442    114.3656    221.3128   8.3234367995e+01   1.2201770161e+01    0.1507076    0.1007522 -11.74 0.0007038964    1.763    0.433
        11  -9.8515     74.9779    219.4915   9.3161811722e+01   1.7747536652e+01    0.2218733    0.1257182  28.12  0.001030854    1.591    0.371
        12 -10.1118    143.9658    216.9899   7.5323380368e+01   9.0378503120e+00    0.2077965    0.1715412  56.55  0.001135362    1.666    0.400
        13  -9.7718    131.4216    213.8171   7.7846133676e+01   1.1433068846e+01    0.2017088    0.1221971 -36.81 0.0009467187    1.701    0.412
        14 -10.1400     77.3700    211.8654   9.1598246663e+01   1.9216470500e+01    0.3490716    0.2468223  -1.08  0.001713808    1.642    0.391
        15  -9.9020    116.9767    210.5053   8.0956031138e+01   1.4177874494e+01    0.2123163    0.1040481  47.25 0.0008098863    2.573    0.611
        16  -9.9250     99.2053    205.8243   8.4903127898e+01   1.7723610863e+01     0.249812    0.1432057  61.23  0.000947059    2.852    0.649
        17 -11.4327    165.8007    203.1653   6.7955518208e+01   8.7344835244e+00    0.3513286    0.2736449  56.30  0.001852436    1.915    0.478
        18  -9.7266    131.3438    203.6551   7.6209779243e+01   1.3606660406e+01    0.1448154    0.1124563  61.18 0.0007045876    1.792    0.442
        19 -12.9770    177.5575    197.8145   6.4441496565e+01   8.1161028584e+00    0.6021222    0.3899107  20.45  0.003140971    1.551    0.355
        20 -10.7428    112.8568    194.1733   7.9410315616e+01   1.8458562839e+01    0.2462646    0.2087218 -62.89 0.0004144222    1.348    0.258
        21  -9.7928    105.5122    197.9754   8.2003556988e+01   1.8652373877e+01    0.2150507    0.1449597 -52.61 0.0005045406    1.546    0.353
        22 -10.2542     88.3911    197.6319   8.6641648975e+01   2.1150064793e+01    0.2708035    0.1437546 -80.20  0.000955404    3.227    0.690
        23 -11.6674    172.9524    195.9215   6.5090230861e+01   9.1323057685e+00    0.2807931    0.2333765 -50.04  0.001311284    1.407    0.289
        24 -11.6984    162.8873    193.7984   6.6936387726e+01   1.1014778829e+01    0.3191331    0.2550635 -72.33  0.001655946    1.882    0.469
        25  -9.8215     66.4075    194.2247   9.2369680519e+01   2.4867471333e+01    0.2026469    0.1402577 -85.66 0.0009461986    1.737    0.424
        26  -9.8886     43.8508    193.2666   9.8708369500e+01   2.7703665760e+01    0.2562707    0.1187991  57.97  0.000949925    2.785    0.641
        27 -10.6316    173.0094    191.0119   6.4182730214e+01   1.0082807194e+01     0.200761    0.1787251  76.71  0.001134016    1.692    0.409
        28 -10.9673    139.3276    189.3771   7.1725280129e+01   1.5509505482e+01    0.3203359    0.2629451 -70.00  0.001453716    1.596    0.373
        29 -10.6465    129.9482    188.4983   7.3937299385e+01   1.7154627212e+01    0.2696942    0.2234108 -77.29  0.001369321    1.611    0.379
        30 -10.7159     87.4179    189.1194   8.5629792010e+01   2.3357025972e+01    0.2956521    0.1760074  57.70  0.001190573    2.264    0.558
        31 -12.5015     95.3132    184.5781   8.2654431510e+01   2.3340922574e+01    0.7938007    0.5552258  80.41  0.003435379    2.151    0.535
        32 -10.1756      7.5025    188.0341   1.0846675978e+02   3.2267116067e+01    0.2047709    0.1211896 -78.46  0.001031234    1.585    0.369
        33 -10.4981    156.6378    187.2955   6.7174602816e+01   1.3285663053e+01    0.2122097    0.1804194  77.47  0.001109672    1.767    0.434
        34 -10.8685    109.9507    185.4723   7.8715805246e+01   2.0934457911e+01    0.3599703    0.3256067  61.72  0.001925124    1.290    0.225
        35 -10.2703     55.2904    186.7335   9.4626396558e+01   2.8098952117e+01    0.3671062    0.1577073  58.69  0.001140593    3.903    0.744
        36 -10.6379    149.1952    198.2337   7.0912644305e+01   1.2130161979e+01    0.3241424    0.2326905 -88.26  0.001383906    2.865    0.651
        37 -10.9710    120.4336    184.6474   7.5735357844e+01   1.9510757762e+01     0.408373    0.1582829 -60.16  0.001299892    3.500    0.714
        38 -11.3356    125.5458    197.3766   7.6622100026e+01   1.5839199032e+01    0.3183611     0.259192  10.81  0.001685405    1.166    0.143
        39 -10.2927    174.9838    183.9649   6.2445133625e+01   1.1176710970e+01    0.2038288     0.178641  76.48 0.0009849895    1.716    0.417
        40 -10.8572     74.4447    183.1391   8.8480140628e+01   2.6625593703e+01    0.4100112     0.240223  80.72  0.001509628    2.914    0.657
        41 -10.5145    197.7881    182.7735   5.7585902481e+01   8.0945935516e+00    0.1673705    0.1586207 -48.27 0.0008475194    1.352    0.260
        42  -9.9175    165.9878    186.8198   6.4952331820e+01   1.1960043806e+01    0.2222182    0.1630958  57.40  0.001082136    2.036    0.509
        43  -9.6478     44.4801    182.4683   9.7302472228e+01   3.0402587601e+01    0.1421236    0.1355845  60.73 0.0008092579    1.034    0.033
        44 -11.2576    148.3121    180.1038   6.7793486969e+01   1.6110062053e+01    0.2885102    0.2132253  37.88   0.00117844    1.418    0.295
        45 -11.6416     78.2707    175.8793   8.6215090050e+01   2.7953104874e+01    0.5483153    0.2587135  54.65  0.001807158    3.256    0.693
        46 -10.0907     60.0162    176.8201   9.1884639864e+01   3.0093809845e+01    0.2636458    0.1466459  50.76  0.001076365    2.046    0.511
        47  -9.6580     13.5234    177.0207   1.0591349848e+02   3.4633656787e+01    0.3028229    0.1033424  51.65   0.00103994    3.434    0.709
        48 -10.2813    159.7017    175.3534   6.4190251853e+01   1.5295788446e+01    0.2142044    0.1799299  76.43  0.001101898    1.761    0.432
        49 -10.3680    105.8667    174.7653   7.7948666550e+01   2.4136517751e+01    0.2929899    0.2100122  84.23  0.001042815    2.171    0.539
        50 -10.9339    135.2250    171.4883   6.9382979518e+01   2.0142431065e+01    0.3507455     0.272247  89.92  0.001615654    1.992    0.498
        51 -10.8197    177.4977    171.0142   5.9422843414e+01   1.3351386477e+01    0.2537354    0.2015556  51.48  0.001108656    1.607    0.378
        52 -10.7064    168.3758    169.3273   6.1052802661e+01   1.5143981304e+01    0.2669136    0.2140416  84.88  0.001013461    2.024    0.506
        53 -11.8015    121.9313    168.2791   7.2259317187e+01   2.3090783263e+01    0.5891355    0.4051436 -71.33   0.00246984    2.010    0.503
        54 -10.5424     55.4882    169.3738   9.2219072120e+01   3.2587962819e+01    0.3141545    0.1926629  68.38   0.00128873    2.199    0.545
        55  -9.9274    207.3435    169.6958   5.3360767538e+01   9.1184965968e+00    0.1195492    0.1034901 -75.62  0.000704074    1.685    0.407
        56 -10.5808    150.0151    169.2154   6.5257050200e+01   1.8184414702e+01    0.2358007    0.1723554  62.20  0.001079347    2.003    0.501
        57  -9.9469     88.7720    168.5965   8.1825166051e+01   2.8291929041e+01    0.2228605    0.1351103  39.54 0.0006672426    1.648    0.393
        58  -9.5620    111.7798    167.1801   7.4852004744e+01   2.5026462284e+01    0.2589911    0.1655581  68.75 0.0009494735    2.815    0.645
        59 -11.9273    139.7036    164.8026   6.6909058478e+01   2.0892304118e+01    0.4400092    0.3376089 -89.25  0.001734702    2.059    0.514
        60 -10.7691     99.4540    165.9553   7.8166255116e+01   2.7310009087e+01     0.415167    0.2205203  50.61  0.001539823    2.406    0.584
        61  -9.7163     20.2596    166.1923   1.0288020546e+02   3.6943178390e+01    0.2675936    0.1479058  34.24  0.001234649    1.796    0.443
        62 -10.0709    217.5321    165.4837   5.0799620424e+01   8.4285479994e+00    0.1288151    0.1054916 -28.54 -2.705363e-05    1.002    0.002
        63 -10.8125     80.0257    163.6904   8.3625087403e+01   3.0832079727e+01    0.5135873    0.3025469  79.15  0.001732565    3.356    0.702
        64 -10.1416    148.3776    163.7301   6.4545519319e+01   1.9651076282e+01    0.2084811    0.1307231 -37.12 0.0006765921    1.572    0.364
        65  -9.9900     70.1787    163.0387   8.6597351289e+01   3.2381540867e+01    0.2581282    0.1753813  75.04  0.001084257    2.042    0.510
        66  -9.4369     47.3365    163.6740   9.3992031987e+01   3.5033161597e+01    0.1586469    0.1065772  59.08  0.000705154    1.721    0.419
        67  -9.7751    206.3133    162.6327   5.2201025242e+01   1.0541163967e+01    0.1267282    0.1012838 -68.86 0.0007037745    1.769    0.435
        68 -10.7255    178.2842    160.7033   5.7209553098e+01   1.5268395195e+01    0.2821415    0.2375778 -85.98  0.001202004    1.726    0.421
        69 -10.9621    152.0619    161.0457   6.3110772508e+01   1.9602724956e+01    0.2280342    0.1899203  84.28  0.001136285    1.719    0.418
        70 -11.0633     93.2115    159.9661   7.8892436883e+01   2.9791278629e+01    0.5165672    0.3306021  66.38  0.001963148    2.457    0.593
        71  -9.7506      9.2066    160.6058   1.0578462548e+02   3.9226804041e+01     0.314204    0.1176766  67.51 0.0009610708    4.386    0.772
        72 -11.0745    144.2290    159.5035   6.4691325669e+01   2.1291265208e+01     0.288292     0.243696  60.23  0.001136765    1.465    0.317
        73 -10.4730    128.8378    158.7598   6.8484221054e+01   2.4135183810e+01    0.2855163    0.2121723 -84.44  0.001240097    2.083    0.520
        74 -10.7217    106.4104    158.3576   7.4652325563e+01   2.8055695185e+01    0.4777752    0.2798072  57.32  0.001744973    2.526    0.604
        75 -10.8368    188.7679    157.1477   5.4389734440e+01   1.4263084756e+01    0.2902334      0.17894 -51.94  0.001412159    1.723    0.419
        76 -11.3051    168.2898    157.3727   5.8654613882e+01   1.7602429793e+01     0.324727    0.2524886 -61.97  0.001668992    1.565    0.361
        77 -10.4921    157.9712    155.9878   6.0678272543e+01   1.9661657514e+01    0.2258483    0.1875409  86.93 0.0009014463    1.722    0.419
        78 -11.1101    119.6702    155.1975   7.0232391617e+01   2.6560293796e+01    0.3666395    0.2490114 -77.67  0.001477456    2.319    0.569
        79 -10.7667     50.1950    155.1287   9.1798323188e+01   3.6986908245e+01    0.5002748    0.2305657  56.25  0.001648509    3.342    0.701
        80 -11.0383    144.9865    154.4921   6.3454384893e+01   2.2262173706e+01    0.2855878    0.2172835 -64.66  0.001208213    1.618    0.382
        81 -11.5224     69.0583    153.6465   8.5330857337e+01   3.4993294700e+01    0.6070885    0.3216726  52.30  0.002231874    2.445    0.591
        82 -10.1735    205.3149    154.6586   5.0834871947e+01   1.2134888783e+01    0.1268262    0.1013892 -69.38 0.0003547824    1.706    0.414
        83 -11.4958    133.4779    152.5599   6.5958857757e+01   2.4739197848e+01    0.4283637    0.3136729 -86.66  0.001790521    2.232    0.552
        84 -11.9774    189.9572    150.1176   5.2742879459e+01   1.5411221757e+01    0.3430495    0.2865568 -68.98  0.001396353    1.516    0.340
        85 -10.0994    162.4917    150.0561   5.8404221927e+01   2.0112828731e+01    0.2295927    0.1366031 -45.33  0.001035346    1.602    0.376
        86  -9.8157     98.4112    150.2459   7.5381351558e+01   3.1386061250e+01    0.2192588    0.1538683 -67.16 0.0009520891    1.688    0.407
        87 -10.0789     28.9653    149.6770   9.8144571871e+01   4.0614447805e+01    0.3175226     0.164759  74.42  0.001175666    2.838    0.648
        88 -10.7887     81.9123    154.1053   8.1277470035e+01   3.3022211001e+01     0.455889    0.3054949  79.84  0.001680338    2.347    0.574
        89 -10.6043     40.1156    147.7039   9.4066597536e+01   4.0075136040e+01     0.492617    0.2334802  52.35  0.001795393    2.765    0.638
        90 -11.3008     56.4661    145.6227   8.8119104004e+01   3.8765650103e+01    0.6635472    0.3644568  65.77  0.002310301    3.095    0.677
        91 -11.5706    107.7644    145.2563   7.1523939529e+01   3.1017278167e+01    0.6581745    0.4095859  69.38  0.002294563    3.110    0.679
        92 -12.5082    149.0437    143.6723   6.0134731822e+01   2.3884309600e+01    0.7761487    0.4140792 -58.80  0.002978936    2.462    0.594
        93 -11.6986    125.4557    142.7611   6.5958528228e+01   2.8432391839e+01    0.6246805    0.4197509 -85.97  0.002330433    2.879    0.653
        94 -10.9379    165.8831    143.5904   5.6275634612e+01   2.0840453894e+01    0.2939977    0.1899436 -59.84  0.001324162    1.913    0.477
        95 -10.8130     88.2968    143.7012   7.7171715233e+01   3.4682140229e+01    0.3378454    0.2586293  69.88  0.001266622    1.726    0.421
        96 -10.3351    182.1936    141.2029   5.2400837299e+01   1.8432167415e+01    0.1916251    0.1657362 -68.78  0.001081928    1.371    0.271
        97 -10.6054     69.3168    139.5690   8.2593473889e+01   3.8636693263e+01    0.4393694    0.2676967  85.72  0.001557569    2.982    0.665
        98 -10.0013      2.1810    139.9414   1.0613681562e+02   4.5102301632e+01    0.3769515    0.1027597 -85.27  0.001018659    5.222    0.809
        99 -10.5777    172.7480    138.0728   5.3632826578e+01   2.0716047569e+01    0.3330414    0.1902219 -60.12  0.001373029    2.386    0.581
       100  -9.3580     81.3213    139.6312   7.8581737095e+01   3.6822787630e+01    0.1635266    0.1219633  69.13 0.0007036014    1.796    0.443
       101 -10.8305     23.1066    137.2703   9.8522871887e+01   4.4432929872e+01     0.551707     0.280913  72.23   0.00203788    2.995    0.666
       102 -10.3706    198.3085    137.4796   4.8636542503e+01   1.6386773536e+01    0.2566614    0.1091016 -42.97  0.001091522    2.074    0.518
       103 -10.6392    162.4593    135.7509   5.5311438096e+01   2.3064262489e+01    0.2807378    0.1356996 -49.13   0.00106774    2.074    0.518
       104 -10.8286     39.0349    135.3749   9.2505895706e+01   4.3485034597e+01    0.3386297     0.208783 -78.22  0.001474616    1.835    0.455
       105 -10.3433    176.0190    146.0460   5.4658265245e+01   1.8557003137e+01    0.2180248    0.1781281 -82.02  0.001136786    1.705    0.414
       106 -10.6260    179.8797    133.5723   5.1231716595e+01   2.0312652224e+01    0.2902656    0.1760484 -57.32  0.001322635    1.939    0.484
       107 -10.5165    113.3461    133.2770   6.7204045485e+01   3.2867973827e+01    0.3476287    0.2265936  67.06  0.001325675    2.512    0.602
       108 -11.5272    132.3015    130.5378   6.1340629319e+01   2.9903562059e+01    0.7234679    0.3246356 -56.98   0.00244126    2.947    0.661
       109 -11.5114     83.8657    131.2596   7.5930179043e+01   3.8530037166e+01    0.5773463    0.4123497 -84.17  0.001999305    2.019    0.505
       110 -10.8855    143.2369    131.0382   5.8693688365e+01   2.7688920113e+01    0.4234135    0.2670125 -59.13  0.001819653    1.900    0.474
       111  -9.9841    193.4785    130.5007   4.8047028411e+01   1.8488039220e+01      0.13519    0.1204036 -40.02 8.020797e-05    1.016    0.015
       112 -11.0419    168.7659    129.2870   5.2533068218e+01   2.3185743375e+01     0.346792    0.1827964 -56.37  0.001398786    2.330    0.571
       113 -10.8384    153.0965    128.6792   5.5815285932e+01   2.6286308676e+01    0.4973005    0.2575865 -56.54  0.001923962    2.394    0.582
       114 -11.6526     99.1092    127.2809   7.0089755722e+01   3.6886986041e+01    0.6864696    0.4297577 -77.39  0.002488098    2.826    0.646
       115 -10.3216     73.3246    129.0855   7.9031006589e+01   4.0741842773e+01    0.4015641     0.267914  83.05  0.001557066    2.512    0.602
       116 -10.7060     12.4666    127.0743   1.0103374762e+02   4.7911732891e+01     0.786056    0.2905301 -79.41  0.002746134    3.085    0.676
       117 -11.0987    118.6324    125.5925   6.3875963066e+01   3.3640825723e+01    0.5985609    0.3440453  63.90  0.002029057    3.221    0.690
       118 -10.9991     59.6550    123.6337   8.2733559125e+01   4.4108137924e+01    0.7096804    0.4235868  82.09  0.002423783    3.406    0.706
       119 -11.4963     43.8169    121.6046   8.8254468415e+01   4.6605392822e+01    0.9812573    0.5250237  88.34  0.003224423    3.722    0.731
       120 -10.7230    180.4075    124.8051   4.9231252416e+01   2.1888066345e+01    0.2638837     0.219796 -79.64  0.001391122    1.473    0.321
       121 -11.2353     28.3604    121.7451   9.4219070707e+01   4.8118440889e+01    0.8062177    0.3980946  70.99  0.002575247    4.153    0.759
       122 -10.5759    158.8682    121.0560   5.2768675878e+01   2.6712754287e+01    0.3490652    0.1870235 -63.06  0.001248225    3.092    0.677
       123 -10.0931    172.8527    121.0368   4.9863067221e+01   2.4017818968e+01    0.2401394    0.1584864 -66.69  0.001085147    2.067    0.516
       124 -11.3029    141.9736    118.9412   5.6147774711e+01   3.0489084975e+01    0.4910989    0.3011449 -65.78   0.00195239    2.415    0.586
       125 -10.3902     71.2319    119.7127   7.7660630826e+01   4.3421326679e+01    0.3498623    0.2381575  84.47  0.001383025    2.463    0.594
       126 -10.9518    131.0782    118.4446   5.8762168597e+01   3.2772851326e+01    0.3661918    0.2526839 -71.81  0.001396716    2.108    0.526
       127 -10.7182      2.6257    115.4699   1.0328414876e+02   5.1504493519e+01    0.7165263    0.2820076  88.01  0.002393339    3.843    0.740
       128 -11.1216    109.6829    114.3670   6.3690354968e+01   3.7899035655e+01    0.6126282    0.3617288 -67.51  0.002249074    2.707    0.631
       129 -10.2025    186.1749    116.1553   4.6282379467e+01   2.2422667476e+01    0.1924438    0.1563473 -67.64  0.001080775    1.363    0.266
       130 -11.2356     92.7698    111.8684   6.8329446061e+01   4.1668015150e+01    0.6670945    0.3970906 -66.06  0.002570843    2.388    0.581
       131 -10.9724     79.0544    112.0195   7.3027557196e+01   4.4042313323e+01    0.5998741    0.4001433 -87.11  0.002287343    2.728    0.633
       132 -10.4038    122.4383    112.4534   5.9570500355e+01   3.5789439651e+01    0.3354897    0.2383907  86.97  0.001372195    2.361    0.576
       133 -10.3052    159.4702    111.5012   5.0403679657e+01   2.8465794341e+01    0.2652682    0.1276086 -52.72  0.001031891    2.335    0.572
       134 -11.1234     66.8634    110.5247   7.7070241780e+01   4.6357279918e+01    0.4640652    0.3238985 -86.31  0.001948867    2.231    0.552
       135 -10.9403     14.1607    109.5926   9.7859320789e+01   5.2378637987e+01    0.4813195    0.2854546 -83.54  0.002114701    1.939    0.484
       136  -9.9093    174.7336    111.1764   4.7274718553e+01   2.5508921228e+01    0.2301385    0.1672252 -59.75  0.001054947    1.485    0.326
       137  -9.9461     59.3813    109.1411   7.9565272429e+01   4.7796731636e+01    0.2144157    0.1468083 -69.95 0.0009481483    1.781    0.439
       138 -10.0564    189.5191    108.0205   4.3929188052e+01   2.3250920850e+01     0.196657    0.1032385 -59.67 0.0008100911    2.532    0.605
       139 -10.4143    140.6067    105.0423   5.3053750699e+01   3.3587629418e+01    0.3808086    0.2629238  79.41  0.001628113    2.240    0.554
       140 -11.8585     45.6485    102.0163   8.3330609407e+01   5.1365177775e+01    0.8890043    0.5208732  69.72  0.003091896    3.648    0.726
       141 -11.7402     22.3819    100.3615   9.2785302470e+01   5.4136438502e+01     1.054337    0.5618156  89.43   0.00396923    3.161    0.684
       142 -10.9647    150.6891    103.0688   5.0258744615e+01   3.1875938863e+01    0.4276505    0.1840232 -53.02  0.001525488    2.837    0.647
       143 -10.0772    133.7143    109.5677   5.5880405224e+01   3.4099937390e+01    0.2617981    0.1886897 -67.34  0.001018239    1.775    0.437
       144 -11.1663    128.8464    101.5008   5.5050991205e+01   3.6746678451e+01    0.4700493     0.277853 -54.78  0.001991597    1.939    0.484
       145 -10.2139      6.8396    102.5365   9.9785663632e+01   5.4620970107e+01    0.2726696    0.1756622  84.51  0.001251875    1.917    0.478
       146 -11.5051    110.5733     99.6549   5.9566118652e+01   4.0905094007e+01    0.8048065    0.4655329  67.62  0.002720963    3.401    0.706
       147 -10.5090     95.2052     96.8483   6.3522303785e+01   4.4559756622e+01    0.3419584    0.2498106 -72.49  0.001265665    1.940    0.485
       148 -11.3947     63.9533     95.2651   7.4255114664e+01   5.0429935113e+01    0.6964825    0.4674671 -82.21  0.002774841    2.608    0.617
       149 -10.2062     82.3129     99.8737   6.8707741844e+01   4.6300128354e+01    0.3605297    0.2669296  87.49  0.001552192    2.188    0.543
       150 -10.0786    139.0737     91.8783   5.0037814727e+01   3.6438075825e+01    0.3174438    0.2178977 -82.91  0.001361354    2.290    0.563
       151 -10.8799    125.4507     91.0892   5.3151833880e+01   3.9507308518e+01    0.4376051    0.3009127  86.55   0.00181965    2.416    0.586
       152 -10.3095     43.9422     92.0613   8.1608915367e+01   5.3980076928e+01    0.2470853    0.1605309 -20.97  0.001128266    1.696    0.410
       153 -11.0773      4.8867     90.5484   9.8689160171e+01   5.7727282224e+01    0.4481108    0.2672282 -89.13  0.002112408    2.124    0.529
       154 -11.1292     34.7521     87.9126   8.4586059301e+01   5.6024787677e+01    0.7421399    0.3078397 -63.42  0.002773887    2.753    0.637
       155 -11.0313     87.0444     86.6382   6.3314369737e+01   4.8282980058e+01    0.4722287    0.3320421  83.48  0.001885788    2.675    0.626
       156 -11.2394     48.7132     83.7208   7.7318805567e+01   5.5289910155e+01    0.6639141    0.4450133 -83.06  0.002793044    2.666    0.625
       157 -11.1295    105.1797     83.2359   5.6532441729e+01   4.5314086507e+01     0.504465    0.3547231 -82.77  0.002121594    2.436    0.589
       158 -10.1977     57.9957     91.9967   7.5733435714e+01   5.2087090859e+01     0.215717    0.2018207   6.73            0    1.060    0.057
       159 -11.7106     24.8535     77.6264   8.6580067978e+01   5.9417697320e+01     0.945767    0.3092683 -55.93  0.003568363    2.689    0.628
       160 -10.3788     74.9647     80.5503   6.5791565624e+01   5.1786939956e+01    0.2778791    0.2171298 -66.89  0.001367417    1.691    0.409
       161 -10.4011      9.7741     80.9765   9.4613471610e+01   5.9783053106e+01    0.3912602    0.1769901  34.18  0.001693201    2.512    0.602
       162  -9.6052    150.5157     80.5100   4.4608311806e+01   3.5984476838e+01    0.1397935    0.1299684 -84.29  0.000149596    1.059    0.056
       163 -10.0039    141.0117     83.0230   4.7270838925e+01   3.7620211913e+01    0.2353785    0.1741423 -80.16  0.001104279    1.759    0.432
       164 -10.3950    128.4468     75.6492   4.8144860482e+01   4.1663462288e+01    0.3147404    0.2224146 -75.01  0.001460069    1.968    0.492
       165  -9.7214    140.6873     75.3580   4.5298587862e+01   3.9006092511e+01     0.147005    0.1072765 -77.02  0.000704339    1.742    0.426
       166 -10.1787      9.9872     74.6190   9.3143340272e+01   6.1268169127e+01    0.1876317     0.156371 -13.20 0.0006061452    1.115    0.103
       167 -11.0284     82.7440     72.7351   6.0545888242e+01   5.1868566613e+01    0.4203307    0.3162715 -76.56  0.001964886    2.085    0.520
       168 -11.1480     62.6704     70.3306   6.7357090218e+01   5.5997682174e+01    0.7343964    0.1117081 -45.17  0.001771944    6.459    0.845
       169 -10.2783     42.5570     71.8155   7.6575053993e+01   5.8724273688e+01    0.3292355    0.1403482 -55.22  0.001288802    2.587    0.613
       170 -10.1443    106.1159     71.8934   5.2879582325e+01   4.7205267565e+01    0.2259305    0.1998412  84.74  0.001081813    1.319    0.242
       171 -10.3317     95.3753     70.9887   5.5813525805e+01   4.9641979118e+01    0.3650697    0.2460409 -67.33  0.001590296    2.313    0.568
       172 -10.4433      5.8579     70.7726   9.4368749079e+01   6.2402670695e+01    0.3078097    0.1769542 -87.74  0.001379905    2.659    0.624
       173 -11.0568     51.2748     68.0265   7.1444653301e+01   5.8280535272e+01     0.650544    0.2842677 -58.54  0.002308673    3.493    0.714
       174 -10.3377     16.6176     69.2747   8.8510302526e+01   6.2021844423e+01    0.3240189     0.226542 -73.44  0.001703667    1.793    0.442
       175 -10.2282     17.7036     62.8346   8.6206167915e+01   6.3353581898e+01    0.3889427    0.1119508 -48.81  0.001477464    2.782    0.641
       176  -9.7152    139.3138     66.6457   4.3228720879e+01   4.0726725068e+01     0.144893    0.1044362 -76.26 0.0007045254    1.736    0.424
       177  -9.7369    121.8425     66.2424   4.7040975973e+01   4.4704666838e+01    0.2396251    0.1528705 -80.64 0.0009515468    2.828    0.646
       178 -10.5946     37.5015     63.5402   7.6368360103e+01   6.1107728173e+01    0.3875398    0.2604974 -61.85  0.001719783    1.925    0.480
       179 -10.0718    110.7501     63.9064   4.9162890496e+01   4.7550028312e+01    0.2760403    0.1882953  79.79  0.001237101    2.136    0.532
       180 -10.2725    100.9915     60.4878   5.0795985636e+01   5.0243373930e+01     0.353034    0.2245266 -62.89  0.001541052    2.384    0.581
       181 -10.7606     73.4202     58.5177   5.9180141588e+01   5.6248724130e+01    0.4865996    0.2806223 -50.10  0.002201413    2.144    0.534
       182 -10.2361     25.0106     57.9091   8.0873248482e+01   6.3705750396e+01    0.3800372    0.1790385 -50.15  0.001744062    2.026    0.506
       183 -11.7021      7.5940     54.7094   8.9434032434e+01   6.5856713375e+01    0.6819522    0.2001361 -58.48  0.002665647    3.021    0.669
       184  -9.9644    119.8081     56.0298   4.4498906243e+01   4.6753448974e+01    0.2330175    0.1553611 -68.37  0.001082528    2.090    0.521
       185  -9.9738     44.8742     43.7285   6.5716000184e+01   6.3766420542e+01     0.319064    0.1842752 -50.11  0.001540468    2.209    0.547
       186 -10.2691     44.2368     54.6262   7.0099854475e+01   6.1931848019e+01    0.3539239    0.2130469 -55.67  0.001674912    2.181    0.541
       187 -11.2147     45.3162     49.1259   6.7574402153e+01   6.2768568780e+01     0.268963    0.2203325 -16.33 0.0003368854    1.173    0.148
       188 -10.8046     62.8950     52.9310   6.1276249969e+01   5.9167434007e+01    0.5793031    0.1783183 -44.20  0.002005375    3.642    0.725
       189 -10.6190     53.9189     52.7676   6.5005305021e+01   6.0752493959e+01    0.4645832    0.2055621 -52.73  0.001774847    3.279    0.695
       190  -9.5320    106.3831     53.2325   4.6984444656e+01   5.0186331606e+01    0.1909972    0.1276928 -49.09 0.0006783378    1.728    0.421
       191 -10.4169     20.2199     51.4925   8.1375156039e+01   6.5488438965e+01    0.3486256    0.2238116 -63.41  0.001800466    2.029    0.507
       192 -10.8083     31.0387     49.9895   7.5019883829e+01   6.4586933841e+01    0.5407371    0.2444364 -56.80  0.002232178    2.988    0.665
       193 -10.6797     92.4216     49.6730   4.9746303761e+01   5.3780062700e+01    0.4364521    0.2382015 -48.24   0.00195499    2.272    0.560
       194 -10.1752     82.0147     46.3182   5.1848503448e+01   5.6484489978e+01    0.2886519    0.1915706 -44.48  0.001335055    1.767    0.434
       195  -8.9470     23.6438     46.6760   7.7820196721e+01   6.6074507846e+01    0.1441811   0.08587563 -15.58 0.0007045636    1.768    0.434
       196 -10.4630     16.8177     43.4272   8.0543062528e+01   6.7392659427e+01     0.403777    0.1765237 -57.04  0.001783364    2.706    0.630
       197 -10.3703     58.1230     41.6185   5.8966151596e+01   6.1864788308e+01    0.3232484    0.1903444 -48.87   0.00155164    2.241    0.554
       198 -11.2114      5.1769     40.5262   8.6558464171e+01   6.8915914160e+01    0.5022898    0.2244308 -64.79  0.002219619    2.990    0.666
       199 -10.5918     69.3323     40.7887   5.4232355696e+01   5.9867630570e+01    0.3449527    0.2277323 -55.05  0.001659537    2.231    0.552
       200  -9.2475    113.8251     41.3659   4.1375757365e+01   5.0162545629e+01    0.1865664    0.1088523  49.09 0.0002135709    1.552    0.356
       201  -9.8438    105.9935     40.9991   4.3125488462e+01   5.1989494890e+01    0.2311845    0.1292498 -56.14  0.001007202    2.553    0.608
       202 -10.2087     36.8267     39.4756   6.8000250311e+01   6.5689322713e+01    0.2960932    0.1792277 -46.22  0.001539865    1.912    0.477
       203  -9.8157     95.7045     37.7566   4.4709387320e+01   5.4716940810e+01    0.2541882    0.1496662 -55.17  0.001060633    2.415    0.586
       204  -9.4029    112.5186     46.5184   4.3305358517e+01   4.9769814591e+01    0.1368027    0.1231558  62.52 0.0004341427    1.042    0.040
       205  -9.4431    237.5168    229.4445   5.8469905572e+01  -4.2586182734e+00    0.1176011   0.08336867 -15.64 0.0001131711    1.033    0.032
       206  -9.8950    111.9832     34.2622   3.9534934094e+01   5.1473248469e+01    0.2651293    0.1460827 -58.26  0.001169159    2.616    0.618
       207 -10.3422     60.6395     31.1732   5.3738129518e+01   6.2899499850e+01    0.3676204    0.1272718 -30.22  0.001381827    3.632    0.725
       208 -10.7152     85.1857    227.3979   9.1460044401e+01   1.4702991182e+01    0.2092939    0.1090305  36.63 0.0009491798    1.712    0.416
       209 -11.0861    162.3169    225.1228   7.2418495982e+01   5.0153461374e+00    0.4079227    0.2600558   1.79  0.002098599    1.623    0.384
       210 -10.1199     81.8268     27.0032   4.4774171310e+01   5.9077038546e+01    0.2880785    0.1557843 -54.14  0.001243454    3.058    0.673
       211 -10.7996      3.5977     25.5313   8.2120262545e+01   7.1821971889e+01    0.3200177    0.1082441 -53.07  0.001405163    3.011    0.668
       212  -9.7191     91.5189     25.5548   4.1520033697e+01   5.7113226015e+01    0.2203095    0.1118903 -43.27  0.001032882    2.408    0.585
       213  -9.4592    101.5003     28.9858   4.0214047331e+01   5.4482065439e+01    0.1776713    0.1021861 -56.93 0.0008098445    2.491    0.599
       214 -10.1677     63.1524     19.8788   4.8047994638e+01   6.3793692651e+01    0.2165625    0.1484133 -36.41  0.001221592    1.758    0.431
       215 -10.0026     72.1609     30.6833   4.9296926882e+01   6.0671462437e+01    0.2401403    0.1470181 -46.58  0.001207836    2.138    0.532
       216 -10.3941     99.1007    225.2644   8.7643826725e+01   1.3385239132e+01    0.3142308    0.2232657   8.38  0.001049438    1.437    0.304
