#   1 NUMBER                 Running object number                                     
#   2 MAG_AUTO               Kron-like elliptical aperture magnitude                    [mag]
#   3 X_IMAGE                Object position along x                                    [pixel]
#   4 Y_IMAGE                Object position along y                                    [pixel]
#   5 X_WORLD                Barycenter position along world x axis                     [deg]
#   6 Y_WORLD                Barycenter position along world y axis                     [deg]
#   7 A_WORLD                Profile RMS along major axis (world units)                 [deg]
#   8 B_WORLD                Profile RMS along minor axis (world units)                 [deg]
#   9 THETA_WORLD            Position angle (CCW/world-x)                               [deg]
#  10 FWHM_WORLD             FWHM assuming a gaussian core                              [deg]
#  11 ELONGATION             A_IMAGE/B_IMAGE                                           
#  12 ELLIPTICITY            1 - B_IMAGE/A_IMAGE                                       
         1 -14.4307    159.2817     52.3768   8.1095265501e+01   3.8986826892e+01     1.712265     1.381944  -2.89  0.005564963    1.481    0.325
         2 -14.2930    171.3257     36.9869   7.4030523443e+01   3.8036108505e+01    0.9842067    0.9691512 -72.19  0.003461095    1.066    0.062
         3 -12.1647    189.8920     14.7041   6.4749273879e+01   3.5824761358e+01    0.3600585    0.2388802 -46.58  0.001019351    1.509    0.337
         4 -14.0113    187.9139      5.0379   6.2239345718e+01   3.7308843762e+01     1.041384    0.6692591  69.12  0.004054747    1.387    0.279
         5 -10.3995    176.5122    187.9990   1.1149043280e+02   9.5608167259e+00    0.1977742    0.1386484 -42.80 0.0006464741    1.581    0.368
         6 -19.0882     69.8490    240.7764   1.3956769615e+02   1.7747653489e+01     6.553497     5.278856  71.82    0.0473506    1.134    0.118
         7 -10.8618    184.2249    186.8586   1.0971386146e+02   8.2850071023e+00    0.2070216    0.1873187  58.81 0.0006670736    1.229    0.187
         8 -13.4494    193.8677    193.5111   1.0902368458e+02   5.3651477449e+00    0.9657083    0.5580743 -53.64  0.002825532    2.409    0.585
         9 -10.7705    175.1007    194.0452   1.1286063137e+02   8.7790967553e+00    0.2086353    0.1651528  77.38 0.0006425061    1.723    0.420
        10 -12.5718     38.3718    183.6162   1.4097039630e+02   3.2899045550e+01    0.2363057    0.1800175  83.73 0.0005932996    1.055    0.053
        11 -12.8004    206.5143    180.0475   1.0402018469e+02   5.1738257408e+00    0.8131129    0.4014866  32.68   0.00288958    2.144    0.534
        12 -12.7180    196.5733    172.2703   1.0441167796e+02   8.3925201292e+00    0.8541942     0.457362 -52.54  0.002890617    2.505    0.601
        13 -19.1856     52.4358     99.7434   1.2564802825e+02   5.0671781922e+01     17.75773    0.9841433 -60.34    0.0271231   16.547    0.940
        14 -12.1910    142.3690    166.3613   1.1483658957e+02   2.0371931682e+01    0.3405569    0.2650433 -83.63  0.001361612    1.574    0.365
        15 -12.8942    137.8719    198.2593   1.2129409281e+02   1.4896420317e+01    0.6861904    0.3600331  63.23  0.002780495    2.766    0.638
        16 -11.4045    122.3998    165.9808   1.1939503309e+02   2.4275276351e+01    0.3356594    0.1808633  54.87 0.0006464747    1.963    0.491
        17 -10.9345    223.9599    164.4025   9.7579482752e+01   4.3702687395e+00    0.2414497    0.1852078 -47.44 0.0005280874    1.527    0.345
        18 -11.0142     17.6998    180.5593   1.4505814878e+02   3.5678403274e+01    0.1254413    0.1010918  57.24 0.0008261207    1.262    0.208
        19  -9.8079     25.7553    165.4028   1.4212376223e+02   3.8199271742e+01    0.1983609    0.1052449  37.54  0.001119135    1.963    0.490
        20 -11.5835    113.3381    160.1507   1.2051250050e+02   2.7211233674e+01    0.2924041    0.1978124  51.84 0.0009601013    1.420    0.296
        21 -11.1565    237.2306    159.4077   9.4182601986e+01   2.6565908188e+00    0.1810202     0.128933  54.23 0.0009511831    1.697    0.411
        22 -11.9412     25.1475    156.7891   1.4147665288e+02   4.0182756025e+01    0.4783681    0.2208733  46.98  0.002534455    2.084    0.520
        23 -11.1193    140.1435    156.5569   1.1343553464e+02   2.2867230722e+01    0.2385182    0.2077342 -58.38 0.0002889725    1.198    0.165
        24 -11.8587    162.3774    154.1730   1.0785425468e+02   1.8782842888e+01    0.3412051    0.2912724  68.09  0.001441835    1.276    0.216
        25 -13.2808    134.0847    145.5015   1.1260211279e+02   2.6469523708e+01     1.265395     0.348895 -54.76  0.003328033    4.918    0.797
        26  -9.8526      9.9758    152.5278   1.4462641459e+02   4.2456131622e+01    0.1425477    0.1127229  37.39 0.0004416859    1.514    0.340
        27 -10.8774    180.0750    192.3040   1.1154471061e+02   8.1421694530e+00    0.2276037    0.2025151 -58.30 0.0005516973    1.349    0.259
        28  -9.5865     17.0039    151.4885   1.4290020149e+02   4.2108533774e+01    0.1452633   0.09653588 -25.50 0.0008104515    2.572    0.611
        29 -11.0432    174.4563    148.6240   1.0399567418e+02   1.7313845426e+01    0.3537281     0.257694 -71.49  0.001245823    1.911    0.477
        30 -12.5440    144.6799    145.9690   1.1016055450e+02   2.4192385848e+01    0.4851191    0.3549985  82.01  0.002183436    1.846    0.458
        31 -11.9428    208.5884    197.2009   1.0687482143e+02   2.1119732700e+00    0.4170681    0.2622308  62.48  0.001530233    2.651    0.623
        32 -11.8398      7.3515    120.0533   1.4228224766e+02   4.9985143852e+01    0.2214658    0.1830181 -15.19  0.001390764    1.659    0.397
        33 -13.1475      2.9198    126.1179   1.4406066848e+02   4.8896669915e+01     1.051616    0.2707016 -79.43  0.004005186    3.540    0.718
        34 -10.1319    171.2523    137.4654   1.0215969252e+02   2.0216623856e+01    0.2106097    0.1453227  59.05 0.0008330364    1.596    0.373
        35 -12.3141    106.0336    130.8588   1.1662381481e+02   3.5207757187e+01    0.4348052    0.3503298 -68.94  0.001276033    1.249    0.200
        36 -11.4607    107.9949    125.4866   1.1491673061e+02   3.6084466891e+01    0.2887464    0.2689734  11.53 0.0006083326    1.239    0.193
        37 -12.4994      5.8704    112.1234   1.4182711010e+02   5.1888373296e+01    0.5042861    0.2926966   3.53  0.001894229    2.586    0.613
        38 -12.3668    119.0805    129.3851   1.1285319764e+02   3.3064584702e+01    0.4572021    0.3693708 -53.92  0.001137866    1.231    0.188
        39 -12.9762    125.0187    127.1497   1.1079832251e+02   3.2379390558e+01    0.7614257    0.4746161  76.40  0.002821253    2.749    0.636
        40 -11.3659    160.7302    127.8940   1.0224762348e+02   2.4508299973e+01    0.3752032    0.2596575 -48.03  0.001696098    1.485    0.326
        41 -12.3483    135.4318    122.3942   1.0700158659e+02   3.1256903881e+01    0.7220861    0.2159928 -49.41  0.002117718    3.533    0.717
        42 -11.2471    113.5005    118.5818   1.1182113954e+02   3.6612010073e+01    0.2942187    0.2521465  76.34 0.0005104435    1.261    0.207
        43 -10.6417    117.5775    115.9176   1.1006975079e+02   3.6406695902e+01    0.3067779    0.1918935  61.08 0.0008169901    1.957    0.489
        44 -11.0692     12.3106    116.0459   1.4046530900e+02   5.0565118277e+01    0.1720235     0.129276 -77.21 0.0006224933    1.050    0.048
        45 -11.2164    134.5660    105.2372   1.0281260816e+02   3.5156125164e+01    0.4791694     0.150141 -45.79  0.001445014    3.202    0.688
        46 -12.1484     93.2054    110.1848   1.1551331554e+02   4.2288346830e+01    0.4063744    0.2405159 -43.35  0.001210665    1.731    0.422
        47 -12.2073     84.6948    110.3435   1.1805015885e+02   4.3678538055e+01    0.2666077    0.2480489 -62.21 0.0009584135    1.017    0.016
        48 -10.7823    205.5061    110.1650   8.8501674768e+01   1.7564554981e+01    0.3259973    0.2157531  43.40 0.0009755716    1.575    0.365
        49 -11.7626    167.3166    191.5972   1.1402569171e+02   1.0673357934e+01    0.3679954    0.2346549  31.52  0.001615279    1.587    0.370
        50 -11.1873     25.2698    108.9757   1.3576142666e+02   5.1215184935e+01    0.1777752      0.13916 -69.20 0.0004419958    1.048    0.046
        51 -11.3375    167.6127    113.1239   9.6972030176e+01   2.5922556793e+01    0.4433013    0.3153847  71.74  0.001350067    1.769    0.435
        52 -11.4047     31.3335    207.2284   1.4420759160e+02   2.8789198164e+01     0.240658    0.1781386   6.09   0.00147564    2.667    0.625
        53  -9.9782    124.2779     81.4011   9.8679808840e+01   4.2376697010e+01     0.209738     0.147095  57.63 0.0008234131    1.549    0.354
        54 -10.9303     92.9754     79.1649   1.0718087713e+02   4.9210982817e+01    0.2351318      0.20349 -45.19 0.0003955914    1.109    0.098
        55 -10.1761    147.4637     79.4947   9.2185275657e+01   3.7332900675e+01    0.1535635    0.1525447  54.79 6.335317e-05    1.004    0.004
        56 -11.8175      5.7302    222.0075   1.4962550110e+02   2.8552277697e+01    0.1492311   0.08788389 -60.65 0.0009970305    2.209    0.547
        57 -10.7528     13.3689    245.5425   1.4938756795e+02   2.3587418202e+01    0.1965596   0.07256655 -73.84  0.001168423    2.566    0.610
        58  -9.9492    179.1510    206.1453   1.1412242858e+02   6.0171508248e+00    0.1673654    0.1462348  59.32   0.00102302    1.284    0.221
        59 -13.2792    175.3907     29.1609   7.0973241519e+01   3.7961210271e+01    0.5707147    0.4540235  27.83  0.001586631    1.485    0.327
        60 -10.8628     13.5128     59.3907   1.3060690568e+02   6.3190323008e+01    0.2278701    0.1718042 -54.38 0.0007347727    1.047    0.045
        61 -10.5642    129.9761     28.2463   7.9052079907e+01   4.9733729744e+01    0.2981933    0.1910048  74.26  0.001216715    1.836    0.455
        62 -11.7370    168.7599    234.3231   1.2042722144e+02   3.4774063563e+00    0.2427902    0.2196887 -62.99  0.001694581    1.425    0.298
