#   1 NUMBER                 Running object number                                     
#   2 MAG_AUTO               Kron-like elliptical aperture magnitude                    [mag]
#   3 X_IMAGE                Object position along x                                    [pixel]
#   4 Y_IMAGE                Object position along y                                    [pixel]
#   5 X_WORLD                Barycenter position along world x axis                     [deg]
#   6 Y_WORLD                Barycenter position along world y axis                     [deg]
#   7 A_WORLD                Profile RMS along major axis (world units)                 [deg]
#   8 B_WORLD                Profile RMS along minor axis (world units)                 [deg]
#   9 THETA_WORLD            Position angle (CCW/world-x)                               [deg]
#  10 FWHM_WORLD             FWHM assuming a gaussian core                              [deg]
#  11 ELONGATION             A_IMAGE/B_IMAGE                                           
#  12 ELLIPTICITY            1 - B_IMAGE/A_IMAGE                                       
         1 -12.3902     39.9338     32.3091   7.7234097127e+01   6.5891022003e+01    0.3344459    0.2608151 -16.64 0.0004050144    1.117    0.105
         2 -10.7085     14.4198      8.7906   7.9693451045e+01   7.2333486025e+01    0.2932114     0.155386  14.25  0.001004278    1.786    0.440
         3 -11.4938     13.0050     15.5628   8.3774113254e+01   7.1501222425e+01    0.3471394    0.2597962   4.49  0.002456484    1.174    0.148
         4 -10.6927     13.8751     21.3288   8.5857517013e+01   7.0531013996e+01    0.4753091    0.2710257  36.08   0.00273947    2.273    0.560
         5  -8.9321     20.0416     17.8028   8.0864260701e+01   7.0464200859e+01    0.4476602    0.1769738 -35.98  0.001740707    2.276    0.561
         6 -11.3195     75.3334     21.7363   5.8588567511e+01   6.1437461765e+01    0.3986871    0.3362213  81.63  0.002018837    1.759    0.432
         7 -11.8206    234.9057     15.0575   3.0518428148e+01   2.6413065311e+01    0.2406791    0.1734769 -68.07 0.0003344686    1.115    0.103
         8 -11.9480     83.3983     15.2716   5.3417373090e+01   6.0510695184e+01    0.4265278    0.2374999  23.08 0.0007277093    2.103    0.524
         9 -10.8810    202.4666     16.1209   3.3462472773e+01   3.3141113748e+01    0.2148575    0.1545152  82.35 0.0005481772    1.228    0.186
        10 -10.9669    171.9670     11.7430   3.5618889453e+01   4.0534141932e+01    0.2111509    0.1662598 -54.92 0.0002169879    1.284    0.221
        11 -11.5738     34.8477     12.5915   7.0710894693e+01   6.9348057121e+01    0.3214289    0.2463632   0.45 0.0006821891    1.056    0.053
        12 -10.2132     28.0759      1.8629   6.8584761260e+01   7.1540644100e+01    0.2041458    0.1722594 -29.95   0.00082525    1.633    0.388
        13 -11.8299     30.7524      7.4499   7.0155592443e+01   7.0537051283e+01    0.5498806    0.2431372  31.36  0.002904834    2.030    0.508
        14 -10.1586     40.5254      7.5537   6.5553422777e+01   6.9104772009e+01    0.2195376    0.1334907  22.85 3.729692e-05    1.439    0.305
        15 -10.1699     37.6889      6.3602   6.6250848622e+01   6.9666436524e+01    0.1848306     0.151389 -21.11 0.0006090564    1.398    0.285
        16 -11.5399    207.9235     13.3338   3.2340732810e+01   3.2244500593e+01    0.2048572    0.1716077 -37.46  0.000612546    1.371    0.271
        17 -10.2364    134.6118     11.2238   4.0651829582e+01   4.9386792326e+01    0.2203202    0.1345322  60.90 0.0006977717    1.380    0.275
        18 -10.7876    129.4431     11.0254   4.1459620373e+01   5.0619567317e+01    0.3288084    0.1817714  38.12  0.001550401    1.989    0.497
        19 -10.6961    126.0122     11.0057   4.2055651953e+01   5.1424288166e+01    0.3708535    0.2155575 -62.25  0.001442478    2.408    0.585
        20 -10.7404    117.0494      8.9250   4.3023454596e+01   5.3686016010e+01     0.434769    0.2513156  87.38  0.002053082    2.349    0.574
        21  -9.9003     45.8594     10.1071   6.4461726184e+01   6.7986154346e+01     0.170316    0.1498274  14.82 0.0004540093    1.237    0.191
        22 -10.9151     22.4901      9.2132   7.5370131389e+01   7.1377710411e+01    0.3119132    0.1750137   8.75  0.001624653    1.791    0.442
        23  -9.7824      3.7465     10.5835   8.6982033133e+01   7.3049342552e+01    0.1416715    0.1072084 -20.12 0.0002365996    1.111    0.100
        24 -10.4473      2.3530      6.9032   8.6096198211e+01   7.3705536653e+01    0.2309968    0.1573087 -12.41 0.0008907355    1.109    0.098
        25 -10.5921     56.6427      8.2915   5.9243972063e+01   6.6353015041e+01    0.2258011    0.1527354 -30.68 0.0008126334    1.695    0.410
        26 -11.1240     57.9612      2.3358   5.5944339254e+01   6.6673979528e+01     0.322582    0.2604242  20.85  0.001384229    1.053    0.051
        27 -11.5240    218.0410      7.4418   3.0246412335e+01   3.0699356249e+01    0.2168875    0.1621209 -72.65 0.0007714033    1.090    0.083
        28 -10.1622    165.4893      7.4879   3.5271177180e+01   4.2450158988e+01    0.1256523    0.1063451  79.89 0.0008103659    1.023    0.022
        29  -9.4288     97.9661      7.0937   4.6396045575e+01   5.8145574406e+01    0.1503642    0.1262738  46.60 0.0004297335    1.010    0.010
        30 -11.1047    150.7141      5.6050   3.6605766767e+01   4.6086239652e+01     0.254587    0.1836324 -68.74 0.0007266419    1.471    0.320
        31 -10.0113     70.6801      6.1759   5.3424338553e+01   6.3925328929e+01    0.2124429       0.1596  39.12  0.001354421    1.098    0.089
        32 -10.3257    104.3902      3.8008   4.3756773769e+01   5.6984546396e+01    0.2029523    0.1913493 -13.54  0.001059053    1.241    0.194
        33  -9.7574     74.9685      3.7798   5.1070894073e+01   6.3278737232e+01    0.2007648    0.1303793  34.28  0.000826966    1.322    0.243
        34 -10.8532     21.1124      2.1041   7.2407356926e+01   7.2422695460e+01    0.3418308    0.1548771  28.37  0.001589164    1.975    0.494
        35  -9.4432    176.6506      2.6944   3.2824175916e+01   4.0300935368e+01     0.123522   0.08167075  48.34 0.0007042065    1.703    0.413
        36 -10.8609     80.1983      1.6104   4.8668954919e+01   6.2385033401e+01    0.2612833    0.1314983  53.50  0.001376716    1.628    0.386
        37  -9.4294      1.0000      1.8583   8.4429367070e+01   7.4533293534e+01    0.1620845   0.05222312 -43.16 0.0007882708    2.845    0.649
        38  -9.1702     86.8581      1.3930   4.6844959890e+01   6.1004237563e+01     0.179988   0.08824886  48.47 0.0009266213    1.619    0.382
        39  -9.9694     11.0631      1.2744   7.7768449589e+01   7.3672178219e+01    0.1378516   0.08249738  29.37 0.0003405267    1.702    0.413
        40 -10.6071     21.6190    198.2245   1.1700638604e+02   2.9484383605e+01    0.1804782   0.09750168 -65.80 0.0009499911    1.715    0.417
        41 -10.8723     28.1990    250.5393   1.1921373193e+02   1.7606161250e+01    0.3294574   0.08563885  34.33  0.001432933    3.144    0.682
        42 -11.9822     18.1420    248.8184   1.2100595777e+02   1.8991913347e+01    0.2992522    0.2425494 -44.83  0.002130538    1.825    0.452
        43 -12.0196      3.4763    248.2574   1.2366200113e+02   2.0530561285e+01    0.6957409    0.3270262  42.55  0.004270446    1.743    0.426
        44 -12.0649      4.0751    232.7887   1.2283203112e+02   2.3558419366e+01    0.4029225    0.2088673  58.84  0.002436932    1.575    0.365
        45 -12.3270     10.7023    244.9592   1.2218908817e+02   2.0487636396e+01     0.384984    0.2617888  73.47  0.002688695    1.172    0.147
        46 -12.6170      5.1109    240.8484   1.2302578880e+02   2.1834019364e+01    0.5714118    0.3160549  38.72  0.003637068    1.661    0.398
        47  -9.8956      5.8875    192.0984   1.2011742279e+02   3.2300187288e+01    0.1937232    0.1373708  73.60 0.0009384333    1.207    0.171
        48  -9.0239      7.3256    188.2742   1.1952779529e+02   3.3072458405e+01    0.1144888   0.08562856 -49.07 0.0003163329    1.583    0.368
        49  -9.2620     22.0504    179.7951   1.1534239498e+02   3.3819054728e+01    0.1544373   0.09975229  31.18 0.0005434488    1.683    0.406
        50  -9.4650    226.3623    163.8767   6.3235669469e+01   4.7746888521e+00     0.198809    0.1111817 -30.16 0.0009329145    1.703    0.413
        51 -10.5266      4.3308    158.7313   1.1795405161e+02   4.0383632826e+01    0.2275019    0.1679147 -77.90 0.0006846375    1.115    0.103
        52  -9.3282    247.3203    155.3232   5.8001023580e+01   2.9127051375e+00    0.1325951   0.09142276 -10.35 0.0005944805    1.675    0.403
        53 -11.2898      6.0908    153.3731   1.1701229851e+02   4.1577536327e+01    0.5710278    0.1928006  15.03  0.002251342    4.054    0.753
        54  -9.5538     27.4587    147.1203   1.1036874813e+02   4.1462808053e+01    0.2018845    0.1168555 -70.21 0.0004777368    1.497    0.332
        55 -10.4393     12.7040    147.0444   1.1456976509e+02   4.2678279773e+01    0.1880879    0.1426639 -72.31 0.0004002943    1.104    0.094
        56  -9.7281    236.4177    138.8335   5.6351335257e+01   7.5114868974e+00    0.1924488    0.1125767 -29.67 0.0005539843    1.658    0.397
        57  -9.3581     24.5093    138.9884   1.1018200721e+02   4.3778021454e+01    0.2030123   0.07714054 -49.75 0.0008094612    2.453    0.592
        58 -10.8574      4.1839    134.6042   1.1568177279e+02   4.6340123099e+01     0.175335    0.1582438 -62.49 0.0007599588    1.136    0.120
        59 -10.0972    212.4960    133.9365   5.9325306683e+01   1.2707230388e+01    0.2354744    0.2017596  77.26 0.0005872095    1.473    0.321
        60  -9.6587     95.9960    134.0114   8.7322208931e+01   3.5848926190e+01    0.1898489    0.1768315 -49.50 0.0005983002    1.040    0.039
        61 -10.9145     12.2384    129.4640   1.1267495248e+02   4.7103649797e+01    0.2586431    0.1576125 -70.20  0.001386695    1.362    0.266
        62 -10.6635     28.4715    128.1854   1.0742275882e+02   4.6173523062e+01    0.2023048     0.190751  10.99 0.0003004565    1.223    0.182
        63 -10.7740     24.2524    122.0340   1.0783666672e+02   4.8076187660e+01     0.218806    0.1956627  36.80 0.0003666596    1.283    0.220
        64 -10.7368     17.9933    121.9534   1.0985530745e+02   4.8576220756e+01     0.195029    0.1659537 -61.14 0.0003188864    1.029    0.029
        65 -11.3708      9.9259    120.8067   1.1228765437e+02   4.9407044861e+01    0.3937876    0.1813438 -73.45  0.001832486    1.882    0.469
        66 -10.6681     69.0435    117.0252   9.1955441665e+01   4.4336421415e+01     0.223124    0.2047862 -41.13            0    1.021    0.021
        67 -10.5496      1.7921    113.8122   1.1400525511e+02   5.1589800887e+01     0.234295    0.1509504 -68.42 0.0007593685    1.249    0.199
        68 -11.7826      2.2490    108.9985   1.1322866804e+02   5.2737774326e+01    0.4762793    0.3066338  -4.96  0.002717811    1.912    0.477
        69 -11.0317     13.5791    109.2357   1.0942252507e+02   5.2027290208e+01    0.2477912    0.1147104 -72.83 0.0007237085    1.983    0.496
        70 -10.5869     45.3124    110.8087   9.8677592625e+01   4.8883662790e+01     0.231715    0.2167913 -20.43 0.0004339572    1.109    0.098
        71 -10.2660     64.7530    109.6814   9.1695304835e+01   4.6741058723e+01    0.2398295    0.1803556  22.77 0.0006091144    1.433    0.302
        72 -11.2378     55.6934    108.5695   9.4568650806e+01   4.8211518946e+01     0.385301    0.2350098  -2.25  0.001637096    2.359    0.576
        73 -10.2392     22.4501    109.4797   1.0640027420e+02   5.1339889368e+01    0.1342319    0.1144233 -59.37 3.721274e-05    1.021    0.021
        74 -10.5126      1.4153    104.2834   1.1286859832e+02   5.3919080800e+01    0.2501478   0.09162335 -65.32 0.0008678207    2.041    0.510
        75  -9.6723    246.6828    101.6773   4.7092713925e+01   1.2000524211e+01    0.1232289   0.09816452  -7.35 0.0004287572    1.667    0.400
        76  -9.6674     91.8665     99.8882   8.0084933804e+01   4.4699053268e+01    0.1878008    0.1758802  85.85 0.0009982944    1.244    0.196
        77 -12.1049    125.3834     93.4150   6.8248198297e+01   3.9375705349e+01    0.3350421     0.288601  75.82 9.399798e-05    1.369    0.270
        78 -11.8674      7.7121     91.3096   1.0858102556e+02   5.6690968370e+01    0.3596208    0.2407869  35.39 0.0004642644    1.810    0.448
        79 -12.2090     20.4777     92.9631   1.0406665693e+02   5.5483822756e+01    0.3813017    0.2366415 -33.02 0.0005650247    1.579    0.367
        80 -11.4228     66.0660     90.6430   8.6349539528e+01   5.1023333340e+01     0.555223    0.3158574 -64.41  0.001103311    2.298    0.565
        81 -11.2619     57.8641     91.7218   8.9642456450e+01   5.1926874539e+01    0.2966918     0.216359 -24.32 0.0007215142    1.425    0.298
        82 -10.1208     29.0537     92.0156   1.0060334330e+02   5.5022763339e+01    0.2374159    0.1801915  14.28 0.0007462808    1.461    0.315
        83 -10.4302     43.0434     88.8280   9.4482489095e+01   5.4395136667e+01    0.2474263    0.2112268 -73.35 0.0005993454    1.348    0.258
        84 -11.8073     12.1025     87.5271   1.0621229325e+02   5.7325049238e+01    0.4881848    0.2525522  87.45  0.001857112    3.354    0.702
        85 -11.3887      7.0589     84.9362   1.0768380010e+02   5.8216308502e+01    0.3115418    0.1704198 -48.51  0.001032762    1.457    0.314
        86 -10.5000      3.8214     95.5990   1.1073200830e+02   5.5879157125e+01     0.337544    0.1170324 -54.73  0.001509677    2.082    0.520
        87  -9.9291     55.0615     85.5062   8.9007295163e+01   5.3705310458e+01    0.2108212    0.1725029 -46.06 0.0005367945    1.149    0.130
        88  -9.2309     18.7018     86.3246   1.0339622873e+02   5.7170744545e+01    0.1224371    0.0977155  74.04 0.0001844101    1.628    0.386
        89  -9.5437     76.5406     82.9880   8.0378853105e+01   5.1060775913e+01    0.2111368    0.1371269 -44.42  0.000406254    1.484    0.326
        90  -9.3421     69.5192     83.4453   8.3033434183e+01   5.2090831193e+01     0.144499    0.1314513 -17.32 -2.68627e-05    1.007    0.007
        91  -9.1183     78.9533     94.0000   8.2741917654e+01   4.8256573264e+01    0.2258414   0.08405733  35.45 0.0004433139    2.773    0.639
        92  -9.8924     88.9928     80.3015   7.5279968405e+01   4.9430095979e+01     0.315423    0.2216641  77.26  0.001291603    2.674    0.626
        93 -10.8589     48.0264     79.0593   8.9930054276e+01   5.6019245331e+01    0.2500263    0.1992908   3.26 0.0003266487    1.283    0.220
        94 -11.8625     54.9448     75.2091   8.6076560669e+01   5.5964227880e+01     0.413437     0.282532 -13.13            0    1.649    0.394
        95  -9.2064    141.6969     79.7181   6.0132979062e+01   3.8359509374e+01    0.1479659    0.1169854  16.40 0.0002257596    1.553    0.356
        96  -8.7149    124.4684     79.4058   6.4373024962e+01   4.2318517198e+01    0.1476791    0.1432025  59.56  0.000144441    1.072    0.067
        97  -9.6562     80.4754     79.3364   7.7880659074e+01   5.1155603212e+01    0.1897081    0.1396105 -55.12 0.0009271998    1.538    0.350
        98  -9.5956     31.1932     79.1230   9.6720201068e+01   5.7801751654e+01    0.1576828     0.153677  38.15 0.0005568179    1.258    0.205
        99  -9.6754     22.3527     77.1038   9.9851707248e+01   5.9007528218e+01    0.2794272     0.118644 -62.18 0.0006243719    2.207    0.547
       100  -9.9852    176.6484     76.8735   5.2057649315e+01   3.0735068787e+01    0.2486374     0.198018  48.82  0.001207225    1.308    0.236
       101  -9.2149    159.3814     77.2916   5.5526168081e+01   3.4680281674e+01    0.1529309    0.1138316  23.38            0    1.748    0.428
       102 -11.1218      6.8299     76.2516   1.0608049817e+02   6.0215572670e+01    0.3348565    0.1863432  48.30  0.001670504    2.621    0.618
       103  -9.1705     60.6842     76.7435   8.4318470920e+01   5.4841495317e+01    0.1404687    0.1009127 -11.81 0.0001886293    1.533    0.348
       104 -11.1880     15.4455     75.6785   1.0238585863e+02   5.9827482898e+01    0.3386131    0.2228444 -11.73   0.00192478    1.621    0.383
       105 -11.3156     34.9849     73.0987   9.3556267867e+01   5.8765926809e+01    0.5335615     0.338555  19.08  0.001074223    1.678    0.404
       106 -10.0285    198.2659     72.1073   4.7244539947e+01   2.6603329244e+01    0.1881856    0.1771771 -37.31 0.0003339302    1.155    0.134
       107 -12.6349    105.8767     70.9422   6.6974676706e+01   4.7899702276e+01    0.3092697    0.2935534  79.00 0.0005278482    1.219    0.180
       108 -10.2784     41.9048     74.8099   9.1182779561e+01   5.7658792610e+01    0.3045135    0.1869816  26.74    0.0015595    1.723    0.420
       109  -9.8588     93.3324     72.1781   7.1273652375e+01   5.0203693956e+01    0.3248414    0.1685396  60.17  0.001098224    3.537    0.717
       110 -10.5608     81.2758     68.8228   7.4226585500e+01   5.3098377981e+01    0.3710043    0.2725781 -60.30  0.001823523    1.799    0.444
       111 -10.4076     45.5523     69.5275   8.8127942346e+01   5.8357164899e+01    0.2760297    0.2265921 -14.91  0.001171821    1.121    0.108
       112 -10.3302     10.2122     70.1836   1.0334149320e+02   6.1379336181e+01    0.1562726    0.1418135 -79.02  0.000528511    1.324    0.245
       113 -10.7318      3.1268     67.0192   1.0569276527e+02   6.2455171542e+01    0.3465084    0.1830406  32.85  0.001848595    2.355    0.575
       114 -10.1836     51.3412     66.4069   8.4777071413e+01   5.8265181264e+01    0.2859984    0.1755423 -22.58 0.0007913286    1.791    0.442
       115 -11.2131     15.2037     63.3912   9.9483988927e+01   6.2531713877e+01    0.4506368    0.3174061 -42.78  0.002032627    1.145    0.126
       116 -12.7931     20.8404     57.8631   9.5387637938e+01   6.3264002934e+01    0.3673241    0.2625455 -27.70 0.0007516432    1.199    0.166
       117  -9.4482    167.9646     65.5516   5.0625833167e+01   3.4612177324e+01    0.2077983    0.1363025  59.85 -2.423718e-05    1.495    0.331
       118 -11.7123     96.9435     63.9689   6.7412126223e+01   5.0989266152e+01    0.3179225    0.2467034  31.61  0.000296777    1.249    0.199
       119 -10.3726     62.5147     61.8267   7.8791349846e+01   5.7561586279e+01    0.3105304    0.2114273 -41.76  0.001624592    1.439    0.305
       120 -10.3437     38.9156     61.2141   8.8336011121e+01   6.0833106866e+01     0.319881    0.1776295 -20.95  0.001488516    2.102    0.524
       121  -9.2858     92.7110     61.2959   6.7849880780e+01   5.2304572523e+01     0.132114    0.1159123 -87.21 0.0002034023    1.552    0.356
       122  -9.0526     54.7033     61.2966   8.1722356595e+01   5.8814382552e+01    0.1206468    0.1104011  75.94 0.0003406895    1.568    0.362
       123 -10.4540     10.5752     58.8402   1.0038620667e+02   6.3797296897e+01    0.2807875    0.1796709 -40.46 0.0008779216    1.245    0.197
       124 -10.2683      7.0491     56.2387   1.0133669747e+02   6.4551063780e+01    0.2215298    0.1576592   2.11 0.0008259078    1.471    0.320
       125  -9.6767     85.3048     58.9623   6.9484693117e+01   5.4148016757e+01    0.2130448    0.1739089  -2.18 0.0002675759    1.247    0.198
       126 -11.5027     87.9427     53.3102   6.6610489397e+01   5.4589078758e+01    0.5722115    0.3747008  -2.17  0.002624982    2.066    0.516
       127  -9.4687    109.5300     58.0446   6.1685492898e+01   4.9343636412e+01    0.1961814    0.1414084 -33.16 -3.247256e-05    1.447    0.309
       128 -10.1573     71.6787     56.5446   7.3453567589e+01   5.7035887520e+01    0.2256565    0.1900179 -31.21 0.0006616245    1.193    0.162
       129 -10.1936     32.6457     56.1358   8.9469507666e+01   6.2521676633e+01    0.2594358    0.1476308 -27.90 0.0009427524    1.712    0.416
       130 -10.5957     99.6357     56.2388   6.3954848058e+01   5.1745450893e+01     0.210431    0.1761924  32.81 0.0005357639    1.120    0.107
       131  -9.9487     96.4108     55.8144   6.4793519865e+01   5.2481538724e+01    0.2014914    0.1783591  -9.10 0.0003680767    1.124    0.110
       132  -9.0994    156.6605     54.3015   4.9595238923e+01   3.9007732622e+01     0.146324    0.1060729 -76.58 0.0005727044    1.669    0.401
       133 -10.8543    114.4488     53.1319   5.8703391005e+01   4.9032760102e+01    0.2877608     0.250983  -7.05 0.0006270392    1.218    0.179
       134 -11.6975     66.7784     52.7609   7.3931508650e+01   5.8522810891e+01    0.4338542    0.2095546  33.64  0.001510798    2.055    0.513
       135  -9.8715    149.2978     52.1054   5.0378993240e+01   4.1081057823e+01    0.2473589    0.1769784  50.07 0.0006329474    1.346    0.257
       136 -11.2884    105.9923     50.5274   6.0131535717e+01   5.1289753807e+01    0.2707669    0.2024446 -25.48  0.001422996    1.421    0.296
       137  -9.0772     78.4875     52.4282   6.9508820050e+01   5.6530554155e+01    0.1396267    0.1224848  10.07 0.0001974863    1.025    0.025
       138 -10.1339     37.6943     49.0184   8.4751073230e+01   6.3323258184e+01     0.265387    0.1738518  14.35  0.001481954    1.521    0.343
       139  -9.7122     35.5401     52.4958   8.6945473680e+01   6.2917014643e+01    0.2145098    0.1791863 -59.88 0.0007991272    1.541    0.351
       140  -9.4469     32.5866     51.1189   8.7821158674e+01   6.3500058065e+01    0.1782664    0.1117102 -42.68 0.0002200318    1.424    0.298
       141 -10.7412    120.2028     49.1414   5.5903724772e+01   4.8328682392e+01    0.4552194      0.27198 -66.23  0.001766372    3.095    0.677
       142 -10.9383      9.8678     48.0928   9.7696616064e+01   6.6033990726e+01    0.3213401    0.2104234  -8.43  0.001965499    1.485    0.326
       143 -10.0261     52.6626     48.3292   7.7951046148e+01   6.1485100049e+01    0.2895167    0.1540284  25.99   0.00138666    1.919    0.479
       144 -10.5310    136.8296     47.0046   5.1394797536e+01   4.4764362580e+01     0.288472    0.1944951  64.72 0.0007475677    1.473    0.321
       145  -9.8899     79.0796     45.8200   6.6860397743e+01   5.7479945821e+01    0.1864804    0.1796353  38.09   0.00032443    1.236    0.191
       146 -11.0349     18.4985     44.4102   9.2258587514e+01   6.6108126165e+01    0.4121409    0.2459636  24.71  0.002379991    1.792    0.442
       147  -9.2584     36.4940     45.4611   8.4008453216e+01   6.4111055396e+01    0.1304283    0.1052749 -13.81 0.0002626354    1.028    0.027
       148  -9.3960    152.3901     44.5885   4.7591286624e+01   4.1392914224e+01    0.1355767    0.1251238  83.85 7.711854e-05    1.046    0.044
       149 -10.3539     25.6559     43.5786   8.8458151576e+01   6.5616321718e+01    0.2621798    0.1688082 -59.34  0.001393102    2.007    0.502
       150 -10.1930      2.7636     43.5115   9.9883785624e+01   6.7359741383e+01    0.3308277    0.1314312 -31.27  0.001597528    2.286    0.562
       151  -9.7705     69.1336     41.9354   6.8953826009e+01   5.9886231478e+01    0.1816105    0.1738409  11.58            0    1.228    0.186
       152 -10.4903     59.4800     41.7829   7.2634402844e+01   6.1533358822e+01     0.270495    0.1761952  44.61 0.0009377776    1.727    0.421
       153  -9.9492    170.2823     40.1034   4.3333780160e+01   3.7719987330e+01    0.3815425    0.2253964 -85.55  0.001711772    2.216    0.549
       154 -10.3310     36.0282     41.3302   8.2673290012e+01   6.4895526738e+01    0.3827152    0.1483456 -40.33  0.001632804    2.338    0.572
       155  -9.8486    229.9078    247.7718   7.8014741250e+01  -9.0810224516e+00    0.1600809    0.1242713   4.83 0.0004661951    1.082    0.076
       156  -9.7835    139.1079     40.3899   4.8879915685e+01   4.5114340675e+01    0.1959836    0.1600973  65.39 0.0004990697    1.150    0.130
       157 -10.5425    128.2491     38.8195   5.0654450816e+01   4.7878778019e+01    0.2772337    0.1950982 -47.75  0.001000037    1.606    0.377
       158  -9.5298     99.4583     40.4434   5.8428165715e+01   5.4152015175e+01    0.1379925    0.1225153  30.06 0.0001683388    1.012    0.012
       159 -10.2147     34.9431     28.9327   7.8166733129e+01   6.7059276978e+01    0.1856123    0.1330419  -7.57  0.001146247    1.227    0.185
       160  -9.0604    204.7169     39.7117   3.8641968663e+01   2.9840529838e+01    0.1155122   0.09890583  36.97 0.0001889307    1.528    0.345
       161  -9.4425    151.7153     39.3140   4.6176945410e+01   4.2246614994e+01     0.137362    0.1004191 -71.04 0.0003343541    1.579    0.367
       162 -11.7324    121.2406     37.1342   5.1672598208e+01   4.9723905260e+01    0.3926603    0.3659532 -33.18  0.001595411    1.177    0.151
       163  -9.5259     50.5912     38.7890   7.5135736582e+01   6.3377721500e+01    0.1742863    0.1178406 -45.48 0.0006182605    1.734    0.423
       164 -10.6067     22.0871     38.2650   8.8286155528e+01   6.6920097584e+01    0.2060409    0.1532245 -35.91 0.0008040269    1.202    0.168
       165  -9.3252    239.2067     37.3830   3.4633634492e+01   2.2882610077e+01    0.1572638    0.1007774 -89.70 0.0006699801    1.545    0.353
       166  -9.8427    133.3912     34.9162   4.8323488427e+01   4.7159051008e+01     0.167104    0.1282045   1.37 0.0003033194    1.631    0.387
       167 -10.1188     91.9231     33.2282   5.7955540441e+01   5.6699870359e+01    0.4065357    0.2403669   9.10  0.001786699    2.513    0.602
       168  -9.7799     89.2329     30.4244   5.7688742538e+01   5.7611451826e+01    0.2399364     0.127198  61.85  0.001046221    2.377    0.579
       169 -10.5368     27.2910     34.3361   8.4163749171e+01   6.7079039299e+01    0.3173952    0.1999626  -9.76  0.001149781    1.556    0.357
       170  -9.8306      7.2122     34.3920   9.4626208798e+01   6.8818986581e+01    0.1819562    0.1248509 -49.00 0.0007985437    1.388    0.279
       171 -10.4914      2.7161     34.5447   9.7095793843e+01   6.9073178819e+01    0.2851598    0.2144974  69.66  0.001700294    2.586    0.613
       172 -11.3886     49.1804     33.1035   7.3416405203e+01   6.4467226562e+01    0.3484626    0.1843716  31.45  0.001784908    1.785    0.440
       173  -9.1401    241.7248     33.2866   3.3594364960e+01   2.2902602438e+01    0.1209803   0.07156384 -63.98 0.0002808791    1.511    0.338
       174  -9.7679     55.2580     33.1371   7.0858387457e+01   6.3526493130e+01    0.1880149    0.1437685  -1.87 0.0003488089    1.198    0.165
       175 -10.2597    144.0936     31.1257   4.5111284341e+01   4.5070703575e+01    0.2170389     0.187983 -58.57 0.0007647531    1.237    0.191
       176 -10.3961     73.0527     31.9626   6.3568415612e+01   6.0605881915e+01    0.2018226    0.1695696  19.37 0.0004069745    1.022    0.022
       177 -10.0659     69.6443     27.8208   6.3082229903e+01   6.1779504391e+01    0.3371505    0.2257082 -58.72  0.001614826    2.818    0.645
       178 -10.1169     17.7575     32.2805   8.8239487448e+01   6.8367550920e+01    0.3079043    0.1301755  10.13  0.001127319    2.944    0.660
       179 -11.4658     10.2645     29.7885   9.1295373465e+01   6.9421838653e+01    0.3187472    0.1861703  30.71  0.001887311    2.031    0.508
       180  -9.6215    151.1744     29.7552   4.3484013694e+01   4.3540106306e+01    0.1751416    0.1430087  43.58 0.0006642375    1.280    0.219
       181  -9.9862    126.9169     30.4628   4.8225830295e+01   4.9214319874e+01    0.2045418    0.1216256  59.86 0.0003725274    1.517    0.341
       182  -9.6891    147.3491     27.8611   4.3569655990e+01   4.4669918716e+01    0.3168521    0.1252109 -29.57  0.001307519    2.774    0.639
       183  -9.6892    135.7108     29.2886   4.6095916724e+01   4.7277097059e+01    0.1795114    0.1410403  38.72 0.0006062259    1.308    0.235
       184  -9.6367    140.1405     27.1501   4.4613588010e+01   4.6467365389e+01    0.1883076    0.1498283 -84.09 0.0008310355    1.368    0.269
       185  -9.0296    123.6604     27.7237   4.8009079009e+01   5.0288951730e+01    0.1402034   0.09107845  36.37 0.0002806466    1.616    0.381
       186  -9.8405    114.0341     26.4885   4.9709640018e+01   5.2648708544e+01    0.1920895     0.172666 -16.65 0.0005252392    1.230    0.187
       187 -10.2568     46.9955     26.8022   7.1676976803e+01   6.5710617980e+01    0.2047127    0.1627714 -42.17  0.001273863    1.617    0.382
       188  -9.9501     43.0959     26.7140   7.3382132598e+01   6.6293129356e+01    0.2031926    0.1555477 -31.05 0.0006605131    1.370    0.270
       189  -9.4213     59.7552     25.8385   6.5951688135e+01   6.3792887575e+01    0.1564661    0.1482361  41.41 0.0004668423    1.397    0.284
       190 -10.2452    225.0342    247.2342   7.8819477806e+01  -8.4116328547e+00    0.2116068    0.1467153 -22.13  0.001377749    1.312    0.238
       191  -9.9923    107.0000    247.9628   1.0297058397e+02   8.1005861117e+00    0.1884176   0.07330517 -59.20 0.0008105232    2.999    0.667
       192  -9.5435    170.6027    247.1734   8.9457134011e+01  -1.0547932010e+00    0.1668202    0.1106444 -27.01 0.0009374067    1.663    0.399
       193  -9.6077    116.1302    246.7956   1.0088866460e+02   7.0004309783e+00    0.1638086    0.1434811   3.49 0.0008749979    1.288    0.224
       194 -10.2830    229.3787     21.5100   3.2245101103e+01   2.6799643585e+01    0.3062955    0.1550686 -74.96  0.001583515    2.094    0.522
       195  -9.8180     33.7945    247.2030   1.1793428121e+02   1.7651623277e+01    0.1373926    0.1293408  59.14 0.0003354543    1.294    0.227
       196 -11.3290      2.7213     21.1360   9.2182175189e+01   7.1442990533e+01    0.3768057     0.238679  -2.70   0.00226251    1.419    0.295
       197  -9.2584     97.1965     21.8595   5.2175692404e+01   5.6908319587e+01     0.174726    0.1301554  32.09  0.001002849    1.256    0.204
       198  -9.3569    100.8143     21.2190   5.1002731786e+01   5.6185577933e+01    0.2478986    0.1302891  40.39  0.001190586    1.779    0.438
       199 -10.7510     54.8131     21.9989   6.6243288563e+01   6.5117974994e+01    0.2292533    0.1506521  31.04 0.0005255407    1.337    0.252
       200  -9.4617    180.9928     21.4934   3.7032873474e+01   3.7422738629e+01     0.187061   0.08295771  49.18  0.000810382    2.564    0.610
       201  -9.5161    165.1340     20.8498   3.8883440987e+01   4.1207644519e+01    0.1718474    0.1445082  44.56 0.0006273894    1.323    0.244
       202  -9.9151    132.0474     20.9465   4.4153010880e+01   4.9051369231e+01    0.1993915    0.1746688  55.71 0.0005095318    1.041    0.039
       203  -9.5392     92.5358     21.4539   5.3276965833e+01   5.7954254572e+01     0.133799    0.1100062  33.64 3.540654e-05    1.066    0.062
       204 -10.0611     45.3896     20.9204   6.9760465774e+01   6.6751981912e+01    0.1899157    0.1503386  28.59 0.0005375858    1.250    0.200
       205 -10.0003     30.2762     21.2736   7.7085938481e+01   6.8782639745e+01    0.2097614    0.1255306  16.93  0.001215989    1.561    0.360
       206  -9.6706    214.6648     20.3054   3.3258136008e+01   3.0022290183e+01    0.1307424   0.07530976 -67.66 0.0005108928    1.668    0.401
       207 -10.4052     38.7988     19.3511   7.2047534966e+01   6.7922636422e+01    0.2503565    0.2197693  47.78  0.001639716    1.717    0.418
       208  -9.5731    120.7577     19.3946   4.5831591639e+01   5.1852539108e+01    0.1862122    0.1033586  51.77 0.0002496744    1.545    0.353
       209  -9.5938     61.5452     18.5067   6.2058366989e+01   6.4381354621e+01     0.186637    0.1006964  35.64 0.0005792467    1.633    0.388
       210  -9.0210     86.3495    245.2691   1.0705915574e+02   1.1507486297e+01    0.1171108   0.09569551   1.88 0.0005008482    1.623    0.384
       211  -9.7962     13.8428    192.7122   1.1835863850e+02   3.1482343204e+01    0.1722768    0.1155956  63.65 0.0006492845    1.352    0.260
       212  -9.5420     89.5101     13.4472   5.0972955497e+01   5.9409083763e+01    0.1837926    0.1482733  44.16 0.0006649671    1.059    0.056
       213  -9.8290     26.8986     16.7231   7.6701873081e+01   6.9839830064e+01     0.165135     0.121446  12.18 0.0006190657    1.163    0.140
       214  -9.3872     39.6433    243.3275   1.1652338553e+02   1.7769342951e+01    0.1327498   0.06798472  60.52 0.0007044765    1.779    0.438
       215  -9.8117    168.7649     14.9263   3.6833010903e+01   4.0966460677e+01    0.1823222    0.1551835  62.19 0.0003114367    1.170    0.146
       216  -9.2832    202.3123    240.3212   8.2014663719e+01  -4.4526186519e+00    0.1303347   0.08315627  -1.99 0.0004903494    1.652    0.395
       217  -9.9456     35.9596    240.2926   1.1704702362e+02   1.8796137480e+01    0.1688591    0.1308084  53.58 0.0005491626    1.110    0.099
       218  -9.7782      1.3229    191.5968   1.2110348776e+02   3.2780401470e+01    0.2221339   0.09337764 -85.97 0.0008333875    2.110    0.526
       219  -9.6176    118.6770    239.3585   9.9413017555e+01   8.0179068432e+00    0.1359576    0.0925977  62.38 0.0007044211    1.772    0.436
       220  -9.7487     90.9766    237.0569   1.0518779807e+02   1.2487286656e+01    0.1845051    0.1515956 -23.44  0.001029055    1.615    0.381
       221 -11.1086     25.1008    236.1349   1.1893402912e+02   2.0817130057e+01    0.2114885    0.1310271  46.73 0.0005363955    1.378    0.274
       222  -9.6610    249.3189    233.6026   7.2225589831e+01  -9.4684068537e+00    0.1481896   0.09284297  13.74 0.0006110246    1.446    0.309
       223  -9.5025      7.5997     14.1405   8.6287048413e+01   7.2196528580e+01    0.1553992   0.07853945 -30.06  0.000383446    1.655    0.396
       224  -9.5630    248.6301     13.1698   2.9199188479e+01   2.3938991743e+01     0.137466   0.09873797 -33.39 0.0003682388    1.615    0.381
       225  -9.8070     72.8369     13.1159   5.5756975135e+01   6.2848083606e+01    0.2118407    0.1241592  25.28  0.001115055    1.736    0.424
       226 -11.6115     10.4822    231.5113   1.2153384171e+02   2.3226934010e+01     0.270741    0.1283839  47.12 0.0009350243    1.741    0.426
       227 -11.7798      2.9017    225.8739   1.2271320121e+02   2.5096627181e+01    0.5130757    0.1269319  45.05  0.002329077    2.904    0.656
       228  -9.8880     56.9988    229.9720   1.1185590423e+02   1.8467688415e+01    0.1513374    0.1285006  68.09  0.000409297    1.029    0.028
       229  -9.4928     47.7903    229.8385   1.1381497971e+02   1.9610532014e+01    0.1713467    0.1164798  61.97  0.001017177    1.303    0.233
       230 -11.7533      9.3977    227.8049   1.2154434998e+02   2.4100795882e+01    0.2676371    0.2416582 -47.96   0.00173299    1.534    0.348
       231  -9.7023    209.4949    229.5258   7.8821436459e+01  -3.7835012557e+00    0.1287189    0.1036821   1.15 1.095082e-05    1.010    0.010
       232  -8.9041    205.3264    229.7090   7.9665287288e+01  -3.2301554657e+00      0.11212    0.1004468  49.30 0.0002248269    1.617    0.382
       233 -10.9929    140.2932    228.1774   9.3100976962e+01   6.8516618101e+00    0.2941026    0.2467678 -78.98   0.00144619    1.553    0.356
       234  -9.0910    167.3242    221.6904   8.6149253573e+01   3.8163904001e+00    0.1289023     0.105526  61.27 0.0007037836    1.653    0.395
       235  -8.9579    114.3142    221.3665   9.7987277034e+01   1.2250159167e+01    0.1383494    0.1042203 -14.27 0.0007038488    1.769    0.435
       236 -10.5904      2.6945    220.2068   1.2246215239e+02   2.6312788512e+01    0.2131521    0.1205743  89.15  0.001283438    1.503    0.335
       237  -9.5009     99.4423     14.4411   4.8813876686e+01   5.7165625019e+01    0.1292686    0.1094708  43.69 7.136994e-05    1.002    0.002
       238  -9.6518     77.0000     16.9157   5.6038474971e+01   6.1637952017e+01    0.2268815    0.1489678 -17.52  0.001100198    1.639    0.390
       239  -9.6984    233.2398    218.9918   7.2531690012e+01  -5.3816436135e+00    0.1746037     0.133915 -13.90 0.0004095839    1.070    0.065
       240 -10.7947      8.2593    218.2260   1.2123507110e+02   2.6243301542e+01    0.2208757    0.1877772 -65.47  0.001207846    1.388    0.279
       241  -9.9365    223.1998    226.8262   7.5749339356e+01  -5.2346119357e+00    0.1756727    0.1210012  -5.37 0.0003854338    1.327    0.247
       242  -8.8747     85.7089    215.3106   1.0382981407e+02   1.7814355545e+01    0.1389107    0.0945874  64.93  0.000244874    1.585    0.369
       243  -9.6248    145.7191     17.0351   4.0632666597e+01   4.6207088968e+01    0.1644268    0.1601764 -89.28 0.0003241068    1.131    0.116
       244  -9.9227     15.8233    213.1762   1.1935587565e+02   2.6646965923e+01    0.1915235    0.1327681  66.36 0.0009890052    1.222    0.182
       245  -9.7332    205.5151    212.4882   7.6616886195e+01  -4.5015014570e-01    0.1337057    0.1121117  -2.40  0.000122462    1.002    0.002
       246  -9.4811     20.5584    209.7768   1.1810881907e+02   2.6949786224e+01    0.1675366   0.09760214  83.44 0.0004131621    1.582    0.368
       247  -9.7120    123.9451    205.9146   9.3430893509e+01   1.3988775922e+01    0.1928599    0.1732832   7.20            0    1.167    0.143
       248  -9.1820     10.6894    203.7020   1.1983099248e+02   2.9236000052e+01    0.1121273    0.0853766 -51.16 0.0006107891    1.599    0.374
       249  -9.4257    193.5054    202.4798   7.7209328718e+01   3.1524250347e+00    0.1377101    0.1209716  -1.61 0.0003019201    1.019    0.018
       250 -11.0615      4.0434    200.7808   1.2108083617e+02   3.0466309313e+01    0.3269297     0.105775 -59.72  0.001425951    2.998    0.666
