#   1 NUMBER                 Running object number                                     
#   2 MAG_AUTO               Kron-like elliptical aperture magnitude                    [mag]
#   3 X_IMAGE                Object position along x                                    [pixel]
#   4 Y_IMAGE                Object position along y                                    [pixel]
#   5 X_WORLD                Barycenter position along world x axis                     [deg]
#   6 Y_WORLD                Barycenter position along world y axis                     [deg]
#   7 A_WORLD                Profile RMS along major axis (world units)                 [deg]
#   8 B_WORLD                Profile RMS along minor axis (world units)                 [deg]
#   9 THETA_WORLD            Position angle (CCW/world-x)                               [deg]
#  10 FWHM_WORLD             FWHM assuming a gaussian core                              [deg]
#  11 ELONGATION             A_IMAGE/B_IMAGE                                           
#  12 ELLIPTICITY            1 - B_IMAGE/A_IMAGE                                       
         1 -14.0203    163.6963     86.1393   8.7329882192e+01   3.2123958042e+01      1.23129    0.7279053 -36.98  0.005165147    1.782    0.439
         2 -13.6579     15.0503      5.7377   1.0803973209e+02   7.0997109692e+01     1.132492    0.5560675   6.19  0.006666663    2.175    0.540
         3 -12.0382      3.9044      2.7710   1.1237903386e+02   7.2280863521e+01    0.5763542    0.2477001  13.73  0.003480175    2.331    0.571
         4 -12.9762      3.2342     11.1200   1.1622641290e+02   7.1183460990e+01    0.9018886    0.2614142 -46.64  0.004515474    2.971    0.663
         5 -12.8310     58.8753    167.8582   1.3340720756e+02   3.3700326214e+01    0.3906493    0.3048522 -51.62  0.001004877    1.380    0.275
         6 -12.9748    168.3956     72.3797   8.2498540606e+01   3.3407680946e+01     3.253869    0.8531049  60.64  0.005154799    5.549    0.820
         7 -17.0979    243.4189    124.0548   8.1546131069e+01   6.4428463981e+00     12.35408     3.683095 -40.19   0.04174808    3.024    0.669
         8 -11.9693    135.1972    121.0759   1.0373166731e+02   3.1592661301e+01    0.8166218    0.2165545 -46.95  0.002086798    3.822    0.738
         9 -12.9446    134.7738    108.3625   1.0053073933e+02   3.4477228600e+01     1.281571    0.2742625 -45.18  0.003183327    4.737    0.789
        10 -12.3263    172.2908    149.8564   1.0154914119e+02   1.6910448686e+01    0.4171087    0.2298128  51.32  0.001629833    1.872    0.466
        11 -11.9031    127.7001    111.2957   1.0320569722e+02   3.5384653199e+01    0.3651061    0.2454175 -39.81 0.0009516127    1.529    0.346
        12 -10.9390    133.8979    145.4657   1.0990893009e+02   2.6284165048e+01     1.067256    0.2158806 -54.05  0.001930762    9.100    0.890
        13 -11.6424    153.8476    109.7321   9.6042272289e+01   2.9817032698e+01     0.315459    0.1976198  53.15  0.001229345    1.614    0.380
        14 -11.9843    112.3100    104.1134   1.0558916566e+02   4.0143330549e+01    0.3671602    0.3111961 -63.07  0.001546805    1.287    0.223
        15 -13.2907    120.2439    101.6927   1.0267844638e+02   3.9043580592e+01    0.7896348    0.4869092 -21.58   0.00303906    2.409    0.585
        16 -12.7361    115.2878    100.6678   1.0379827698e+02   4.0285888063e+01    0.4759191    0.3538426  60.28  0.002224434    1.569    0.363
        17 -10.7912    139.3064    104.5551   9.8316897415e+01   3.4269049481e+01    0.2656448    0.1969163 -18.30 0.0006154712    1.715    0.417
        18 -11.0811    148.6780    103.2857   9.5591164786e+01   3.2371585818e+01    0.2493123    0.2230837 -74.79 0.0005449089    1.219    0.180
        19 -12.5237    144.0322    100.8510   9.6094089406e+01   3.3955249203e+01    0.6012396    0.4571387 -39.50  0.001949426    1.351    0.260
        20 -13.1852    152.5766     94.7603   9.2300377729e+01   3.3170608525e+01    0.7024278    0.5662703  26.24  0.003342621    1.409    0.290
        21 -15.3642     22.0522    187.7228   1.4399500416e+02   3.3283907179e+01     2.410437     1.668462  41.53    0.0155928    1.581    0.368
        22 -12.0708    131.6129     96.9031   9.8234320790e+01   3.7589804016e+01    0.3615384    0.3194054 -64.36 0.0004303173    1.239    0.193
        23 -11.4545    113.9083     95.0144   1.0261917606e+02   4.1758946938e+01    0.2336549    0.2243691   7.85 0.0005937614    1.027    0.026
        24 -12.1730    136.6432     90.5527   9.5110956389e+01   3.7733004926e+01    0.3679168    0.3363572  81.54  0.000829839    1.202    0.168
        25 -12.2270    117.5168     90.2185   1.0021841742e+02   4.1997631630e+01    0.4292216    0.2703813  37.92  0.001607122    1.610    0.379
        26 -14.6643     67.8762    160.2260   1.3002616786e+02   3.4323706967e+01     1.527969     1.119264 -19.10   0.00615161    2.114    0.527
        27 -12.5397    148.4232     85.0228   9.0570347593e+01   3.6040755591e+01      0.33841    0.2819939 -42.63 0.0004801671    1.243    0.196
        28 -12.4386    129.3101     84.8953   9.5411376959e+01   4.0494562363e+01    0.3868049    0.2801907 -57.49  0.001417809    1.625    0.385
        29 -11.8640    169.8626     80.4754   8.4428565548e+01   3.1630772565e+01    0.2823418    0.2706342 -69.84 0.0003739035    1.060    0.057
        30 -10.5792    224.9621     79.9949   7.4410868265e+01   1.8243044822e+01     0.258536    0.1870408  63.39 0.0007314376    1.392    0.282
        31 -11.3888    174.0022    154.2607   1.0215840406e+02   1.5581545159e+01    0.2293735      0.20205  41.87 0.0004696272    1.114    0.102
        32  99.0000    146.1306     30.6169   7.4863234989e+01   4.4965951990e+01     8.855258     6.972795 -58.34   0.04919166    1.492    0.330
        33  -9.6107    191.5040     67.5086   7.6772473601e+01   2.8426085886e+01    0.4188705     0.227587  59.43  0.001639012    1.747    0.428
        34  -8.2433    188.3035     64.6289   7.6583522557e+01   2.9690412048e+01    0.3325623    0.2468109 -51.57  0.001150148    1.380    0.275
        35 -12.2248    212.2133     65.6543   7.2928383825e+01   2.3618933137e+01    0.3356666     0.226313 -77.25  0.001101111    1.701    0.412
        36 -12.5119    156.8600     80.2600   8.7228735904e+01   3.4878858304e+01    0.5469205     0.354054  70.62  0.001653832    1.894    0.472
        37 -10.6069    229.8790     63.9757   7.0012339445e+01   1.9695150284e+01    0.1738041    0.1361092  89.99 0.0003710514    1.232    0.188
        38 -10.3441    229.9937     57.2415   6.8471055948e+01   2.0700458652e+01    0.2053428     0.133162 -82.13  0.001002898    1.689    0.408
        39 -11.3590    202.9121     55.5004   7.1852700085e+01   2.7463063636e+01    0.3988124    0.2101532  40.49  0.001582132    2.650    0.623
        40  -9.8022    227.6442     51.4775   6.7468436448e+01   2.2103018210e+01    0.2037225    0.1270042 -34.96  0.001012028    1.728    0.421
        41 -10.9527    189.9141     51.2472   7.2816265161e+01   3.1327294345e+01    0.2120712    0.1737831 -65.63 0.0004532449    1.232    0.188
        42  -8.9231    224.4169     49.4601   6.7418740236e+01   2.3153678318e+01    0.1371309     0.118765 -79.39  0.000803362    1.012    0.012
        43 -10.8001    210.2719     39.2921   6.6874861309e+01   2.7964277985e+01    0.1681462    0.1324289 -72.85 0.0006787709    1.190    0.160
        44 -10.9472     93.8331     27.8289   8.6638180837e+01   5.6946922912e+01    0.1973539    0.1549309  21.14 0.0004926616    1.149    0.129
        45 -10.9872    191.5168    192.3432   1.0633302974e+02   4.1266909948e+00    0.5847739    0.2983114 -64.33  0.001675987    5.393    0.815
        46 -13.0575     69.0105    145.2935   1.2724252321e+02   3.7776565125e+01     1.549559    0.6966134  51.53  0.005812804    2.717    0.632
        47 -11.1296    135.8684    128.8934   1.0550355478e+02   2.9682740259e+01    0.4488096    0.1707873 -47.75  0.001464044    2.653    0.623
