#   1 NUMBER                 Running object number                                     
#   2 MAG_AUTO               Kron-like elliptical aperture magnitude                    [mag]
#   3 X_IMAGE                Object position along x                                    [pixel]
#   4 Y_IMAGE                Object position along y                                    [pixel]
#   5 X_WORLD                Barycenter position along world x axis                     [deg]
#   6 Y_WORLD                Barycenter position along world y axis                     [deg]
#   7 A_WORLD                Profile RMS along major axis (world units)                 [deg]
#   8 B_WORLD                Profile RMS along minor axis (world units)                 [deg]
#   9 THETA_WORLD            Position angle (CCW/world-x)                               [deg]
#  10 FWHM_WORLD             FWHM assuming a gaussian core                              [deg]
#  11 ELONGATION             A_IMAGE/B_IMAGE                                           
#  12 ELLIPTICITY            1 - B_IMAGE/A_IMAGE                                       
         1 -14.9436    203.0475     78.5942   5.5632909453e+01   2.3726504498e+01     8.076041     5.556515  62.81   0.03910331    1.550    0.355
         2 -14.8152    231.7417     36.1822   4.1264444310e+01   2.3422486512e+01     3.724879     2.082436 -31.33   0.01876131    1.794    0.443
         3 -14.1337    245.5997     52.2637   4.3536163274e+01   1.8238929105e+01     2.378414    0.8437175  57.17  0.008639012    3.026    0.669
         4 -14.3418    249.9952     32.4476   3.8718790129e+01   1.9969448317e+01     3.666068    0.2899545 -35.97  0.009756467    5.398    0.815
         5 -13.7510    236.2331     83.0002   5.1803267035e+01   1.5588400254e+01     3.401247     1.587918 -49.70 0.0005024354    2.132    0.531
         6  -9.3800    157.7442      7.0890   4.2146241629e+01   4.4434590272e+01    0.2614387    0.2294126  67.92 0.0008753158    1.033    0.032
         7  -7.6677    122.4927      8.5633   4.8337431411e+01   5.2861207022e+01    0.1321518    0.1170202  51.33 7.017666e-05    1.016    0.015
         8 -10.0234    209.6304      5.0953   3.5965196478e+01   3.2079845388e+01    0.2803664    0.2252818 -15.42 0.0009875301    1.571    0.363
         9  -8.2382     58.3059      2.3337   6.2663160870e+01   6.6876115549e+01     0.129666   0.07667436  17.85 0.0007039558    1.666    0.400
        10  -8.6276     55.9768    188.0557   1.1391088281e+02   2.8406538842e+01    0.1904189    0.1608131  80.54 0.0003249437    1.010    0.010
        11  -7.3903    193.0168    181.9398   8.2126916241e+01   6.6015851463e+00     0.164376    0.1498106   5.86 0.0003738889    1.007    0.007
        12  -9.4472    246.0738    173.4672   7.0518002285e+01  -1.2006639536e+00    0.2853931    0.1950808  59.91  0.001148014    2.427    0.588
        13 -12.9836     10.1113    166.5316   1.2217124584e+02   3.8170218226e+01     1.085358    0.7602364  80.51  0.005388774    1.193    0.162
        14 -11.3909     55.6375    147.2393   1.0866918377e+02   3.8173468458e+01    0.7860267    0.4357187 -69.97  0.002206209    1.654    0.395
        15 -10.8122     40.9084    153.6645   1.1342019587e+02   3.8304202494e+01    0.3533846    0.3456817  46.32  0.001094397    1.261    0.207
        16 -12.0066     48.1860    149.9922   1.1104501688e+02   3.8386585203e+01    0.8647915    0.6731807 -77.25  0.003357964    1.114    0.102
        17  -9.4593    133.3310    148.6442   8.8532465533e+01   2.5112947970e+01    0.3909625    0.2984791 -73.72   0.00182694    1.568    0.362
        18  -9.4709    132.2728    141.6335   8.7235796819e+01   2.6927980743e+01    0.5375772    0.2672908 -61.08  0.001873364    2.668    0.625
        19 -10.4745      5.9505    147.7129   1.2152229987e+02   4.2882824848e+01      0.41771    0.1812826  76.93  0.001868659    2.680    0.627
        20  -9.7188    250.5652    144.8416   6.3760620208e+01   2.6145057626e+00    0.5235561    0.1143497 -36.92  0.001623938    3.918    0.745
        21  -8.6926    234.9888    147.4477   6.6879534146e+01   4.9476856159e+00    0.1943444    0.1372251  43.39  0.001020719    1.574    0.365
        22 -11.0190     68.2767    143.3746   1.0462374595e+02   3.7478598108e+01    0.9379348    0.4897952 -73.54  0.003944006    2.113    0.527
        23  -7.5501    191.6958    153.3023   7.6315198203e+01   1.2249340904e+01    0.1422081    0.1200456 -80.87 0.0002377876    1.594    0.373
        24  -9.0255    247.0451    144.5119   6.4247965553e+01   3.2808685632e+00    0.1909832    0.1345867  42.16  0.001038224    1.606    0.377
        25  -9.1260    240.0392    144.4737   6.5378785778e+01   4.5338295772e+00    0.1909505    0.1365795  42.30 0.0004754098    1.562    0.360
        26  -8.8128    232.5507    151.4076   6.8166662644e+01   4.7175990903e+00    0.2325795    0.2071547 -18.88 0.0003028897    1.036    0.035
        27  -9.7980    237.7258    138.5431   6.4447887925e+01   5.9589757313e+00    0.4901752     0.155223  42.55  0.001714456    3.631    0.725
        28 -10.4824    243.1268    135.0968   6.2804945559e+01   5.5457430987e+00    0.7500507    0.3016958  55.11  0.002837232    3.479    0.713
        29 -10.6225    241.4010    127.4495   6.1365631217e+01   7.1530159050e+00    0.6852791    0.4419714  72.52  0.003109286    2.614    0.617
        30  -8.1659    143.6852    138.3145   8.3635083066e+01   2.5355548028e+01     0.157192    0.1247183  88.87 0.0007034991    1.642    0.391
        31  -9.9752    248.9318    130.2883   6.0832622125e+01   5.2878104049e+00    0.4754684    0.2746032 -35.74  0.002359563    1.479    0.324
        32  -9.7339    222.8134    130.0522   6.5038846316e+01   1.0312645003e+01     0.403738    0.2685493  77.05  0.001714099    2.651    0.623
        33  -9.7549    160.0547    130.6087   7.7872920282e+01   2.3564330438e+01     0.361734    0.3050456  59.67  0.001063546    1.294    0.227
        34  -9.1680    186.3653    128.3881   7.1560107189e+01   1.8280647849e+01    0.3047301    0.2239407 -78.75  0.001310585    2.041    0.510
        35  -9.7654    140.4946    128.5118   8.2061085824e+01   2.8220829922e+01    0.3152396    0.2692184  75.94  0.001042011    1.360    0.265
        36  -9.4881    196.7118    127.7622   6.9322494082e+01   1.6165066422e+01    0.2593299    0.2397501 -53.32 0.0003172761    1.132    0.116
        37  -7.9820    244.2868    244.7476   8.3938772985e+01  -1.0710685870e+01    0.1572687     0.103173   3.48 0.0006862119    1.318    0.241
        38  -9.5678    168.6233    113.0313   7.1445736665e+01   2.5342040721e+01    0.4440698    0.2598996 -61.36  0.001635502    2.430    0.589
        39  -7.6814    215.3851    234.1912   8.7304066768e+01  -5.3749217686e+00    0.1389719    0.1113519 -34.97 0.0001436807    1.492    0.330
        40 -12.7618    247.7181     58.4119   4.4701837742e+01   1.6920620803e+01    0.7805299    0.4655211 -40.23  0.003759392    1.434    0.303
        41  -8.2539    151.5833    110.7051   7.4742720067e+01   2.9691159873e+01    0.2158719    0.1475351 -51.57 0.0004047995    1.510    0.338
        42 -10.7850    128.6328     98.6034   7.7166975292e+01   3.7363206459e+01    0.5929061    0.2791842 -50.81  0.002126952    2.295    0.564
        43 -10.1444    141.8630    106.8769   7.6078526586e+01   3.2682450317e+01    0.4580303    0.3058711  18.63  0.001808612    2.205    0.547
        44 -11.1144    129.3024     88.4441   7.4014549206e+01   3.9338803320e+01    0.5152354    0.3922868 -84.36   0.00228221    1.871    0.465
        45 -10.5889    133.9574     98.8572   7.5844645551e+01   3.6143416336e+01    0.4907146    0.3693971 -74.15  0.001971365    1.766    0.434
        46  -9.4590    131.0631     93.8788   7.5160654245e+01   3.7828670687e+01     0.354966    0.2321844 -53.59 0.0008885159    1.658    0.397
        47 -10.4966    114.8249    109.3066   8.3900910945e+01   3.7875576784e+01    0.6239999    0.3799559 -74.05  0.002187706    2.968    0.663
        48  -9.2073    157.0435    120.3220   7.5981505388e+01   2.6425579187e+01    0.2197469    0.2109175  54.61 0.0005945663    1.082    0.076
        49 -10.9642    125.0250    104.8706   7.9894857052e+01   3.6774655642e+01    0.5318561    0.3312047 -49.49  0.002259278    1.595    0.373
        50 -10.6460    120.9785    100.7788   7.9851602897e+01   3.8523682299e+01    0.3964511    0.3498612 -87.81  0.001681651    1.326    0.246
        51 -11.1014    189.8301    107.7844   6.5658604296e+01   2.1536292990e+01    0.7247677    0.4338493 -63.67  0.002746098    2.496    0.599
        52  -9.1544    233.8312    209.6117   7.9682484444e+01  -4.7029298556e+00    0.2202729    0.1828646  -5.94 0.0005201778    1.076    0.071
        53  -9.4569    227.1034    124.0532   6.2908187998e+01   1.0517773808e+01    0.2863736    0.2170215  60.06  0.001488041    1.587    0.370
        54  -7.5081    141.3294    118.3051   7.9265691739e+01   3.0314022633e+01    0.1604738    0.1261015  -0.34 0.0007036649    1.654    0.396
        55 -11.1481    148.2948    104.8202   7.3931071134e+01   3.1673825658e+01    0.5550345    0.4465925  43.55  0.002119115    1.279    0.218
        56  -9.5245    119.1108    105.8639   8.1779922033e+01   3.7785307388e+01    0.2422359    0.2184923 -89.04  0.001004076    1.257    0.204
        57  -7.3113     26.3378    106.7114   1.1059101010e+02   5.1177776171e+01    0.1273072   0.09189899  72.69 0.0007020508    1.637    0.389
        58 -11.2529    157.9771     99.8733   7.0278761814e+01   3.0467100333e+01    0.6530549    0.5375793  28.81   0.00272214    1.345    0.256
        59  -9.7136    112.7027    102.3113   8.2591360648e+01   3.9878649039e+01    0.3645207    0.1892016  42.14  0.001435551    2.013    0.503
        60 -13.7531    225.1829     70.1396   5.0196373049e+01   2.0024778993e+01     3.890933     1.041559  61.78   0.01235711    4.220    0.763
        61 -10.3087    112.9291     96.6045   8.0913362773e+01   4.1095327980e+01    0.3343063    0.3250864 -15.33  0.001813366    1.030    0.029
        62 -10.3890    139.6897     94.3081   7.3076314717e+01   3.5807844035e+01     0.404098    0.2780118  61.54  0.001484279    1.700    0.412
        63  -9.9328    142.4166     91.2352   7.1504188728e+01   3.5809380135e+01    0.3174405    0.2311994 -49.95  0.001446472    1.407    0.289
        64 -11.1341    121.1361     88.4410   7.6209937479e+01   4.1121848908e+01    0.4574507    0.3748334  57.10   0.00203013    1.338    0.252
        65  -9.3133    141.4541    123.0359   8.0450306003e+01   2.9239628359e+01    0.3057713    0.2227102  62.44  0.001167478    1.628    0.386
        66 -10.2320    133.8554     84.5930   7.1671488516e+01   3.9090255044e+01    0.3789946    0.2402754 -54.82  0.001432185    1.823    0.451
        67 -10.1438    133.2188     77.5001   6.9651039654e+01   4.0610110689e+01    0.3657986     0.268611 -17.48  0.001666792    1.597    0.374
        68 -11.7470    134.2174    108.4594   7.8454722358e+01   3.4019325360e+01    0.8771378    0.5172129 -46.36  0.002780203    1.655    0.396
        69 -10.4585    126.9770     75.9748   7.0782832089e+01   4.2317540732e+01      0.37356    0.2770915 -77.44  0.001186428    1.966    0.491
        70 -10.3495    116.1193     90.8100   7.8314331254e+01   4.1686835061e+01    0.4023242     0.271665 -64.44  0.001497751    1.948    0.487
        71  -8.1546    203.2657    206.6354   8.4813649356e+01   5.9119059901e-01    0.1848225    0.1480355  38.02 0.0004839758    1.281    0.219
        72 -10.7188    131.8972     71.1304   6.7972887291e+01   4.2098802494e+01    0.4557724    0.3212141  20.28  0.002010226    1.825    0.452
        73  -8.6346    103.5277     81.8082   7.9232177106e+01   4.6132590889e+01    0.2776708    0.2242962   0.81 0.0005764576    1.433    0.302
        74  -8.3850      5.3306    201.3334   1.2557370352e+02   3.0884356008e+01    0.1054334   0.07657146 -56.84 0.0007052119    1.725    0.420
        75 -11.0010    134.9724    119.8545   8.1277019974e+01   3.1331377007e+01    0.5622432    0.4317824 -59.59  0.002617412    1.392    0.282
        76 -10.8584    217.1443    117.0354   6.2940734528e+01   1.3813862239e+01    0.6343979    0.3764423  51.84  0.001815002    1.862    0.463
        77 -10.5291    147.5327     58.1578   6.0149321043e+01   4.0602076673e+01    0.3528918    0.3255271  85.51  0.001848095    1.149    0.130
        78 -10.2595    143.3665     53.6367   5.9602972519e+01   4.2326659699e+01    0.3705244    0.2387044 -64.32  0.001558325    2.183    0.542
        79  -8.9244    131.9786     59.4783   6.4155867271e+01   4.4109954140e+01    0.2285692    0.1456943  53.77 0.0008952573    1.571    0.364
        80  -8.8604    128.3790     57.2473   6.4295911511e+01   4.5318484960e+01    0.2072136    0.1351919 -42.94 0.0006130357    1.590    0.371
        81 -10.7712    163.3159     52.3396   5.5153630742e+01   3.7613698406e+01    0.5023504    0.2545032 -49.10  0.002001097    2.209    0.547
        82  -8.3847    122.4946     52.9704   6.4317136780e+01   4.7367446915e+01    0.2251889    0.1432485 -32.47 0.0006955683    1.588    0.370
        83  -9.3969    191.9542     46.2471   4.8656139852e+01   3.1402367588e+01    0.4031567    0.2287402 -50.07  0.001087997    1.784    0.439
        84 -10.5159    150.3186     47.4593   5.6150613804e+01   4.1550893633e+01    0.3120178     0.248164  65.90  0.001544041    1.261    0.207
        85 -12.3726    207.1987    109.9129   6.2946980774e+01   1.7247974000e+01     1.019868    0.7616541 -68.71  0.004569658    1.685    0.406
        86  -9.1606    129.7486     52.4030   6.2322695198e+01   4.5773744792e+01    0.2071885    0.1310444  43.56 0.0006218476    1.565    0.361
        87  -8.6390    185.4228    116.7675   6.8847334493e+01   2.0790054841e+01    0.2769817    0.1936903  62.82 0.0008975125    1.700    0.412
        88  -8.9871    133.3892     40.1651   5.7297968978e+01   4.6701452390e+01    0.2125721    0.1253132 -42.18 0.0009531257    1.814    0.449
        89 -10.1614    126.3812    114.9580   8.2248776543e+01   3.4237682519e+01    0.3143668    0.2448671  43.24  0.001025945    1.328    0.247
        90  -7.8917    190.1524     36.1089   4.6129072815e+01   3.3208052525e+01    0.1887371    0.1461665 -59.71 0.0003711488    1.271    0.213
        91  -8.8824    166.6278     34.8954   4.9280203882e+01   3.9200207157e+01     0.263135     0.190532 -75.48  0.001311792    1.585    0.369
        92  -8.4704    161.2708     27.7763   4.7975835081e+01   4.1407764116e+01    0.4155192    0.1775823  47.43 0.0009940369    2.414    0.586
        93  -8.2504    134.3594     28.7330   5.3152797977e+01   4.7929530526e+01    0.1831138    0.1329067 -10.38 0.0005433821    1.574    0.365
        94  -7.1810    170.2805     28.3341   4.6749606111e+01   3.9095760092e+01    0.1385332    0.1032141  30.95 0.0005170524    1.612    0.380
        95  -8.6694    129.9211     22.9987   5.2051933341e+01   4.9656795263e+01    0.2017129    0.1881656  47.27 0.0003605112    1.017    0.017
        96  -9.8775    171.3573    196.7502   8.9441498773e+01   7.8249656669e+00    0.2535668    0.2363961 -50.01 0.0004683079    1.213    0.175
        97  -8.1737    123.6564    195.1401   9.9555061857e+01   1.6607578157e+01    0.1779884    0.1714202 -67.97  0.000313486    1.106    0.096
        98  -8.5085    244.7798    191.6016   7.4355094278e+01  -3.7478085294e+00    0.1642308    0.1179044  44.24 0.0009472946    1.711    0.416
