#   1 NUMBER                 Running object number                                     
#   2 MAG_AUTO               Kron-like elliptical aperture magnitude                    [mag]
#   3 X_IMAGE                Object position along x                                    [pixel]
#   4 Y_IMAGE                Object position along y                                    [pixel]
#   5 X_WORLD                Barycenter position along world x axis                     [deg]
#   6 Y_WORLD                Barycenter position along world y axis                     [deg]
#   7 A_WORLD                Profile RMS along major axis (world units)                 [deg]
#   8 B_WORLD                Profile RMS along minor axis (world units)                 [deg]
#   9 THETA_WORLD            Position angle (CCW/world-x)                               [deg]
#  10 FWHM_WORLD             FWHM assuming a gaussian core                              [deg]
#  11 ELONGATION             A_IMAGE/B_IMAGE                                           
#  12 ELLIPTICITY            1 - B_IMAGE/A_IMAGE                                       
         1 -12.3977    159.3286     47.9539   2.9022962530e+02   6.3176437403e+00    0.0626879   0.04771211 -37.92  0.004911698    1.412    0.292
         2 -11.8390    171.3643     17.2347   2.8991194484e+02   6.6052533623e+00   0.04427416   0.04241494  34.32  0.005143697    1.040    0.038
         3  -9.3473    120.0152      9.7496   2.9051270408e+02   6.9862962113e+00   0.02056359    0.0165298 -28.44    0.0021536    1.348    0.258
         4 -10.1169    246.6461      4.2648   2.8890206875e+02   6.3229603805e+00   0.02258345   0.01928438 -40.72  0.001729424    1.232    0.189
         5  -9.4102    235.4165      3.9323   2.8904021091e+02   6.3914693250e+00   0.01646507    0.0125236 -53.98  0.001573047    1.372    0.271
         6  -9.0008    150.9996    237.6079   2.9136301821e+02   4.1604772169e+00   0.01376638   0.01074256 -48.05 0.0008616129    1.341    0.254
         7  -9.1374    154.1004    248.8482   2.9138519848e+02   4.0120456677e+00   0.02575105   0.01252644  16.93  0.002159258    2.202    0.546
         8 -18.5877     74.8688    224.9258   2.9224331101e+02   4.7421468433e+00    0.2674072    0.2606941  20.41   0.01819507    1.040    0.038
         9  -8.8527     19.1217    215.9243   2.9289001707e+02   5.1638245463e+00    0.0143128  0.008928539 -59.17 0.0009297429    1.659    0.397
        10  -8.3314     13.8243    180.9228   2.9276749076e+02   5.6012427702e+00   0.01068368  0.008795541 -15.22 0.0006113644    1.310    0.237
        11  -9.7745    222.1122    178.3446   2.9015605279e+02   4.4427166550e+00   0.01257327   0.01034207 -86.75 0.0008124271    1.381    0.276
        12  -8.4511    211.7979    177.7890   2.9028146697e+02   4.5082726096e+00  0.009483169  0.007701189  61.04 0.0004944259    1.346    0.257
        13  -9.9679    204.4696    176.4100   2.9036524770e+02   4.5662794340e+00   0.01676716   0.01611835 -24.64 0.0009757029    1.080    0.074
        14  -9.4886    197.5044    177.4562   2.9045768763e+02   4.5940069678e+00   0.01601181   0.01169311  35.57  0.001304236    1.284    0.221
        15  -7.9546      4.4766    176.2472   2.9285896846e+02   5.7086899583e+00    0.0165364  0.005574303  24.15  0.001189702    2.811    0.644
        16 -10.7860    193.0728    165.8675   2.9044997657e+02   4.7541053382e+00   0.03574956   0.02175158  89.08  0.002741285    2.294    0.564
        17  -8.8486    200.2987    168.5378   2.9037445259e+02   4.6816791583e+00   0.01502644   0.01012651  59.81  0.001135328    1.742    0.426
        18  -9.3297    204.0220    164.1490   2.9030423241e+02   4.7113662347e+00   0.02885853    0.0106094 -68.49    0.0021134    3.192    0.687
        19  -9.9220    142.9716    166.9450   2.9108036112e+02   5.0282122586e+00   0.01677413   0.01360822  64.34 0.0006163184    1.370    0.270
        20  -9.2347    154.8301    166.9999   2.9093278923e+02   4.9597826230e+00   0.01444645   0.01093242  61.40 0.0007579334    1.489    0.328
        21 -10.8915    142.7625    146.3137   2.9097106611e+02   5.2693398710e+00   0.03285043   0.02308894  74.32  0.003052922    1.789    0.441
        22  -9.1503    149.8832    153.1260   2.9091921202e+02   5.1494078441e+00   0.01707236  0.008996963  51.10 0.0009539669    2.190    0.543
        23 -10.7994    148.1031    159.6231   2.9097665990e+02   5.0840315032e+00   0.04065603   0.02115335  47.51  0.002117789    2.069    0.517
        24  -7.9794    154.0105    157.0059   2.9088879194e+02   5.0806878768e+00   0.01131347  0.007505847  55.82  0.000618885    1.707    0.414
        25 -11.2856     11.4412    207.0300   2.9293792361e+02   5.3109271880e+00   0.03524806   0.02471519  20.65  0.002434492    1.367    0.268
        26 -10.8990    134.3823    148.4297   2.9108708868e+02   5.2926316449e+00   0.04100865   0.01768612 -74.92  0.003084044    3.160    0.684
        27 -11.0777    133.2940    141.8941   2.9106521348e+02   5.3748556555e+00   0.03144636   0.01846147 -85.45  0.002809843    2.317    0.568
        28  -9.8767    152.7168    200.8280   2.9114250549e+02   4.5784420993e+00   0.02195001   0.01349031 -78.20  0.001213743    1.974    0.493
        29  -8.8581     27.0064    146.3215   2.9241613542e+02   5.9290346320e+00   0.02105453   0.01483259 -74.46  0.002194583    1.600    0.375
        30  -9.2481     26.9933    142.5089   2.9239569926e+02   5.9734677032e+00   0.01995496   0.01647458 -24.95  0.002257372    1.304    0.233
        31  -8.3373    172.3559    145.3479   2.9059675756e+02   5.1112736193e+00   0.01263674  0.007834082  77.54  0.001127769    2.295    0.564
        32 -10.0786    171.9901    196.8668   2.9088086486e+02   4.5143298309e+00   0.02109705   0.01435668  66.38  0.001090591    1.816    0.449
        33 -10.5749     45.6719    136.9766   2.9213248358e+02   5.9316591437e+00   0.02443124   0.01561984  -5.23  0.001378053    1.955    0.489
        34 -10.5883    156.3849    192.6559   2.9105250812e+02   4.6525227205e+00   0.03553098   0.02091893  74.23  0.001149188    2.546    0.607
        35  -9.4865    206.5039    193.9855   2.9043532430e+02   4.3503229568e+00   0.01107169  0.008905379  24.01 0.0008053654    1.167    0.143
        36 -10.3613    122.6176    129.3523   2.9113040210e+02   5.5817070301e+00    0.0167143   0.01503928  -7.74 0.0004672946    1.140    0.123
        37 -10.3080    236.2257    127.9468   2.8970628702e+02   4.9473793457e+00   0.01430145    0.0116362  28.78 0.0003944439    1.146    0.128
        38  -9.4987    129.5296    191.5547   2.9138132862e+02   4.8187546543e+00    0.0165184   0.01088982  33.41  0.001685354    1.402    0.287
        39  -9.2476    111.0356    123.6384   2.9124397933e+02   5.7143006869e+00   0.01184711  0.009840337 -51.53 0.0005568343    1.260    0.206
        40  -9.9496      7.7947    232.0419   2.9311803883e+02   5.0405121008e+00   0.01181122  0.009158485  10.86  0.001285619    1.298    0.230
        41  -8.4298    140.1810    121.0898   2.9086636141e+02   5.5773956054e+00   0.01262081  0.009279711  41.12 0.0008898224    1.316    0.240
        42 -10.9007    177.4651    222.6804   2.9095255741e+02   4.1828508657e+00   0.03499813   0.01728807 -72.33  0.002307469    2.425    0.588
        43 -10.0620     78.5210    118.9808   2.9162474816e+02   5.9539566696e+00   0.01690674   0.01253457 -37.79  0.001806971    1.457    0.313
        44 -10.7311     72.8147    117.3378   2.9168712220e+02   6.0055837318e+00   0.02425822   0.01537807  50.90   0.00172179    1.708    0.415
        45  -8.2148    115.2453    118.1967   2.9116190090e+02   5.7535398810e+00  0.009319733  0.007537617  53.50 0.0003872057    1.296    0.229
        46  -9.3513    215.9998    187.2706   2.9028063263e+02   4.3739920921e+00  0.009755407  0.008827738  23.69 0.0005562268    1.036    0.035
        47  -8.5304    190.0406    135.9078   2.9032500335e+02   5.1197315892e+00  0.009905728  0.009355261  15.64 0.0003273053    1.021    0.021
        48 -10.8247    117.3469    110.1340   2.9109190246e+02   5.8352844111e+00   0.04708295  0.008705293  36.62  0.002823756    4.099    0.756
        49 -11.1827     60.6058    109.2601   2.9179588290e+02   6.1690679625e+00   0.04119732   0.02222754  31.50  0.003847954    1.682    0.405
        50 -10.8847     64.5415    105.2071   2.9172474602e+02   6.1937906006e+00   0.03621539   0.01740721  32.85  0.002721986    1.868    0.465
        51  -9.8753     66.0028    101.7610   2.9168780906e+02   6.2255414497e+00   0.02457553   0.01162813  36.19  0.001684889    1.928    0.481
        52  -9.5752    180.7866    184.6344   2.9070492198e+02   4.6062475337e+00   0.02073458   0.01115738 -72.99  0.001618312    2.199    0.545
        53  -9.2438    175.8871    233.1896   2.9102913323e+02   4.0696700764e+00   0.01728601  0.008457706 -63.15  0.001519614    2.136    0.532
        54  -9.1564     27.6760    106.2624   2.9219116869e+02   6.3912339186e+00   0.01575084  0.009186749  10.78  0.001021793    1.909    0.476
        55  -9.7098    239.7694    109.6569   2.8956258502e+02   5.1394783078e+00    0.0173312    0.0116937  77.00  0.001153233    1.941    0.485
        56  -8.3692     32.3720     97.9033   2.9208722612e+02   6.4617621225e+00   0.01696558  0.009134657   4.84 0.0007971475    2.428    0.588
        57  -9.4816     39.2984     95.5958   2.9198815055e+02   6.4492173653e+00   0.02124692   0.01497567  -5.47  0.002156778    1.645    0.392
        58  -9.6486    195.2572    183.0683   2.9051614474e+02   4.5416305844e+00   0.01455325   0.01324489 -34.86 0.0008728208    1.149    0.129
        59  -9.4270    165.4317    181.2730   2.9087803965e+02   4.7331730276e+00   0.02382825    0.0124644  49.99  0.001661007    2.161    0.537
        60  -9.6921    152.9055     68.7574   2.9042306657e+02   6.1128008764e+00   0.01323892   0.01041265 -60.76  0.000549384    1.342    0.255
        61 -11.4146    148.5640     62.2527   2.9044187436e+02   6.2132262019e+00   0.02721596   0.02451399  43.81  0.001724824    1.101    0.092
        62  -8.1915    190.7639     65.7957   2.8993449289e+02   5.9301979585e+00  0.009307304  0.008624337 -13.22 0.0004067802    1.108    0.097
        63  -9.1613    166.1542    248.3248   2.9123225983e+02   3.9492877189e+00   0.01262883   0.01129556 -36.75 0.0006882138    1.171    0.146
        64 -10.8389    163.5289     38.8362   2.9012751726e+02   6.3994432542e+00   0.02249474   0.02009974  32.31 0.0008503056    1.058    0.055
        65  -8.7248    131.2529     54.0083   2.9061321290e+02   6.4080769264e+00   0.01131521  0.009151133  24.44 0.0003927338    1.159    0.137
        66  -9.8086    245.9962     52.6553   2.8917433504e+02   5.7654408755e+00   0.01359051   0.01124104   3.39 0.0004635454    1.243    0.196
        67  -8.0805    250.0686     48.2887   2.8909978309e+02   5.7926792632e+00  0.009535075  0.008553537  27.64  0.000593914    1.044    0.042
        68  -7.7635    141.7003     42.2996   2.9041898389e+02   6.4842794378e+00  0.007033012  0.004912423  55.06 0.0003295298    1.580    0.367
        69  -8.1377    187.8587     38.8248   2.8982376888e+02   6.2600213676e+00   0.01057076  0.008613643 -19.69 0.0007454049    1.335    0.251
        70  -7.7019    214.6995     33.6632   2.8946079806e+02   6.1657719417e+00  0.007140563  0.004996427 -26.84 0.0005394054    1.661    0.398
        71 -10.2905    141.2339     30.4687   2.9036038432e+02   6.6243287842e+00    0.0116929   0.01109823 -24.38 0.0002778092    1.092    0.084
        72  -9.2464    162.8402    246.2520   2.9126231211e+02   3.9923228979e+00   0.02031936   0.01097732 -60.55  0.001502301    1.909    0.476
        73  -9.8300    171.0094    241.9837   2.9113748509e+02   3.9952865770e+00   0.01972278   0.01812756 -29.48  0.001944982    1.134    0.118
        74  -9.9774    168.2013    238.2196   2.9115207884e+02   4.0551028068e+00     0.021776   0.01435261 -41.88  0.001398612    1.640    0.390
