#   1 NUMBER                 Running object number                                     
#   2 MAG_AUTO               Kron-like elliptical aperture magnitude                    [mag]
#   3 X_IMAGE                Object position along x                                    [pixel]
#   4 Y_IMAGE                Object position along y                                    [pixel]
#   5 X_WORLD                Barycenter position along world x axis                     [deg]
#   6 Y_WORLD                Barycenter position along world y axis                     [deg]
#   7 A_WORLD                Profile RMS along major axis (world units)                 [deg]
#   8 B_WORLD                Profile RMS along minor axis (world units)                 [deg]
#   9 THETA_WORLD            Position angle (CCW/world-x)                               [deg]
#  10 FWHM_WORLD             FWHM assuming a gaussian core                              [deg]
#  11 ELONGATION             A_IMAGE/B_IMAGE                                           
#  12 ELLIPTICITY            1 - B_IMAGE/A_IMAGE                                       
         1 -14.8353      8.0559    149.0314   1.4658310173e+02   4.2867615192e+01     6.909064     1.940404 -83.50   0.02620005    4.147    0.759
         2 -13.6495    193.0022     25.9640   7.2073029671e+01   3.3278862906e+01     1.689544     1.509407  38.71  0.007950089    1.174    0.148
         3 -13.4792    208.6471      6.6331   6.4759992141e+01   3.1335651684e+01     1.259501    0.9008777  51.52  0.005024405    1.445    0.308
         4 -13.3904      2.7602      6.3430   1.1970877039e+02   7.2482084596e+01     1.384545    0.6721782 -53.26  0.008083366    2.090    0.521
         5 -11.0177    237.5332    247.1999   1.1527409660e+02  -7.3151166525e+00    0.2122132    0.1241296  34.85  0.001065484    1.321    0.243
         6 -11.8743    174.6267    249.3302   1.2588560638e+02   2.0583165386e+00    0.3462785    0.2937717  43.23  0.001696472    1.137    0.121
         7 -12.8363    124.1131    249.4082   1.3434724874e+02   9.8172212365e+00    0.7325407    0.2824148  46.42  0.003892731    1.982    0.495
         8 -11.5100    100.4541    249.3961   1.3824992577e+02   1.3245400026e+01    0.4075764    0.1390851  45.03  0.002110616    2.227    0.551
         9  -9.1648     73.9787    250.5045   1.4260080244e+02   1.6646673729e+01    0.1537709    0.0804018  46.45 0.0006071446    1.523    0.344
        10  -8.6103     50.7152    250.2988   1.4620556312e+02   1.9547657110e+01    0.1038968   0.05427764  66.18 0.0002097585    1.550    0.355
        11  -9.1369      2.4096    249.7163   1.5325032100e+02   2.4747145941e+01    0.1133176   0.06832943 -82.48 0.0008267665    1.538    0.350
        12  -9.7705     19.7583    247.4836   1.5068055301e+02   2.3397992318e+01    0.2654634      0.15737  37.93  0.002001677    1.958    0.489
        13 -11.8675    185.5501    238.9222   1.2266390376e+02   1.6152471959e+00     0.386503    0.2889022 -79.18  0.002046887    2.467    0.595
        14 -11.0943     95.3394    240.7587   1.3831748426e+02   1.5286409157e+01     0.317299    0.1471121 -46.99  0.001638573    3.563    0.719
        15 -14.4511    103.5147    229.1782   1.3579179122e+02   1.5964946208e+01     6.748869          nan  45.73   0.01439342   11.917    0.916
        16 -11.0573    162.0864    248.9531   1.2793979680e+02   4.0658217597e+00     0.223258    0.1836456  77.70   0.00162703    1.550    0.355
        17  -8.7462     25.2931    215.2952   1.4809979462e+02   2.8264219648e+01    0.1560359    0.1037045 -87.90 0.0004127895    1.260    0.206
        18 -10.3135     22.0298    211.5811   1.4841738530e+02   2.9266194980e+01    0.4088452    0.1703413  38.64  0.002458724    2.369    0.578
        19  -8.2277    221.6969    213.6778   1.1255912855e+02  -1.1797148563e+00    0.1255768   0.08092088  13.91 0.0003929213    1.634    0.388
        20 -12.8077     37.4446    236.4039   1.4741605262e+02   2.3311742496e+01     0.251247    0.2147151  88.54 0.0007431853    1.388    0.280
        21 -12.3997     10.4412    206.8056   1.5007441223e+02   3.1258882968e+01    0.4917375    0.3624438  36.33  0.003093579    1.749    0.428
        22 -11.5102     63.1231    201.4024   1.4034591972e+02   2.6479247443e+01    0.2284513    0.1940311 -68.66 0.0005017673    1.377    0.274
        23  -9.7292    192.4951    193.8168   1.1432470305e+02   6.6217946069e+00    0.4281556    0.2267997 -61.46  0.001487209    5.090    0.804
        24 -10.2631    173.1199    222.3574   1.2248672131e+02   5.8642942710e+00    0.2607536   0.09382279  37.52  0.001101788    2.598    0.615
        25 -13.0075     51.2351    217.8137   1.4388359279e+02   2.4926521379e+01    0.9347479    0.7283669 -82.17   0.00587343    1.286    0.222
        26 -11.9294     69.2411    192.8064   1.3831704056e+02   2.7335876435e+01    0.2406261     0.213953 -76.44 0.0004361901    1.269    0.212
        27 -13.1651     65.9935    177.8364   1.3731028369e+02   3.0751915146e+01    0.4506361    0.2566693 -47.17  0.001635349    2.321    0.569
        28  -8.7585    209.6008    180.2641   1.0864190972e+02   5.4756854968e+00    0.1820255    0.1587423  87.41 0.0006484164    1.694    0.410
        29 -10.8008     79.1736    179.5128   1.3479022660e+02   2.8622343717e+01    0.2126192    0.1811774 -87.29 0.0003296949    1.087    0.080
        30  -8.6456    103.1008    179.5547   1.2981449416e+02   2.5020908240e+01    0.1905263   0.09203662  60.03 0.0008060269    2.534    0.605
        31 -11.7098     86.1332    170.1505   1.3207837723e+02   2.9537650264e+01    0.5465801    0.4771535 -53.95  0.003530071    1.319    0.242
        32 -14.0088     43.2305    229.2092   1.4603783122e+02   2.3871274164e+01    0.7950581    0.4671759  53.66   0.00268108    1.352    0.260
        33  -9.1247    101.3948    149.3955   1.2536068295e+02   3.1541646586e+01    0.1804308    0.1581576 -19.67 0.0006346031    1.478    0.323
        34 -11.9429     87.3143    152.9651   1.2923020956e+02   3.2999122173e+01    0.2612954    0.2348076 -44.87 0.0006231049    1.301    0.231
        35  -8.7565    135.4893    150.4957   1.1776646707e+02   2.5205151980e+01     0.216769    0.1356792 -60.46 0.0009918263    1.824    0.452
        36  -9.5374    134.0000    146.4793   1.1728892444e+02   2.6307570763e+01    0.4099784     0.163446 -48.78   0.00154601    2.564    0.610
        37 -10.0877     98.5789    153.7564   1.2676969288e+02   3.1068506020e+01    0.3376717    0.2471551 -43.64 0.0008974157    1.556    0.357
        38 -12.3377     67.1696    143.7159   1.3249791829e+02   3.7876289349e+01    0.6262774    0.4060538  67.13  0.002897689    1.702    0.413
        39  -9.8889    110.0225    138.0078   1.2116507532e+02   3.2520629606e+01    0.3752837    0.2554542 -19.99  0.001372815    2.464    0.594
        40 -10.4852     97.3677    135.5064   1.2374195690e+02   3.5219149434e+01    0.2419918    0.2166513 -33.63 0.0003532516    1.286    0.222
        41  -9.2064     84.1729    134.9097   1.2688151795e+02   3.7428003382e+01    0.2036899      0.16389  81.61 0.0006144714    1.292    0.226
        42  -8.7847    116.2847    130.0736   1.1799317071e+02   3.3098430068e+01    0.2329589    0.1029173 -33.90 0.0007020331    4.168    0.760
        43  -9.0688    107.0756    124.5933   1.1907643670e+02   3.5950324421e+01    0.1835367    0.1681329  43.54 0.0004132579    1.150    0.131
        44  -9.9990    167.8579    112.9240   1.0186403907e+02   2.5840653266e+01     0.333324    0.2667066 -65.23 0.0009086332    1.500    0.334
        45  -9.2801    203.7072    111.4327   9.4294482292e+01   1.7883255913e+01    0.2095357    0.1368517  39.05 0.0009410969    1.594    0.373
        46  -9.5447      3.8471    227.5427   1.5214207419e+02   2.8224402001e+01    0.2102023    0.1313327  50.79  0.001697291    1.430    0.301
        47  -9.3622    156.7934     75.6237   9.3796553703e+01   3.5295581061e+01    0.2149888    0.1485493  63.93 0.0005590434    1.643    0.391
        48  -9.4111     27.9993     60.4712   1.2731281404e+02   6.0516626501e+01    0.1564145    0.1198574  21.92  0.001026653    1.585    0.369
        49 -11.8766      2.0806     53.5041   1.3511802567e+02   6.3745579336e+01    0.6710656   0.09165578 -64.55  0.002044994    5.763    0.826
        50 -10.4384     81.5281    248.8653   1.4127246865e+02   1.5912088235e+01    0.2182567    0.1232001  63.00  0.001043563    1.500    0.333
        51 -13.4057    140.7412    248.3605   1.3145613963e+02   7.4512065643e+00    0.9952647    0.4103214  46.81  0.005341676    1.886    0.470
