#   1 NUMBER                 Running object number                                     
#   2 MAG_AUTO               Kron-like elliptical aperture magnitude                    [mag]
#   3 X_IMAGE                Object position along x                                    [pixel]
#   4 Y_IMAGE                Object position along y                                    [pixel]
#   5 X_WORLD                Barycenter position along world x axis                     [deg]
#   6 Y_WORLD                Barycenter position along world y axis                     [deg]
#   7 A_WORLD                Profile RMS along major axis (world units)                 [deg]
#   8 B_WORLD                Profile RMS along minor axis (world units)                 [deg]
#   9 THETA_WORLD            Position angle (CCW/world-x)                               [deg]
#  10 FWHM_WORLD             FWHM assuming a gaussian core                              [deg]
#  11 ELONGATION             A_IMAGE/B_IMAGE                                           
#  12 ELLIPTICITY            1 - B_IMAGE/A_IMAGE                                       
         1 -14.8609    158.0278     44.2418   8.4504542213e+01   4.0349556067e+01     1.507787     1.075204 -21.52  0.003916787    1.383    0.277
         2 -14.6645    170.0624     11.8221   7.1360758327e+01   4.1016479989e+01      1.25234     1.046275  40.25  0.004693664    1.217    0.179
         3 -12.7251    189.3619     13.9069   6.9803306730e+01   3.5934447069e+01    0.4931633    0.2746222 -41.47  0.001818883    1.740    0.425
         4  99.0000     15.6014    246.8472   1.5208117961e+02   2.4202713969e+01    0.1681611   0.06969378  82.81  0.001123725    2.457    0.593
         5 -19.8550     94.8792    231.4252   1.3734796905e+02   1.8443044584e+01     7.337673     5.047489  47.40   0.05067649    1.178    0.151
         6 -11.7802     23.9019    217.2418   1.4961422937e+02   2.8123303437e+01    0.1504866    0.1203849  78.47 0.0005734889    1.205    0.170
         7 -13.1494    168.4065    239.9942   1.2503158303e+02   8.0467367437e+00    0.3358019    0.1693155  38.97 0.0004290588    1.585    0.369
         8 -12.5551    161.3175    239.6335   1.2621453940e+02   9.0018860403e+00    0.3179161    0.1691917  25.53  0.001607269    1.647    0.393
         9 -12.0602    166.9829    173.5536   1.1576312181e+02   1.7161298961e+01    0.2100393    0.1848511 -56.41 0.0007127418    1.512    0.339
        10 -13.0716     11.9227    205.8963   1.5140403536e+02   3.1071524209e+01    0.4671389    0.2265107  23.21  0.002915593    2.372    0.578
        11 -11.8676    201.1457    164.5662   1.0756869392e+02   1.2859082154e+01    0.3940414    0.2725432 -38.00  0.001698945    1.654    0.395
        12 -11.2731    150.8581    240.1012   1.2809121230e+02   1.0289909429e+01     0.174251    0.1652025  64.85 0.0008184055    1.449    0.310
        13 -12.8713    139.3912    201.1890   1.2552446696e+02   1.7148446329e+01     0.435578    0.2873704  33.29 0.0007236951    1.267    0.211
        14 -11.1447    222.3656    161.5168   1.0325842907e+02   9.8159446353e+00    0.2565401    0.1879097 -48.39  0.001137592    2.126    0.530
        15 -12.3449    136.6593    197.3452   1.2555279978e+02   1.8131611476e+01    0.3621359    0.2435369  43.96    0.0022388    1.350    0.259
        16 -12.9060    164.3643    158.2760   1.1352189653e+02   2.0015124772e+01    0.3492712    0.2063292  38.08  0.001149782    1.553    0.356
        17 -10.9024     28.4554    239.1786   1.4968281888e+02   2.4227230232e+01    0.1203685   0.07999984  82.37 0.0009380426    1.465    0.317
        18 -11.6446     29.5021    156.8203   1.4503674533e+02   3.9030817700e+01    0.2507387    0.1858916 -64.79  0.001273417    1.402    0.287
        19 -12.1209     21.7498    237.4283   1.5076015507e+02   2.5086949770e+01    0.1593661    0.1174292  73.41  0.001393713    1.229    0.187
        20 -14.5132    133.7596    145.9778   1.1789425512e+02   2.7449343189e+01     1.352736    0.4866693 -56.51   0.00432103    4.572    0.781
        21 -14.4849    143.5658    143.9688   1.1524770721e+02   2.6114997140e+01    0.9628081    0.4825455 -57.46  0.003863975    2.949    0.661
        22 -11.3439     26.8307    194.9229   1.4801318589e+02   3.1765901664e+01    0.2310182    0.1436269  64.70 0.0009819539    1.346    0.257
        23 -11.1245     17.7694    154.1786   1.4767855722e+02   4.0566435305e+01    0.2048645    0.1508916 -67.13 0.0003473657    1.391    0.281
        24 -11.2233     18.2482    149.1369   1.4723413937e+02   4.1600357354e+01    0.3104471    0.2048878  40.90  0.002025365    1.454    0.312
        25 -10.6792    192.3954    153.2253   1.0696507035e+02   1.5943768900e+01    0.1698481    0.1197321 -39.45 0.0004362605    1.594    0.373
        26 -12.5484    140.3531    149.3515   1.1702603437e+02   2.5692800561e+01    0.4541935    0.2446692  53.06  0.001229036    2.286    0.563
        27 -12.8937    174.1622    148.6695   1.0961778808e+02   1.9853181284e+01    0.3647374    0.2912659 -38.50  0.001340616    1.371    0.271
        28 -19.1782     77.4010     95.2957   1.2247616629e+02   4.7489629323e+01     18.90939    0.8488101 -55.37   0.02589321   19.076    0.948
        29 -13.5953    152.5858    145.1528   1.1346923869e+02   2.4301548057e+01    0.4708184    0.3902457  88.18  0.002544921    1.781    0.439
        30 -12.0621     27.6626    145.0216   1.4456454119e+02   4.1720070293e+01    0.3589764    0.2958791  68.90  0.001971401    1.065    0.061
        31 -10.9047     26.3836    138.8454   1.4437827385e+02   4.3186665904e+01    0.1980398    0.1831607 -56.56 0.0005900151    1.266    0.210
        32 -14.0823    206.9934    177.8486   1.0898378449e+02   1.0167553445e+01    0.9242008    0.4884163 -39.97  0.004890225    2.252    0.556
        33 -12.4122    134.5668    106.2770   1.0888180010e+02   3.4987623412e+01    0.5480672    0.1431329 -43.28  0.001624929    3.815    0.738
        34 -13.9667    135.8388    127.6278   1.1363232691e+02   3.0581369792e+01     1.421656    0.2964205 -49.38  0.003514867    6.368    0.843
        35 -10.7434      2.8486    135.2362   1.5026757373e+02   4.5693833616e+01    0.1788251    0.1498993 -31.75 0.0008469882    1.575    0.365
        36 -13.0527    160.4751    128.2289   1.0810735083e+02   2.5824942939e+01    0.4531241    0.3617884 -37.64  0.002062386    1.289    0.224
        37 -11.5239    203.5135    175.5107   1.0918057012e+02   1.1013677018e+01    0.2281354    0.1736821 -13.80 0.0008324963    1.249    0.199
        38 -11.9112    203.6410    171.4184   1.0840750255e+02   1.1532175029e+01    0.4485326    0.2335082  27.46  0.002147384    1.853    0.460
        39 -13.2145     38.6949    124.0616   1.3947259521e+02   4.5436511036e+01    0.4541499    0.2663662  19.46  0.002407739    2.072    0.517
        40 -11.0451     12.9260    242.4509   1.5239331721e+02   2.5077951161e+01     0.119756    0.1103927  22.04  0.001153218    1.562    0.360
        41 -10.8436    205.3329    110.2346   9.4964455926e+01   1.9874866222e+01    0.2847334    0.1835331  38.63 0.0009387833    1.559    0.359
        42 -12.3049    129.0842    181.3671   1.2487358148e+02   2.1845692852e+01    0.4214088    0.1960289  42.83  0.001516824    1.932    0.482
        43 -11.9221     28.5262    105.4092   1.4024429551e+02   5.0715118976e+01     0.271172    0.2105694 -16.00 0.0009287042    1.663    0.399
        44 -11.1143     18.3042    220.8719   1.5077330764e+02   2.8007352552e+01    0.1237194   0.09279267  77.91 0.0004339915    1.223    0.182
        45 -11.9123     41.3891     93.3854   1.3413972270e+02   5.2425898346e+01    0.3791823    0.2966167 -59.25  0.001969911    1.151    0.131
        46 -12.2647     51.2396     91.7100   1.3042299563e+02   5.1776594920e+01    0.3156093    0.2563079   3.81 0.0007671269    1.497    0.332
        47 -11.4649      6.2823     88.8362   1.4571481490e+02   5.6174516911e+01     0.414295    0.1702307 -14.37   0.00162921    4.591    0.782
        48 -10.4493    105.8501     82.2332   1.1011623129e+02   4.5510342207e+01    0.2066911    0.1984955 -84.22 0.0004171785    1.157    0.135
        49 -10.7581    142.3407     80.8973   9.9885735386e+01   3.8166549757e+01    0.2183073    0.1869656 -24.60 0.0006205066    1.132    0.117
        50 -14.4269    147.4096     58.6766   9.1607705645e+01   4.0799747746e+01     1.121022    0.9552222  -5.71  0.000883202    1.187    0.157
        51 -11.3920    200.0150    179.6873   1.1055795621e+02   1.1014821022e+01    0.1895417    0.1621851 -19.18 0.0004744013    1.292    0.226
        52 -13.1293    161.6346     35.6588   8.0886105040e+01   4.0572229708e+01    0.4817044    0.4054943  20.19 0.0009098648    1.232    0.188
        53 -10.8222     13.5227     59.9424   1.3882022087e+02   6.2712553885e+01    0.1760479    0.1563567 -63.06 0.0004203132    1.082    0.075
        54 -13.8256    195.1963    169.9222   1.0966968725e+02   1.3095145578e+01    0.6809059    0.4013432 -44.15  0.002537086    2.148    0.534
