#   1 NUMBER                 Running object number                                     
#   2 MAG_AUTO               Kron-like elliptical aperture magnitude                    [mag]
#   3 X_IMAGE                Object position along x                                    [pixel]
#   4 Y_IMAGE                Object position along y                                    [pixel]
#   5 X_WORLD                Barycenter position along world x axis                     [deg]
#   6 Y_WORLD                Barycenter position along world y axis                     [deg]
#   7 A_WORLD                Profile RMS along major axis (world units)                 [deg]
#   8 B_WORLD                Profile RMS along minor axis (world units)                 [deg]
#   9 THETA_WORLD            Position angle (CCW/world-x)                               [deg]
#  10 FWHM_WORLD             FWHM assuming a gaussian core                              [deg]
#  11 ELONGATION             A_IMAGE/B_IMAGE                                           
#  12 ELLIPTICITY            1 - B_IMAGE/A_IMAGE                                       
         1 -14.5968    227.2563     22.6913   1.2126882221e+01   2.5870101534e+01    0.8867316    0.8005746 -72.14  0.004123071    1.099    0.090
         2 -11.0688     60.4994     21.0227   4.6377633186e+01   6.4421328328e+01    0.1853189    0.1504475  15.14 0.0004249425    1.098    0.089
         3 -14.8299    139.1967    246.4286   7.7054677686e+01   4.8966891941e+00     1.183232    0.8581636 -80.89  0.007217811    1.873    0.466
         4 -15.4417    127.8088    228.8040   7.7082847472e+01   9.7511253371e+00     2.492031    0.8911333  40.21   0.01044553    2.378    0.579
         5 -14.8373    111.6512    229.5245   8.0407582998e+01   1.2246009705e+01     1.118076    0.7955593  48.86  0.006765368    1.165    0.142
         6 -12.5585    103.0059    238.0273   8.3052478896e+01   1.2049207535e+01    0.4663377    0.2159536 -54.50  0.001120372    2.582    0.613
         7 -11.5588    101.4978    250.0865   8.4563872129e+01   1.0168804494e+01    0.2518196    0.1703813  73.51  0.001071195    1.513    0.339
         8 -12.2498    100.8856    245.4096   8.4215980718e+01   1.1065310280e+01    0.4450662    0.2605257  87.31  0.002208848    2.251    0.556
         9 -17.5053     69.5404    146.1624   7.8557785012e+01   3.6931327695e+01     12.52386     6.504116  85.70   0.04489509    3.445    0.710
        10 -12.1229     76.1688    244.5289   8.8717403582e+01   1.4800165880e+01    0.2029134    0.1618169  84.63 0.0004544595    1.213    0.175
        11 -10.6865     93.8929    236.0197   8.4599367692e+01   1.3792809783e+01    0.1843448    0.1506696  66.44 0.0007172005    1.061    0.058
        12 -12.9776    110.6836    245.5655   8.2385254537e+01   9.5469218409e+00    0.3487346    0.1852198  47.69  0.001415438    1.497    0.332
        13 -11.4560     90.3226    217.2512   8.3309729672e+01   1.7925405275e+01    0.2648348    0.1887786  75.91 0.0003198382    1.363    0.266
        14 -13.6165     97.8259    223.2557   8.2459173016e+01   1.5599544499e+01    0.6935691    0.4050058 -68.68   0.00184936    1.888    0.470
        15 -12.3025     90.0229    225.0852   8.4223097240e+01   1.6431695933e+01    0.4694783    0.2275266  54.25  0.001510289    1.849    0.459
        16 -12.0203    172.7172    177.7374   5.9247008162e+01   1.1231039665e+01    0.3012609    0.2607839 -54.12 0.0006679764    1.278    0.218
        17 -11.5289     92.4449    221.5038   8.3350234473e+01   1.6763477380e+01    0.2058069    0.1814615  81.98 0.0007318729    1.143    0.125
        18 -10.3105    198.7519    171.3690   5.2473658549e+01   7.2782161232e+00    0.1370255    0.1142969 -72.42  0.000694866    1.624    0.384
        19 -10.7414     71.7363    225.3663   8.7850907456e+01   1.9012716415e+01    0.2055703    0.1461608  36.62  0.001268101    1.535    0.349
        20 -12.9057    181.3680    173.8085   5.6600331076e+01   1.0271528544e+01    0.4894398    0.4161292 -39.77  0.002655744    1.232    0.188
        21 -12.3113    110.6193    167.1896   7.1664602311e+01   2.5411366755e+01    0.3167035    0.2485068 -76.21 0.0007695277    1.329    0.247
        22 -11.5809     80.9100    220.4397   8.5558165016e+01   1.8684077723e+01    0.2109211    0.1755013  88.96 0.0001638653    1.168    0.144
        23  99.0000     57.8110    229.0173   9.0829344989e+01   2.0167342958e+01     2.042145    0.7472398 -51.43  0.008253538    4.622    0.784
        24 -18.8213     19.9405    214.6800   9.6838987628e+01   2.7415709591e+01     6.137496     2.756805 -81.33   0.02925383    1.927    0.481
        25 -10.8124     76.7279    201.0011   8.4323341749e+01   2.3298044145e+01    0.1768143    0.1499228  83.53 0.0003518285    1.074    0.069
        26 -12.1017    133.7779    145.5122   6.1658891583e+01   2.5978583772e+01     1.080417    0.2439726 -54.18  0.002374002    6.549    0.847
        27 -12.8340     92.1452    145.7357   7.2482700313e+01   3.3614478692e+01    0.6053599    0.4247524 -18.84  0.002363418    2.317    0.568
        28 -18.1032      1.6013     87.2876   8.9210117205e+01   5.7217323930e+01     14.71571    0.1744903 -70.15   0.01812144   32.606    0.969
        29 -12.3818    105.6943    131.7174   6.5989400774e+01   3.4619437621e+01    0.6087254    0.3558188 -45.12  0.002018146    1.752    0.429
        30 -12.4255     92.7024    132.5763   6.9746339602e+01   3.6681815890e+01    0.2648881    0.2544664 -71.52 0.0003563209    1.045    0.043
        31 -11.6404    135.7553    129.8326   5.7593335402e+01   2.9126717128e+01    0.4711858    0.1288437 -45.40  0.001319206    3.700    0.730
        32 -11.4093     68.6160    192.0395   8.5061408424e+01   2.6388080945e+01    0.3499082     0.189025  80.55  0.001613541    2.255    0.557
        33 -14.1767    125.0567    243.3474   7.9397734630e+01   7.6703950309e+00    0.8552959    0.5845733 -51.05  0.005230765    1.823    0.451
        34 -11.1314    113.1135    126.3929   6.2765203281e+01   3.4487736202e+01    0.2556326    0.2099226 -37.39 0.0008473057    1.292    0.226
        35 -11.1116    100.3963    121.7523   6.5226686834e+01   3.7935067234e+01    0.2634071    0.2326509   2.85 0.0005872477    1.342    0.255
        36 -11.0045    162.2774    119.7316   4.8593517977e+01   2.5477583656e+01     0.260646    0.2338328 -78.60 0.0004317742    1.226    0.185
        37 -10.3227    108.9494    116.3310   6.1521412822e+01   3.7628347005e+01     0.205499    0.1908143  42.28  0.000336513    1.112    0.101
        38 -11.3829    158.6141    114.4932   4.8110180673e+01   2.7422583390e+01    0.3635606    0.2640457 -70.90 0.0009910967    1.798    0.444
        39 -10.5809    205.3718    110.1857   3.7100974350e+01   1.7377699047e+01    0.2511856    0.2057474  38.95  0.000688578    1.300    0.231
        40 -12.2265    116.2799    108.5777   5.7499360251e+01   3.7968405936e+01     0.376689    0.1957472  56.17  0.001374804    2.477    0.596
        41 -10.5651    151.4488    105.9234   4.7564192998e+01   3.0878526032e+01    0.2249057    0.1351759 -64.54 0.0008067164    2.447    0.591
        42 -11.9329    119.0489    103.3176   5.5327604438e+01   3.8579208432e+01     0.223098    0.2072287  45.99 0.0007189257    1.097    0.089
        43 -10.7340     69.0947    243.6510   8.9932687247e+01   1.5927783402e+01    0.1662097    0.1584087 -44.71  0.001089547    1.621    0.383
        44 -11.7342    120.8570     98.1192   5.3395877854e+01   3.9340183433e+01    0.2390994    0.2154835 -86.70 0.0006506439    1.248    0.198
        45 -10.6221     58.2759    242.2225   9.1771412631e+01   1.7618495853e+01    0.2486294   0.08926608 -82.97  0.001035493    3.911    0.744
        46 -11.3071     46.1703    238.6079   9.3669533028e+01   1.9808557488e+01    0.1640685    0.1214732 -89.36 0.0004582884    1.255    0.203
        47 -11.1725     72.6681    186.7954   8.3539602733e+01   2.6986510591e+01    0.2292065    0.1724378  63.28 0.0003017712    1.199    0.166
        48 -13.3434     98.2650    181.2949   7.6906248880e+01   2.4315257644e+01    0.4952176    0.3959529 -49.27  0.002007757    1.421    0.296
        49 -13.0172    181.6667     62.7022   2.8871502898e+01   3.1528656451e+01    0.4276015    0.4009793  67.64 0.0008764168    1.047    0.044
        50 -14.3789    198.1061     49.9728   2.2617350259e+01   2.9337163476e+01     1.227262    0.9497907  30.85  0.004011527    1.633    0.388
        51 -13.1128    204.0111     45.0614   2.0452705248e+01   2.8569022928e+01    0.4634764    0.4294128  13.97  0.001270544    1.319    0.242
        52 -11.3608     48.1597     57.9195   6.5363248448e+01   5.9864088166e+01    0.1821095     0.173472 -57.30 0.0005512541    1.276    0.216
        53 -10.5647     51.2325     41.1673   5.8355216693e+01   6.2616571303e+01    0.1530258    0.1489492  -6.26 0.0004492943    1.320    0.242
        54 -11.9387     51.2369    248.1080   9.3429002786e+01   1.7445650165e+01    0.2221581    0.1418912  74.05  0.000736018    1.294    0.227
