#   1 NUMBER                 Running object number                                     
#   2 MAG_AUTO               Kron-like elliptical aperture magnitude                    [mag]
#   3 X_IMAGE                Object position along x                                    [pixel]
#   4 Y_IMAGE                Object position along y                                    [pixel]
#   5 X_WORLD                Barycenter position along world x axis                     [deg]
#   6 Y_WORLD                Barycenter position along world y axis                     [deg]
#   7 A_WORLD                Profile RMS along major axis (world units)                 [deg]
#   8 B_WORLD                Profile RMS along minor axis (world units)                 [deg]
#   9 THETA_WORLD            Position angle (CCW/world-x)                               [deg]
#  10 FWHM_WORLD             FWHM assuming a gaussian core                              [deg]
#  11 ELONGATION             A_IMAGE/B_IMAGE                                           
#  12 ELLIPTICITY            1 - B_IMAGE/A_IMAGE                                       
         1 -10.0761    214.3065      2.3326   6.0212761061e+01   3.1432250354e+01    0.1219395   0.08932467  46.77 0.0003515817    1.665    0.399
         2 -11.4963    233.3009    246.8491   1.1082729598e+02  -1.1427885539e+01    0.3257168    0.2829058  24.56  0.001291659    1.209    0.173
         3 -11.8203    230.4013    236.1622   1.0955751323e+02  -9.5752096374e+00     1.047117     0.735553 -80.76  0.004051456    5.717    0.825
         4 -13.0300    226.6133    215.8286   1.0665717549e+02  -6.0383913396e+00      8.75994     1.931537 -47.14    0.0143024   20.053    0.950
         5 -14.2194    223.1429    146.8875   9.3212927582e+01   6.4567938133e+00      6.68315     1.358324 -36.28   0.01527261    6.426    0.844
         6 -11.6358    241.5162    245.0993   1.0907412353e+02  -1.2449179725e+01     0.755839    0.3729704 -48.12  0.003582272    3.435    0.709
         7 -12.5151    236.3953    217.3045   1.0512154615e+02  -7.8949031987e+00     1.039895    0.6865203 -63.54  0.004730758    3.380    0.704
         8 -12.8553    242.5591    236.6185   1.0744729077e+02  -1.1527633026e+01     1.529188     1.073079 -75.21  0.005748159    6.512    0.846
         9 -12.5789    228.1540    193.6413   1.0214436311e+02  -2.8023916203e+00     1.738042    0.7424396 -35.38  0.007271447    2.404    0.584
        10 -12.6824    238.8231    160.8329   9.3408226858e+01   7.9781957965e-01     1.887187    0.7503761 -53.59   0.00539469    5.227    0.809
        11 -13.6471    244.6806    188.6617   9.8121560754e+01  -4.9238041747e+00     4.870733     1.819474 -52.22   0.01104441    9.979    0.900
        12 -12.0398    248.7907    181.2180   9.5892782406e+01  -4.4464437692e+00     1.110783    0.2864003 -44.11  0.003427188    4.580    0.782
        13 -12.8846    236.2850    191.8110   1.0027135061e+02  -3.9589042680e+00     3.093436    0.5480229 -43.62  0.007567466    7.361    0.864
        14 -12.7764    248.0914    229.5948   1.0523649754e+02  -1.1449119882e+01    0.8706447    0.4394818 -42.10  0.004485065    2.386    0.581
        15 -13.2079    244.7144    157.6679   9.1692608335e+01   2.2728980279e-01     2.351468    0.5707287 -44.13  0.006912026    4.385    0.772
        16 -12.3713    242.8010    136.8807   8.7486283949e+01   4.2496241846e+00     1.098627    0.2786496 -43.68  0.003327155    3.803    0.737
        17 -15.5541    245.8422    112.3277   8.1490956424e+01   7.9734218760e+00     7.716942     2.298619 -43.23   0.02603427    3.026    0.670
        18 -10.2099    214.1498    240.9359   1.1334384756e+02  -7.6020103303e+00    0.2216117    0.2004881 -58.73  0.000895771    1.553    0.356
        19 -10.5679    211.6550    227.5442   1.1155954195e+02  -5.2434495802e+00    0.2894861    0.2114036 -37.29  0.001141011    1.530    0.346
        20 -10.6100    219.7596    240.1102   1.1217133418e+02  -8.4038971185e+00    0.2551407    0.1743289 -43.68 0.0009331053    1.819    0.450
        21 -11.4968    216.1768    233.6971   1.1176050350e+02  -6.9131437674e+00    0.4160466    0.3816376 -76.79   0.00179924    1.595    0.373
        22 -10.4238    183.4595    239.7924   1.1894800487e+02  -2.2219736178e+00    0.3014132     0.233181 -72.60  0.001754991    1.895    0.472
        23  -9.3177    134.6831    241.3462   1.2854184423e+02   6.0342692980e+00    0.1330508   0.08781014  69.93 0.0007048385    1.723    0.420
        24 -10.3967    159.2045    238.7504   1.2346276111e+02   2.2056671141e+00    0.3337861    0.2120073 -64.07  0.001763031    2.113    0.527
        25 -11.3020    205.1799    235.4688   1.1412273828e+02  -5.3162976971e+00     0.421338    0.3422875 -80.82  0.002435052    2.023    0.506
        26 -11.2428    191.0143    235.4527   1.1681768646e+02  -2.8685051172e+00    0.4722713    0.3320035 -65.45  0.002541106    2.206    0.547
        27 -10.5132    176.5662    235.4690   1.1960704508e+02  -3.2731569184e-01    0.3513233    0.1526818 -45.01  0.001584616    2.702    0.630
        28  -9.2226    139.2974    236.9579   1.2707198536e+02   6.0078396561e+00    0.1909311    0.1015844 -79.49 0.0007033019    4.169    0.760
        29  -9.6865    170.4850    234.9808   1.2071334267e+02   8.3222947216e-01     0.178381    0.1318514 -48.17 0.0008296369    1.597    0.374
        30  -9.6947    145.3660    233.1874   1.2536570123e+02   5.6094726441e+00    0.1726725    0.1221977 -71.33 0.0009487566    1.754    0.430
        31 -10.7923    199.1862    227.4427   1.1392602000e+02  -3.0568985879e+00    0.4118335     0.250577 -57.90   0.00199573    2.512    0.602
        32  -9.6723    173.8865    229.1321   1.1913853156e+02   1.1948848730e+00    0.1991337    0.1705765  62.69 0.0009017945    1.260    0.206
        33  -9.6586    184.5102    227.9757   1.1686664794e+02  -5.2764182595e-01    0.1822439    0.1327183 -44.60  0.001029275    1.587    0.370
        34 -10.1158    162.8719    227.5345   1.2106725205e+02   3.4625651738e+00    0.2486704    0.1786948 -75.87  0.001312301    1.947    0.486
        35 -10.3287    190.3987    226.0361   1.1539470073e+02  -1.2694590765e+00    0.2867278    0.1940655 -47.90  0.001240939    1.746    0.427
        36 -11.0792    216.9545    223.4153   1.0983663032e+02  -5.5316311041e+00    0.3870233    0.2644944 -55.13  0.001555865    2.120    0.528
        37  -9.4926    148.3296    240.6512   1.2582979648e+02   3.7929198184e+00    0.1335021   0.09060994  69.60 0.0004275726    1.763    0.433
        38 -10.3335    180.4243    223.1955   1.1688467068e+02   1.0075681610e+00    0.2850942     0.133252 -48.40  0.001262026    2.510    0.602
        39 -10.2187    147.9036    223.5989   1.2346288218e+02   6.8867886835e+00    0.2617537    0.1790839 -77.66  0.001331719    1.979    0.495
        40 -10.0753    185.7875    221.6372   1.1556182167e+02   2.9026501394e-01    0.3109958    0.1705313 -48.01  0.001382697    2.129    0.530
        41  -9.6322    174.5920    222.8094   1.1798088642e+02   2.1415409424e+00    0.1757072    0.1300533 -62.52 0.0009506317    1.719    0.418
        42 -10.8574    202.1124    218.5865   1.1182992213e+02  -2.1692121106e+00    0.4640955    0.2578921 -50.43  0.002205922    2.283    0.562
        43 -10.8809    193.4434    219.0830   1.1361365042e+02  -6.8082087295e-01    0.3838013    0.2547538 -54.28   0.00177866    1.923    0.480
        44 -10.7275    210.7913    218.4717   1.1013218770e+02  -3.6980464382e+00    0.3308153    0.2093277 -43.27  0.001221388    1.790    0.441
        45 -10.7044    205.9562    225.2728   1.1225380887e+02  -3.9087991078e+00    0.3326576    0.1957422 -43.76  0.001305078    1.958    0.489
        46 -11.7631    217.6454    213.3096   1.0788659224e+02  -4.0952289367e+00    0.5949143    0.3545263 -52.60  0.002863104    2.335    0.572
        47 -10.6406    217.4334    204.6412   1.0631103364e+02  -2.6673402074e+00    0.3355906    0.2087397 -41.38  0.001081638    1.724    0.420
        48 -10.7409    170.6301    216.8321   1.1778997855e+02   3.9243820697e+00    0.3521054     0.163629 -47.80  0.001501544    2.437    0.590
        49  -9.6139    185.5766    215.3161   1.1452106621e+02   1.4041429884e+00    0.2313855     0.134397 -49.13 0.0008443061    2.001    0.500
        50  -9.4177    165.4471    216.0054   1.1870584145e+02   5.0418696873e+00    0.1946554    0.1372431 -49.62  0.001030091    1.601    0.375
        51  -9.6961    154.4617    214.0448   1.2063665793e+02   7.4595573918e+00    0.1971447    0.1378466 -52.31  0.001033411    1.601    0.375
        52 -10.3034    209.8772    212.2908   1.0919185170e+02  -2.5482278685e+00    0.2398683    0.1948264 -21.40 0.0008349663    1.286    0.222
        53 -10.5111    176.9611    211.0112   1.1551172902e+02   3.7793424552e+00    0.3085459    0.2069277 -56.95  0.001407917    1.819    0.450
        54  -9.7409    200.2526    210.7413   1.1079020136e+02  -5.3691290973e-01    0.2230359    0.1646902 -42.82 0.0006873012    1.500    0.333
        55 -10.4715    192.9803    210.0142   1.1210211236e+02   9.3817456692e-01    0.2953126    0.2037945 -52.81  0.001025751    1.748    0.428
        56  -9.8514    186.1786    210.8448   1.1361510582e+02   2.0694926978e+00    0.2028351    0.1845912  58.36 0.0007331685    1.186    0.157
        57 -10.4449    205.9890    208.1091   1.0918014915e+02  -1.1525399580e+00    0.2987133    0.2277707 -41.56  0.001118816    1.439    0.305
        58  -9.5961    206.1292    203.1321   1.0822314795e+02  -3.3913563101e-01    0.2329025    0.1728675 -51.53 0.0006399213    1.611    0.379
        59  -9.1268    167.6498    209.3080   1.1712625936e+02   5.8587090277e+00    0.1424993    0.1052681  71.67 0.0007043543    1.711    0.415
        60  -9.6717    145.6564    209.3035   1.2170010363e+02   1.0017339277e+01     0.144639    0.1016614  70.94 0.0007040177    1.684    0.406
        61  -9.9963    179.3265    217.0234   1.1606770840e+02   2.2700790594e+00    0.1827802    0.1795459 -26.48  0.001136419    1.145    0.127
        62  -9.7455    182.9856    207.0565   1.1358575815e+02   3.3469803411e+00    0.2082898    0.1700955  81.92 0.0009427567    1.618    0.382
        63 -10.1781    156.4020    206.7771   1.1903344091e+02   8.4810692698e+00    0.2530839    0.1378308 -54.75  0.001132776    2.099    0.523
        64 -10.9618    124.7490    206.3971   1.2564615167e+02   1.4441877155e+01    0.3291095    0.1936848  68.41 0.0006556381    2.159    0.537
        65 -10.9316    139.4929    205.5425   1.2239179718e+02   1.1914987697e+01    0.2723739    0.1392021 -54.24  0.001201681    2.137    0.532
        66 -10.6302    197.6848    204.0703   1.1007352361e+02   1.0843821666e+00    0.3418103    0.2423892 -39.83  0.001602931    1.515    0.340
        67 -10.2958    186.9573    203.5118   1.1213383329e+02   3.2259680225e+00    0.3293743    0.2047705 -61.15  0.001484273    2.289    0.563
        68  -9.7949    178.8592    204.3038   1.1393504541e+02   4.6380110633e+00    0.2316498    0.1958122 -61.64  0.001057863    1.381    0.276
        69 -10.2822    160.9681    210.9910   1.1879155906e+02   6.8116747425e+00    0.2707798    0.1997575 -50.98  0.001454434    1.511    0.338
        70 -11.0120    210.5318    201.4453   1.0704015233e+02  -8.7192128435e-01    0.3990719    0.2963695 -69.31   0.00149161    2.129    0.530
        71  -9.9266    192.9606    202.4583   1.1072221922e+02   2.2654153613e+00    0.2947089    0.1946111 -58.24 0.0008531911    1.993    0.498
        72  -9.5526    191.1571    198.1471   1.1027926579e+02   3.3871761024e+00    0.1871968    0.1697319 -85.37 0.0006455082    1.347    0.257
        73 -10.7590    164.4824    202.5108   1.1660325189e+02   7.7525777981e+00    0.2785538     0.142025 -48.76  0.001205907    2.153    0.535
        74 -10.4650    131.4747    203.0154   1.2369288230e+02   1.3915137932e+01    0.2068058    0.1375787 -57.69  0.001037954    1.609    0.379
        75 -10.3010    219.5016    194.6159   1.0398018610e+02  -1.3814482811e+00    0.2810632    0.2420572 -65.18  0.000816455    1.540    0.350
        76 -10.4039    215.3220    197.7552   1.0539897681e+02  -1.1369777313e+00    0.3128231    0.2130446 -53.47  0.001247966    1.867    0.464
        77 -10.9964    215.1327    190.5510   1.0402186643e+02   1.3145289116e-01    0.5305703    0.2195338 -39.93  0.001957948    2.478    0.596
        78 -10.2800    176.2082    197.9872   1.1333186231e+02   6.3327908847e+00    0.3051079    0.1893739 -53.31  0.001142425    1.849    0.459
        79 -11.2943    149.0066    198.5449   1.1919642860e+02   1.1525096423e+01    0.2720552    0.2019962 -74.93  0.001235448    1.626    0.385
        80 -10.5774    170.0070    197.9920   1.1463205904e+02   7.5472395256e+00    0.2241699    0.1739182  79.72 0.0008567236    1.669    0.401
        81 -10.3687    184.2063    196.5402   1.1140140880e+02   5.0374473059e+00     0.310263    0.2116379 -34.77  0.001235515    1.628    0.386
        82 -10.1964    185.2265    190.5333   1.1004260084e+02   5.9656268053e+00    0.3065889    0.1938063 -41.91 0.0008732103    1.680    0.405
        83 -10.0603    156.5096    197.5297   1.1741219559e+02   1.0276843355e+01    0.1435494    0.1316183  51.55 0.0003615611    1.004    0.004
        84 -10.7867    140.4006    197.2343   1.2082671723e+02   1.3438944480e+01    0.1940018    0.1352977 -67.92 0.0009495346    1.641    0.391
        85 -10.6619    132.6310    195.7659   1.2226729425e+02   1.5210501756e+01    0.1975564    0.1324519 -68.15 0.0009502597    1.686    0.407
        86  -9.9653    194.2281    194.6327   1.0898391942e+02   3.4298298688e+00    0.2765323    0.2204529 -80.92  0.001062514    1.791    0.442
        87 -11.1775    161.9577    192.6665   1.1536749484e+02   1.0179826348e+01    0.3162532    0.2012636 -59.00  0.001458566    1.837    0.456
        88  -9.9036    152.0000    193.9637   1.1774854357e+02   1.1875671964e+01    0.2243869   0.08305174 -49.87 0.0007966118    2.902    0.655
        89 -10.5167    202.2101    197.5098   1.0792981969e+02   1.3741243988e+00    0.2972626    0.2451835 -53.76   0.00116845    1.424    0.298
        90 -10.1068    198.8960    191.1330   1.0735757427e+02   3.1558460590e+00    0.2880432    0.2327311 -49.55  0.001245838    1.375    0.273
        91 -10.3391    172.2169    191.1255   1.1288950510e+02   8.4456458822e+00    0.3119301    0.1970254 -55.11 0.0009249734    1.813    0.449
        92  -9.7753    205.1153    190.7705   1.0603815988e+02   2.0113544165e+00    0.2405111    0.1842829 -48.94 0.0007945981    1.459    0.315
        93 -10.3920    178.8707    190.1509   1.1129765542e+02   7.3065003298e+00     0.345558    0.2133958 -49.71  0.001201533    1.769    0.435
        94 -10.1681    210.2240    189.1078   1.0469582374e+02   1.3211482491e+00    0.2853798    0.1833767 -47.81 0.0007277767    1.734    0.423
        95 -10.1338    193.1035    188.1282   1.0794546060e+02   4.8516736949e+00    0.2472053    0.2189857 -62.03 0.0008758152    1.305    0.234
        96 -11.3739    156.2287    188.4514   1.1582867264e+02   1.2171554144e+01    0.2703721    0.2090014 -49.58  0.001047396    1.378    0.274
        97  -9.7603    120.6838    188.3370   1.2366815138e+02   1.9016881696e+01    0.1508512     0.104672  77.06 0.0007048018    1.698    0.411
        98 -10.8599    166.2252    186.4700   1.1328677757e+02   1.0573848803e+01    0.2722899    0.2089503 -49.22  0.001220732    1.385    0.278
        99 -10.7722    150.5214    186.9855   1.1680759990e+02   1.3607260794e+01     0.217261    0.1453534 -52.61 0.0009082382    1.585    0.369
       100 -10.3493    209.1365    194.4184   1.0595792129e+02   5.9649917763e-01    0.2627851    0.2016682 -45.38 0.0009619405    1.430    0.300
       101 -11.2474    218.8324    168.3970   9.8739551873e+01   3.3611519970e+00    0.4835487    0.3297265 -47.72  0.001566144    1.561    0.359
       102 -11.2855    225.2341    173.2451   9.8542707306e+01   1.2316602905e+00    0.4520633    0.3570594 -37.96  0.001840861    1.257    0.204
       103 -10.7439    223.8591    183.8985   1.0100427005e+02  -3.6728567578e-01    0.4030481    0.2310818 -41.82  0.001144907    1.781    0.439
       104 -10.1138    225.4994    179.1058   9.9711413064e+01   1.5234677519e-01    0.2564137    0.2209479 -29.42 0.0007413406    1.140    0.123
       105 -10.2210    197.8535    183.6507   1.0608053842e+02   4.7413529066e+00    0.5178347    0.2880884 -61.44  0.001952546    3.027    0.670
       106 -10.3434    172.9861    185.3129   1.1161045975e+02   9.4400269213e+00    0.2470846    0.2038399 -62.31 0.0009368791    1.362    0.266
       107 -11.3960    139.7576    185.3535   1.1889442403e+02   1.6064305430e+01     0.270753    0.1797569 -65.42  0.001260516    1.709    0.415
       108 -10.8197    203.3876    183.6069   1.0495164610e+02   3.6480671660e+00    0.4173019    0.2740595 -58.13  0.001914202    1.997    0.499
       109  -9.7793    189.5062    185.0502   1.0807708732e+02   6.1518103182e+00    0.2145307    0.1437774 -42.51 0.0009424548    1.564    0.360
       110 -10.9872    210.9381    182.4795   1.0321876669e+02   2.3662081710e+00    0.4791345    0.2421145 -39.48   0.00137157    2.015    0.504
       111 -10.4607    210.4956    175.5675   1.0188033307e+02   3.7122701591e+00    0.3544907    0.1627925 -45.08 0.0009464607    2.279    0.561
       112 -10.7420    183.5461    183.0824   1.0892975105e+02   7.7363120463e+00    0.3319274    0.2695177 -51.29   0.00104062    1.328    0.247
       113 -10.5799    162.4931    183.9453   1.1361263570e+02   1.1841015283e+01    0.2177652     0.146912 -49.02  0.001025459    1.569    0.362
       114 -10.5473    154.6558    183.5289   1.1525184381e+02   1.3506107926e+01    0.2496344    0.1394785 -50.10 0.0009895585    1.891    0.471
       115 -11.4830    176.7569    181.4883   1.1005151675e+02   9.4347599670e+00    0.3705699    0.2447927 -53.81  0.001353728    1.685    0.406
       116 -10.7683    190.5172    179.2110   1.0669004748e+02   7.0673358886e+00    0.4125855    0.3149407 -66.99  0.002020191    1.680    0.405
       117 -10.3019    159.7684    180.9838   1.1363808004e+02   1.3005027425e+01    0.1932417    0.1244593 -48.32 0.0008774968    1.633    0.388
       118 -10.5575    145.4757    180.4740   1.1671753049e+02   1.5987295559e+01    0.2566741     0.142109 -62.94  0.001030909    2.238    0.553
       119 -11.4210    168.9764    177.9715   1.1102846467e+02   1.1743466074e+01    0.3410656    0.2184548 -55.54 0.0009187051    1.744    0.427
       120 -11.9770    150.1084    177.8689   1.1518243466e+02   1.5618283200e+01    0.3483893    0.2546029 -61.94  0.001398909    1.492    0.330
       121 -10.4923    205.0064    177.0209   1.0327660723e+02   4.5435192006e+00    0.3593327    0.2044406 -46.08 0.0008739134    1.856    0.461
       122 -10.8546    205.4357    169.7254   1.0165844446e+02   5.8266365065e+00    0.4342768    0.2521757 -49.28   0.00179403    1.886    0.470
       123 -10.4738    197.6231    176.9051   1.0474965087e+02   6.0601481750e+00     0.316198    0.2457095 -46.44 0.0009342215    1.354    0.261
       124 -10.6387    182.1945    176.0500   1.0779350553e+02   9.3994572882e+00    0.3409446    0.2171205 -45.40  0.001058317    1.635    0.388
       125 -11.2384    139.5015    176.5548   1.1732930969e+02   1.8020761997e+01    0.3029035     0.146326 -51.72   0.00120468    2.143    0.533
       126 -11.5926    161.6191    175.4739   1.1214544543e+02   1.3778135765e+01    0.2793978    0.2407069 -58.62  0.001223059    1.221    0.181
       127 -10.2660    192.6320    173.2404   1.0501702898e+02   7.7910129550e+00    0.3267472    0.1716748 -39.37    0.0010835    1.985    0.496
       128  -9.7312    187.5672    172.6988   1.0596321819e+02   8.9489756289e+00    0.2652849    0.1452228 -40.32 0.0008262089    1.904    0.475
       129  -9.7986    200.5989    171.7579   1.0306687134e+02   6.4331361306e+00    0.2562441    0.1418779 -37.99 0.0007633862    1.863    0.463
       130  -9.5882    197.0118    169.7554   1.0337723722e+02   7.5601490852e+00    0.3178925    0.2314218 -66.75 0.0009906964    1.839    0.456
       131 -11.9950    169.8582    169.4889   1.0910607660e+02   1.3314528714e+01    0.5301678    0.2223296 -42.22  0.001909666    2.545    0.607
       132 -11.5272    158.2083    170.5289   1.1190988920e+02   1.5530870159e+01    0.2868067    0.2138407 -50.33  0.001092326    1.389    0.280
       133 -10.8677    143.1597    171.1698   1.1545615532e+02   1.8472605228e+01    0.2127511    0.1762028  87.88 0.0007702867    1.339    0.253
       134 -11.2798    134.6133    169.9677   1.1719566399e+02   2.0442624023e+01    0.3340901    0.1425432 -51.42  0.001239744    2.390    0.582
       135 -11.5762    178.8931    168.6237   1.0695676859e+02   1.1588002711e+01    0.4358951    0.2408965 -45.96   0.00166362    1.868    0.465
       136 -11.2464    164.1562    168.3820   1.1013847154e+02   1.4745593521e+01    0.4548599     0.196849 -32.75  0.001358125    3.999    0.750
       137 -11.2220    127.5063    167.5171   1.1838589348e+02   2.2381485516e+01     0.307973    0.1451583 -53.04  0.001204772    2.143    0.533
       138 -11.2880    191.6437    165.5322   1.0358864056e+02   9.5141399037e+00    0.4688279    0.2783924 -38.63  0.001399807    1.742    0.426
       139 -11.0260    184.5800    165.5996   1.0509457968e+02   1.0997873504e+01    0.2868585    0.2614777 -65.10 0.0009624002    1.187    0.157
       140 -10.6241    159.4990    164.9818   1.1047545521e+02   1.6450290257e+01    0.2927388    0.1493158 -43.26  0.001146617    2.066    0.516
       141 -11.0260    158.5759    160.2140   1.0967746546e+02   1.7675097128e+01    0.4100905    0.1465602 -49.01  0.001225883    2.910    0.656
       142 -11.9951    138.8210    163.7456   1.1498421662e+02   2.0995563645e+01    0.3435166    0.2612639 -51.75  0.001469485    1.337    0.252
       143  -9.8705    172.4250    163.7563   1.0733284364e+02   1.3967839840e+01    0.2781514    0.1481392 -49.68 0.0007977437    1.976    0.494
       144 -11.4909    150.3556    168.6279   1.1330262920e+02   1.7564043290e+01    0.3001738    0.1889741 -47.61  0.001332797    1.642    0.391
       145 -11.5824    152.5594    162.2021   1.1147530231e+02   1.8510500957e+01    0.4091728    0.2476854 -29.40  0.001606017    2.346    0.574
       146 -10.9117    205.1498    161.6022   9.9966413844e+01   7.4369715593e+00    0.4224294    0.3131517 -55.73  0.001815632    1.530    0.347
       147 -11.1650    146.5724    162.7163   1.1296551427e+02   1.9642022748e+01    0.2866834    0.1465825 -45.34   0.00108626    2.037    0.509
       148 -10.9761    163.5572    161.7158   1.0887018440e+02   1.6291794927e+01     0.285573    0.1495931 -42.99   0.00112794    1.993    0.498
       149 -11.7086    176.7061    159.4676   1.0546756259e+02   1.3943941111e+01    0.4255154    0.2611832 -49.46  0.001663883    1.696    0.410
       150 -11.3199    183.6084    154.9666   1.0297890571e+02   1.3377681285e+01    0.4873061    0.1924675 -34.19  0.001497288    3.452    0.710
       151 -10.4906    199.3476    164.8962   1.0185792997e+02   8.0163755961e+00    0.3397334    0.2251313 -40.60  0.001086953    1.522    0.343
       152 -10.6916    168.1639    159.1816   1.0729202886e+02   1.5846100972e+01    0.2144929     0.183982 -84.43 0.0006992841    1.334    0.250
       153 -10.7048    149.5792    158.3221   1.1134606775e+02   1.9988793025e+01    0.2921663    0.1489469 -53.09 0.0009931995    2.068    0.516
       154 -10.6291    216.3122    156.4194   9.6629564106e+01   6.0939755926e+00    0.3694803    0.2533138 -47.67  0.001103826    1.508    0.337
       155 -10.8408    197.0073    156.9512   1.0060057879e+02   1.0073853008e+01    0.4126025    0.2437524 -37.55  0.001257176    1.736    0.424
       156 -11.1236    187.4686    155.7905   1.0233810057e+02   1.2368682385e+01    0.4233278    0.1768369 -41.25  0.001507685    2.447    0.591
       157 -10.0475    154.4964    156.9334   1.0990931252e+02   1.9257061509e+01    0.2355383    0.1520294 -48.55 0.0007503604    1.576    0.366
       158 -12.0897    144.9585    154.0419   1.1151434575e+02   2.1908561195e+01    0.5051536    0.2170187 -49.26   0.00182175    2.356    0.576
       159 -10.0252    113.0000    156.9993   1.1983519618e+02   2.7541641213e+01    0.2463269   0.08198437 -54.03 0.0008031056    2.947    0.661
       160 -10.5962    206.0052    154.4954   9.8227961682e+01   8.6296749173e+00    0.3892502    0.3125133 -67.24  0.001928639    1.514    0.340
       161 -11.6363    167.3240    153.1823   1.0616221080e+02   1.7308417581e+01    0.5548232    0.1825758 -39.85   0.00163926    3.551    0.718
       162  -9.7822    192.4593    153.8369   1.0085066021e+02   1.1679154800e+01    0.2837784    0.1466213 -46.62  0.001118595    1.982    0.496
       163 -10.2317    171.4764    154.0077   1.0541717281e+02   1.6226967687e+01    0.2380464    0.1523605 -45.37   0.00103046    1.586    0.369
       164 -11.7102    157.2694    153.2054   1.0845743952e+02   1.9481296720e+01    0.3408004    0.2484298 -59.52  0.001235442    1.479    0.324
       165 -10.9236    151.5243    152.4375   1.0962244528e+02   2.0880046384e+01    0.3134487    0.1522616 -47.81  0.001045593    2.084    0.520
       166 -11.1251    136.4926    152.4915   1.1320082025e+02   2.4008446278e+01    0.3187424    0.1499456 -50.27  0.001201807    2.133    0.531
       167  -9.8488    202.2871    151.2975   9.8259052322e+01   1.0052414594e+01    0.2724643    0.1765527 -31.65 0.0007772743    1.653    0.395
       168 -10.2154    196.6438    150.0782   9.9135405976e+01   1.1520864671e+01    0.3341486    0.2199405 -31.05  0.001152969    1.660    0.398
       169 -10.6126    121.6185    150.7670   1.1646294638e+02   2.7364201156e+01    0.2175668    0.1401931 -63.55 0.0009509829    1.658    0.397
       170 -10.5741    181.8880    149.8060   1.0218898289e+02   1.4821748958e+01     0.284377    0.2195992 -43.33   0.00108464    1.304    0.233
       171 -11.5010    162.0674    149.3865   1.0650534334e+02   1.9273870069e+01    0.3105888    0.2298259 -56.43  0.001178102    1.422    0.297
       172 -11.0223    191.1276    148.3448   9.9888299629e+01   1.3081316438e+01    0.3018664    0.2212981 -49.24 0.0008692159    1.397    0.284
       173 -10.4633    171.8521    149.1734   1.0424799576e+02   1.7170960949e+01    0.2121283    0.1873529  -9.40 0.0006375144    1.301    0.232
       174 -11.9809    147.6844    143.0665   1.0843459899e+02   2.3785820305e+01    0.4484899    0.2630009 -52.22  0.001700199    1.747    0.428
       175 -10.5245    132.4720    147.9668   1.1320282401e+02   2.5858373972e+01    0.2398866    0.1490613 -50.32 0.0009495275    1.602    0.376
       176 -10.6992    176.2185    146.1292   1.0258599714e+02   1.6847607037e+01    0.3669328    0.2136615 -40.79  0.001067067    1.758    0.431
       177 -10.2981    166.6738    146.4483   1.0479044775e+02   1.8897107402e+01    0.2730911    0.1441827 -45.12  0.001063096    1.912    0.477
       178 -10.1836    200.1758    145.0528   9.7266772609e+01   1.1747439395e+01    0.3516196    0.2172048 -41.73  0.001113391    1.599    0.375
       179 -11.8289    155.4169    143.3872   1.0668042913e+02   2.2038966192e+01    0.4298084    0.2608628 -49.16  0.001628808    1.665    0.399
       180 -11.6174    138.9739    143.3568   1.1059960162e+02   2.5567699999e+01    0.4255155    0.2282958 -46.63   0.00151084    1.871    0.465
       181 -10.0165    218.2998    144.1408   9.3503313818e+01   7.9939302496e+00    0.2246429    0.1937307 -15.12 0.0006571921    1.222    0.182
       182  -9.8827    194.2564    143.4806   9.8118428332e+01   1.3372525719e+01    0.2881891    0.2051274 -42.38  0.000750487    1.395    0.283
       183  -9.7847    171.4769    144.0374   1.0315551690e+02   1.8347046425e+01     0.239593    0.1536976 -43.36 0.0008501906    1.574    0.365
       184 -11.1511    181.6392    141.7436   1.0038671504e+02   1.6553297474e+01    0.3363892    0.2646629 -55.30  0.001063803    1.331    0.249
       185 -10.9215    130.9811    141.4878   1.1214384550e+02   2.7644115465e+01     0.307212    0.2137876 -66.22  0.001302741    1.613    0.380
       186  -9.5659    203.4887    140.9594   9.5655394446e+01   1.1826566269e+01     0.229166    0.1472921 -41.19 0.0006944046    1.527    0.345
       187 -10.5532    166.2879    140.2765   1.0344981167e+02   2.0311424353e+01    0.2788833    0.2263332 -48.73  0.001151005    1.238    0.192
       188 -10.6015    123.6156    140.8264   1.1383650099e+02   2.9274552384e+01    0.2248717    0.1416677 -61.97 0.0009552044    1.717    0.418
       189 -10.3141    192.4479    137.3337   9.7058232567e+01   1.5021497334e+01    0.4655499    0.2263155 -29.66  0.001587438    2.795    0.642
       190  -9.5320    186.6572    139.8391   9.8864728761e+01   1.5817263538e+01    0.2254377    0.1400676 -51.42 0.0009394471    1.701    0.412
       191 -10.6509    208.0632    137.7133   9.3997396783e+01   1.1451495475e+01    0.4190475    0.3648723  69.22  0.002178927    1.268    0.211
       192 -10.9618    172.5687    137.6674   1.0142054715e+02   1.9456459237e+01    0.3903015    0.2502875 -49.60  0.001383884    1.592    0.372
       193 -10.8021    198.8353    136.8414   9.5631303150e+01   1.3681004539e+01    0.3746477    0.2226245 -38.57  0.001204841    1.682    0.406
       194 -10.9498    137.8500    136.4548   1.0929803307e+02   2.7365442747e+01    0.2713528     0.183474 -44.02  0.001201908    1.499    0.333
       195 -10.1023    187.5535    135.2052   9.7579887544e+01   1.6565579974e+01    0.3534535    0.1522399 -40.13 0.0009201922    2.352    0.575
       196 -11.0241    163.1045    135.3341   1.0300946223e+02   2.2091511076e+01    0.3143459    0.2320625 -50.36  0.001141205    1.368    0.269
       197 -11.2289    155.7832    135.5586   1.0476601516e+02   2.3678535151e+01    0.3003183    0.2202873 -46.37 0.0008402946    1.366    0.268
       198 -11.2408    149.9658    134.7096   1.0594449831e+02   2.5148970124e+01    0.2220574    0.2098889  55.91 0.0006813773    1.054    0.051
       199 -10.2064    133.0000    134.9583   1.1015332228e+02   2.8718668266e+01    0.2568109   0.08704016 -48.45 0.0007988818    2.918    0.657
       200 -10.9880    211.9022    128.6001   9.1121183086e+01   1.2364072112e+01    0.3967542    0.2535451 -46.61  0.001321788    1.541    0.351
       201 -10.7213    179.5393    132.1261   9.8560322394e+01   1.9033825572e+01    0.3785119    0.2896514 -48.97  0.001246691    1.313    0.238
       202 -10.0266    143.0000    136.9897   1.0816190831e+02   2.6150819273e+01    0.2602739   0.08824442 -47.26 0.0008022469    2.941    0.660
       203 -11.4358    142.8990    130.8589   1.0673584708e+02   2.7543889665e+01    0.3570887    0.2254351 -51.67  0.001441572    1.601    0.375
       204 -10.8201    205.8143    129.7580   9.2568051419e+01   1.3508269367e+01    0.5491563    0.2078484 -42.91   0.00188116    2.561    0.609
       205 -10.3713    160.4834    131.0825   1.0259292957e+02   2.3601392976e+01    0.2439706    0.1550151 -44.13 0.0007025512    1.578    0.366
       206 -10.4906    154.5074    130.4794   1.0384809186e+02   2.5074392685e+01    0.3254683    0.1547076 -45.26  0.001193007    2.103    0.524
       207 -10.0323    125.4985    131.5160   1.1124529507e+02   3.1038737706e+01     0.152682    0.1477327 -75.55 6.318343e-05    1.006    0.006
       208 -10.3657    192.4129    128.9021   9.5054206120e+01   1.6735503044e+01    0.3566272    0.2552845 -38.52  0.001088572    1.398    0.285
       209  -9.8070    186.3317    128.6071   9.6252617346e+01   1.8196871747e+01    0.2999787    0.1915924 -39.08 0.0007535013    1.579    0.367
       210 -10.4312    172.0390    128.6862   9.9377193497e+01   2.1478163156e+01    0.3106587    0.2384644 -35.41  0.001271379    1.362    0.266
       211 -10.6319    165.4689    128.0014   1.0069292776e+02   2.3130723398e+01    0.2464684    0.1548064 -44.36 0.0008645804    1.591    0.371
       212 -11.2728    152.1307    125.6985   1.0324343958e+02   2.6649403942e+01    0.2837635    0.2153607 -56.03  0.001090454    1.363    0.267
       213 -11.0862    134.3013    126.0151   1.0770047416e+02   3.0465754141e+01    0.2313836    0.2040189 -50.61  0.001124355    1.119    0.106
       214 -10.7511    179.9730    123.5250   9.6365242172e+01   2.0715934040e+01    0.4384263     0.236838 -37.31  0.001385487    1.937    0.484
       215 -10.7602    146.4135    124.7306   1.0438360439e+02   2.8132398797e+01    0.2213327    0.1494667 -35.94  0.000774111    1.606    0.377
       216  -9.4072    168.2749    131.3672   1.0087564461e+02   2.1771930387e+01     0.159194    0.1262411  -5.72 0.0005520015    1.674    0.403
       217 -10.2240    188.0565    122.8126   9.4473949899e+01   1.8975405733e+01    0.3456329     0.222456 -37.52  0.001074205    1.581    0.368
       218  -9.8510    169.5474    124.0145   9.8783842397e+01   2.3037536000e+01    0.2450018    0.1544781 -42.99  0.001026447    1.585    0.369
       219  -9.9335    199.7162    126.0372   9.2881457879e+01   1.5629339778e+01    0.2229669    0.1908711 -39.99 0.0006741674    1.150    0.130
       220 -11.0792    212.7303    121.5873   8.9300139917e+01   1.3523330681e+01    0.4927298    0.2210236 -33.77  0.001777133    2.437    0.590
       221 -10.2507    202.8557    121.1016   9.1068168749e+01   1.5877012184e+01    0.2926371    0.2464309 -57.43 0.0007432421    1.213    0.175
       222 -10.1567    116.6851    122.6454   1.1143037563e+02   3.4812979571e+01    0.1561017    0.1206684 -14.17 0.0007045483    1.739    0.425
       223  -9.9812    194.1953    120.5271   9.2649631685e+01   1.8001254752e+01    0.2958349    0.2107739 -40.71 0.0009278984    1.385    0.278
       224 -10.7930    157.2703    119.7555   1.0053828729e+02   2.6768768049e+01    0.2852537    0.1937238 -46.81  0.001077303    1.471    0.320
       225  -9.2953    183.7579    118.9210   9.4411901358e+01   2.0770691636e+01    0.2056237     0.131929 -39.63 0.0007248622    1.564    0.361
       226  -9.9218    173.9126    118.8762   9.6525966957e+01   2.3092840596e+01     0.241189    0.2208418  -1.94 0.0007553731    1.233    0.189
       227 -11.2225    140.4520    118.0032   1.0416591358e+02   3.0917194478e+01    0.3378563    0.1996838 -45.62  0.001396885    1.678    0.404
       228  -9.6796    208.9923    118.0576   8.9153650398e+01   1.5052533776e+01    0.1916796    0.1649392 -42.80 0.0005689785    1.125    0.111
       229  -9.1814    190.4665    118.4650   9.2900659199e+01   1.9285501795e+01    0.1532835    0.1518831 -24.05 0.0002199351    1.047    0.045
       230 -10.2733    147.4799    116.9873   1.0217614209e+02   2.9581102544e+01    0.2456559    0.1540079 -44.54 0.0008270305    1.589    0.371
       231  -9.0317    199.4592    116.5058   9.0610122624e+01   1.7564282718e+01    0.1522647     0.149397 -34.29 0.0001165944    1.048    0.046
       232 -10.0265    162.7733    115.9569   9.8291667599e+01   2.6303576311e+01    0.2136027     0.130191 -42.15  0.000873125    1.645    0.392
       233 -10.4269    129.0015    115.7665   1.0650367635e+02   3.3862167602e+01    0.2316402    0.1743384 -23.80  0.001049618    1.622    0.383
       234 -10.4631    212.7200    111.0515   8.6765475890e+01   1.5524690151e+01    0.2716656    0.1772908 -42.33 0.0006118568    1.469    0.319
       235  -9.3927    203.4456    115.0024   8.9465974913e+01   1.6925387316e+01    0.2328073    0.1482905 -37.81 0.0007664851    1.558    0.358
       236  -9.9631    185.9495    114.4872   9.2839947312e+01   2.1146671674e+01    0.2982548     0.219898 -25.37  0.001117229    1.571    0.363
       237  -9.9881    194.8406    112.9642   9.0646460708e+01   1.9343369785e+01    0.3257197    0.1972392 -37.65  0.001147748    1.663    0.399
       238  -9.4567    208.2180    113.0263   8.8077262242e+01   1.6193791142e+01      0.20767    0.1212619 -39.41 0.0006657388    1.667    0.400
       239  -9.7253    168.2274    110.9821   9.5771969750e+01   2.6057039873e+01    0.2142059    0.1297811 -42.48 0.0008755762    1.648    0.393
       240  -9.9637    218.4651    109.2959   8.5312072383e+01   1.4531092444e+01     0.276745    0.1451047 -33.45 0.0008628122    2.005    0.501
       241 -10.5166    123.5720    109.7334   1.0637001749e+02   3.6313725424e+01    0.3028227    0.1443141 -41.72   0.00113499    2.129    0.530
       242  -9.4872    201.3526    108.7924   8.8334017827e+01   1.8612106429e+01    0.2168848    0.1434096 -30.18 0.0008613691    1.664    0.399
       243  -9.6265    189.9324    108.6814   9.0554604067e+01   2.1348664501e+01    0.2149189    0.2054491  69.27 0.0006524452    1.047    0.045
       244  -9.6873    182.8638    108.3869   9.1933155947e+01   2.3096707435e+01    0.2641957    0.1855091 -35.97  0.001091885    1.469    0.319
       245 -10.0439    160.5063    107.9385   9.6732675305e+01   2.8499309942e+01    0.2439579    0.1550795 -41.60  0.001028653    1.579    0.367
       246  -9.8715    133.5109    108.0092   1.0333001800e+02   3.4590620413e+01    0.2421753    0.1509214 -44.15  0.001031548    1.588    0.370
       247  -9.3249    196.2276    107.0443   8.8888480034e+01   2.0164544351e+01    0.2058384    0.1263411 -39.22 0.0006109518    1.615    0.381
       248 -10.2503    222.4722    104.0471   8.3359299258e+01   1.4577893537e+01     0.359585    0.1406775 -38.32 0.0008176866    2.447    0.591
       249  -9.6954    205.5732    104.6597   8.6511163645e+01   1.8398862129e+01    0.2749235     0.148167 -34.86 0.0009799086    1.927    0.481
       250  -9.6498    176.5443    110.0204   9.3695110442e+01   2.4279232873e+01    0.2428144    0.1537141 -41.35 0.0007312057    1.576    0.366
       251 -10.1821    213.5326    104.0831   8.4922566080e+01   1.6636393853e+01    0.2303998    0.1442397 -38.95  0.001016925    1.551    0.355
       252 -10.1190    150.2189    101.7780   9.7510361765e+01   3.2158170358e+01    0.2529918    0.1255243 -32.26 0.0008837936    2.475    0.596
       253 -10.4969    141.1745    101.8363   9.9737807046e+01   3.4204833609e+01    0.2193135     0.190371  -3.01  0.000792002    1.346    0.257
       254 -10.0647    130.3943    101.7835   1.0246578065e+02   3.6583332213e+01    0.2258719    0.1434731 -33.69  0.000954673    1.724    0.420
       255  -9.6467    167.2083     99.7042   9.3029053267e+01   2.8572416845e+01    0.2412461    0.1258497 -30.74 0.0008474604    2.336    0.572
       256  -9.8710    160.3825     99.8005   9.4593000950e+01   3.0179841939e+01    0.2256851    0.1496855 -30.18 0.0009513478    1.706    0.414
       257 -15.7284    246.8443     53.5920   6.8166968877e+01   1.7386213704e+01     7.398459     1.673491 -41.34   0.02501741    3.537    0.717
       258  -9.3526    209.4559     99.5062   8.4524967902e+01   1.8439554937e+01    0.1498136     0.144274 -60.56 0.0001688883    1.031    0.030
       259  -9.5190    202.9939     97.0328   8.5080629996e+01   2.0436141296e+01    0.2333797    0.1896313   5.22 0.0006892088    1.643    0.391
       260  -9.8501    195.5265     96.6673   8.6388335332e+01   2.2303674552e+01     0.282013    0.1526428 -33.21  0.001106909    2.004    0.501
       261  -9.0864    176.3009    101.3632   9.1493303143e+01   2.6059167103e+01    0.1599725    0.1259461   6.44 0.0007035473    1.726    0.420
       262  -9.4755    156.4955    247.9923   1.2527706061e+02   1.1645432362e+00    0.1668765    0.1275452 -54.80 0.0009665851    1.590    0.371
       263  -9.1452    183.3498     95.3205   8.8437076584e+01   2.5515712875e+01    0.1599337    0.1235854  17.07 0.0007048428    1.742    0.426
       264  -9.3304    215.7683     93.9849   8.2061765395e+01   1.7952003048e+01    0.1972364    0.1202983 -39.09 0.0008652113    1.589    0.371
       265  -9.1297    207.2624     94.3139   8.3624804036e+01   1.9912164037e+01    0.1435713    0.1206354   5.98 0.0003699514    1.539    0.350
       266  -9.1023    220.2518     93.3870   8.1163371966e+01   1.7007581515e+01    0.1449961    0.1169648  -2.45 0.0004325775    1.670    0.401
       267  -9.4557    164.6038     93.2220   9.1855815188e+01   3.0465059732e+01    0.2191178    0.1505139 -28.27 0.0009467528    1.660    0.398
       268  -9.4571    188.5222     91.9937   8.6533224475e+01   2.4878050699e+01    0.2332202    0.1516353 -37.33 0.0009367767    1.563    0.360
       269 -12.7631    247.8820    216.7201   1.0294383088e+02  -9.6611180507e+00    0.7183011    0.5096886 -48.62  0.004141603    1.929    0.482
       270  -9.5114    210.0531     90.5113   8.2184757447e+01   1.9930431713e+01    0.2369648     0.192275 -43.07 0.0007746471    1.202    0.168
       271  -9.2784    196.6324     91.1850   8.4771864249e+01   2.3049036513e+01      0.21048    0.1454136 -27.88 0.0009342207    1.646    0.392
       272  -9.4920    163.4155    247.1883   1.2385696916e+02   9.9980278024e-02    0.1583619    0.1210983 -71.84 0.0009457376    1.740    0.425
       273  -9.6571    158.2921     89.3646   9.2212265153e+01   3.2719929441e+01    0.1583049    0.1238035   6.58 0.0006895668    1.707    0.414
       274  -8.9256    203.3074     90.2928   8.3320475943e+01   2.1591950558e+01    0.1471754    0.1205344  18.67 0.0004455972    1.582    0.368
       275  -9.9380    218.4673     83.3875   7.9020440904e+01   1.9176366793e+01    0.3745437    0.2465535   2.25  0.001412899    3.159    0.683
       276  -9.4818    206.0119     84.2138   8.1304536496e+01   2.2019265461e+01    0.2084342    0.1634039 -15.74 0.0006321052    1.608    0.378
       277  -9.0300    200.6814     82.6784   8.1847849684e+01   2.3586010993e+01    0.1501643    0.1200432  19.26 0.0007043448    1.667    0.400
       278 -12.1159    244.2724    202.8185   1.0097024762e+02  -7.0496098055e+00    0.8697152    0.5476918 -58.46  0.003995926    2.946    0.661
       279  -9.6768    159.3743     80.7705   8.9557462584e+01   3.4066358594e+01    0.2161338    0.1475754 -26.63 0.0009377419    1.684    0.406
       280  -9.7259    215.1635     79.4811   7.8592784815e+01   2.0631801103e+01    0.2290257    0.2025056  -4.49 0.0007116278    1.411    0.292
       281  -9.9042    142.6973     80.6407   9.3394400531e+01   3.8035613104e+01    0.1569935    0.1200761   7.80 0.0007038086    1.720    0.419
       282  -9.0792    220.2363     78.3543   7.7513273062e+01   1.9613868935e+01    0.1366493    0.1152319  -1.24 0.0003158684    1.576    0.365
       283  -9.4643    201.2807     77.3609   8.0377726361e+01   2.4361015484e+01    0.1473178    0.1195469  12.79 0.0004697421    1.672    0.402
       284  -9.5976    167.1654     76.7949   8.6751286559e+01   3.2883752356e+01    0.2119901    0.1839004  15.84 0.0008379745    1.352    0.261
       285  -9.8200    211.3397     75.6060   7.8248539563e+01   2.2207284511e+01    0.2285117    0.1791651 -13.31 0.0007023896    1.667    0.400
       286  -9.2655    174.6771     76.6865   8.5173539666e+01   3.1053350529e+01    0.1543853    0.1197388  21.38 0.0007040382    1.658    0.397
       287  -9.4233    157.4119     74.8005   8.8289832436e+01   3.5610889967e+01    0.2121748    0.1481919 -22.59 0.0007798588    1.706    0.414
       288  -9.0747    219.3773     74.2890   7.6656176164e+01   2.0496854363e+01    0.1451931    0.1126365  28.99 0.0007018701    1.731    0.422
       289  -9.1093    206.3294     73.3302   7.8495439832e+01   2.3806487728e+01    0.1481073     0.116922  22.79 0.0005058896    1.714    0.417
       290 -10.5730    201.7404    242.2839   1.1587560816e+02  -5.7282904406e+00    0.2761587    0.2142771 -63.18  0.001375845    1.934    0.483
       291  -9.4270    210.6163     71.1736   7.7256985350e+01   2.3119671686e+01    0.1952739    0.1408781 -25.40 0.0006516807    1.633    0.388
       292  -9.6376    163.4655     70.5028   8.5750483707e+01   3.4882474572e+01    0.2655288    0.1513293 -22.81   0.00103245    2.342    0.573
       293  -9.3328    150.3094     71.3421   8.8880490101e+01   3.7919880531e+01    0.1550989    0.1177137  15.43 0.0006910105    1.694    0.410
       294  -8.9064    203.6454     70.6706   7.8262792423e+01   2.4905424136e+01    0.1510645    0.1154471  25.50 0.0007045768    1.779    0.438
       295  -9.3021    214.4093     69.4680   7.6237707771e+01   2.2480130020e+01    0.1423748    0.1349482 -74.72 0.0002464594    1.062    0.058
       296  -9.1514    170.6662     69.6631   8.4028626949e+01   3.3251777538e+01    0.1565159    0.1173934  22.02 0.0007051992    1.743    0.426
       297 -10.2075    219.0238     66.5109   7.4814509655e+01   2.1847078125e+01    0.4567839    0.2576756 -10.42  0.001464533    4.530    0.779
       298  -9.4272    224.7044    237.3643   1.1080269886e+02  -8.8269061254e+00    0.1278924    0.1059955  19.60 0.0006416006    1.017    0.016
       299  -9.7736    203.2748     65.5657   7.7018587997e+01   2.5828003917e+01    0.2376551    0.1870043  -5.17  0.001163166    1.756    0.430
       300  -9.7737    169.0987    242.6388   1.2212393007e+02  -1.6405314084e-01    0.1975418    0.1786401 -84.29 0.0009448988    1.347    0.258
       301 -10.0351    146.4666     65.0316   8.7886863157e+01   3.9904718400e+01    0.2074991    0.1331708  -4.82  0.000809534    2.544    0.607
       302  -9.3634    208.4402     63.5127   7.5677722014e+01   2.4887436886e+01    0.1431183    0.1353469 -86.95 0.0001505814    1.059    0.055
       303 -11.3872    221.2207     58.2386   7.2496725265e+01   2.2614871081e+01    0.3973306    0.1256803 -43.40   0.00139802    2.911    0.657
       304  -9.8383    206.8692     57.8949   7.4504624833e+01   2.6148154390e+01    0.2153223    0.1976486  24.59  0.001148938    1.337    0.252
       305  -9.3931    165.2939     58.3479   8.1888957161e+01   3.6415711634e+01    0.1500907    0.1139198  21.61 0.0006598928    1.672    0.402
       306  -9.4571    217.4051     57.4703   7.2848285691e+01   2.3648288785e+01    0.1383495    0.1302772 -81.72 0.0002496495    1.084    0.077
       307  -9.2382    201.2928     52.3629   7.3950108393e+01   2.8357623802e+01    0.1417166    0.1117714  25.22 0.0007028956    1.705    0.413
       308  -8.8490    208.2926     47.3282   7.1645944051e+01   2.7367319592e+01    0.1355913    0.1092911  30.45 0.0003698854    1.624    0.384
       309 -10.7619    224.5816    249.6922   1.1285829781e+02  -1.0444736365e+01    0.2261197    0.2021911  31.57   0.00134425    1.272    0.214
       310 -11.3588    225.2622    243.1677   1.1167053788e+02  -9.6991650693e+00    0.3387642    0.2952035 -25.56  0.001403556    1.339    0.253
       311  -9.9212    222.2974     33.3083   6.6453331495e+01   2.5907523987e+01    0.1258943    0.1023884  39.36 0.0003103449    1.593    0.372
       312 -10.5467    221.3981     28.7355   6.5497192603e+01   2.6713819515e+01    0.1667366    0.1306019 -22.15 0.0009398587    1.631    0.387
       313 -11.1889    209.5819    249.1416   1.1550453388e+02  -7.9838599587e+00    0.3125105    0.2863737  13.37  0.002051038    1.176    0.150
       314 -11.1172    191.5202    248.4416   1.1874626141e+02  -4.8958933633e+00    0.3840338    0.3227228  66.74  0.002486051    1.516    0.340
       315 -10.3970    175.9191    246.9412   1.2145585454e+02  -2.0164761742e+00    0.2613931    0.1913178 -58.21  0.001566951    1.783    0.439
