#   1 NUMBER                 Running object number                                     
#   2 MAG_AUTO               Kron-like elliptical aperture magnitude                    [mag]
#   3 X_IMAGE                Object position along x                                    [pixel]
#   4 Y_IMAGE                Object position along y                                    [pixel]
#   5 X_WORLD                Barycenter position along world x axis                     [deg]
#   6 Y_WORLD                Barycenter position along world y axis                     [deg]
#   7 A_WORLD                Profile RMS along major axis (world units)                 [deg]
#   8 B_WORLD                Profile RMS along minor axis (world units)                 [deg]
#   9 THETA_WORLD            Position angle (CCW/world-x)                               [deg]
#  10 FWHM_WORLD             FWHM assuming a gaussian core                              [deg]
#  11 ELONGATION             A_IMAGE/B_IMAGE                                           
#  12 ELLIPTICITY            1 - B_IMAGE/A_IMAGE                                       
         1 -14.8459    236.8158      5.0127   5.7131225087e+01   2.4730508011e+01     1.154408    0.5009111  80.43  0.005397656    2.208    0.547
         2 -14.3737    248.8278      3.5045   5.5951552349e+01   2.2189296679e+01     0.578835    0.3289411 -54.71  0.003281779    1.504    0.335
         3 -17.8195    244.5961     63.5546   6.9775673085e+01   1.5674509865e+01     4.094594     1.207394 -35.19   0.01490081    2.946    0.661
         4 -17.8161    241.4203     33.2238   6.3110785684e+01   2.0440567015e+01     2.194433     1.626752 -27.61   0.01265554    1.483    0.326
         5 -13.1803    215.2642     31.9924   6.5545307942e+01   2.6799590876e+01    0.6129017    0.4794891 -64.22  0.002241941    1.203    0.168
         6 -10.7068    205.9970     16.6078   6.2651026100e+01   3.0898983854e+01    0.2640276    0.2116131 -38.50   0.00087408    1.310    0.237
         7 -11.7607    187.9271     12.5967   6.3594450533e+01   3.5911875620e+01    0.3727658    0.2304099 -54.81 0.0005612138    1.673    0.402
         8 -13.8140    145.1991      8.3050   6.8173401917e+01   4.7359469638e+01     1.636333    0.4344327  64.19  0.005616503    3.019    0.669
         9 -12.9735    157.2603      5.2715   6.5374429976e+01   4.4536355133e+01     1.052451    0.1163247  60.64  0.003021936    4.339    0.770
        10 -12.6254    174.5916      2.1758   6.2224368846e+01   4.0341395132e+01     1.432784    0.3086064  72.78  0.004165568    4.466    0.776
        11  -9.8726    220.6651      7.1227   5.8908354867e+01   2.8306154868e+01    0.1568138    0.1225308 -16.43 0.0005731028    1.622    0.384
        12 -10.2165     65.4247      7.2192   8.7256281872e+01   6.5439356019e+01     0.160583    0.1090273 -32.56 0.0009376768    1.625    0.385
        13 -11.5024    195.6302      1.6942   5.9846220822e+01   3.5018982446e+01    0.2282787    0.1594934  88.32 0.0007136019    1.276    0.217
        14 -10.3640     24.0522    177.2810   1.4239566322e+02   3.5929077642e+01    0.1617027    0.1296874  72.60 0.0005788271    1.077    0.071
        15 -11.2450    226.4402    235.1427   1.0846004622e+02  -6.1396655104e+00    0.5076964    0.3266588  29.25  0.001853522    1.244    0.196
        16 -15.7476    245.3155    201.2939   9.9368710366e+01  -4.8638162614e+00     2.089319     1.043988 -23.79   0.01049646    2.104    0.525
        17 -13.6830    223.5039    247.9614   1.1096074698e+02  -7.1829174069e+00    0.8965104    0.3604994  30.23  0.004005719    2.246    0.555
        18 -15.7348    243.1204    236.2508   1.0577376489e+02  -8.7361395696e+00     1.378618    0.8189714  14.14  0.006370233    1.598    0.374
        19  99.0000    143.1997    239.3707   1.2449082908e+02   6.8306456492e+00     2.644455    0.6661765  34.34  0.006485898    7.958    0.874
        20 -12.6365    210.8946    229.9402   1.1039735518e+02  -3.0582080860e+00    0.5005329     0.389534  -3.79  0.001966185    1.314    0.239
        21 -16.7975    186.1359    203.7345   1.1072738648e+02   4.9712307445e+00     4.064106     2.060604  29.82   0.01808822    2.123    0.529
        22 -15.1054    194.8117    245.9620   1.1574862406e+02  -2.5377857257e+00     2.279104     0.834119  33.31   0.01012054    2.527    0.604
        23 -16.0512    183.6358    236.0404   1.1636415081e+02   5.9139018325e-01     2.106016    0.8619868  41.16   0.00753383    1.964    0.491
        24 -11.3671    175.7197    167.1875   1.0601021668e+02   1.3312966648e+01    0.3943755    0.2693129 -51.82  0.001495766    1.684    0.406
        25 -12.1102    150.1071    152.0431   1.0855883330e+02   2.1623905356e+01    0.5256063    0.4635601 -85.54  0.001824538    1.276    0.216
        26 -12.9520    134.9507    149.4396   1.1160865472e+02   2.5309618129e+01    0.8878531    0.6332754  84.84  0.002958576    1.970    0.492
        27 -11.5785     69.4999    145.4946   1.2763355736e+02   3.7702367178e+01    0.3383092    0.2765348  74.54  0.001160433    1.188    0.158
        28 -11.7554     66.4916    144.4847   1.2826734202e+02   3.8358343306e+01    0.4884346    0.2959839 -79.60  0.002089565    1.779    0.438
        29 -15.8533    203.8013    155.9342   9.7914483258e+01   9.5460248561e+00     1.347732     1.326226 -67.45  0.005123786    1.174    0.149
        30 -11.5629    113.9599    117.9159   1.0991926283e+02   3.6496995932e+01    0.3620713    0.2059222  37.95  0.001509086    1.840    0.457
        31 -11.6015    101.9918    117.5049   1.1313624693e+02   3.8893763285e+01    0.5038683    0.3132075  62.63  0.002123107    2.085    0.520
        32 -12.2854    113.6153    108.1926   1.0758431659e+02   3.8712512413e+01    0.6356952     0.351606  48.07  0.002593133    1.839    0.456
        33 -13.9005    126.1296    108.2084   1.0418972361e+02   3.6091288952e+01      1.03205    0.6733024  53.86  0.003756431    1.598    0.374
        34 -12.7997    134.7525    105.9556   1.0134188090e+02   3.4671171577e+01    0.6203592    0.4582428 -26.26       0.0024    1.595    0.373
        35 -11.5455    167.3973    113.1812   9.5434616561e+01   2.5640619353e+01    0.3139053    0.2404377 -76.98   0.00140563    1.703    0.413
        36 -13.0122     77.1768    245.4043   1.3752096276e+02   1.6003886049e+01    0.7166545    0.2344008  41.91  0.002823043    2.366    0.577
        37 -14.9864     12.7787    247.2466   1.4870273042e+02   2.3501471265e+01     1.203207    0.3032788  46.49  0.006389613    2.521    0.603
        38 -14.1131     19.6696    214.7645   1.4587484408e+02   2.8712307509e+01    0.7522064    0.5547433  71.73  0.004108886    1.021    0.020
        39 -10.7991    227.6335    217.8772   1.0539190584e+02  -4.1904977824e+00    0.5030226    0.2646849  40.32  0.002443731    1.709    0.415
        40 -13.4095    187.4163    107.4407   8.9740934672e+01   2.1962639241e+01    0.7933508        0.332 -34.71  0.002787432    2.535    0.606
        41  -9.6316     88.7191    111.2881   1.1549645073e+02   4.2672635514e+01    0.1410585    0.1113568  82.03 0.0002023518    1.523    0.343
        42 -13.5463    155.6521     97.6523   9.3969750414e+01   3.1473052223e+01    0.9556152    0.6220883  43.36  0.003327442    1.544    0.352
        43 -12.2574    147.5005    100.0027   9.6547081968e+01   3.2952684719e+01    0.4368477    0.3016117 -59.95  0.001310644    1.725    0.420
        44 -12.0692    146.3996     96.1888   9.5758416899e+01   3.3967968166e+01    0.3771215    0.3588435 -36.49 0.0009946106    1.079    0.073
        45 -10.5162    226.0641     94.0843   7.9570648682e+01   1.5208352908e+01    0.2119478    0.2029276 -56.64 0.0003992838    1.030    0.029
        46 -10.3322    133.1068     93.6214   9.8368054151e+01   3.7571949030e+01    0.2418882    0.1914403  69.37  0.000616508    1.442    0.306
        47 -12.4680    155.1958     87.6215   9.1260257135e+01   3.3492878968e+01     0.625919    0.3643819  24.93  0.002174043    2.909    0.656
        48 -13.4458    183.3475     81.2276   8.3569357219e+01   2.7616064844e+01     1.148825    0.4319191 -43.80  0.003887815    2.733    0.634
        49 -12.6996    176.2696     67.6924   8.1109594689e+01   3.1659596000e+01    0.7147545    0.3567086 -49.22  0.002491186    2.253    0.556
        50 -13.7735    167.7431     56.8620   7.9555200499e+01   3.5552616812e+01    0.6883298    0.5595747 -47.88  0.002461808    1.275    0.215
        51 -14.5570    151.2305     45.9807   7.9439741794e+01   4.1409294886e+01      1.80925    0.9421402  79.88  0.006214082    3.157    0.683
        52 -13.8207    135.0434     38.4789   8.0396954405e+01   4.6536486397e+01    0.7086454    0.4902461  66.78  0.002029204    1.482    0.325
        53 -11.2889    139.5323     84.7275   9.4159451713e+01   3.7819588266e+01    0.3088077    0.2828642 -57.24 0.0008433608    1.142    0.124
        54 -12.8571    169.8240     74.0779   8.4206095874e+01   3.2248199897e+01    0.5836306    0.4570303  21.22  0.001708679    1.574    0.365
        55 -12.5316    153.0133     75.7657   8.8295095677e+01   3.6187327450e+01    0.3617063    0.2939449 -26.50 0.0008336745    1.328    0.247
        56 -13.9715    147.4971     58.9310   8.4361188404e+01   4.0402899433e+01    0.8356926    0.6641585  70.57  0.002462131    1.320    0.242
        57 -12.1458    184.8044     59.5679   7.7260092594e+01   3.0739361953e+01    0.3519486    0.2907334  23.23 0.0009238569    1.459    0.315
        58 -12.1350    189.6902     55.4612   7.5295182086e+01   3.0096843756e+01    0.4813392    0.2981215  32.49  0.002019058    2.214    0.548
        59 -13.1409    133.2365     55.6381   8.6607707275e+01   4.4455061338e+01    0.5674451    0.4705589 -88.59  0.002157441    1.456    0.313
        60 -12.9918    135.4861     51.5775   8.4722456555e+01   4.4540311930e+01    0.4664227    0.3468835 -45.80  0.001782214    1.455    0.313
        61 -11.5240    202.6956     50.3477   7.1922426918e+01   2.7518269087e+01    0.3600889    0.2434496 -47.29 0.0009914249    1.456    0.313
        62 -13.2215    203.8887     43.0028   6.9803784449e+01   2.8222492998e+01    0.7694911    0.7655488 -16.84  0.004036683    1.155    0.135
        63  -9.6921    212.2727     46.6727   6.9652437660e+01   2.5631553308e+01    0.1475337   0.09809285 -62.81 0.0003308892    1.583    0.368
        64 -11.1947    217.1418     42.1879   6.7895774574e+01   2.5033886089e+01     0.374863     0.196271 -49.48  0.001134684    1.878    0.467
        65 -12.5810    124.0765     38.3734   8.2908538114e+01   4.9229907738e+01    0.4038305    0.2344026  51.20   0.00184118    1.578    0.366
        66 -14.3525     49.6622    187.8020   1.3778360266e+02   3.0816983761e+01       0.6336    0.5688487 -85.03  0.001509804    1.226    0.184
        67 -11.7591     50.2746     31.2988   1.0413834778e+02   6.4642332288e+01    0.4583719    0.1989887 -44.98  0.002114523    2.381    0.580
        68 -14.2581     58.4892    178.8053   1.3486759562e+02   3.1642470352e+01    0.8395041    0.7207239  88.61  0.002547691    1.086    0.079
        69 -14.3063    244.8793    144.2055   8.8042812336e+01   3.3374254756e+00     1.359063    0.8127464 -18.91   0.00656049    1.848    0.459
        70 -15.6069    215.0580    114.6118   8.6350780510e+01   1.4283129676e+01      1.97131      1.09398  56.65  0.007773047    1.946    0.486
        71 -16.5629    225.7945    139.3192   9.0186831041e+01   7.8414599846e+00     2.221296     1.714811 -23.36  0.009276028    1.273    0.214
        72 -16.4776    188.0215    132.9026   9.5882394292e+01   1.7094976446e+01     2.825591     1.766217  31.94  0.007603092    1.845    0.458
        73 -15.6101    189.7031    167.1555   1.0309191029e+02   1.0462135235e+01     1.425775     1.375808 -65.66   0.00532629    1.203    0.169
        74 -15.7532    185.9083    152.2072   1.0070480185e+02   1.3962153143e+01     1.374874     1.184856  68.43  0.004840069    1.338    0.253
