#   1 NUMBER                 Running object number                                     
#   2 MAG_AUTO               Kron-like elliptical aperture magnitude                    [mag]
#   3 X_IMAGE                Object position along x                                    [pixel]
#   4 Y_IMAGE                Object position along y                                    [pixel]
#   5 X_WORLD                Barycenter position along world x axis                     [deg]
#   6 Y_WORLD                Barycenter position along world y axis                     [deg]
#   7 A_WORLD                Profile RMS along major axis (world units)                 [deg]
#   8 B_WORLD                Profile RMS along minor axis (world units)                 [deg]
#   9 THETA_WORLD            Position angle (CCW/world-x)                               [deg]
#  10 FWHM_WORLD             FWHM assuming a gaussian core                              [deg]
#  11 ELONGATION             A_IMAGE/B_IMAGE                                           
#  12 ELLIPTICITY            1 - B_IMAGE/A_IMAGE                                       
         1 -11.7846    242.2334     21.7293   1.4007945542e+00   2.4548567735e+01    0.4056131    0.2773304 -21.06  0.002445871    1.793    0.442
         2 -11.0576    152.9877     12.7760   5.2035726234e+00   4.5123814237e+01    0.3596778    0.2553784 -80.18  0.001434441    1.227    0.185
         3 -10.0593    120.2766      9.2900   7.7273441317e+00   5.4029533915e+01    0.3119437    0.2755117 -85.82 0.0009980878    1.048    0.046
         4  -9.9818    172.2612      2.7305   6.6244055352e-01   4.1380950730e+01    0.2298747    0.1652417 -86.71 0.0009483667    1.226    0.184
         5  -9.3554    149.8370      1.8669   1.9825396473e+00   4.7012514177e+01    0.2011118     0.130763 -64.39  0.001080003    1.319    0.242
         6 -10.4276    229.4490    221.5174   4.0675958686e+01  -3.5966267486e-01     0.244166    0.1866336  31.75  0.001143851    1.704    0.413
         7 -15.1078    222.0570      9.4862   3.5970283307e+02   2.9718067616e+01     5.897562     5.143363   9.61   0.04135569    1.789    0.441
         8 -14.7437    233.4667    171.8099   3.2188354861e+01   5.6026965058e+00     2.344761     1.701893 -58.70  0.008880298    2.293    0.564
         9 -15.5311    248.2918    105.2708   1.8016807059e+01   1.2862040753e+01      1.89766    0.7758254 -54.47  0.007986559    3.696    0.729
        10  -8.1581    177.2459    192.6135   4.5133996356e+01   9.8499458327e+00    0.1093566   0.09833734 -76.05 0.0004108518    1.657    0.397
        11  -9.5022     38.3373    192.1872   7.9106448179e+01   2.9240672731e+01    0.2172834    0.1708522  22.66 0.0006076479    1.318    0.241
        12 -16.2140    206.1756    114.7008   2.5194774543e+01   1.8247848337e+01     6.686477     2.346385 -33.20   0.02547767    2.970    0.663
        13 -10.6322    169.7670    183.3051   4.5047594784e+01   1.2468570987e+01    0.3175353    0.2472607 -36.95  0.001079462    1.286    0.222
        14  -9.4107     94.3596    213.2320   6.6386532581e+01   1.7655231900e+01    0.1979588    0.1760453   8.38 0.0003732926    1.201    0.168
        15  -9.6701    249.5070    211.3805   3.6258767981e+01  -1.1255667234e+00    0.1916022    0.1208588  21.53 0.0009689471    1.571    0.364
        16  -8.4603    150.3178    180.3038   4.8598274982e+01   1.5946492124e+01    0.1358043   0.09876572  -5.09  0.000290204    1.626    0.385
        17 -10.6108    121.0697    168.5287   5.3459685045e+01   2.3041873581e+01    0.4311408    0.2192873 -63.54  0.001377362    2.550    0.608
        18 -11.1303    112.2578    169.6198   5.5905567437e+01   2.4255035541e+01    0.3683739    0.3328941  57.37  0.001740262    1.122    0.108
        19 -10.7344    207.4527    206.3720   4.1912343396e+01   3.9566694394e+00    0.5669094    0.3973966  63.20  0.002596196    4.116    0.757
        20 -10.1075    104.5584    161.2176   5.6555815379e+01   2.7442470386e+01    0.2765869    0.1498164 -63.85  0.001141997    2.121    0.528
        21 -10.8748    196.5683    249.7608   4.9874721602e+01  -4.5526896036e-01    0.2571798    0.1385747  14.19  0.001397671    1.599    0.374
        22 -10.9944    119.8210    154.2847   5.1222591852e+01   2.6400895048e+01     0.518169    0.2090654 -54.57  0.001832317    2.637    0.621
        23 -10.8703    113.8756    154.7037   5.2871113350e+01   2.7352280460e+01    0.3069527    0.2528851 -66.98 0.0002760923    1.312    0.238
        24 -10.5662     69.7711    145.5938   6.4392282222e+01   3.6953305156e+01    0.4358238     0.330868  59.68  0.001317612    1.287    0.223
        25 -10.9525     66.3814    143.1851   6.5127717657e+01   3.8098915480e+01    0.4875932    0.3584474  87.25  0.001711991    1.456    0.313
        26 -11.1937    201.2056    200.2045   4.2005213900e+01   5.5699703345e+00    0.3862965    0.2574013  19.74  0.001270496    1.410    0.291
        27 -10.3356     22.9505    132.2845   7.9196557133e+01   4.6393378418e+01    0.2430456    0.2259066  78.24 0.0002258476    1.064    0.061
        28  -9.5455    121.0658    129.5163   4.5810083642e+01   3.1811737276e+01     0.229428    0.2032636 -57.76 0.0004189726    1.138    0.121
        29 -10.5746    124.8117    126.7303   4.4190664558e+01   3.1700849791e+01    0.3442347    0.2959564 -75.41  0.001761402    1.241    0.194
        30  -8.4320    113.3035    127.6785   4.7525472761e+01   3.3770313669e+01    0.1588359    0.1198893  79.57 0.0003821133    1.633    0.388
        31 -10.4865    115.9371    121.2372   4.5311609635e+01   3.4754674650e+01    0.4668255    0.2421437 -57.85 0.0009145277    2.105    0.525
        32  -9.9729    121.7905    121.5544   4.3790541519e+01   3.3488492941e+01    0.3005646    0.2111491 -49.60 0.0009708126    1.429    0.300
        33 -12.6465     47.0875    106.4118   6.5908853295e+01   5.0900443246e+01    0.8273878    0.8093855  47.59 0.0009765902    1.091    0.083
        34 -13.3279     63.5672    110.6236   6.0148755407e+01   4.7289877516e+01     1.790105     1.487759  26.18  0.003555364    1.299    0.230
        35 -12.4496     54.8921    106.7970   6.2766956039e+01   4.9679962068e+01    0.7955019    0.7081017 -35.94  0.004041155    1.274    0.215
        36 -10.5412    146.2852    113.6808   3.5870245680e+01   3.0098200194e+01    0.3056997    0.2731073  64.69 0.0006914208    1.154    0.133
        37 -13.0139     19.9688    105.3290   7.7509883099e+01   5.4191203241e+01     1.005773    0.9398474 -16.17  0.004046526    1.211    0.174
        38  -9.6280    114.3685    112.7996   4.3709312513e+01   3.7044162510e+01     0.222568    0.1442942 -41.57 0.0006318567    1.673    0.402
        39  -9.1319    102.3387    115.6503   4.7941333296e+01   3.8840912384e+01    0.2953505    0.1952679 -51.10 0.0007406285    1.535    0.349
        40 -14.4252    220.9869    111.9514   2.2567399298e+01   1.6163151287e+01     1.154287     0.837078 -33.25 0.0008326988    1.182    0.154
        41  -8.6948    106.4956    105.0914   4.4028696933e+01   4.0513661105e+01    0.2231896    0.1550727 -52.87 0.0009829703    1.445    0.308
        42 -15.9542    195.2249    167.7348   3.7528208387e+01   1.1332644737e+01     7.535115     4.593203  56.49   0.03755639    2.677    0.626
        43 -10.8772    197.4875    197.1943   4.2169137626e+01   6.4704554837e+00    0.3156162    0.2844301  74.60  0.001571506    1.890    0.471
        44  -9.6101    142.9130     98.4004   3.2747568286e+01   3.3954140141e+01    0.2779436    0.2121357 -40.08 0.0004638028    1.329    0.248
        45 -10.7477    111.5907     96.2485   4.0135051994e+01   4.1450850719e+01    0.4911885    0.4457377 -60.92  0.002521104    1.095    0.086
        46 -17.2553    246.3993    125.5787   2.2123728078e+01   1.0327999620e+01     4.595356      1.90693 -30.83   0.01216635    2.132    0.531
        47  -9.9002    171.2644     92.2958   2.5552041435e+01   2.8879701135e+01    0.2654593    0.2235915 -70.06 0.0004212813    1.188    0.158
        48  -8.8894    167.7702     89.0236   2.5330186406e+01   3.0222883452e+01    0.2141646    0.1930425 -50.34  0.000376996    1.057    0.054
        49  -8.1031     73.2589     90.7124   5.1480487928e+01   5.0808015291e+01    0.1552001     0.119221  78.12            0    1.486    0.327
        50 -12.0580    191.3490    190.9228   4.2236574257e+01   8.2094370313e+00     1.155032     0.526613 -56.38   0.00413049    5.384    0.814
        51 -10.3114    165.8618     95.1172   2.7231753591e+01   2.9532096907e+01    0.3254645    0.2248143 -29.94 0.0009605506    1.601    0.375
        52 -11.6699    183.1497     78.5365   2.0170491027e+01   2.8681884664e+01    0.8053344     0.445907 -50.29  0.001562963    1.662    0.398
        53 -11.5718    173.9670     64.4992   1.7849082194e+01   3.2986697221e+01    0.7384149    0.3413841 -57.22  0.002910948    2.449    0.592
        54 -10.9717    173.2804     81.7726   2.2522918718e+01   3.0284538924e+01     0.501054      0.31366 -42.49  0.001190849    1.447    0.309
        55 -10.7387    173.2276     74.7064   2.0684243803e+01   3.1491840882e+01    0.3504585    0.2407389 -30.20  0.001175162    1.575    0.365
        56 -11.0174    175.1055     70.4447   1.9270460893e+01   3.1772591413e+01    0.3076007    0.2580443 -32.61 0.0009018056    1.279    0.218
        57 -15.4257    243.6293     82.7599   1.3996664672e+01   1.6665263017e+01     2.224723      1.67722   2.55   0.01407337    1.998    0.499
        58 -10.4978    195.7990     80.4759   1.8875684643e+01   2.5725712234e+01    0.4392718    0.3190582 -69.41 0.0009875392    1.458    0.314
        59 -10.0369    191.6789     76.6395   1.8497057796e+01   2.7181631656e+01    0.4313874    0.2460125 -19.42  0.001820621    2.696    0.629
        60 -10.0517    132.2626     76.2869   2.8919414287e+01   4.0826075786e+01     0.315735    0.2610058 -28.56 0.0007999793    1.420    0.296
        61  -8.7993    139.6794     78.9855   2.8066282816e+01   3.8529152493e+01    0.2176813     0.188249 -50.82 0.0008559503    1.129    0.114
        62  -8.5610    125.4184     76.5165   3.0614310412e+01   4.2433075919e+01    0.1565261    0.1423452 -79.29 5.490058e-05    1.032    0.031
        63  -8.4038    107.5950     73.1555   3.4297703711e+01   4.7402842544e+01    0.2078636    0.1512126 -33.51 0.0006454215    1.608    0.378
        64  -9.1184    145.8657     70.9407   2.4427878941e+01   3.8532343981e+01    0.2606968    0.2298743 -27.31 0.0009948196    1.322    0.243
        65  -9.6691    147.0040     66.4253   2.2868724802e+01   3.9053610137e+01    0.2783022    0.2169026 -30.80 0.0006789289    1.443    0.307
        66  -9.6148    187.5479     69.2057   1.7195710336e+01   2.9226691136e+01    0.2264899    0.2016978   8.95 0.0006810026    1.515    0.340
        67 -10.2880    151.8699     68.7445   2.2645036276e+01   3.7473420075e+01    0.3226334    0.2418827 -29.06 0.0006477852    1.526    0.345
        68  -8.0687    122.2525     70.3266   2.9452402981e+01   4.4415197999e+01    0.1435376     0.125275   2.46 0.0002992006    1.547    0.354
        69  -8.6914    139.2937     69.3591   2.5282637962e+01   4.0414728569e+01    0.1465606    0.1227528  11.36   0.00032124    1.698    0.411
        70  -9.8372    229.5348    214.1576   3.9577283334e+01   5.2371709348e-01    0.1807666     0.152757  -4.93 0.0007273406    1.285    0.222
        71  -9.5349    185.9304     61.0821   1.5326172376e+01   3.0826089235e+01    0.2657235    0.1891579  58.49  0.000443589    1.579    0.367
        72  -9.8900    181.6608     60.6112   1.5752874341e+01   3.1847822547e+01    0.2309734    0.2272052 -22.65  0.001445872    1.268    0.211
        73  -9.4136    164.0658     61.0980   1.8392077153e+01   3.5835688154e+01    0.2230281    0.1948094 -63.44 0.0007731121    1.019    0.019
        74  -9.3101    111.8190     59.8987   2.8629294196e+01   4.8981578352e+01    0.2944753    0.2153837 -26.76  0.001269047    1.704    0.413
        75  -8.6524     93.9980     61.5464   3.4444316297e+01   5.3022257485e+01    0.2281561    0.1477421  52.76 -2.01901e-05    1.491    0.329
        76 -10.3025    143.0997     59.1958   2.1406195448e+01   4.1252081477e+01    0.4228044    0.3077056  78.50  0.002078773    1.387    0.279
        77 -10.6059    216.8661     56.2988   1.0791363744e+01   2.5067977006e+01     0.314829    0.2728117  21.21  0.001691049    1.681    0.405
        78 -10.1031    178.0439     52.8279   1.4139936476e+01   3.3836302962e+01    0.3457771     0.234932  17.14  0.001506125    2.930    0.659
        79  -8.7730    242.5013     50.9456   7.5082600545e+00   2.1031102184e+01    0.1609851    0.1468492 -33.16 0.0004008901    1.335    0.251
        80  -9.6251    159.3528     50.2705   1.5975524088e+01   3.8659090757e+01    0.2442707    0.2167268  42.92 0.0006081895    1.410    0.291
        81  -9.3726    215.3957     49.0608   9.2503669681e+00   2.6331352779e+01    0.1780401    0.1605847 -78.19 0.0003737606    1.213    0.176
        82 -10.1413    247.8693     46.4156   6.1977158129e+00   2.0665670826e+01    0.2971005    0.1783115  78.69  0.001287928    1.980    0.495
        83  -8.3282    156.3232     47.2720   1.5530070838e+01   3.9854092396e+01    0.1341718    0.1106411  39.01 0.0002117066    1.574    0.365
        84  -9.2437    250.4436     42.0052   5.1316003908e+00   2.0760191651e+01    0.1759711   0.08566561 -36.52 0.0006043361    1.561    0.359
        85 -15.1775    169.7630    113.3701   3.0955797534e+01   2.5327710099e+01     4.879586      3.96643  78.43   0.02101327    1.458    0.314
        86  -9.6009    211.8599     38.4151   7.0467795656e+00   2.8427019616e+01    0.2949132     0.173039  51.64  0.001566838    2.316    0.568
        87  -9.7207    246.9641     38.0939   4.5419292986e+00   2.1824182347e+01    0.1761335    0.1354602 -52.32  0.001111803    1.072    0.067
        88  -9.2471    195.1485    206.8366   4.4096471350e+01   5.3575905918e+00    0.1621286    0.1464967   5.78 0.0005963081    1.263    0.208
        89  -9.2928    139.5355     27.0238   1.1495609514e+01   4.6929832392e+01    0.2587821    0.2241757  25.06  0.001432808    1.548    0.354
        90  -7.7928    123.5242    207.5516   5.8778829339e+01   1.4768897249e+01    0.1313445     0.112116  30.24 0.0002098547    1.047    0.045
        91  -8.5246    163.5964    201.8226   4.9279838564e+01   1.0212697155e+01    0.1569163    0.1190793 -56.90 0.0007035899    1.733    0.423
        92 -11.0019    204.0714    248.7096   4.8477374489e+01  -1.0742368175e+00    0.2947524    0.1715057   6.60  0.002029853    1.492    0.330
        93 -10.1749    193.0421    213.5120   4.5481442260e+01   4.6597266319e+00    0.1991215    0.1694967   4.91 0.0005207273    1.145    0.127
        94  -8.8053    130.4993    244.4762   6.1730424452e+01   7.5805278736e+00    0.1191436   0.09287579  24.77 7.375628e-06    1.043    0.041
        95  -8.1690    109.2167     12.9421   1.0906169372e+01   5.6605952209e+01    0.1676029    0.1138308 -32.28 0.0003319945    1.579    0.367
        96  -8.6815     92.9239     13.5265   1.4357582690e+01   6.0869800314e+01    0.2134767    0.1275632  70.34  0.000346703    1.502    0.334
        97 -10.4933    221.6570    227.7309   4.2776440612e+01  -3.2555406106e-01    0.2786831    0.1667147  45.48  0.001658194    3.072    0.675
        98  -9.2330    142.0986    223.8680   5.6844416633e+01   9.4243459204e+00    0.1770131    0.1493355  38.17 0.0004637184    1.267    0.211
