#   1 NUMBER                 Running object number                                     
#   2 MAG_AUTO               Kron-like elliptical aperture magnitude                    [mag]
#   3 X_IMAGE                Object position along x                                    [pixel]
#   4 Y_IMAGE                Object position along y                                    [pixel]
#   5 X_WORLD                Barycenter position along world x axis                     [deg]
#   6 Y_WORLD                Barycenter position along world y axis                     [deg]
#   7 A_WORLD                Profile RMS along major axis (world units)                 [deg]
#   8 B_WORLD                Profile RMS along minor axis (world units)                 [deg]
#   9 THETA_WORLD            Position angle (CCW/world-x)                               [deg]
#  10 FWHM_WORLD             FWHM assuming a gaussian core                              [deg]
#  11 ELONGATION             A_IMAGE/B_IMAGE                                           
#  12 ELLIPTICITY            1 - B_IMAGE/A_IMAGE                                       
         1 -12.9595    119.6267     10.0423   2.9051915503e+02   6.9851213783e+00    0.1395668   0.06319242  28.22   0.01199042    1.993    0.498
         2 -12.8227    188.0086     47.1354   2.8986719554e+02   6.1626837050e+00    0.2031865   0.07421965 -80.61  0.009396379    8.757    0.886
         3 -14.6186    247.7335     24.3528   2.8899822688e+02   6.0837754160e+00   0.05943603   0.04160049 -76.58   0.00617275    1.641    0.391
         4 -15.7835    243.4433     10.3741   2.8897535058e+02   6.2705730284e+00    0.1907735   0.08080442  12.22   0.01351694    3.257    0.693
         5 -11.8491    211.1142     12.5097   2.8939008574e+02   6.4317970356e+00   0.02164347   0.01374307 -68.78 0.0004689826    1.730    0.422
         6 -13.9744    169.5846     63.3140   2.9018524112e+02   6.0804757907e+00    0.2229356    0.1060355  86.07  0.008778344    5.089    0.803
         7 -15.2508    207.2182     58.4290   2.8968913404e+02   5.9212921558e+00    0.4314256    0.1347264 -41.47   0.02531322    4.980    0.799
         8 -11.0863    185.4209     14.7073   2.8972267666e+02   6.5539103948e+00   0.02240347   0.01668331 -33.16  0.002395896    1.478    0.323
         9  -9.9860    151.8565     13.5899   2.9013571155e+02   6.7594083335e+00   0.01953686   0.01126861 -75.50  0.000664728    2.088    0.521
        10 -13.9756    141.3966     36.7087   2.9039233451e+02   6.5509431884e+00    0.2197315    0.1101281  19.07   0.01294984    2.034    0.508
        11  -8.3128    192.7377     10.9851   2.8961104811e+02   6.5550779172e+00    0.0108965  0.008229727 -57.31 0.0004963342    1.385    0.278
        12  -8.6629    195.8026      7.0494   2.8955132154e+02   6.5831277320e+00    0.0256953   0.01129374 -61.99  0.001749355    2.339    0.572
        13 -13.7688    242.0340    119.1610   2.8958613616e+02   5.0160885150e+00    0.3206372   0.06114685 -61.54   0.01927665    4.600    0.783
        14  -8.6635    184.0526      6.1318   2.8969297180e+02   6.6612568988e+00   0.01459092  0.009497134 -72.55  0.001052154    1.738    0.425
        15  -9.3625     51.9368      2.8991   2.9132704034e+02   7.4543884472e+00   0.01471935  0.009623053 -61.26 0.0008033319    1.602    0.376
        16  -9.5942      2.3189      6.5755   2.9196822417e+02   7.6937018546e+00   0.01618687  0.008401716 -32.90  0.001331016    2.548    0.608
        17  -8.3237    205.4443      4.2444   2.8941570165e+02   6.5602548141e+00   0.00722111   0.00492734 -13.33 0.0005230177    1.788    0.441
        18  -8.8453    171.4658      2.4013   2.8982977449e+02   6.7767818630e+00   0.02013436   0.01066719  52.12  0.001525951    2.221    0.550
        19  -9.6576      8.8177      9.3661   2.9190198815e+02   7.6244292820e+00  0.009909493  0.006262821  10.34 0.0004203435    1.708    0.415
        20  -9.4396    225.3121      1.9048   2.8915511444e+02   6.4731281223e+00   0.01197006  0.009023614  84.13  0.001133378    1.603    0.376
        21  -7.6918    213.6769      3.6926   2.8930998737e+02   6.5193232006e+00  0.006908195  0.006465327  10.25 0.0006330622    1.043    0.041
        22  -9.7795    210.2744      1.3900   2.8933985906e+02   6.5655899810e+00   0.01279288  0.006786351  27.31 0.0005218572    1.731    0.422
        23  -8.4755    165.0245      1.6905   2.8990634262e+02   6.8219823152e+00  0.009112634  0.008636818  14.94  0.000848871    1.023    0.023
        24  -8.2948    150.3895      2.0152   2.9009093615e+02   6.9021310803e+00  0.009192382  0.008753885 -78.44 0.0005033758    1.131    0.116
        25 -14.8629    222.0081     40.8482   2.8940886519e+02   6.0403882764e+00    0.1449173    0.1270175  85.04   0.01700881    1.271    0.213
        26  -8.2740    203.7605    160.8009   2.9028930062e+02   4.7517811269e+00   0.00964465  0.007518494  51.67   0.00064769    1.338    0.252
        27  -9.2318     57.6795    249.3064   2.9258907607e+02   4.5562527492e+00   0.01166482   0.01059709 -19.07  0.000308055    1.143    0.125
        28  -7.5646     70.3507    124.6697   2.9175762093e+02   5.9343460562e+00  0.007471127  0.004794204  54.96 0.0007047893    1.770    0.435
        29  -8.6988     35.9113    227.4395   2.9274264891e+02   4.9344610810e+00  0.009670348   0.00930717 -55.45 0.0004503052    1.102    0.093
        30  -9.1206    221.2952    119.6627   2.8984716774e+02   5.1293034167e+00   0.01297335  0.008155963  51.98 0.0006478553    1.751    0.429
        31  -8.9985    217.4875    117.5669   2.8988320195e+02   5.1754986716e+00    0.0120216   0.01025468  52.04 0.0006057869    1.208    0.172
        32 -10.7754    213.5249    115.5487   2.8992159470e+02   5.2216803933e+00   0.02746337   0.01958673  60.50  0.002304387    1.611    0.379
        33  -8.7268    135.0000    119.9707   2.9092494202e+02   5.6200296128e+00   0.01073011     0.003947 -65.04 0.0005148395    2.899    0.655
        34  -8.2349     67.3811    119.2076   2.9176512727e+02   6.0147915623e+00  0.009002751   0.00655079 -88.64 0.0005958941    1.662    0.398
        35 -10.2856    133.6331    145.8599   2.9108249630e+02   5.3267987094e+00   0.04627732   0.01421008 -72.43  0.002668092    5.311    0.812
        36  -8.5597    223.5477    116.5041   2.8980191500e+02   5.1530722209e+00    0.0133735  0.004957173  36.26  0.001034002    2.394    0.582
        37  -9.1245    134.7860    113.3390   2.9089160275e+02   5.6983555506e+00   0.02169844  0.008076871 -67.24  0.001621163    3.025    0.669
        38  -9.1032    135.5089    107.3259   2.9084992195e+02   5.7641275040e+00   0.01157527  0.009539841 -46.00  0.001308276    1.272    0.214
        39 -10.9736    203.5051    111.4933   2.9002440202e+02   5.3262727436e+00   0.02490184   0.01647799  71.47  0.002396242    1.973    0.493
        40 -10.8821    206.4990    109.5274   2.8997638824e+02   5.3319422875e+00   0.01878137   0.01423265  23.95  0.001346246    1.240    0.194
        41  -9.8953    196.3425    111.3642   2.9011298652e+02   5.3688465015e+00   0.01053917  0.007527864 -22.72 0.0007336984    1.630    0.387
        42  -8.7375    151.0425    105.8836   2.9064821337e+02   5.6920336548e+00   0.01665206  0.008926366  63.95  0.001328363    2.812    0.644
        43  -8.3593    141.1669    103.5725   2.9075890644e+02   5.7754001005e+00   0.01008321  0.006364238   6.58  0.000945951    1.797    0.444
        44  -8.9704    122.5602    100.7323   2.9097576307e+02   5.9148011455e+00   0.02097121   0.00888188  45.65  0.001643282    2.554    0.609
        45  -9.2993    147.0605     98.9857   2.9066042004e+02   5.7949973207e+00   0.01463675   0.01183091 -21.91 0.0007664095    1.349    0.259
        46  -9.1541    133.8107     96.4567   2.9081207199e+02   5.9001866096e+00   0.01818659   0.01248169  87.11  0.001804238    1.860    0.462
        47  -8.3348    229.0400     98.0095   2.8963279560e+02   5.3363666020e+00   0.01028255  0.008357943  42.77 0.0003437474    1.204    0.170
        48  -8.5301    226.6725     95.6936   2.8964967889e+02   5.3768585209e+00   0.01091222   0.00690483 -59.88 0.0006089822    1.644    0.392
        49  -9.7169    157.1199     91.4027   2.9049364824e+02   5.8255463981e+00   0.02265669   0.01452918 -16.72  0.002122958    2.000    0.500
        50 -10.1862    166.8695     88.1874   2.9035449598e+02   5.8070715587e+00   0.02714412   0.01380269  62.99  0.001753663    3.140    0.681
        51  -9.8594    140.6635     88.1757   2.9068151197e+02   5.9572375742e+00   0.01394007   0.01282904  55.58 0.0008451514    1.127    0.113
        52 -13.1594     14.7750    197.5572   2.9284529401e+02   5.4022564585e+00   0.05193022   0.05044871 -43.69  0.003804301    1.086    0.079
        53  -9.8244      3.9918     82.3559   2.9235791640e+02   6.8036959318e+00   0.02338364   0.01053979  61.64  0.001503072    4.354    0.770
        54 -11.3277    155.1828     81.1879   2.9046226774e+02   5.9553371874e+00   0.02077075    0.0158875  18.37 0.0007372014    1.261    0.207
        55  -9.1754      1.6708     74.6574   2.9234528405e+02   6.9063658717e+00   0.01140923  0.007728258 -26.53  0.001124221    1.741    0.426
        56  -9.8720    179.8176    198.5138   2.9079227273e+02   4.4504072787e+00   0.01110611   0.01098805 -57.67 0.0002948165    1.078    0.072
        57  -8.3182    152.0065     69.3845   2.9043770191e+02   6.1106638017e+00   0.01822694   0.00954406 -18.28 0.0009361146    3.245    0.692
        58  -9.2782    192.0920    193.4431   2.9061186839e+02   4.4391316506e+00     0.024882   0.01204357  82.90   0.00154183    4.985    0.799
        59  -8.1645    244.5401     60.4918   2.8923521873e+02   5.6828734980e+00  0.006878402  0.006331259  37.70 0.0001095302    1.056    0.053
        60 -10.8341     70.8733    158.6842   2.9193522254e+02   5.5356758667e+00   0.07783926    0.0465874 -40.52  0.007427223    1.859    0.462
        61 -10.9584     68.4890    144.8076   2.9188990315e+02   5.7106958952e+00   0.03638443   0.01994441  52.34  0.002932105    2.123    0.529
        62 -10.6397    180.8509    134.8105   2.9043360044e+02   5.1851294143e+00    0.0171094    0.0132387  -1.09  0.001852826    1.394    0.283
        63 -11.4300    142.9942    145.8724   2.9096578183e+02   5.2731475607e+00   0.02562353   0.01866699  71.46  0.002584404    1.667    0.400
        64  -9.2705    134.5029     54.5048   2.9057531781e+02   6.3837153930e+00   0.01328806  0.006530282  22.61 0.0006670484    1.960    0.490
        65 -10.2920    131.4979     53.5093   2.9060743812e+02   6.4124722594e+00   0.01284242   0.01081081 -25.40 0.0007611782    1.270    0.212
        66  -9.0358    246.3871     52.1458   2.8916668572e+02   5.7691037874e+00   0.01140105  0.008540561  26.43 0.0001086962    1.245    0.197
        67  -9.1381    125.3447    144.4982   2.9117852610e+02   5.3899902503e+00   0.01095445   0.01041764   3.76  0.000248739    1.047    0.044
        68  -9.0379    192.1437    143.9276   2.9034237454e+02   5.0144660191e+00   0.01026285  0.008858105  53.77 0.0004215316    1.202    0.168
        69  -9.7782    210.9420    136.6577   2.9006860543e+02   4.9912171124e+00   0.01858902   0.01182637 -22.31  0.001740836    1.992    0.498
        70 -10.4368    189.9855    135.5987   2.9032401077e+02   5.1236411232e+00   0.02182208   0.01141835 -38.41 0.0004760532    2.284    0.562
        71  -8.6711    197.2137     44.1250   2.8973594344e+02   6.1447944885e+00   0.01213024  0.007876378  70.51 0.0009155364    2.034    0.508
        72 -10.8936    191.9747     33.8611   2.8974534719e+02   6.2940106662e+00   0.02088116   0.01406349 -42.66  0.001459275    1.595    0.373
        73  -9.4929    201.3395     32.9366   2.8962346774e+02   6.2509637588e+00   0.01479397  0.009853263 -71.07  0.001145133    1.671    0.402
        74  -8.9519    202.7645     28.2636   2.8958020251e+02   6.2970067719e+00   0.01007332   0.00898338  86.15 0.0005194882    1.240    0.194
        75 -10.0918    112.6509     29.4932   2.9071226067e+02   6.7991899379e+00   0.01187361   0.01105992  76.80 0.0007720269    1.160    0.138
        76 -12.7755     45.4911    175.3468   2.9234212736e+02   5.4862405413e+00   0.08132312   0.03423971  23.26  0.001441234    2.280    0.561
        77  -9.5350    221.6395    191.2810   2.9023219651e+02   4.2950721117e+00   0.01529221   0.01016982  46.44 0.0005601702    1.531    0.347
        78 -10.8373    216.0281    189.0449   2.9028991432e+02   4.3532069586e+00   0.04832997  0.009330174  36.20  0.002954225    3.938    0.746
        79  -8.0607    199.1476    188.1573   2.9049530548e+02   4.4601955983e+00  0.009154087  0.007161935  46.38 0.0009977838    1.283    0.220
        80  -8.5684    190.5860    180.7562   2.9056178675e+02   4.5952527981e+00  0.009081647   0.00672253 -85.24 0.0009443333    1.598    0.374
        81  -9.9921    221.5303    176.8159   2.9015499319e+02   4.4638168149e+00   0.02565871   0.01375283  66.13   0.00202699    2.938    0.660
        82 -13.2474     54.5144    167.6051   2.9218766920e+02   5.5250007429e+00    0.1501572   0.07190945 -28.04  0.004990923    3.462    0.711
        83  -9.4954    219.1572    169.8099   2.9014648013e+02   4.5588428526e+00   0.01909796  0.007330727  36.24  0.001513093    2.322    0.569
        84  -8.1081    237.4590    249.5129   2.9035132813e+02   3.5277426700e+00  0.006846229  0.006369033  32.84 0.0001451458    1.034    0.033
        85  -9.8278    199.1153    133.4881   2.9019874416e+02   5.0958520198e+00   0.01160797   0.00951709  65.86  0.001295115    1.358    0.264
        86  -8.1077    198.3592    153.2554   2.9031560167e+02   4.8704337143e+00   0.00699026  0.005048762 -15.40 0.0006964622    1.617    0.382
        87  -9.8863    213.3811    131.5096   2.9001021884e+02   5.0370542977e+00   0.01371706    0.0126237  18.73  0.001639196    1.030    0.029
        88  -7.6831    119.3084    132.6663   2.9118968287e+02   5.5620716215e+00  0.007228488  0.004910168  56.92 0.0007041793    1.672    0.402
        89  -9.8497    136.0433    128.1886   2.9095653482e+02   5.5185140857e+00   0.01949273   0.00822789 -62.76  0.001601029    2.444    0.591
        90  -8.5242    122.9572    129.2507   2.9112561227e+02   5.5809484939e+00  0.009081805  0.008281751  17.87 0.0002688101    1.042    0.040
        91 -11.3605    206.0457    124.8118   2.9006519266e+02   5.1569484173e+00   0.02786602   0.01955962 -43.59  0.002918884    1.516    0.340
        92  -9.0434    216.9783    126.5743   2.8993855653e+02   5.0737675835e+00   0.01587477  0.006913738 -47.05  0.001290341    2.464    0.594
