#   1 NUMBER                 Running object number                                     
#   2 MAG_AUTO               Kron-like elliptical aperture magnitude                    [mag]
#   3 X_IMAGE                Object position along x                                    [pixel]
#   4 Y_IMAGE                Object position along y                                    [pixel]
#   5 X_WORLD                Barycenter position along world x axis                     [deg]
#   6 Y_WORLD                Barycenter position along world y axis                     [deg]
#   7 A_WORLD                Profile RMS along major axis (world units)                 [deg]
#   8 B_WORLD                Profile RMS along minor axis (world units)                 [deg]
#   9 THETA_WORLD            Position angle (CCW/world-x)                               [deg]
#  10 FWHM_WORLD             FWHM assuming a gaussian core                              [deg]
#  11 ELONGATION             A_IMAGE/B_IMAGE                                           
#  12 ELLIPTICITY            1 - B_IMAGE/A_IMAGE                                       
         1 -13.8401    134.5197     75.6119   5.0364825792e+01   4.0297552351e+01    0.5724989    0.4931805 -82.21   0.00289543    1.274    0.215
         2 -10.7999     49.1839     14.4689   5.2412083209e+01   7.1182483171e+01    0.2593931     0.201717   9.94 0.0006253726    1.439    0.305
         3 -10.1478     45.0363     12.0448   5.3029659666e+01   7.2399213137e+01    0.2050037     0.169965 -72.63 0.0006983335    1.642    0.391
         4 -10.7693     27.5815     11.7801   6.4623723945e+01   7.5571433873e+01    0.2245615    0.1597434 -46.93 0.0009725447    1.444    0.307
         5 -11.2008     56.6264      9.5658   4.5439851366e+01   7.0265676768e+01    0.3338134    0.2382374  41.65  0.001085295    1.346    0.257
         6 -10.3631    213.6212      8.9309   1.9610383436e+01   3.0302899996e+01    0.1749673    0.1288143 -40.32 0.0003460037    1.137    0.120
         7 -12.0826      3.4249      8.6449   8.5856449703e+01   7.8945993213e+01    0.2383094    0.2275653 -14.81 0.0008450104    1.139    0.122
         8 -10.0077    123.0774      6.7675   2.6888093782e+01   5.3332145787e+01    0.1820444    0.1138979  78.29 0.0003098248    1.518    0.341
         9 -11.4586    242.5201      5.5248   1.7410267363e+01   2.4684064106e+01    0.1192548    0.0907305 -46.11 1.982113e-05    1.006    0.006
        10 -11.0563     22.9613      5.1940   6.3369155659e+01   7.7446069923e+01    0.1792295    0.1743525  37.79 0.0005074977    1.246    0.197
        11 -10.2279     38.3055      2.6529   4.9824637550e+01   7.5097029267e+01    0.1289109    0.1048472 -65.79 0.0004985923    1.697    0.411
        12 -11.0895     85.9643      7.6491   3.4337463198e+01   6.3258133058e+01    0.3788076    0.1827081  51.20  0.001550678    1.925    0.480
        13  -9.7941    113.5308      1.6054   2.5992146202e+01   5.6390823577e+01    0.1429776    0.1281119 -88.62 6.535699e-06    1.040    0.039
        14 -11.7672      8.5252    187.7899   1.0680904683e+02   3.3921397254e+01    0.2180115    0.1473532  33.22 0.0007448111    1.334    0.250
        15 -12.5835    244.4144    181.1234   5.4437252430e+01   3.6719472305e+00    0.2774085    0.2487824 -60.89  0.002024768    2.257    0.557
        16 -10.7055     20.5180    174.4841   1.0314696563e+02   3.5830283013e+01    0.1270206    0.1047689  58.24 2.072152e-05    1.023    0.022
        17 -10.2800    224.3342    173.6686   5.6138004967e+01   7.1296240374e+00    0.1003551   0.09237181 -48.89 0.0004284852    1.729    0.422
        18 -12.0256    249.0240    163.9499   5.0777636967e+01   5.0696145733e+00    0.2970343    0.1247943 -20.35  0.001486151    2.431    0.589
        19 -12.4946    244.3225    148.8075   4.8618608845e+01   7.4949496717e+00    0.2142031    0.1578225 -39.69  0.001436972    1.568    0.362
        20 -11.8778    236.1643    146.9899   4.9402942375e+01   8.8639692076e+00    0.2396081    0.1289659 -48.31   0.00118649    2.798    0.643
        21 -12.7228    243.1214    142.9154   4.7650940884e+01   8.3877376879e+00    0.2752046    0.1668612 -48.08  0.001542987    2.300    0.565
        22  -9.7157      5.9711    121.9483   1.0472089035e+02   4.9816241452e+01     0.152929    0.1323823  72.34 0.0003006786    1.024    0.024
        23 -11.3849    245.7818    120.6121   4.2857255395e+01   1.0790184543e+01    0.1393045    0.1171296  62.94 0.0009549588    1.704    0.413
        24  -9.8392     91.5137    116.4900   7.3908868061e+01   4.0602096236e+01    0.1512138    0.1458784  67.20 0.0008104341    1.009    0.009
        25  -9.8865    152.7070    114.2982   5.6981116619e+01   2.8809555761e+01    0.1416832    0.1169861 -81.06 0.0003425824    1.564    0.361
        26 -10.3973     79.1573    111.3414   7.6795104721e+01   4.4044699990e+01    0.2501177    0.1997012 -48.98 0.0006909927    1.303    0.233
        27 -12.1457    124.4153    105.6941   6.1646521869e+01   3.6523047105e+01    0.3524215    0.2349033  71.58  0.001436613    2.162    0.537
        28 -11.8599    117.4909    102.2184   6.2606023218e+01   3.8745438677e+01    0.2906326    0.2164086  45.07   0.00071594    1.336    0.251
        29 -10.7932      3.6985     96.6805   1.0392248410e+02   5.6586284129e+01    0.2185858    0.1943082 -36.82 0.0002807079    1.283    0.221
        30 -10.3077     64.0969     96.3268   7.8776212309e+01   5.0340846766e+01    0.2194394    0.1934288  41.24   0.00114747    1.150    0.130
        31 -10.5314    153.5406     95.0316   5.1784491527e+01   3.2247411453e+01    0.2205797    0.1424737 -39.81 0.0003106586    1.498    0.333
        32 -10.4870     89.9329     94.5089   6.8953180167e+01   4.6182950966e+01    0.2314306     0.152053  41.79 0.0005110835    1.519    0.342
        33 -11.5258    132.2931     92.3921   5.5954804491e+01   3.7549861490e+01    0.3522277    0.2704915 -57.03  0.001001092    1.384    0.278
        34 -10.6985    147.6508     90.2885   5.1743778097e+01   3.4460067479e+01    0.1536219    0.1188596 -80.92 0.0007024563    1.662    0.398
        35 -13.2327    108.0060     88.4525   6.1450906161e+01   4.3810280218e+01    0.5144741    0.4600796 -39.05  0.001943771    1.154    0.133
        36 -10.5864     95.2119     87.1651   6.5087585076e+01   4.6834516265e+01    0.2181776    0.1833848  75.71 0.0006898377    1.317    0.241
        37 -11.6189    166.8966     83.1578   4.5827922179e+01   3.1325228353e+01    0.2356176    0.1973757 -65.56   0.00115146    1.300    0.231
        38 -12.6553    126.9545     82.7100   5.4438780115e+01   4.0717392380e+01    0.3519687    0.2732156 -86.32  0.001615014    1.624    0.384
        39 -12.4358      6.1048    242.3354   1.0870052645e+02   2.3674552866e+01    0.6720014    0.1057426  59.27  0.002737863    4.334    0.769
        40 -11.2463     53.6698     77.7210   7.8296164220e+01   5.6728649850e+01    0.5078565    0.2733537  53.84  0.002000839    2.264    0.558
        41 -10.2672    216.0904     78.6443   3.7169408968e+01   2.1498325334e+01    0.1608798    0.1568584 -13.61 0.0003524429    1.142    0.124
        42 -10.4717     77.9249     78.2895   6.8479275803e+01   5.2391519795e+01    0.2116866    0.1963196  45.04 0.0002069954    1.093    0.085
        43 -12.1787    177.5048     79.9867   4.3078229997e+01   2.9445164345e+01    0.3251245    0.2167196  19.56  0.001429133    2.228    0.551
        44 -12.4308    109.0479     77.0204   5.7577804352e+01   4.6034861218e+01    0.2494639    0.2413508 -87.54 0.0009881557    1.019    0.019
        45 -12.2220    151.1652     72.8280   4.5854609382e+01   3.6783324631e+01    0.2411836    0.2151577  22.80 0.0007741619    1.270    0.213
        46 -11.1278    125.0116     69.3159   5.0648993831e+01   4.3785744616e+01    0.2232096    0.1981431  58.08 0.0003574612    1.130    0.115
        47  -9.8329     63.9488     69.7505   7.1375839669e+01   5.7026914431e+01    0.1812479    0.1304092  36.06 -0.000430966    1.437    0.304
        48 -11.8002    117.9128     70.1349   5.2780209362e+01   4.5346867114e+01    0.2511413    0.2180977 -79.54  0.001209451    1.246    0.198
        49 -13.1963     99.1810     62.8579   5.5711677498e+01   5.1242855662e+01    0.6385644    0.3558897 -55.27  0.002462318    2.092    0.522
        50 -10.8160    192.0948     66.0198   3.7036793306e+01   2.8294009512e+01    0.2039814    0.1792963 -46.42 0.0003251724    1.042    0.040
        51 -11.7324     67.1067     65.1108   6.8442287033e+01   5.7555692576e+01    0.2641801    0.2349149 -68.83 0.0002624787    1.151    0.131
        52 -11.4507    125.9960     64.9266   4.8921879399e+01   4.4360881266e+01    0.2367247    0.2317238 -66.64 0.0005317546    1.023    0.023
        53 -10.2793     74.8730     64.8809   6.5157039531e+01   5.6107684851e+01    0.2149539    0.1826122  82.91 0.0005963211    1.347    0.258
        54 -12.4325     86.1806     61.5225   5.9620621985e+01   5.4468101433e+01    0.4627014     0.211618 -37.78  0.001643969    2.440    0.590
        55 -11.3354     89.5134     59.0098   5.7484572085e+01   5.4249444677e+01    0.2550927    0.2214562  22.28 0.0003934562    1.305    0.234
        56 -11.4195    205.1304     60.6980   3.3958603950e+01   2.6183458681e+01     0.238431    0.1548789 -40.33 0.0002670096    1.330    0.248
        57 -10.9764    114.5159     60.5108   5.0340369886e+01   4.8013625301e+01    0.1549782      0.15033 -82.64  0.000131142    1.004    0.004
        58 -10.7675     56.9913     60.0364   7.1151934733e+01   6.0556901110e+01    0.1797547    0.1735152 -55.40 0.0004212706    1.007    0.007
        59 -10.7217      3.6857     60.1353   1.0016609984e+02   6.6291076120e+01    0.3189797      0.18585  20.98  0.001611334    1.880    0.468
        60 -10.5787    105.6626     58.3182   5.2037905732e+01   5.0592300138e+01    0.1628046    0.1218045 -79.46  0.000704907    1.704    0.413
        61 -12.2633     78.3856     56.0513   6.0424894340e+01   5.7315114872e+01    0.2741576    0.2390811 -83.35 0.0007435255    1.289    0.224
        62 -13.1188     97.7712     79.2494   6.1801255166e+01   4.8077097244e+01    0.5262256     0.330404  66.41  0.001341816    2.128    0.530
        63 -11.4840     63.5962     54.2150   6.5891650158e+01   6.0702384061e+01    0.2200256    0.1371457 -39.13 0.0005165172    1.685    0.406
        64  -9.6612     40.2620     54.7309   7.7737730705e+01   6.4417549058e+01    0.1355201    0.1097899  73.74  0.000683995    1.461    0.315
        65 -10.6877     66.6686     56.6497   6.5491175477e+01   5.9571990966e+01     0.157524    0.1198569 -10.28 0.0007047842    1.772    0.436
        66 -11.3103     94.2486     48.9839   5.1889074465e+01   5.5106211970e+01    0.2143698    0.2001769 -45.84 0.0003516139    1.077    0.072
        67 -10.1659      6.8353     46.1692   9.5766173003e+01   6.9764194034e+01    0.1931148    0.1316259 -50.94 0.0005393234    1.319    0.242
        68  -9.4885     20.6865     44.6649   8.6100697016e+01   6.9152080648e+01    0.1488603   0.09177303 -36.10 0.0005851979    1.687    0.407
        69 -10.1830     39.6787     43.6489   7.3839361828e+01   6.7132729828e+01    0.1520699    0.1052284 -23.81 7.914106e-06    1.747    0.428
        70 -11.4539    134.3759     41.2150   3.8612002312e+01   4.6137379366e+01    0.2281203    0.1291585 -41.87 0.0009573656    1.711    0.415
        71 -10.4439    159.4809     40.0095   3.3924448609e+01   3.9775506910e+01    0.1910829    0.1272616   9.10 0.0004771435    2.287    0.563
        72  -9.8184    151.9894     40.5008   3.5241472469e+01   4.1635958526e+01    0.1948798     0.113354  40.76 0.0007986762    2.137    0.532
        73 -10.9967     95.4115     39.6889   4.7552851751e+01   5.6464495203e+01    0.2769498    0.2564374   0.67 0.0007366202    1.185    0.156
        74 -10.6874     40.4788     36.4890   7.0170983248e+01   6.8617156053e+01    0.2756322    0.1382977  35.53 0.0008004616    2.052    0.513
        75 -10.2151     51.2639     32.9834   6.2284197363e+01   6.7497458286e+01    0.1813338    0.1217662 -43.98 0.0003825871    1.469    0.319
        76 -10.2912     17.7233     31.7583   8.3565070461e+01   7.2548701538e+01    0.1714604    0.1523198  70.88 0.0004451501    1.317    0.241
        77 -10.2068      3.5016     31.5028   9.4687633469e+01   7.3603032658e+01    0.1311455    0.1134933 -53.47 0.0003734083    1.011    0.011
        78  -9.9553     88.3676     25.1476   4.2883249006e+01   6.0494066841e+01    0.2092927    0.1298737 -42.75 0.0005747458    1.670    0.401
        79  -9.5640     98.4801     23.4659   3.9234817754e+01   5.8118109116e+01     0.147847    0.1410548  59.55 0.0004866476    1.029    0.028
        80  -9.6328     72.7044     22.7035   4.6896325389e+01   6.4697347158e+01    0.1466313    0.1096183  22.19 0.0003632462    1.566    0.361
        81 -11.9365     12.2872     18.1071   8.1888774956e+01   7.6166882476e+01    0.2268057    0.1692938  -4.06 0.0008407615    1.404    0.288
        82 -11.4922    243.6052     16.7777   1.9938636505e+01   2.3399005942e+01    0.1834542   0.07813444 -37.04 0.0008621313    1.694    0.410
        83 -12.1579     21.4985     17.0363   7.3129302487e+01   7.5403903410e+01    0.3750066    0.1895136  34.41  0.001769575    2.045    0.511
        84 -12.5847     32.2947    238.0906   1.0324396253e+02   2.2035791569e+01    0.3347706    0.1619512  19.31  0.001839221    2.272    0.560
        85 -10.3660     34.5796     13.7584   6.0848718526e+01   7.4074190509e+01    0.1809173    0.1252403 -49.71 0.0007580493    1.596    0.373
        86 -12.5501      8.5215    240.0077   1.0817050288e+02   2.3866898623e+01    0.3700068    0.1184939  81.70  0.001854548    3.395    0.705
        87 -12.7884      4.0625    229.4846   1.0886982895e+02   2.6086207452e+01    0.3501793     0.206152  39.74  0.002181994    1.237    0.191
        88 -11.1296     26.0876    225.1624   1.0405814577e+02   2.4923075393e+01    0.1563099    0.1392244  38.45  0.001009062    1.260    0.206
        89 -11.9428      3.9382    222.4981   1.0875821083e+02   2.7369943414e+01    0.1986926    0.1169575  61.73  0.001330989    1.350    0.259
        90 -12.5210      8.6150    220.2435   1.0770049191e+02   2.7400323115e+01    0.4033282    0.1961075 -45.56  0.001987958    3.865    0.741
        91 -10.6281     14.6642    220.2955   1.0638346606e+02   2.6868443382e+01    0.1254403   0.05535563  50.74 0.0002387489    1.648    0.393
        92 -12.9615     19.3613    215.0105   1.0516955040e+02   2.7450613267e+01    0.6324613    0.0955959  48.99  0.002463021    3.566    0.720
        93 -11.9000    245.0030    198.3739   5.7209698482e+01   1.7076051363e+00     0.226766    0.0912412 -21.43  0.001209635    2.462    0.594
        94 -11.3060      3.2045    198.5863   1.0839870595e+02   3.2087303125e+01    0.1514849    0.1041625  13.86 0.0009167445    1.717    0.418
        95 -10.9665     23.3175    197.3026   1.0353461357e+02   3.0620436681e+01    0.1063093   0.09145448 -29.30 0.0002566245    1.623    0.384
