#   1 NUMBER                 Running object number                                     
#   2 MAG_AUTO               Kron-like elliptical aperture magnitude                    [mag]
#   3 X_IMAGE                Object position along x                                    [pixel]
#   4 Y_IMAGE                Object position along y                                    [pixel]
#   5 X_WORLD                Barycenter position along world x axis                     [deg]
#   6 Y_WORLD                Barycenter position along world y axis                     [deg]
#   7 A_WORLD                Profile RMS along major axis (world units)                 [deg]
#   8 B_WORLD                Profile RMS along minor axis (world units)                 [deg]
#   9 THETA_WORLD            Position angle (CCW/world-x)                               [deg]
#  10 FWHM_WORLD             FWHM assuming a gaussian core                              [deg]
#  11 ELONGATION             A_IMAGE/B_IMAGE                                           
#  12 ELLIPTICITY            1 - B_IMAGE/A_IMAGE                                       
         1 -14.6176    246.5990     86.8518   3.5925931507e+02   1.7383171982e+01     1.859478    0.5531781 -47.42   0.00827748    2.797    0.643
         2 -14.3276    249.0068     58.6499   3.5360594737e+02   2.0775966569e+01     2.075025    0.5140249 -33.77  0.008318286    3.632    0.725
         3 -15.4732    247.3264     18.4510   3.4593899074e+02   2.5805242272e+01     4.166891     1.237867 -28.13   0.01725784    4.256    0.765
         4 -13.1273     13.3986     10.2477   3.4225573221e+01   7.6825977839e+01    0.6783727    0.2479226 -42.43  0.002946117    2.781    0.640
         5 -11.8534      2.7420      3.8902   4.0185634002e+01   7.9189395916e+01    0.4108389    0.3851149  -3.23   0.00295786    1.202    0.168
         6 -12.9334     11.5879      2.7575   3.0414399197e+01   7.8269230622e+01    0.7339543    0.2787195  39.93  0.003313055    2.518    0.603
         7 -14.3403      2.4819     23.3750   5.1329472561e+01   7.5464561062e+01     2.171726    0.5185997 -64.39  0.007127358    4.706    0.788
         8 -13.2166      6.8181     11.4965   4.1088087162e+01   7.7405848282e+01    0.7955862    0.4303431 -41.61  0.004255963    1.786    0.440
         9 -12.5283     14.1343     21.9127   4.0593366916e+01   7.4634013002e+01    0.4131613    0.1667856 -49.14  0.001833475    2.396    0.583
        10 -12.0674     20.0187     11.8172   2.9825083190e+01   7.5622750637e+01    0.2208444    0.1810517 -28.08  0.001397598    1.240    0.194
        11 -11.8441     25.4768      7.4872   2.2825893878e+01   7.5382585167e+01    0.2841454    0.1740519   9.90   0.00137365    2.338    0.572
        12 -12.1514    231.4257     51.5876   3.5353266826e+02   2.4559275339e+01     0.299087   0.09369902 -41.08  0.001245852    2.233    0.552
        13 -11.6277    237.1292    234.5922   2.5807038239e+01  -2.2141129392e+00    0.2647706    0.1158471 -38.24  0.001654444    2.020    0.505
        14 -13.3261    241.5256    238.1823   2.5662169445e+01  -3.0130156748e+00     1.313158    0.5114756 -13.52  0.005466925    4.935    0.797
        15 -11.6497    248.5285    238.5141   2.4695213339e+01  -3.6118547875e+00    0.4146984    0.1434657 -29.67   0.00237766    2.370    0.578
        16 -11.0150    248.4339    250.1159   2.6297382839e+01  -4.9352316654e+00      0.28391    0.1394426  20.21  0.002013811    1.936    0.483
        17 -11.4741    249.5630    245.1370   2.5461348265e+01  -4.4568898209e+00    0.3299018    0.1908514 -28.16  0.002562571    1.354    0.262
        18 -12.1446    225.2005    241.6686   2.8622942748e+01  -2.0758800533e+00    0.2991605    0.1262133 -32.74  0.001593889    1.974    0.494
        19 -10.5347     51.6842    249.6618   6.4487666789e+01   1.4501625313e+01    0.2811866    0.1104918  32.13   0.00137778    1.891    0.471
        20 -15.6686      4.3031    184.3875   7.2860525884e+01   3.3323479260e+01     5.033723    0.8468441 -82.31   0.01373922    5.835    0.829
        21 -10.2153    232.6463    212.8416   2.3283189560e+01   9.7964250725e-01    0.1478636   0.08321353 -40.80 0.0009512797    1.728    0.421
        22 -10.6106    250.1041    211.1447   2.0501741088e+01  -3.9980789264e-01    0.2235849    0.1133708 -36.25  0.001316344    1.597    0.374
        23 -11.4657    210.7380    246.4786   3.1607455639e+01  -1.4198755034e+00    0.2247476   0.09548219 -28.67   0.00129486    2.145    0.534
        24 -12.8642     11.1558    248.7927   7.3555197713e+01   1.8384000625e+01     1.000131    0.3592405  21.98  0.004721249    2.471    0.595
        25 -10.1141    240.5033    207.4713   2.1302438265e+01   9.5260569389e-01    0.1873886   0.08504863 -45.45  0.001037466    2.501    0.600
        26 -10.1531    247.2013    206.4845   2.0198180844e+01   4.6028200659e-01    0.2029508    0.1098135 -32.76  0.001159065    1.415    0.293
        27 -10.2334    250.0633    200.3270   1.8851849601e+01   9.9866423181e-01     0.196936    0.1034756 -29.10  0.001305761    1.433    0.302
        28 -10.2349    243.7883    200.0044   1.9674390800e+01   1.6343124970e+00    0.1479106   0.06645717 -36.51 0.0008785152    1.745    0.427
        29 -10.1719    229.5688    226.7672   2.5826347894e+01  -5.6909186441e-01    0.2007604   0.07793489 -34.48  0.001135185    2.109    0.526
        30 -14.9193      4.9126    220.2715   7.4072017304e+01   2.4813763511e+01     3.962305     1.162762  64.62   0.01512981    3.475    0.712
        31  -9.4523    249.3234    184.6846   1.6471818494e+01   3.1569904143e+00    0.0951378   0.07645684 -47.05 0.0004732292    1.664    0.399
        32 -11.8020    248.4763    224.2522   2.2671598230e+01  -1.8971434517e+00      0.28767    0.1253615 -25.29  0.001766743    1.926    0.481
        33 -10.4162    243.4812    139.5451   9.4878632076e+00   1.0228463729e+01    0.2452765    0.0867452 -39.09  0.001200103    2.131    0.531
        34 -12.8890      3.7494    245.1137   7.5084627418e+01   1.9710755080e+01    0.8595629    0.4455236  83.85  0.004950854    1.989    0.497
        35 -10.0596    248.5072    134.9920   8.0589689841e+00   1.0259632025e+01    0.1808632   0.08479495 -38.21  0.001030648    1.583    0.368
        36 -10.7695    247.6957    129.5824   7.1736375635e+00   1.1143208247e+01    0.2704307    0.1529066 -49.91  0.001530187    1.720    0.418
        37 -10.2240    219.5210    127.9822   1.0434327218e+01   1.5263446602e+01    0.1988232   0.09842602 -40.39   0.00103801    1.613    0.380
        38 -11.6261    238.7574    123.5365   7.1074125001e+00   1.3214441113e+01    0.4982542    0.1949256 -43.44  0.002506777    2.014    0.503
        39 -10.4459    227.1678    123.9051   8.6191334972e+00   1.4788760540e+01    0.2704903    0.1299701 -46.52  0.001415756    1.801    0.445
        40 -11.8330    247.4938    112.4960   4.0408505979e+00   1.3632502984e+01    0.2917767    0.1392687 -41.72  0.001037494    1.555    0.357
        41 -10.7208    248.8227    123.6216   5.9550771710e+00   1.1856839800e+01    0.2915832    0.1301189 -37.93  0.001628893    1.664    0.399
        42 -10.9881    246.9795    118.2770   5.1746199567e+00   1.2870448805e+01    0.3343464     0.175063 -46.42  0.001859813    1.585    0.369
        43 -10.7861    219.1267    117.3722   8.3825194823e+00   1.7009380057e+01     0.336144    0.1422614 -44.67  0.001620093    1.952    0.488
        44 -11.4667    231.2500    114.6160   6.3010561457e+00   1.5618297811e+01    0.4447066    0.1780657 -45.14  0.002179816    2.045    0.511
        45 -10.3423    242.1846    133.4982   8.5453342158e+00   1.1282508913e+01    0.2327541    0.1233915 -38.51   0.00120081    1.423    0.297
        46 -11.8053    241.0299    109.4987   4.1801408154e+00   1.4967168970e+01     0.390876    0.1787983 -42.10  0.001896648    1.645    0.392
        47 -10.7909    232.4154    132.5085   9.5860336577e+00   1.2730214734e+01    0.3698733    0.1544967 -45.53  0.001846479    2.063    0.515
        48 -10.4176    221.9963    105.0096   5.5161520313e+00   1.8497412350e+01    0.1987131    0.1264664 -59.08  0.001137671    1.707    0.414
        49 -11.2022    230.5493    103.1522   4.1248085132e+00   1.7451446635e+01    0.3142795    0.1586858 -46.04  0.001733379    1.599    0.375
        50 -10.7530    237.7447    102.1038   3.1131183295e+00   1.6524571089e+01    0.2668919    0.1042751 -41.24  0.001340796    1.909    0.476
        51 -12.3833    242.9666     98.4604   1.8535812296e+00   1.6283540865e+01    0.2840328     0.154763 -50.89  0.001422739    1.617    0.382
        52 -11.7254    241.9895     93.2386   9.4255233477e-01   1.7172030732e+01    0.3172069    0.1292537 -41.89  0.001586279    1.802    0.445
        53  -9.5497    225.2955     99.3268   3.9645677187e+00   1.8844402049e+01    0.1145002   0.08671535 -15.74 0.0006023095    1.627    0.386
        54 -10.5090     66.2154    248.7925   6.1126785028e+01   1.3192059349e+01    0.2175985   0.08745369  51.91 0.0009538849    2.795    0.642
        55 -11.6593     33.9326    247.8898   6.8415534726e+01   1.6549549323e+01     0.267203    0.2188288  83.49  0.001857894    1.344    0.256
        56 -12.4935    232.2636    244.9852   2.7989691753e+01  -3.0732330016e+00    0.3991117    0.1723953 -17.40  0.002253253    2.492    0.599
        57 -11.6502    230.4925    236.6121   2.7096222773e+01  -1.9002261029e+00    0.3684578    0.1628039 -48.32  0.001893838    3.673    0.728
        58 -10.3839     45.7753    244.4284   6.5513290949e+01   1.6092218133e+01    0.2536441    0.1497057  49.33   0.00123847    1.490    0.329
        59  -9.8802    220.2870    238.3523   2.8936885144e+01  -1.2292865573e+00    0.1112864   0.06078995 -13.63 0.0004542073    1.666    0.400
        60 -11.8853    240.1375    220.6707   2.3346375312e+01  -7.3021208316e-01    0.4393617    0.1170512 -38.94  0.002123958    3.063    0.674
        61 -10.6043     14.4857     37.4757   4.7432996178e+01   7.1390709230e+01    0.1337906     0.117818 -20.47 0.0008096512    1.042    0.040
        62 -11.8629    218.5303    245.2017   3.0166172009e+01  -1.9419788780e+00    0.2356804    0.1303498 -22.09  0.001427423    1.493    0.330
        63 -12.3865    236.5748     88.9406   6.4586187961e-01   1.8607130220e+01    0.4011329    0.1322058 -47.23  0.001809763    2.525    0.604
        64 -11.3357    235.7834     95.7348   2.0742078338e+00   1.7747964452e+01    0.2552799    0.1213333 -45.21   0.00119601    1.636    0.389
        65 -10.2953    240.5991    230.6401   2.4730105472e+01  -2.0201038487e+00    0.1971546   0.07215788 -33.70  0.001130838    2.172    0.540
        66 -11.7934    247.4615    217.1483   2.1770719457e+01  -9.2711819679e-01    0.3011188    0.1455508 -34.55   0.00198492    1.624    0.384
        67 -12.8782    242.9357    247.4106   2.6727734443e+01  -4.2091868229e+00    0.6334039    0.2198892 -29.04  0.003649042    2.429    0.588
        68 -11.3074    235.1487    228.3391   2.5207797892e+01  -1.2650324096e+00    0.2847465    0.1084481 -33.78  0.001639909    2.117    0.528
