#   1 NUMBER                 Running object number                                     
#   2 MAG_AUTO               Kron-like elliptical aperture magnitude                    [mag]
#   3 X_IMAGE                Object position along x                                    [pixel]
#   4 Y_IMAGE                Object position along y                                    [pixel]
#   5 X_WORLD                Barycenter position along world x axis                     [deg]
#   6 Y_WORLD                Barycenter position along world y axis                     [deg]
#   7 A_WORLD                Profile RMS along major axis (world units)                 [deg]
#   8 B_WORLD                Profile RMS along minor axis (world units)                 [deg]
#   9 THETA_WORLD            Position angle (CCW/world-x)                               [deg]
#  10 FWHM_WORLD             FWHM assuming a gaussian core                              [deg]
#  11 ELONGATION             A_IMAGE/B_IMAGE                                           
#  12 ELLIPTICITY            1 - B_IMAGE/A_IMAGE                                       
         1 -16.1788    243.0521    104.8149   6.6435595220e+01   1.1817753586e+01      5.71958     1.530705 -24.38   0.01887553    3.947    0.747
         2 -15.8120    185.1580     88.5909   7.1457243362e+01   2.6161234547e+01     8.804222     2.730697 -47.06   0.02300196    5.332    0.812
         3 -12.2166    198.6481      7.9984   4.5588947199e+01   3.3090520960e+01    0.6648251    0.5036613  30.82  0.001811093    1.530    0.346
         4 -14.3478    202.4295     37.6076   5.4108292293e+01   2.9039126583e+01     2.479186    0.3183468 -31.72  0.006781938    4.475    0.777
         5 -12.8175    208.3375      3.6442   4.3507412616e+01   3.1047329857e+01    0.6104924    0.4041863  -1.32  0.002321463    1.758    0.431
         6 -17.4664    241.2525     15.0291   4.4241278614e+01   2.2302620548e+01     6.443552     1.716088  62.07   0.02454556    3.629    0.724
         7 -15.6149    233.7761      5.0895   4.2156602695e+01   2.4880958300e+01    0.7854435    0.6483825  85.23   0.00414573    1.287    0.223
         8 -14.4480    202.8851     59.0817   6.0303402463e+01   2.6250036620e+01     1.241141     1.056778  25.29  0.006818744    1.251    0.201
         9 -14.3604     15.5485     17.8251   1.0354618453e+02   7.2874779649e+01     1.465789    0.6736492 -22.19   0.00596178    3.531    0.717
        10 -14.3144     23.7723      5.0386   9.1220160650e+01   7.4546895957e+01     1.667637     0.671659  23.07  0.006742212    3.656    0.726
        11 -10.0763    192.5256     14.6281   4.8211010407e+01   3.4030599877e+01    0.2760613   0.09761275 -34.83  0.001026857    2.426    0.588
        12 -11.5096    141.6741      9.1794   5.2645828722e+01   4.8174199879e+01    0.3746706    0.2798384  -8.76  0.001703393    1.427    0.299
        13 -10.7765    150.7923      6.7039   5.0360790615e+01   4.5929267047e+01    0.3242693    0.1503568 -29.15  0.001009258    2.059    0.514
        14 -11.4872    138.9462      3.3492   5.0706181842e+01   4.9454784221e+01    0.4065014    0.2030135 -22.52  0.001240783    1.998    0.500
        15 -10.4920    179.6841      1.2971   4.5180045001e+01   3.8609837175e+01    0.3003846     0.124229  87.80  0.001078743    2.879    0.653
        16 -12.2290    178.9647    138.9698   8.4863746900e+01   1.9463453635e+01    0.2149419    0.1951319  21.72 0.0008233309    1.032    0.031
        17 -13.9700    211.4220    130.1509   7.7018110181e+01   1.4512089638e+01    0.4654459    0.4531701 -25.01  0.003017284    1.275    0.215
        18  -9.8158    166.2689    134.6579   8.6497060147e+01   2.2648671364e+01    0.1310952    0.1114664 -80.49  0.000484517    1.607    0.378
        19 -12.0099    240.8246     78.5772   6.0466809089e+01   1.5432617258e+01    0.2750876     0.239262 -27.67 0.0004593029    1.093    0.085
        20 -12.1309    160.6317    128.3620   8.6298314263e+01   2.4850608454e+01    0.3534672    0.2984334 -45.29  0.001970527    1.287    0.223
        21 -11.0290    136.0000    129.4505   9.2056107558e+01   2.9542974639e+01    0.2975481   0.08128989 -45.85 0.0009263007    3.867    0.741
        22 -10.8588     97.1597    222.8397   1.1390349961e+02   1.9353690561e+01    0.1718965    0.1160511  54.60 0.0005882767    1.272    0.214
        23 -13.8257    215.8419     48.5386   5.5636372437e+01   2.4516810391e+01    0.8015926    0.6147038  -8.96  0.004297719    1.340    0.254
        24 -15.1384     17.7469    193.3548   1.2751799878e+02   3.3416868572e+01    0.8042806    0.5966274  63.82  0.003733757    1.018    0.018
        25 -11.3278    192.4784    194.2541   9.2515502830e+01   9.3042924441e+00    0.6803809    0.3672974 -59.72  0.002012565   10.108    0.901
        26 -12.8444    248.8687     46.4901   5.1608715676e+01   1.7471335029e+01     0.731219    0.4678341 -20.03  0.003954317    1.406    0.289
        27 -13.3624     39.9563    186.8666   1.2254952205e+02   3.2436144597e+01    0.6165423    0.2146577  61.63  0.002774587    3.065    0.674
        28 -12.7907    225.3639    176.4682   8.3928098662e+01   6.2746544295e+00     0.418151    0.2553749  -1.35  0.002423367    1.730    0.422
        29 -14.3407    205.1776    110.5841   7.3563801860e+01   1.8504088917e+01    0.9535866    0.4723622  47.69  0.004247149    2.021    0.505
        30 -12.1520    134.7905    108.7309   8.7567032986e+01   3.3811601160e+01     1.027979    0.2275665 -42.90  0.002789044    4.669    0.786
        31 -11.2558    151.7280    106.7918   8.3107303152e+01   3.0576089414e+01    0.3722346    0.2413179 -63.84  0.001561499    2.270    0.559
        32 -12.0162    208.0254    115.0094   7.4136836807e+01   1.7291923912e+01    0.2983939    0.2758652  58.16  0.001225276    1.302    0.232
        33 -11.4876    135.1886    121.3708   9.0468757474e+01   3.1261630708e+01    0.4179908    0.1832998 -49.79  0.001609074    2.508    0.601
        34 -10.9171    140.8401    104.1576   8.4952353928e+01   3.3417775841e+01     0.205205    0.1755064   7.24 0.0005274109    1.323    0.244
        35 -10.2918    112.0051    103.7718   9.2213171411e+01   3.9439029418e+01    0.1965681    0.1194206  43.77 0.0005722364    1.632    0.387
        36 -10.9457    221.8449    105.0621   6.9548138101e+01   1.5883171656e+01    0.2005828    0.1805302 -46.68 0.0007931749    1.316    0.240
        37 -12.7132    168.2877    114.0619   8.1345909338e+01   2.5730661775e+01    0.3721841    0.3479016  89.77 0.0007937242    1.272    0.214
        38 -11.4441    146.5619     99.8062   8.2470857747e+01   3.2995599240e+01    0.3150524    0.2686612 -23.91 0.0007282019    1.223    0.183
        39 -14.1564    168.7570     66.4053   6.8088644283e+01   3.3534411311e+01     1.420608    0.6580687 -42.41  0.002431057    2.196    0.545
        40 -10.8682    133.0400     96.0538   8.4710262505e+01   3.6670734783e+01    0.2205631    0.2155864  78.00            0    1.056    0.053
        41 -11.2501    221.6455     89.8685   6.5848334459e+01   1.7945486749e+01    0.3665218    0.1979099 -19.98  0.001661259    1.851    0.460
        42 -10.7873    225.5029     95.4990   6.6684435106e+01   1.6408496210e+01    0.2952165    0.1215779  49.34  0.001234505    2.480    0.597
        43 -11.1388    222.2070     93.7774   6.6741785743e+01   1.7310908739e+01    0.2964774    0.2203401 -68.05 0.0009122443    1.992    0.498
        44 -13.0115    155.5910     92.6862   7.8503675988e+01   3.2269068511e+01     0.585318    0.3929606  34.06  0.002159008    1.628    0.386
        45 -11.7031    139.9626     89.1029   8.1084270932e+01   3.6476325370e+01    0.3286017    0.3025942 -73.59  0.001084361    1.194    0.162
        46 -13.1767    170.3831     82.5109   7.2555614534e+01   3.0568472698e+01    0.6409989    0.4430123  22.18  0.002759838    1.794    0.442
        47 -10.7338    218.4848     85.4948   6.5199676789e+01   1.9195558631e+01    0.1396704    0.1250833  -9.40  0.000810438    1.014    0.014
        48 -13.0883    153.9168     82.6142   7.6004360875e+01   3.4437882340e+01    0.4741603    0.3504989  40.64  0.001788448    1.378    0.275
        49 -10.6043    222.8376     79.7271   6.3100503999e+01   1.9022997958e+01    0.2699845    0.1527165 -47.79  0.001219798    2.034    0.508
        50  -9.9425    224.2207     75.1433   6.1728921808e+01   1.9316314694e+01     0.192135    0.1496152 -48.01 0.0007013165    1.379    0.275
        51 -11.9929    195.0037     72.9291   6.5427398050e+01   2.6213281573e+01    0.4754459     0.442473 -22.86   0.00164487    1.028    0.027
        52 -10.3357    199.8214     72.5869   6.4568146671e+01   2.5135014945e+01     0.228053    0.1641453 -74.55 0.0009818053    1.945    0.486
        53 -12.5783    185.8755     71.0603   6.6406790583e+01   2.8653571915e+01    0.3744026    0.2763743  32.07  0.001825489    1.478    0.323
        54 -12.8319    190.4899     67.9976   6.4752094421e+01   2.7991263021e+01    0.4334561    0.2863513  39.60  0.002022381    1.626    0.385
        55 -10.1499    206.4669     73.9922   6.3939582359e+01   2.3409066672e+01    0.2182817    0.1288212 -32.24 0.0007738831    1.561    0.359
        56 -11.7222    250.6883     71.3439   5.7549440646e+01   1.4325225066e+01    0.4267801    0.1079337 -26.54  0.001165193    3.280    0.695
        57 -12.8142    236.9035     73.4963   5.9684573475e+01   1.6845369528e+01    0.6826301    0.2474011 -36.48  0.002331333    2.407    0.584
        58 -11.1857    228.1216     71.5932   6.0299550561e+01   1.8926700146e+01    0.2601337    0.1904688 -53.34 0.0008321606    1.559    0.359
        59 -10.2369    224.5811     68.8426   6.0039312860e+01   2.0036896080e+01    0.2707204    0.1922629 -54.46 0.0004666013    1.626    0.385
        60 -11.2150    149.4238     69.2414   7.2917716888e+01   3.7830227674e+01    0.2654969    0.1996973  87.23  0.001194565    1.767    0.434
        61 -10.1310    130.5379     66.4949   7.6455386672e+01   4.2865924310e+01    0.1516611    0.1490207 -15.81 0.0002108716    1.004    0.004
        62 -10.1164    226.9671     39.7864   5.2000842537e+01   2.2962253536e+01    0.3042075    0.1361844  46.79 0.0008053898    2.570    0.611
        63 -11.3053    222.7323     41.4494   5.2896290082e+01   2.3745112791e+01    0.5167035    0.2373159 -44.52  0.002193941    2.124    0.529
        64 -12.8392    227.9171     49.4636   5.4501689530e+01   2.1646402038e+01    0.9652761    0.3601457 -33.15  0.003906634    2.223    0.550
        65 -11.3534    230.0981     42.9447   5.2528289775e+01   2.1902536171e+01    0.3263797    0.2953245  52.36  0.001941868    1.224    0.183
        66 -10.7622    221.4901     59.0081   5.7816709523e+01   2.1946816137e+01    0.2499658    0.2099253 -59.70 0.0008651642    1.312    0.238
        67 -11.4053    223.4684     56.4578   5.6889115357e+01   2.1813585103e+01    0.3989058    0.2491486 -19.51  0.001451333    1.531    0.347
        68 -11.2497    240.0315     58.9302   5.5639342968e+01   1.7920655252e+01    0.1921801    0.1699616 -22.15  0.001188074    1.015    0.015
        69 -10.1500    147.7027     58.0559   6.9644814848e+01   4.0115951251e+01    0.2158023    0.1924659 -32.73 0.0005413772    1.106    0.096
        70 -11.6827    190.2220     51.5250   5.9919803538e+01   3.0332470016e+01    0.2995532      0.22768 -42.90 0.0003162833    1.293    0.227
        71 -10.0945    233.9490     49.9773   5.3984524700e+01   2.0253974699e+01     0.268694    0.1952272 -37.03 0.0009832357    1.238    0.192
        72 -10.7478    167.0923     50.0794   6.3208739947e+01   3.6391956596e+01    0.2244816    0.2125321 -56.33  0.000417424    1.082    0.076
        73 -11.1694    134.2301    148.0101   9.6173338325e+01   2.6375931784e+01    0.7498222    0.1865545 -54.47  0.001783452    8.160    0.877
        74 -13.4196     69.7447    148.1336   1.1187875386e+02   3.6718511973e+01     1.746476     0.847254 -69.57  0.006589925    2.156    0.536
        75 -10.2273    179.3821     43.2505   5.8978926178e+01   3.4162488660e+01    0.2083817    0.1295409 -36.71 0.0004392292    1.532    0.347
        76 -10.5619    238.6499     41.9462   5.1416994127e+01   2.0128155844e+01    0.2569686    0.1407211 -60.09  0.001169362    2.279    0.561
        77 -14.0774     47.5364    172.3964   1.1980402395e+02   3.4421256050e+01    0.5491909    0.4183793  55.93  0.001380739    1.089    0.081
        78 -10.4614    209.7530     38.5309   5.3515511599e+01   2.7143488949e+01    0.3681186    0.1522342 -46.27  0.001195599    2.519    0.603
        79 -10.6401    189.9910     35.9895   5.5183843810e+01   3.2352123817e+01    0.2224801    0.1991396 -41.45 0.0005762523    1.074    0.069
        80 -11.6398    144.5172     29.9997   6.0261677569e+01   4.5049164089e+01    0.4061306    0.1492038 -25.48  0.001367044    2.748    0.636
        81 -13.1022    218.4683    121.6985   7.3961684017e+01   1.4315804771e+01    0.3925061    0.3091876  23.50  0.002304131    1.208    0.172
        82 -14.2649     54.1414    167.5222   1.1784790695e+02   3.4640585166e+01    0.8341994    0.5880997  52.48  0.002802052    1.202    0.168
        83 -12.9053     29.4148    174.2704   1.2403491439e+02   3.5958482307e+01    0.2819697    0.1957216 -79.55  0.001926196    1.413    0.292
        84 -11.0069    153.0758     21.0467   5.5429173830e+01   4.3839371988e+01    0.2102657    0.2074079 -19.44 0.0002995976    1.022    0.022
        85 -12.6866    229.8752    167.2930   8.1526919696e+01   6.6126841896e+00    0.3440321    0.2493656 -45.97  0.001826083    2.077    0.519
        86 -14.5022    213.7500    117.5765   7.3784720540e+01   1.5793086465e+01    0.9056644    0.4636872  50.39  0.004196502    2.053    0.513
        87 -13.8421     59.2580    162.4867   1.1614137032e+02   3.5052748481e+01    0.6576285    0.4288975  66.65  0.001714631    1.448    0.309
        88 -12.2886    249.7540    137.7971   7.2703392249e+01   6.7655574474e+00    0.4817226    0.2703226 -16.53 0.0007461908    1.634    0.388
        89  -9.8300    202.4576    248.4737   9.8394015113e+01   2.0749506212e+00    0.1033447   0.07184659  26.17 2.458091e-05    1.029    0.028
        90 -11.9005    133.8663     21.5660   5.8990997470e+01   4.8929498037e+01    0.2634115    0.2382233 -84.45   0.00111996    1.182    0.154
