#   1 NUMBER                 Running object number                                     
#   2 MAG_AUTO               Kron-like elliptical aperture magnitude                    [mag]
#   3 X_IMAGE                Object position along x                                    [pixel]
#   4 Y_IMAGE                Object position along y                                    [pixel]
#   5 X_WORLD                Barycenter position along world x axis                     [deg]
#   6 Y_WORLD                Barycenter position along world y axis                     [deg]
#   7 A_WORLD                Profile RMS along major axis (world units)                 [deg]
#   8 B_WORLD                Profile RMS along minor axis (world units)                 [deg]
#   9 THETA_WORLD            Position angle (CCW/world-x)                               [deg]
#  10 FWHM_WORLD             FWHM assuming a gaussian core                              [deg]
#  11 ELONGATION             A_IMAGE/B_IMAGE                                           
#  12 ELLIPTICITY            1 - B_IMAGE/A_IMAGE                                       
         1 -14.5537    152.2528     60.3318   8.3379970449e+01   3.9321589421e+01     1.450563     1.168217  32.45 0.0009803355    1.352    0.260
         2 -14.8457    163.6179     45.4519   7.6780491707e+01   3.8758481168e+01      1.18706     1.050323 -25.33  0.003745159    1.261    0.207
         3 -15.1931    181.7730     11.8125   6.4756023695e+01   3.8331701447e+01     2.483534     1.151335  64.97  0.008063127    1.815    0.449
         4  -9.4774    135.7004    241.2867   1.2689940366e+02   5.5485615748e+00    0.5413144    0.2716844  46.99  0.001213143    1.684    0.406
         5 -20.2856     72.6890    177.9078   1.3145383275e+02   2.9306110825e+01     17.39899     6.734851 -64.72   0.07005937    2.438    0.590
         6 -12.5868    189.6358    177.8389   1.0487568316e+02   7.4611248441e+00    0.8125924    0.4649284 -66.99  0.002866571    3.341    0.701
         7 -12.6925    204.3268    175.2479   1.0132971177e+02   4.9912260341e+00    0.4892196    0.4782973  88.15  0.001438825    1.140    0.123
         8 -12.1760    196.7285    176.1053   1.0304925969e+02   6.3587999715e+00    0.5805787     0.411717 -66.88  0.002218401    1.942    0.485
         9 -12.5812    189.7449    155.6193   1.0007084856e+02   1.1924409056e+01    0.5241475    0.4703865  26.95  0.001599549    1.165    0.141
        10 -12.7154    192.9714    165.3589   1.0154006191e+02   9.2598032962e+00    0.4596706    0.3327458 -43.70  0.001001513    1.384    0.277
        11 -12.3694    189.9519    161.0014   1.0122008665e+02   1.0779682191e+01    0.3785974     0.358077  78.30  0.001015524    1.134    0.118
        12 -12.7062    177.3715    170.7094   1.0599240879e+02   1.1441591805e+01    0.7089971    0.2581243 -55.35   0.00199675    4.359    0.771
        13 -12.1707     21.7002    234.4281   1.4726900876e+02   2.3504484424e+01    0.2157188     0.131793 -88.34  0.001202464    1.305    0.234
        14 -12.3499    230.4137    167.6843   9.4715882335e+01   1.2746255249e+00    0.4646909    0.2218036 -50.65   0.00183105    2.538    0.606
        15 -10.6914     25.4823    165.0098   1.4058010268e+02   3.8052611807e+01    0.1894449    0.1668393 -37.43  0.000714168    1.522    0.343
        16 -11.4236     17.9514    156.5026   1.4134452236e+02   4.0704848180e+01    0.4492178    0.2004889 -69.22  0.002315014    1.746    0.427
        17 -11.7379    167.2805    155.8069   1.0499300369e+02   1.6755201444e+01     0.306065    0.2081228  69.36  0.001278335    1.936    0.484
        18  99.0000      5.3849    232.9713   1.4987055074e+02   2.5516936028e+01    0.2197531    0.1269753  38.51  0.001470511    2.011    0.503
        19 -11.1201    140.4006    227.9588   1.2410740408e+02   7.1654983110e+00    0.3633437    0.2961894  84.05  0.001560681    1.354    0.262
        20 -11.0504     22.9548    156.0827   1.4014353709e+02   4.0348858970e+01    0.1991418    0.1637023  64.89  0.000394606    1.269    0.212
        21 -11.2543    174.2110    148.4116   1.0178122940e+02   1.6831469291e+01    0.4477344    0.2885528 -61.27  0.001527635    1.873    0.466
        22 -11.6244    218.3183    220.5290   1.0741708753e+02  -5.4810720394e+00    0.4205964    0.1771764 -47.82  0.001730156    3.091    0.677
        23 -10.9228    135.3378    236.8465   1.2637211206e+02   6.4117817636e+00    0.2624123    0.1970737 -86.88 0.0007592217    1.585    0.369
        24 -12.4576    125.2873    238.1315   1.2851639206e+02   7.9035846102e+00    0.3379798     0.193871 -61.56  0.001370778    1.998    0.500
        25 -12.1140    152.5297    139.3918   1.0464059816e+02   2.3592769836e+01    0.3312333    0.2779322 -85.59 0.0009584049    1.355    0.262
        26  -9.9582    126.3425    209.2294   1.2422110814e+02   1.3394715927e+01    0.1289851    0.1065755  20.23 0.0006871549    1.544    0.352
        27 -10.1496      9.0239    137.5146   1.4128466977e+02   4.5762788040e+01    0.1397749    0.1222421   9.97  0.000549802    1.566    0.361
        28 -13.7137     11.7715    206.0301   1.4704729339e+02   3.0332305166e+01    0.5126489    0.3311302  36.83  0.002618276    1.868    0.465
        29 -12.5906    160.2648    127.8801   1.0005130230e+02   2.4399333071e+01    0.4895878    0.3678302 -63.72   0.00157086    1.482    0.325
        30 -10.1816     17.5302    199.9489   1.4551449109e+02   3.1050648404e+01    0.1621132   0.09024759 -73.00 0.0009703786    1.490    0.329
        31 -12.1094     13.0678    239.2666   1.4899251879e+02   2.3505604183e+01    0.3362494    0.1649581 -79.40  0.002120855    1.696    0.410
        32 -10.5942    135.0792    198.3244   1.2057750427e+02   1.4075174128e+01    0.2229734    0.1948808 -46.01 0.0004090672    1.283    0.221
        33 -10.7102    121.7530    198.1530   1.2347512802e+02   1.6576354307e+01    0.2315783    0.1920986 -68.87  0.000714607    1.229    0.186
        34 -10.9276    167.5551    112.5664   9.4521981724e+01   2.5961202295e+01    0.3571001    0.2387639 -82.06  0.001362154    2.382    0.580
        35 -11.0512      1.3009    197.2787   1.4834510174e+02   3.3155960880e+01    0.1783178   0.07518534 -73.24 0.0006724877    1.845    0.458
        36 -10.9838    205.1077    110.4724   8.6337100299e+01   1.7527033921e+01    0.3395506    0.2574467  32.94  0.001100352    1.588    0.370
        37 -10.5449    150.9300    239.2625   1.2364318718e+02   3.2609717028e+00    0.1887313    0.1833537 -64.50 0.0006369554    1.206    0.171
        38 -11.4473     13.1962    100.7828   1.3490662701e+02   5.3709143988e+01    0.3257933    0.1755596  18.18  0.001848441    2.384    0.581
        39 -11.1945     32.5927     99.3246   1.2873597827e+02   5.2494365935e+01    0.2395381    0.1938297  57.93 0.0007412968    1.538    0.350
        40 -12.9732    164.5100    187.3233   1.1213959152e+02   1.0641067220e+01    0.7210714    0.3101071  52.95  0.002172844    2.698    0.629
        41 -10.8705    144.7869     81.6307   9.1306423624e+01   3.7433280339e+01    0.2488968    0.2216007 -46.76 0.0004696789    1.141    0.124
        42 -11.6513    164.5261    183.0347   1.1130213853e+02   1.1526306026e+01    0.3349823    0.2242123 -73.16  0.001213112    2.142    0.533
        43 -11.3280    163.6855    248.1106   1.2243420182e+02  -4.3219500559e-01    0.2585761     0.173342 -51.59  0.001127299    1.802    0.445
        44 -10.3199    127.0875    249.2700   1.2957488676e+02   5.5974920327e+00     0.147423    0.1239125  61.23 0.0002983803    1.054    0.051
        45 -13.2624    168.1725     37.0683   7.3591639839e+01   3.8758462494e+01    0.4414444    0.3959515  66.97 0.0008403705    1.028    0.027
        46 -11.5100     13.5218     59.9713   1.2618161200e+02   6.2120854142e+01     0.204515    0.1743598 -46.06 0.0005421077    1.161    0.138
        47 -11.7125    160.9860    237.7414   1.2144700038e+02   1.7562992003e+00     0.291047    0.2221887  81.04  0.001314555    1.727    0.421
