#   1 NUMBER                 Running object number                                     
#   2 MAG_AUTO               Kron-like elliptical aperture magnitude                    [mag]
#   3 X_IMAGE                Object position along x                                    [pixel]
#   4 Y_IMAGE                Object position along y                                    [pixel]
#   5 X_WORLD                Barycenter position along world x axis                     [deg]
#   6 Y_WORLD                Barycenter position along world y axis                     [deg]
#   7 A_WORLD                Profile RMS along major axis (world units)                 [deg]
#   8 B_WORLD                Profile RMS along minor axis (world units)                 [deg]
#   9 THETA_WORLD            Position angle (CCW/world-x)                               [deg]
#  10 FWHM_WORLD             FWHM assuming a gaussian core                              [deg]
#  11 ELONGATION             A_IMAGE/B_IMAGE                                           
#  12 ELLIPTICITY            1 - B_IMAGE/A_IMAGE                                       
         1  -8.3875     55.7579     10.0499   5.7802028036e+01   6.6181956475e+01    0.1651914    0.1519315  17.13 0.0004976236    1.255    0.203
         2  -8.0210     47.6303      9.8416   6.0886200241e+01   6.7608635624e+01     0.153493    0.1037998 -33.01 0.0007667066    1.751    0.429
         3  -8.2051     90.7919      8.8046   4.6590269693e+01   5.9344406791e+01    0.1570507     0.142352  86.29 0.0004978396    1.328    0.247
         4  -7.7492    101.6298      8.2980   4.3901812248e+01   5.7021217714e+01    0.1231133   0.09256206 -80.11 0.0007030015    1.736    0.424
         5  -8.6028      5.9845      8.4660   8.1613664489e+01   7.3264909473e+01    0.1340925   0.08653877  39.87 0.0004717342    2.429    0.588
         6  -8.6948     33.5061      5.0669   6.4736823856e+01   7.0340218893e+01    0.2521302    0.1673845 -45.29  0.001373195    2.498    0.600
         7  -8.3194     79.0573      4.0114   4.7702806889e+01   6.2205530700e+01    0.1728411    0.1445637 -67.08  0.001076602    1.682    0.405
         8  -7.9650     44.4204      3.1844   5.8948697797e+01   6.8800757829e+01    0.1459699    0.1036417 -28.96 0.0007777419    1.658    0.397
         9  -8.0051     15.7717      3.0010   7.2909691908e+01   7.2944015068e+01    0.1379135   0.08000457 -27.46 0.0003163878    1.613    0.380
        10  -8.1899     62.2857      1.3799   5.1529803429e+01   6.5748331096e+01    0.1546214    0.1021215  57.60 0.0004061852    1.555    0.357
        11  -7.8275     39.2161      1.3883   6.0241836285e+01   6.9822365159e+01    0.1506764   0.09844369  46.51 0.0003978383    1.608    0.378
        12  -8.9750    232.9129    246.0917   7.5066915207e+01  -9.0492955745e+00    0.3960754    0.1448549 -25.45  0.001627896    3.447    0.710
        13  -8.0893    191.5848    249.7598   8.3511590589e+01  -4.4105774310e+00    0.1495946    0.1176599 -45.91 0.0006130304    1.641    0.391
        14  -9.9467    223.8100    243.9372   7.6375915310e+01  -7.6618109509e+00    0.4459673    0.2227704 -46.10  0.002273255    2.574    0.612
        15  -9.2772    210.8213    246.4222   7.9225222194e+01  -6.4102273871e+00    0.2371591    0.1659025 -42.09  0.000858128    1.711    0.415
        16  -9.3259    147.2873    246.1490   9.2154528256e+01   2.4018011377e+00    0.3293813    0.2328981  67.00  0.001702966    2.270    0.560
        17  -9.5193    120.2452    245.4657   9.7920714940e+01   6.4626349308e+00    0.3858453    0.2576426  79.14  0.001780985    2.425    0.588
        18  -9.5551     78.0109    243.0749   1.0686585897e+02   1.2837804329e+01    0.3949029    0.2297918  74.44   0.00188306    2.237    0.553
        19  -8.6089     67.4293    245.2062   1.0934350092e+02   1.3783178614e+01     0.166722    0.1114433  87.54 0.0006316978    1.652    0.395
        20  -8.3773     50.1451    244.5367   1.1291884895e+02   1.6047602257e+01     0.269962    0.1266644  86.50  0.001216513    2.812    0.644
        21  -8.5695    201.9477    243.2905   8.0436515516e+01  -4.7906916315e+00    0.2365275    0.1752359 -52.03   0.00114036    1.950    0.487
        22  -7.7182     34.6531    244.2951   1.1607372839e+02   1.7868131965e+01    0.1299353   0.06944345  59.23 0.0007032281    1.672    0.402
        23  -9.1630    194.0853    239.6649   8.1405675794e+01  -3.1658156452e+00    0.2241999    0.1754841 -47.89 0.0005401935    1.653    0.395
        24  -8.9299    169.0923    242.7931   8.7030387817e+01  -1.7143131718e-01    0.2624566    0.1803391 -28.73 0.0006754764    1.529    0.346
        25  -9.2354    183.1256    240.1903   8.3711889987e+01  -1.7304711037e+00     0.411981    0.2762576  59.52  0.001971662    2.894    0.654
        26  -9.3670    159.9478    239.9630   8.8533184026e+01   1.6426108535e+00     0.328868    0.2504865 -80.92  0.001612896    2.276    0.561
        27  -7.9600    153.4166    242.1957   9.0266856718e+01   2.2060098932e+00    0.1628419    0.1288651 -65.04 0.0009397442    1.723    0.420
        28  -8.2148     88.1668    242.1661   1.0455756460e+02   1.1650530613e+01      0.17721    0.1357958  68.54 0.0005641783    1.366    0.268
        29  -8.2342    240.5614    240.2721   7.2741839620e+01  -9.1235650598e+00    0.1623172   0.09037696 -24.15 0.0007005797    1.557    0.358
        30  -8.5795    146.2689    239.4646   9.1410172068e+01   3.7509520027e+00    0.1978609    0.1637525  88.47 0.0005333474    1.759    0.432
        31  -9.3957    135.4851    238.9688   9.3700522543e+01   5.4457815844e+00    0.2890513    0.1642966  47.61  0.001084466    1.873    0.466
        32  -8.3577    129.1603    238.8745   9.5083608294e+01   6.4035410500e+00    0.1993327    0.1659351  53.52 0.0006015226    1.293    0.227
        33  -8.7886    230.8808    237.1204   7.3945658902e+01  -7.5349580272e+00    0.2278742    0.2040439 -72.05  0.001200943    2.235    0.553
        34  -9.8888    175.6535    233.3134   8.4155436979e+01   5.0238306718e-01    0.5176421     0.253149 -53.54  0.002095795    2.785    0.641
        35  -8.0804     57.9919    237.1995   1.1063317456e+02   1.6619548161e+01    0.1702729    0.0890593  34.31 0.0008619754    1.759    0.431
        36  -8.4040     25.7946    237.2142   1.1739069274e+02   2.0284474109e+01    0.2261408   0.08417904  61.58  0.000967673    2.883    0.653
        37  -8.0291    218.4346    248.1806   7.8068090344e+01  -7.6146688109e+00    0.1481039    0.1084498 -40.83 0.0005591715    1.682    0.405
        38  -9.7498    214.6300    232.9072   7.6258856001e+01  -4.8564376318e+00    0.4507104    0.3564245 -86.86  0.002255258    3.466    0.711
        39  -9.0069    203.2377    234.8867   7.8799995182e+01  -3.6500915025e+00    0.2619947    0.2114258 -64.83 0.0009987549    2.157    0.537
        40  -8.5127    170.4012    235.6706   8.5641751403e+01   8.6149460843e-01    0.2162491    0.1276603 -50.31 0.0007178503    2.014    0.504
        41  -9.2533    109.2636    234.6102   9.8960721402e+01   1.0179840316e+01    0.4990089    0.2235617  48.10  0.001836112    2.328    0.570
        42  -8.3762     99.7957    234.6120   1.0109586276e+02   1.1552385614e+01    0.2524111    0.1619372  75.58  0.001218062    2.182    0.542
        43  -8.9475     78.5092    234.1927   1.0582772929e+02   1.4604353809e+01    0.2815534    0.1790115  76.20 0.0008879038    1.903    0.475
        44  -9.5350      8.1170    234.3424   1.2075408730e+02   2.2630252075e+01    0.2219675    0.1069155 -64.68  0.001223488    2.109    0.526
        45  -8.1591    122.8025    234.0186   9.5831291230e+01   8.2922424986e+00    0.2078145    0.1489231  75.36  0.001055231    2.001    0.500
        46  -8.6114     92.3791    232.1913   1.0247907850e+02   1.3109670295e+01    0.3407315     0.207175 -80.13  0.001349136    2.127    0.530
        47  -9.3825     68.1413    231.6893   1.0787913009e+02   1.6505559941e+01    0.5705222    0.2769738  75.57  0.002227003    3.414    0.707
        48  -8.6794    194.3737    232.9677   8.0243635592e+01  -2.1203445716e+00    0.2064187    0.1738349  44.37 0.0008891927    1.560    0.359
        49  -7.9372    145.1950    233.3994   9.0744808211e+01   5.0352244488e+00    0.1942488    0.1107115  42.00 0.0007104992    1.699    0.412
        50  -8.4991    132.6600    233.0255   9.3478202296e+01   7.0034268413e+00    0.2002545    0.1721217  87.27  0.001174474    1.493    0.330
        51  -9.5574    186.4720    230.7050   8.1474960293e+01  -6.2051540003e-01    0.3158994    0.2536949 -75.88  0.001312554    2.236    0.553
        52  -8.1909    157.8831    232.1398   8.7769045559e+01   3.3523676797e+00    0.1962868    0.1723192  41.90 0.0005696106    1.261    0.207
        53  -8.9589    236.0733    230.1101   7.1818593194e+01  -7.1397669450e+00    0.3891381    0.1651797 -37.98  0.001419876    2.158    0.537
        54  -8.7080      1.4442    230.6939   1.2187338185e+02   2.4001076395e+01    0.2159593   0.09367507 -88.98  0.001121031    2.102    0.524
        55  -8.8595    151.4505    228.9570   8.8679585856e+01   4.9202206189e+00    0.2431282    0.2028023  69.29  0.001173151    1.639    0.390
        56  -9.5055    148.4965    224.4475   8.8624280820e+01   6.2372355735e+00    0.3738423    0.2794412  79.87  0.001548872    2.223    0.550
        57  -8.7926    140.0728    229.9258   9.1360335307e+01   6.4762491644e+00    0.2661617    0.2131783  68.58  0.001041993    1.658    0.397
        58  -8.0997    229.6035    228.8087   7.2762186540e+01  -6.1490396353e+00    0.1603657    0.1058747 -41.03 0.0007026017    1.667    0.400
        59  -8.8113    162.0123    227.7410   8.6168871841e+01   3.5349180780e+00    0.2459378    0.2247362  81.31  0.001399845    1.505    0.336
        60  -8.9958    127.8726    227.2086   9.3713911210e+01   8.8803259525e+00     0.318337    0.2374311  68.32   0.00106519    1.771    0.435
        61  -9.0509      8.0108    228.2190   1.2043953702e+02   2.3935816661e+01    0.1833934   0.09972432  72.22 0.0009786172    1.631    0.387
        62  -8.0872     49.2969    226.7088   1.1159006795e+02   1.9926692783e+01     0.278076   0.08715839  53.72 0.0009677706    3.768    0.735
        63  -8.4503    205.9630    226.1505   7.6777962921e+01  -2.6158068692e+00    0.1795891    0.1707895  -0.61 0.0007601613    1.356    0.262
        64  -8.0267    200.0378    226.3242   7.7980438648e+01  -1.8177311618e+00     0.179428    0.1489535   7.71 0.0005580506    1.068    0.064
        65  -8.4220    176.4146    226.2353   8.2827050592e+01   1.6334184560e+00    0.2315514    0.1635945  53.30 0.0006778814    1.976    0.494
        66  -8.5558    173.0396    223.0564   8.3010858466e+01   2.7149327178e+00     0.244573    0.1829996 -63.89 0.0006799749    1.951    0.487
        67  -9.0179     94.2868    224.3951   1.0108243689e+02   1.4490960618e+01    0.4433202     0.230628  63.95  0.001756589    2.944    0.660
        68  -8.7640    180.5934    224.2922   8.1617159306e+01   1.3544072600e+00    0.2721298    0.2049454  59.73 0.0009879392    2.077    0.518
        69  -8.8628    104.9021    223.6438   9.8512995547e+01   1.3096120179e+01    0.3850791    0.2362322  76.25  0.001661867    2.624    0.619
        70  -7.5355     78.3257    225.6476   1.0492421536e+02   1.6458057333e+01    0.1440088   0.09017928  63.66 0.0007047626    1.762    0.433
        71  -8.7640    216.4326    223.4201   7.4278745021e+01  -3.6026853775e+00     0.223316    0.2124764 -71.93 0.0009109514    1.707    0.414
        72  -8.2230    113.9361    223.9581   9.6454865920e+01   1.1672861073e+01    0.2115475    0.1553605  64.12 0.0005820731    1.615    0.381
        73  -8.3802     59.8223    223.4998   1.0892570857e+02   1.9351618113e+01    0.2560176    0.1549758  81.22   0.00097185    1.891    0.471
        74  -8.3365     38.3618    224.2267   1.1378385470e+02   2.1729849987e+01    0.1753533    0.1044236  88.76 0.0005492388    1.680    0.405
        75  -9.1817    160.5527    221.4474   8.5455591571e+01   4.9366724067e+00    0.5812905    0.2851202  53.90  0.001885367    3.789    0.736
        76  -8.1114    140.5283    222.7327   9.0151317137e+01   7.8156296424e+00    0.1693374    0.1369271 -70.27 0.0009239308    1.577    0.366
        77  -8.9453    238.9174    221.4082   6.9801933660e+01  -6.1923215029e+00    0.2371007    0.1515405 -39.68 0.0007252616    1.606    0.377
        78  -9.1360    225.5677    221.7088   7.2265095652e+01  -4.5427570815e+00    0.2230898    0.2116144   6.35  0.001022011    1.442    0.307
        79  -9.2062    192.3507    221.3641   7.8673700024e+01   1.2802583714e-01    0.2627234    0.2429567 -78.49 0.0008337022    1.641    0.391
        80  -8.9925      8.2398    222.4205   1.2006171325e+02   2.5166917751e+01    0.1675929   0.08982807  44.89  0.000958642    1.646    0.392
        81  -9.1630    120.6451    219.3820   9.4228699846e+01   1.1604172262e+01    0.4754398    0.2550445  58.22  0.001890618    2.769    0.639
        82  -8.2473     27.5168    221.0448   1.1589730094e+02   2.3600153400e+01    0.1823665    0.1088928 -77.28 0.0006868307    1.561    0.359
        83  -8.2173    202.5382    220.0345   7.6385805178e+01  -1.1190531166e+00    0.1864632     0.118654 -36.87  0.000398546    1.520    0.342
        84  -7.8741     73.2983    220.6522   1.0552041650e+02   1.8237289386e+01    0.1417571   0.09153829  65.52 0.0007035757    1.681    0.405
        85  -8.6144    248.8891    218.2796   6.7525472067e+01  -6.9352930027e+00    0.2161701    0.1845797  79.59  0.001285652    2.780    0.640
        86  -8.3262    209.9992    218.8219   7.4704417596e+01  -1.9712564179e+00    0.2094512    0.1553396 -45.30 0.0005325141    1.589    0.371
        87  -8.9336    143.1334    216.8548   8.8616898088e+01   8.5828799728e+00    0.3098902    0.2268388 -73.18   0.00107769    1.933    0.483
        88  -9.3356    132.7744    215.8537   9.0851347698e+01   1.0436586805e+01    0.4925419    0.3207545  76.31  0.002033232    2.909    0.656
        89  -8.4655     61.9598    217.4110   1.0780582280e+02   2.0446803434e+01    0.2593887    0.1673246  80.90  0.001331053    1.720    0.419
        90  -9.1426     51.5375    217.2824   1.1020487130e+02   2.1763964623e+01      0.29937    0.1916524  78.23 0.0009750846    1.639    0.390
        91  -8.9121     82.8911    220.5691   1.0326898640e+02   1.6943794035e+01     0.351634     0.188132  58.45  0.001349848    2.193    0.544
        92  -8.6627    169.1176    215.8187   8.2619837347e+01   4.6650106253e+00    0.2779731    0.1955095 -62.35   0.00079866    2.007    0.502
        93  -8.3201     18.4843    216.0442   1.1749273629e+02   2.5620994440e+01    0.1873443    0.1061238 -80.34  0.001034104    1.595    0.373
        94  -8.8260    232.2780    214.7738   6.9807446023e+01  -4.3293630227e+00    0.2123939    0.1805384 -43.39 0.0007918887    1.546    0.353
        95  -7.9653    154.4223    215.2052   8.5775616475e+01   7.1118770810e+00    0.1798882    0.1365162 -62.53 0.0005876658    1.678    0.404
        96  -9.4003    214.0788    211.8390   7.2661264287e+01  -1.3802399856e+00    0.3943028    0.3193507 -46.99  0.001857757    1.539    0.350
        97  -8.4255    185.6292    214.1613   7.8795146603e+01   2.4116605713e+00    0.1957866    0.1652019 -46.71 0.0008082343    1.395    0.283
        98  -9.2472     93.1537    214.0199   9.9996670235e+01   1.6935182738e+01     0.345499    0.1966822  55.19  0.001369191    1.963    0.490
        99  -8.1964     76.9809    214.4730   1.0392865097e+02   1.9128540509e+01     0.235955    0.1486572  52.98  0.001180162    1.565    0.361
       100  -9.1217     72.1255    211.1752   1.0469475689e+02   2.0543035771e+01     0.471437    0.2319715  64.21  0.001835685    2.897    0.655
       101  -8.2304    224.8383    212.5458   7.0763206403e+01  -2.9860727154e+00    0.2032363    0.1338789 -37.57 0.0004656055    1.452    0.312
       102  -8.6110    161.8976    212.4609   8.3629086236e+01   6.4558122983e+00    0.2339602    0.2020579 -72.67 0.0008385637    1.553    0.356
       103  -8.3101    106.4666    212.9564   9.6647957729e+01   1.5177248380e+01    0.1994737    0.1397829 -63.75  0.001009896    1.560    0.359
       104  -9.4621    175.5982    210.1920   8.0219915798e+01   4.7093426535e+00    0.3956907    0.2888546  65.94  0.001654158    2.337    0.572
       105  -8.9667    204.1588    210.7182   7.4392550747e+01   2.4174116728e-01    0.2472063    0.1979227 -39.54 0.0006429803    1.347    0.258
       106  -8.3202    192.3018    210.6034   7.6768649451e+01   2.0366307480e+00    0.2277264    0.1583047 -50.00 0.0008281823    1.699    0.412
       107  -8.7693    147.8694    210.4363   8.6458869681e+01   9.1256964600e+00    0.3137156    0.2311826  67.19   0.00133475    1.988    0.497
       108  -8.9147    116.2821    210.4763   9.3917192885e+01   1.4198745489e+01    0.3050446    0.2141828  67.35 0.0009042654    1.860    0.462
       109  -9.2895      6.6181    209.1171   1.1959859208e+02   2.8268583186e+01    0.4896047    0.1606775  74.78  0.001675979    4.507    0.778
       110  -8.5754     85.4467    209.2853   1.0122981465e+02   1.9126885299e+01    0.3321886      0.20324  78.17  0.001447129    2.288    0.563
       111  -8.2458     32.0449    210.0607   1.1401575935e+02   2.5618930108e+01    0.2173851    0.1243166  66.51  0.000806374    1.739    0.425
       112  -8.9840    236.5844    208.2431   6.7859285090e+01  -3.8600246847e+00    0.2597744    0.2077233 -58.89  0.001100033    2.024    0.506
       113 -10.1027    124.2912    206.2598   9.1321974590e+01   1.3843905492e+01    0.3380926    0.2375538  66.97            0    1.932    0.483
       114  -8.2289     46.0166    209.0161   1.1068056646e+02   2.4317564890e+01    0.2213058    0.1343718  67.80 0.0007382731    1.707    0.414
       115  -9.4863    246.4305    207.1958   6.5964448561e+01  -4.9583873923e+00    0.3000675    0.1787025 -32.49 0.0007553372    1.401    0.286
       116  -9.3822    250.0399    201.7987   6.4377349587e+01  -4.5765348435e+00    0.4113606    0.1563907 -40.49  0.001257309    2.307    0.567
       117  -9.6559    245.7853    193.6172   6.3579022306e+01  -2.7352654184e+00    0.4368656    0.2997949 -64.36     0.002128    3.093    0.677
       118  -8.0878    156.6870    208.3113   8.4075748937e+01   8.1208693988e+00    0.2080745    0.1663366  69.16 0.0009619987    1.778    0.438
       119  -8.3981    139.0234    207.9880   8.8101077207e+01   1.1075532982e+01    0.2178651      0.17212  68.62 0.0006096306    1.666    0.400
       120  -9.2749     99.3844    206.2070   9.7387553287e+01   1.7773614408e+01    0.4125386    0.2647495  82.48  0.001227239    2.311    0.567
       121  -8.7929    166.0000    205.0253   8.1395299240e+01   7.2557741228e+00    0.3271127    0.1839851 -36.10  0.001268021    1.846    0.458
       122  -9.3819    163.1362    202.8304   8.1638204074e+01   8.1646156844e+00    0.4010694    0.3678551  83.13 0.0007396186    1.430    0.301
       123  -8.5900     11.7176    206.9771   1.1834625859e+02   2.8308317289e+01    0.1767461    0.1393011  87.66  0.001048787    1.072    0.068
       124  -8.4596     56.4681    205.4630   1.0781643062e+02   2.3900200816e+01    0.3060261    0.1614657  65.00 0.0009061439    2.277    0.561
       125  -9.2781    194.8262    203.6002   7.4961322855e+01   2.9193866440e+00    0.3478629    0.2685905 -46.74  0.001088559    1.454    0.312
       126  -9.1898    192.5941    197.4558   7.4262926017e+01   4.4073343393e+00    0.3708939    0.2985097 -75.65  0.001496905    2.025    0.506
       127  -9.0377    183.7407    203.8924   7.7327274452e+01   4.6080516687e+00    0.3198493    0.2610399  77.73  0.001042712    2.040    0.510
       128  -8.1719    109.2073    205.2093   9.4825019152e+01   1.6482887169e+01     0.201668    0.1631111  69.03 0.0008071896    1.405    0.288
       129  -7.8096     25.2867    205.6437   1.1519512747e+02   2.7336024877e+01    0.1367413   0.07944171  67.15 0.0007022964    1.675    0.403
       130  -8.6472    131.2446    204.1168   8.9295569013e+01   1.3177982077e+01    0.2735295    0.1753764  57.39 0.0009366004    2.007    0.502
       131  -8.4904    211.0569    202.1703   7.1459299603e+01   7.1269491073e-01    0.2249995      0.17574 -65.25 0.0008176835    2.072    0.517
       132  -9.0985    243.0472    200.9179   6.5394950507e+01  -3.5417607462e+00    0.2832287    0.1579651 -39.61 0.0008333171    1.625    0.385
       133  -8.8306    140.3455    200.9644   8.6580247844e+01   1.2350686339e+01     0.335283    0.2437276 -89.24  0.001111975    2.218    0.549
       134  -8.5373     80.0090    201.1623   1.0148648756e+02   2.1796248095e+01    0.3659256    0.1975651  77.55  0.001342353    3.210    0.689
       135  -8.3188    221.6559    201.0143   6.9230514382e+01  -6.3120758075e-01     0.201119    0.1913606  72.07  0.001222454    1.608    0.378
       136  -9.4711    149.7478    198.8813   8.3992165154e+01   1.1215314086e+01    0.4470374     0.320692  84.76  0.001530097    2.503    0.601
       137  -8.9571    123.8203    199.2573   9.0277131273e+01   1.5470608246e+01    0.3421356    0.2482372  77.05  0.001429614    1.977    0.494
       138  -9.2940    112.7959    198.5862   9.2890293389e+01   1.7418571875e+01    0.4180952    0.2839772  59.07  0.001742588    1.753    0.429
       139  -9.0888     88.7625    198.5937   9.8927071843e+01   2.1138246182e+01    0.3958834    0.2474802  80.84   0.00148874    2.296    0.565
       140  -9.1710    237.0698    198.4334   6.5967872846e+01  -2.3476974849e+00    0.2690358    0.1544615 -44.24 0.0009740484    1.783    0.439
       141  -8.2417    176.9299    199.0970   7.7895036682e+01   6.6309750652e+00    0.1960582    0.1944016  78.15 0.0004928916    1.268    0.211
       142  -8.4437    133.1531    196.1253   8.7456753245e+01   1.4612779806e+01    0.2531614    0.1915337 -67.36 0.0005451334    1.585    0.369
       143  -9.3631     61.3903    196.8561   1.0560393845e+02   2.5337588285e+01    0.5585194    0.3107579  73.59  0.002270439    2.382    0.580
       144  -8.8158     27.6521    198.9795   1.1408225550e+02   2.8669287030e+01    0.2635463    0.1834159 -32.40  0.001055436    2.014    0.504
       145  -8.1495    202.2432    197.6650   7.2341905488e+01   2.8510116767e+00    0.2404616    0.1530173 -48.46  0.000627865    1.749    0.428
       146  -8.7556     12.6464    197.4526   1.1746043784e+02   3.0438936844e+01    0.2604354    0.1143955  72.30  0.001137038    2.546    0.607
       147  -7.8865     53.3189    196.6433   1.0759938451e+02   2.6393683696e+01    0.1486656   0.09212606  66.55 0.0001618577    1.756    0.430
       148  -7.8742     36.2882    196.6589   1.1179635869e+02   2.8331343844e+01    0.1400268   0.08666366  67.76 0.0003001185    1.643    0.392
       149  -8.8489    224.6227    193.9460   6.7348516641e+01   1.4606903637e-01    0.3344816    0.1514921 -48.54  0.001421004    2.604    0.616
       150  -7.6586    209.2767    195.6664   7.0573861710e+01   2.1294174759e+00    0.1214394    0.1081464 -65.82 0.0003761289    1.604    0.376
       151  -8.8335    185.1955    194.7468   7.5293985299e+01   6.1191542627e+00     0.253367    0.2139837 -69.52 0.0007501573    1.657    0.397
       152  -9.1063    160.8520    194.3038   8.0577235449e+01   1.0289712258e+01      0.34091    0.2603761  70.67  0.001176635    1.989    0.497
       153  -9.2048     43.8301    193.4440   1.0961018342e+02   2.8281144879e+01    0.4761001    0.2490284  72.84  0.002049499    2.386    0.581
       154  -8.2888    231.1760    194.1668   6.6206993370e+01  -8.2841807055e-01    0.1683838    0.1416653 -38.59 0.0004962356    1.317    0.241
       155  -8.8306     76.9754    193.8509   1.0125264404e+02   2.3974676754e+01    0.2747473    0.2127861  78.83 0.0007283492    1.391    0.281
       156  -8.3919    198.9125    191.8900   7.1901360717e+01   4.4381862701e+00    0.2362686    0.1762142 -43.99 0.0005300159    1.386    0.278
       157  -8.1188    179.0450    191.9570   7.6074976076e+01   7.6845440086e+00    0.2056814     0.180061  84.43 0.0005974409    1.644    0.392
       158  -8.4089    172.4772    191.8125   7.7485617466e+01   8.8215338359e+00    0.2620613     0.206053 -71.54   0.00129036    1.830    0.453
       159  -9.1995    139.5311    190.5590   8.4901661001e+01   1.4757522648e+01    0.3831337    0.2877101  81.66  0.001056578    2.015    0.504
       160  -8.7269    215.9987    195.7153   6.9292156911e+01   1.1073383157e+00    0.2798748    0.1927036 -60.62  0.001129257    2.338    0.572
       161  -7.6472    205.4310    191.5184   7.0528366024e+01   3.4742822428e+00    0.1369845    0.1194071 -16.25 0.0001382698    1.041    0.039
       162 -10.4767     92.2676    188.7625   9.6544316576e+01   2.2964890960e+01      1.00419    0.2929433  45.28  0.003023439    3.820    0.738
       163  -8.5157     21.1970    190.8040   1.1491302251e+02   3.1251754209e+01    0.3859202    0.1267359  60.67  0.001227951    4.683    0.786
       164  -8.3832    237.1668    188.6654   6.4112096807e+01  -7.5053798605e-01    0.2169815    0.1482242 -39.66 0.0005442179    1.366    0.268
       165  -9.2509    155.9677    187.7562   8.0457479718e+01   1.2510448277e+01    0.3491916    0.2342977 -60.70  0.000798105    1.851    0.460
       166  -8.2051    148.5739    189.2791   8.2490602649e+01   1.3471465442e+01    0.2139911    0.1769356  82.09 0.0006819787    1.657    0.396
       167  -8.8899    129.2040    188.5818   8.7075258691e+01   1.6977093664e+01    0.2973029    0.2342396  78.07 0.0008004542    1.686    0.407
       168  -9.7189    120.8220    186.4691   8.8798544003e+01   1.8891743691e+01    0.5526078    0.3253162 -76.36   0.00206273    2.847    0.649
       169  -8.9036     34.3256    188.0641   1.1142286507e+02   3.0627259719e+01    0.3563087    0.1791403  74.07   0.00128456    2.458    0.593
       170  -8.7873    216.6574    188.2359   6.7728097588e+01   2.3280170279e+00    0.2445538    0.2127836 -64.08 0.0008445672    1.622    0.383
       171  -8.9310    191.2678    187.1625   7.2542752477e+01   6.5805315500e+00    0.3079183    0.2446088 -67.43 0.0009447684    1.805    0.446
       172  -9.3677    109.6815    186.3077   9.1621088876e+01   2.0789882587e+01    0.4156983    0.2927092  74.31  0.001232118    1.953    0.488
       173  -9.1929     54.6729    186.7712   1.0607747053e+02   2.8647581888e+01    0.4367626    0.2353618  70.78  0.001413109    2.475    0.596
       174  -8.1283    230.6816    187.3761   6.4999961996e+01   3.9107157476e-01    0.1763053    0.1547338 -65.71 0.0006774573    1.682    0.405
       175  -8.6766    164.8003    186.8762   7.8250402278e+01   1.1155190673e+01    0.2546663    0.2048904 -67.26 0.0008033932    1.605    0.377
       176  -9.2130    249.2092    185.4488   6.1482425184e+01  -1.8740972178e+00    0.2400208     0.172588 -41.41 0.0008434794    1.372    0.271
       177  -8.9956    210.2689    183.7793   6.8070188846e+01   4.1271963750e+00    0.3957271       0.1877 -35.29 0.0009464376    1.972    0.493
       178  -8.4661    202.7094    184.8193   6.9754309828e+01   5.1475550791e+00    0.2388116    0.1811309 -53.61 0.0007267136    1.582    0.368
       179  -8.6645    182.8386    184.8317   7.3859701564e+01   8.4566190123e+00     0.268623    0.1922885 -51.41 0.0008069877    1.547    0.353
       180  -9.0231     66.6611    184.4724   1.0263415187e+02   2.7689405290e+01    0.4114664     0.247242  59.17  0.001015065    1.891    0.471
       181  -8.7507    223.9827    183.3349   6.5418311148e+01   2.0818318134e+00    0.2862603    0.1619173 -44.68 0.0009565107    1.729    0.422
       182  -8.0879    197.1607    183.5035   7.0606920443e+01   6.3054204170e+00    0.2488206    0.1622148 -60.54 0.0009907896    2.260    0.557
       183  -8.8830    174.2868    183.6093   7.5477317709e+01   1.0177790510e+01    0.2787056     0.236835 -88.96 0.0008576254    1.692    0.409
       184  -8.8516     29.7017    183.7056   1.1214666825e+02   3.2169040064e+01    0.2125227    0.1744182  77.88 0.0001946616    1.111    0.100
       185  -9.8028     26.3012    180.4296   1.1268351078e+02   3.3309187357e+01    0.7230179     0.293081  78.26  0.002397282    4.161    0.760
       186  -8.8990     44.3212    182.3202   1.0823394927e+02   3.0969463345e+01    0.3556257    0.2203715  70.38  0.001057266    1.793    0.442
       187  -8.3044     19.4946    182.4563   1.1459214383e+02   3.3437762089e+01    0.2957069   0.09926138  87.14 0.0008097192    5.795    0.827
       188  -7.9653      1.7449    183.6032   1.1899896699e+02   3.4614471063e+01    0.1657414     0.100221  44.10 0.0009419095    1.648    0.393
       189  -9.3238    147.4282    180.5203   8.1073187249e+01   1.5594589075e+01    0.3891588    0.2890524 -79.18  0.001051423    1.983    0.496
       190  -8.1964     90.6381    181.6949   9.5839698721e+01   2.4938776234e+01    0.1520658    0.1139524 -19.31 0.0007038455    1.733    0.423
       191  -8.6498    137.6841    179.4173   8.3240408863e+01   1.7581723638e+01    0.3546374    0.2477871  71.93  0.001339786    2.239    0.553
       192  -9.8096    248.4691    176.5470   5.9911685712e+01  -3.1764803599e-01    0.5075839    0.2452481 -45.65  0.002305473    2.021    0.505
       193  -8.5556    250.4944    172.8536   5.8880921983e+01   9.4718388956e-03    0.2168017    0.1040113 -40.77 0.0006021477    1.753    0.430
       194  -9.3225    191.4856    178.3810   7.0740146108e+01   8.2521223160e+00    0.2765208     0.251743  69.94 0.0006133631    1.457    0.314
       195  -9.2082     35.9336    176.6642   1.0978274364e+02   3.3292123774e+01     0.553062    0.2444459  79.78  0.001881976    3.782    0.736
       196  -8.4774    217.7439    177.3142   6.5373380859e+01   4.1203046271e+00    0.2364889    0.1718424 -57.01 0.0006988629    1.787    0.440
       197  -8.8002    205.0923    177.7229   6.7865541760e+01   6.0898253151e+00    0.2407802    0.1805827 -47.46 0.0006506896    1.407    0.289
       198  -7.9669    169.2412    178.4517   7.5565946081e+01   1.2134736041e+01    0.1931495    0.1391916  48.61 0.0006503652    1.579    0.367
       199  -8.4790    129.3527    177.4043   8.4940515979e+01   1.9523975084e+01    0.3255561     0.225556  77.53 0.0008587812    2.342    0.573
       200  -8.7300    230.9807    176.5780   6.2847633528e+01   2.2084918066e+00    0.2947119    0.1611775 -42.44 0.0009406583    1.660    0.397
       201  -9.2848    183.1610    175.8608   7.1978508252e+01   1.0198960520e+01    0.3982176    0.2288933 -46.98  0.001466533    1.741    0.426
       202  -8.3951     97.9322    177.3200   9.3151437020e+01   2.4871220797e+01    0.2142155    0.1905586  30.28 0.0009564741    1.142    0.124
       203  -8.9482     88.9198    176.7541   9.5483444025e+01   2.6424440441e+01     0.330745    0.2166754  67.47 0.0009004241    1.989    0.497
       204  -9.9802     57.2554    173.1271   1.0358324285e+02   3.1757261856e+01    0.8748223     0.415502  81.50  0.002618298    4.658    0.785
       205  -9.1735    158.7334    175.0145   7.7278860041e+01   1.4761868098e+01    0.3719123    0.2803081  84.11   0.00100031    2.157    0.536
       206  -9.6564    104.0579    174.4986   9.1006219237e+01   2.4566259448e+01    0.5506619    0.3587508  73.93  0.001396509    2.354    0.575
       207 -10.8313     75.8994    170.0973   9.7958486284e+01   3.0030992343e+01      1.38247    0.5317954 -73.36  0.003879339    4.590    0.782
       208  -9.8539     80.9981    155.5623   9.3966520574e+01   3.2987027871e+01    0.6286703     0.471512 -45.41  0.001743379    1.329    0.247
       209  -8.8332    224.3991    173.8573   6.3471395544e+01   3.6960781534e+00    0.2539808    0.1149971 -43.51 0.0006908163    2.027    0.507
       210  -9.2943    175.7130    172.4912   7.2899458868e+01   1.2216107786e+01     0.300319     0.237711 -45.77 0.0008075209    1.271    0.213
       211  -8.6524    142.8990    172.3932   8.0550780468e+01   1.8236601193e+01    0.2570077    0.2089376 -60.78 0.0006469472    1.361    0.265
       212  -9.6434    121.7386    170.7912   8.5612952469e+01   2.2430010316e+01    0.5255914    0.3514285  68.36   0.00214799    2.230    0.551
       213  -8.6460    134.8376    171.7623   8.2436427432e+01   1.9850369818e+01     0.275126    0.2037939 -85.02 0.0008892397    1.975    0.494
       214  -9.1723     45.0951    170.8828   1.0661693439e+02   3.3767434381e+01     0.413783    0.2269095  89.99  0.001669464    2.203    0.546
       215  -8.3580    205.8778    170.2888   6.6197880432e+01   7.3639890945e+00    0.2416847    0.1780648 -47.65 0.0005932101    1.400    0.286
       216  -8.3209    237.2907    169.4424   6.0363763119e+01   2.4967895988e+00    0.2130845    0.1415583 -51.35 0.0006634666    1.709    0.415
       217  -8.9128    230.4485    169.2082   6.1479807864e+01   3.5802888041e+00    0.3950609     0.194481 -49.52  0.001747682    2.256    0.557
       218  -8.3103    198.4509    170.1236   6.7626483364e+01   8.6653089895e+00    0.2081513     0.197337 -69.28 0.0006000022    1.310    0.237
       219  -9.2325    166.9993    168.5516   7.4026592868e+01   1.4637364158e+01    0.3438692    0.2644181  78.02 0.0008734175    2.006    0.501
       220  -8.4618    149.8174    169.6722   7.8299805754e+01   1.7576267373e+01    0.2664195     0.201503 -82.28 0.0007092698    1.954    0.488
       221  -8.6738    244.4030    169.2813   5.9163356015e+01   1.4734285778e+00    0.1794081      0.16212 -82.84 0.0004405142    1.643    0.391
       222  -8.4951    218.8510    168.3588   6.3365266733e+01   5.5724277813e+00    0.2290487    0.1706107 -44.33 0.0006953801    1.314    0.239
       223  -8.7316    111.9308    167.6905   8.7607820608e+01   2.4896592359e+01    0.3821953    0.2588954  75.82  0.001408771    2.278    0.561
       224  -8.4269     88.7398    168.8445   9.4172604543e+01   2.8430199372e+01    0.2705867    0.2049446 -88.89 0.0008009333    1.564    0.360
       225  -8.0109    211.4688    167.9775   6.4654512415e+01   6.8598263370e+00    0.2178921    0.1243677 -42.78 0.0006908826    1.611    0.379
       226  -8.8854    191.8860    166.6054   6.8223175461e+01   1.0509084047e+01    0.2741131    0.1962605 -47.54  0.000636811    1.409    0.290
       227  -8.5742    184.9935    166.4727   6.9632444527e+01   1.1773600435e+01    0.2764938    0.1933056 -55.49 0.0007188081    1.647    0.393
       228  -8.9834     20.4492    166.0229   1.1274775722e+02   3.7441034638e+01    0.3681566    0.1786387  60.00  0.001335209    2.406    0.584
       229  -9.8360    136.8786    164.5046   8.0427685869e+01   2.1157776598e+01     0.670334    0.3339208  54.16  0.002318225    2.857    0.650
       230 -10.0404     94.8725    162.5244   9.1304314510e+01   2.9044154148e+01    0.9196061    0.5471752  82.55  0.003118742    3.371    0.703
       231  -8.3902    234.0156    165.0272   6.0036290932e+01   3.7629007081e+00    0.1943065    0.1521862 -58.58 0.0004707613    1.618    0.382
       232  -8.6297    159.3981    164.1813   7.4855977523e+01   1.7001683300e+01    0.2774999     0.229504 -88.33 0.0008142577    1.651    0.394
       233  -9.8393     33.6744    163.4230   1.0883090680e+02   3.6877237533e+01    0.6117817    0.2292953  51.51  0.002203966    3.363    0.703
       234  -8.9304    246.0692    163.1357   5.7695358303e+01   2.2679854309e+00    0.2313035     0.154319 -37.29 0.0004698179    1.240    0.194
       235  -8.2702    239.8946    164.1171   5.8880473124e+01   3.0222299265e+00    0.1964116     0.159755 -44.73 0.0005356416    1.263    0.208
       236  -8.5373    213.1084    163.6847   6.3462029343e+01   7.3871216003e+00    0.2390605    0.1699473 -46.08 0.0006047897    1.381    0.276
       237  -8.8509     12.6666    176.3387   1.1575874388e+02   3.5524481704e+01    0.3293292     0.152466  75.60  0.001327576    2.514    0.602
       238  -8.2446    204.9965    162.9706   6.4848405406e+01   8.9110931114e+00    0.2060793    0.1695848 -67.00 0.0004943776    1.593    0.372
       239  -9.2387      3.2915    162.2773   1.1694529400e+02   3.9701087026e+01    0.4009664    0.1913522  60.59  0.001628638    2.321    0.569
       240  -8.8731    151.7156    161.0899   7.6021531931e+01   1.9141511444e+01    0.3282905     0.236838 -69.42 0.0008968482    1.853    0.460
       241  -9.0155    177.3935    160.6957   7.0029407743e+01   1.4362108748e+01    0.2834056    0.2496635 -49.79  0.000744909    1.189    0.159
       242  -9.0104     60.6151    160.2506   1.0070975580e+02   3.4631704906e+01    0.3834336    0.2332202  71.99  0.001426313    2.240    0.554
       243  -9.5717    241.7783    154.2201   5.6606846601e+01   4.4395508848e+00    0.4495749    0.2999751  77.30  0.001992068    3.517    0.716
       244  -9.7929    250.1776    157.7918   5.6009947329e+01   2.5629930850e+00    0.3358589    0.1508562 -40.32 0.0008011402    1.823    0.451
       245  -8.8393    246.5639    155.5081   5.6115616897e+01   3.4873048205e+00    0.2203293    0.1651392 -39.02 0.0005925224    1.141    0.123
       246  -8.6302    227.4673    159.1422   5.9960577739e+01   5.8431342036e+00    0.3047955    0.1894279 -55.72  0.001102168    2.012    0.503
       247  -8.5240    236.9612    158.9413   5.8327768460e+01   4.3693226028e+00    0.1964181    0.1519339 -60.37 0.0007387446    1.649    0.394
       248  -8.2026    128.0463    158.9712   8.1538160727e+01   2.4099359925e+01    0.2427748    0.1921343  80.80 0.0005615681    1.683    0.406
       249  -9.7263    105.9132    158.0444   8.7337237363e+01   2.8308878599e+01    0.5180959    0.3265577  65.77  0.001338151    2.379    0.580
       250  -8.4010    196.7807    158.0215   6.5408836034e+01   1.1330298564e+01    0.2208319    0.1895758 -61.01 0.0008304412    1.366    0.268
       251  -8.4442    188.1060    157.7238   6.7107411624e+01   1.2977775395e+01    0.2544672    0.1920153 -49.87 0.0005817342    1.360    0.264
       252  -9.0929    167.6190    157.2270   7.1447884953e+01   1.6948008638e+01    0.3372825    0.2614893 -82.76  0.001034172    1.906    0.475
       253  -8.4152    217.9735    156.4792   6.1076027728e+01   7.9037938220e+00    0.2687194    0.1708623 -51.15 0.0007507663    1.676    0.403
       254  -8.7362    157.9036    156.3714   7.3510728632e+01   1.9003960881e+01    0.2912079    0.2161024 -64.65 0.0009620768    1.656    0.396
       255  -9.2862    119.3732    155.1206   8.3029597984e+01   2.6623657383e+01    0.4219857    0.2977618 -83.15  0.001217272    2.084    0.520
       256  -9.5159     49.9266    155.3099   1.0305610950e+02   3.7216728779e+01    0.4366157    0.2396155  60.99   0.00179786    2.395    0.583
       257  -7.9531    204.5501    155.4998   6.3353264757e+01   1.0425823683e+01    0.1433551     0.127457 -29.56 0.0001682163    1.021    0.020
       258  -8.5725    144.5708    154.7873   7.6397730807e+01   2.1937526841e+01    0.2906109    0.2328583 -86.39 0.0007863295    1.688    0.408
       259 -10.0187     68.0015    153.5173   9.7418971906e+01   3.5387574539e+01    0.5562172    0.3592562 -89.06  0.002030273    2.023    0.506
       260  -8.2943    232.9290    154.0078   5.7992803847e+01   5.8753914941e+00    0.2021046    0.1535117 -61.99 0.0006494335    1.690    0.408
       261  -9.6763    132.8433    152.9762   7.8984817407e+01   2.4611103489e+01    0.4668201    0.3560338  81.29  0.001077119    1.867    0.465
       262  -9.1560    133.5683    148.2339   7.7736802930e+01   2.5583229539e+01    0.4094495     0.252668 -39.72  0.001718917    1.649    0.394
       263  -9.0491     20.0785    152.9693   1.1141282158e+02   4.0779430996e+01     0.212466    0.1408356  68.65 0.0006444288    1.629    0.386
       264  -9.9111     29.4961    150.5826   1.0839138580e+02   4.0568376299e+01    0.5667124    0.2777003  66.86  0.002203905    2.974    0.664
       265  -8.3348    250.5520    140.7172   5.2583740438e+01   5.3800103819e+00    0.2147961    0.1629586 -55.24 0.0007250143    1.415    0.293
       266  -9.7140    248.8281    149.3818   5.4557782623e+01   4.1825505771e+00    0.3823543    0.1736716 -40.16 0.0008661991    1.798    0.444
       267  -8.9651    247.0570    143.8510   5.3721734793e+01   5.3942872166e+00    0.2468544    0.1562816 -36.25 0.0005050978    1.305    0.234
       268  -8.8298    189.4527    150.3874   6.5226371121e+01   1.4207946684e+01    0.2838758    0.2429274 -66.58 0.0008644934    1.391    0.281
       269  -8.2251    182.1156    151.0816   6.6906176076e+01   1.5461839295e+01     0.229715    0.1838334 -78.71 0.0008615521    1.731    0.422
       270  -8.2695    162.6670    150.5153   7.1089333786e+01   1.9359606366e+01    0.2528675    0.1889222 -67.56 0.0006641235    1.713    0.416
       271  -8.9270     98.1912    150.6431   8.8007006693e+01   3.1475173197e+01    0.3148405    0.2364585  89.14 0.0008860966    1.746    0.427
       272 -10.1675    241.0322    144.4036   5.4745976912e+01   6.2537486458e+00    0.4363716     0.290847  -6.32  0.001695849    2.136    0.532
       273  -8.8225    241.3838    136.4511   5.3075188448e+01   7.5712908884e+00    0.2762035    0.1043958 -30.48 0.0009613255    3.464    0.711
       274  -9.8381    242.5225    149.6620   5.5576411286e+01   5.1092127531e+00    0.3328823    0.2476584  57.64  0.001715872    1.826    0.452
       275  -8.9935    245.0076    158.7182   5.6992882388e+01   3.1757936455e+00     0.409865    0.2181684  23.08  0.001832525    2.958    0.662
       276  -8.1510    212.8172    149.7817   6.0593016087e+01   1.0046699216e+01    0.1822611    0.1574592 -58.05 0.0003584586    1.303    0.233
       277  -9.9265     39.8372    147.7688   1.0492080712e+02   4.0279520229e+01    0.5694422    0.2993006  66.33  0.002010031    2.792    0.642
       278  -9.0927      3.1064    149.9089   1.1587078781e+02   4.2790638707e+01     0.288424    0.1454575  64.02  0.001348028    2.293    0.564
       279  -8.2698    198.9037    148.9544   6.3027906695e+01   1.2724593034e+01    0.2147559    0.1748127 -74.40 0.0005890813    1.635    0.389
       280  -8.8145    117.2977    148.9577   8.2260266812e+01   2.8497542194e+01    0.2194026    0.1963595 -47.86 0.0003519786    1.097    0.089
       281 -10.0062     89.2119    146.2832   8.9729207927e+01   3.4062013079e+01     0.669173    0.3973002 -86.84  0.002298803    3.178    0.685
       282  -9.0294    233.3901    147.6194   5.6610194062e+01   6.9314008376e+00    0.2699505    0.1399735 -37.84 0.0007585226    1.647    0.393
       283 -10.0783    139.2630    144.9226   7.5510596257e+01   2.5237981672e+01    0.6483925    0.4014565 -73.22  0.001808289    2.842    0.648
       284 -10.5628     54.9741    144.5343   9.9786316565e+01   3.9403860274e+01    0.9406021    0.5317616  78.76    0.0029853    2.955    0.662
       285  -8.2948    223.2991    146.9292   5.8144789255e+01   8.7494876737e+00    0.1978541    0.1519962 -36.60  0.000406532    1.124    0.111
       286  -8.8390    149.9793    136.9919   7.0971374182e+01   2.4880253057e+01    0.5623216    0.3522827  -2.09  0.001893874    3.291    0.696
       287 -10.3709    106.5442    144.0551   8.4196847027e+01   3.1655700418e+01    0.7717666    0.5112658  89.57  0.002189787    2.619    0.618
       288  -9.0265     78.2578    146.4609   9.3039164683e+01   3.5727960575e+01    0.4441053    0.2449459 -62.74  0.001770515    1.833    0.455
       289  -9.3452     13.3724    146.3951   1.1258748987e+02   4.2971715169e+01    0.3339213    0.1993824  62.36  0.001091926    1.897    0.473
       290  -7.9167    206.6483    146.3451   6.0986830458e+01   1.1806630596e+01    0.1984641     0.161366 -71.57 0.0006046544    1.595    0.373
       291  -8.2964    175.4785    146.1395   6.7221775685e+01   1.7776095816e+01    0.2283938    0.2089427 -84.37  0.000575856    1.297    0.229
       292  -9.8439    125.1397    142.8476   7.8745422564e+01   2.8481883239e+01    0.5838132     0.396673 -85.44  0.001880841    2.527    0.604
       293  -8.8424    165.5719    143.9205   6.8919208503e+01   2.0211045002e+01    0.2735071    0.2341471  86.59  0.000819942    1.484    0.326
       294  -7.6933    194.3089    143.7116   6.2771154650e+01   1.4621523053e+01    0.1394768    0.1153173 -77.37 0.0002388437    1.576    0.365
       295 -11.0021     68.2194    138.2573   9.4505859799e+01   3.9286434940e+01     1.044456     0.718336 -86.13  0.003909565    1.861    0.463
       296 -10.8733     59.7461    124.2477   9.4381004409e+01   4.4002512576e+01     1.038638    0.5268719 -72.85   0.00342258    2.650    0.623
       297  -9.2976      2.6903    141.6257   1.1516743480e+02   4.4888334969e+01    0.3929554    0.1923463  72.37  0.001627496    2.508    0.601
       298 -10.1991    148.9058    144.8900   7.3086740455e+01   2.3330817446e+01    0.5817959    0.4124733 -85.71  0.001712094    2.364    0.577
       299  -8.3354    182.0518    141.5787   6.4781419644e+01   1.7428038163e+01    0.2846995    0.1948397 -56.63 0.0006518167    1.642    0.391
       300  -9.9494     23.4556    138.1190   1.0853194264e+02   4.4294486720e+01    0.5482699    0.2854093  65.38  0.002063411    2.663    0.625
       301  -8.7022    172.3060    138.4092   6.6138241083e+01   2.0029623799e+01    0.3029438    0.2335411 -86.12 0.0009926523    1.878    0.468
       302  -7.7634    218.5578    138.5117   5.7168013339e+01   1.1124414845e+01    0.1399881    0.1213934 -42.18 0.0001219594    1.070    0.065
       303  -8.3040    207.7945    138.0663   5.8968290437e+01   1.3174800845e+01    0.2202228    0.1787298 -61.47 0.0007677935    1.390    0.281
       304  -8.4519    197.6134    137.4508   6.0728958389e+01   1.5221380352e+01    0.2725466    0.1973122 -61.82 0.0006978991    1.657    0.397
       305  -9.0432    140.0574    136.9545   7.3439215861e+01   2.6904335572e+01    0.2578209    0.1943505  -4.49 0.0008065517    1.739    0.425
       306  -9.1187    250.6837    129.9137   5.0410163406e+01   7.1739766100e+00    0.4296651      0.10132 -39.94  0.001470569    3.461    0.711
       307  -9.1914    248.2612    135.2241   5.1816916599e+01   6.6677532634e+00    0.3213114    0.1721064 -41.95 0.0007192991    1.531    0.347
       308  -8.8930    246.9165    130.1356   5.0984551601e+01   7.7454416769e+00     0.235972    0.1552297 -41.12 0.0006682453    1.247    0.198
       309  -8.9538     80.7031    137.9830   9.0569837030e+01   3.7515335112e+01    0.2228087    0.1925212 -58.11 0.0008200748    1.116    0.104
       310  -7.8616    187.6692    135.7855   6.2303308674e+01   1.7493056417e+01     0.215283    0.1268844 -49.46 0.0004456914    1.693    0.409
       311 -10.3636     83.5070    132.7230   8.8565488261e+01   3.8400935663e+01    0.6440913    0.4211902 -73.31  0.001447655    1.916    0.478
       312  -9.2408     38.9455    135.6917   1.0330989167e+02   4.3488749399e+01     0.324449    0.2144944 -85.69   0.00105678    1.684    0.406
       313  -8.6245    179.4867    133.9760   6.3565589171e+01   1.9497718777e+01    0.3068873    0.2341322 -65.84 0.0008909258    1.588    0.370
       314  -8.2295    237.4732    133.4679   5.3052870320e+01   8.7383546648e+00    0.2319224    0.1053015 -48.08 0.0007750232    2.085    0.520
       315  -9.2232    112.8446    133.2934   7.9923489688e+01   3.3113329756e+01    0.3727263    0.2778728  77.93 0.0009619069    1.916    0.478
       316 -10.1652    132.0062    130.7889   7.4041740588e+01   2.9941664405e+01     0.633386    0.3411329 -59.06  0.001245669    2.326    0.570
       317 -10.4060     98.0692    130.1059   8.3503132240e+01   3.6594773618e+01    0.7930641     0.346264 -53.58  0.001947357    2.269    0.559
       318  -8.7761    100.5418    119.6493   8.0204019596e+01   3.8670340194e+01    0.3903555    0.2019845  20.87  0.001299587    3.055    0.673
       319  -9.3543    143.1020    131.3956   7.1326270572e+01   2.7538094834e+01    0.3779015    0.2393402 -56.98  0.001017025    1.774    0.436
       320  -9.9586     73.1927    129.2157   9.1053795975e+01   4.0871983376e+01    0.4548854    0.3176104 -82.08  0.001413674    1.862    0.463
       321 -10.1241     13.0019    129.1717   1.1058908683e+02   4.7359959173e+01    0.5267361    0.2936133  73.46  0.002097764    2.311    0.567
       322  -8.3473      1.6138    130.7180   1.1431825171e+02   4.7678109111e+01    0.1859867    0.1056975 -84.78 0.0008891871    1.643    0.391
       323  -7.6283    220.7327    130.0126   5.4971992676e+01   1.2287215077e+01    0.1762164    0.1072736 -40.68 0.0004903021    1.430    0.301
       324  -8.2469    204.6479    130.3342   5.7822600849e+01   1.5239672553e+01    0.2110909    0.1600356 -68.88 0.0006585965    1.655    0.396
       325  -8.3139    162.8363    136.6673   6.7851888504e+01   2.2323267971e+01    0.2816768    0.1998453 -72.31 0.0008792247    2.019    0.505
       326  -9.3683    168.3029    129.3634   6.4880336948e+01   2.2745490858e+01     0.332646    0.2433779 -62.18 0.0007563262    1.602    0.376
       327  -9.3415    152.8178    128.8831   6.8326711789e+01   2.6076838340e+01    0.4431235    0.2582282 -58.52 0.0009989999    2.117    0.528
       328  -8.1253    211.6092    128.8743   5.6265382801e+01   1.4188000947e+01    0.2077249     0.117707 -49.82  0.000828584    1.733    0.423
       329  -7.9253    186.4671    129.5074   6.1093903445e+01   1.8989103578e+01    0.1488121    0.1373509 -49.98 0.0008086617    1.073    0.068
       330 -10.8089     44.8754    123.4946   9.9205629708e+01   4.5983306229e+01     1.140073     0.618328  76.34  0.003887531    3.873    0.742
       331  -9.8825    117.9298    125.1847   7.6501535696e+01   3.4051017265e+01    0.5658743    0.4029476  84.86  0.001513204    2.290    0.563
       332  -7.8548    228.4779    125.4841   5.2760924833e+01   1.1701589660e+01    0.1367793    0.1167277 -43.51 0.0002166203    1.035    0.033
       333  -8.8667    179.2312    124.6218   6.1411350827e+01   2.1449159067e+01    0.2896402    0.2307374 -75.86 0.0007141042    1.573    0.364
       334 -10.2948     28.6354    122.4004   1.0447130481e+02   4.7861327389e+01    0.7644339    0.4011637  69.54  0.002670146    3.274    0.695
       335  -8.6861    243.6618    124.1682   5.0233699392e+01   9.2953252494e+00    0.1879537    0.1039527 -33.61 0.0005171781    1.663    0.399
       336  -8.7456    234.1848    124.2361   5.1627167125e+01   1.0910492467e+01    0.2150928    0.1410199  -1.70 0.0009510291    2.782    0.641
       337  -7.9282    188.4410    124.1950   5.9462146320e+01   1.9639370673e+01    0.2085344    0.1311668 -51.84 0.0005425861    1.623    0.384
       338  -9.0168    158.7804    121.5979   6.5128369426e+01   2.6377771009e+01    0.3745129    0.2618306 -83.40  0.001078182    2.345    0.574
       339  -8.8571     85.0717    122.6060   8.5747877781e+01   4.0658173121e+01    0.5011067    0.2550371  15.43  0.001615189    3.495    0.714
       340  -7.7000    202.7964    122.0097   5.6274779739e+01   1.7175296085e+01    0.1907934    0.1048172 -41.13 0.0003072363    1.647    0.393
       341  -7.9837    194.9688    121.9985   5.7702234325e+01   1.8741024545e+01    0.2237555     0.169423 -69.35 0.0004558104    1.619    0.382
       342  -8.5730    172.0052    121.7264   6.2229188658e+01   2.3546755594e+01    0.2602446    0.2050433 -44.22 0.0004404234    1.210    0.173
       343  -9.7755    130.9884    118.6949   7.1271900415e+01   3.2884920234e+01     0.539121    0.3716188  85.66  0.001976509    2.577    0.612
       344  -9.6272     71.0763    119.7391   8.9620549870e+01   4.3554356562e+01    0.4532505    0.2831993 -70.61  0.001435286    1.960    0.490
       345 -10.1133    141.5596    118.0085   6.8362108276e+01   3.0812542617e+01    0.6654238    0.3116654 -51.48   0.00181161    2.323    0.569
       346  -9.7260      2.8021    117.2110   1.1231153994e+02   5.0971083988e+01    0.4607713    0.2415828  70.09    0.0020891    2.605    0.616
       347  -7.9656    231.5004    117.4871   5.0603367394e+01   1.2559723366e+01    0.1356355    0.1145234 -47.24  0.000810103    1.047    0.045
       348  -9.8345    109.5338    114.4453   7.6171522618e+01   3.8181477730e+01    0.5285926    0.3616527 -81.71  0.001360303    2.483    0.597
       349  -7.7971    219.3188    116.3143   5.2217133504e+01   1.5018300581e+01    0.1343263     0.105844  -5.01 0.0007038211    1.651    0.394
       350  -8.1870    185.5658    115.9862   5.8077227211e+01   2.1835151993e+01    0.2257342    0.1361198 -42.93 0.0004793679    1.547    0.354
       351 -11.0574    248.7337    107.8666   4.6233475274e+01   1.1150028556e+01    0.6548694    0.2572247 -40.58  0.002937178    2.078    0.519
       352  -7.9569    193.1113    115.1922   5.6456983010e+01   2.0419979639e+01    0.1959377    0.1630811 -66.74 0.0004008893    1.304    0.233
       353  -8.2129    167.2094    114.7571   6.1541326288e+01   2.5982402086e+01    0.2058136    0.1778156  -9.64 0.0006673916    1.311    0.237
       354  -7.7965    153.3117    115.6840   6.4909194701e+01   2.8790359095e+01     0.155144    0.1231062 -82.69 0.0007033422    1.639    0.390
       355 -10.2215     92.7217    112.5218   8.0804690676e+01   4.1768980808e+01    0.5935698    0.3623656 -66.23  0.001330622    2.189    0.543
       356  -9.0095     93.1899    104.7845   7.8597658519e+01   4.3474088380e+01    0.3889597    0.2597003   2.32  0.001583573    2.216    0.549
       357  -9.9402     78.9895    112.4707   8.5242327427e+01   4.4108698569e+01    0.5539789    0.3922428  88.22  0.001732273    2.260    0.558
       358  -8.7438     77.7187    105.5053   8.3879490313e+01   4.5965476695e+01     0.374088    0.2850161 -14.36   0.00136715    1.499    0.333
       359 -10.1769    133.5692    109.4331   6.8160889798e+01   3.4362328168e+01    0.6821101    0.3515634 -50.28  0.002073034    2.043    0.510
       360  -9.7308    121.8595    112.5289   7.2137726349e+01   3.6143876587e+01    0.3523186    0.2931266  81.70 0.0007748757    1.524    0.344
       361  -8.5736     26.9526    113.5032   1.0350268052e+02   5.0242633988e+01    0.1852952    0.1367882  14.99 0.0005734069    1.543    0.352
       362  -8.4251    174.8136    111.7744   5.9198321789e+01   2.4939265017e+01    0.2764868    0.1805122 -63.62 0.0007241108    1.956    0.489
       363  -8.7221    159.1638    111.7279   6.2552161575e+01   2.8339063395e+01    0.2594931    0.1988809 -52.96 0.0003818787    1.331    0.248
       364 -10.2897     66.3465    109.7269   8.8841914652e+01   4.6694105698e+01    0.6484905    0.3391457 -53.96  0.002218489    1.792    0.442
       365  -9.9666     14.1844    111.0213   1.0754948328e+02   5.1822668757e+01    0.4298772    0.2594208  81.39   0.00169086    2.168    0.539
       366  -9.0462    181.6623    106.7317   5.6590743588e+01   2.4439985380e+01    0.5324938    0.2041632 -47.23  0.001875244    2.619    0.618
       367  -8.1839    189.0917    108.0123   5.5494171262e+01   2.2614301828e+01    0.2286993    0.1667334 -67.71 0.0005932832    1.636    0.389
       368  -9.4686    110.0180    107.1156   7.4069095597e+01   3.9742415600e+01    0.4095118    0.2463263  16.76  0.001496956    2.632    0.620
       369  -9.9771    118.9522    105.7198   7.1114099793e+01   3.8238208673e+01    0.2502125    0.2365382 -39.22 0.0009999176    1.051    0.049
       370 -10.4090    108.7705     98.7459   7.2110925214e+01   4.1820315242e+01    0.6111307    0.4317476  76.07  0.001163963    2.290    0.563
       371  -9.0183    107.6664     92.6540   7.0685514781e+01   4.3328889085e+01    0.6202137     0.282347  28.87  0.001981659    3.360    0.702
       372 -10.5587     45.5977    102.1276   9.4432440289e+01   5.1200693794e+01    0.8063376    0.4887221  71.07  0.003076358    3.251    0.692
       373  -9.3522     46.0981     92.4533   9.1886301682e+01   5.3430037214e+01    0.4967081    0.2554883  -3.46  0.001800252    3.423    0.708
       374 -10.6532     22.9413    102.7247   1.0294214512e+02   5.3226883880e+01    0.7160614    0.4175295  70.89  0.002454262    2.852    0.649
       375  -8.4610    166.8191    104.2628   5.8972399107e+01   2.8148264853e+01    0.2606913     0.191243 -52.61 0.0006164301    1.383    0.277
       376  -9.4766    150.4974    102.9547   6.2252784328e+01   3.2015134317e+01    0.4553865    0.2853957 -61.28   0.00129147    2.055    0.513
       377 -10.1225      6.7931    102.1297   1.0875068802e+02   5.4450386528e+01    0.5673124    0.2354518 -77.27  0.002355019    2.587    0.613
       378  -9.7646    128.4354    102.1642   6.7539703499e+01   3.6999036687e+01    0.3633407     0.287055 -76.53 0.0008027119    1.642    0.391
       379  -7.9588    175.4976    102.0196   5.6628260090e+01   2.6671427459e+01    0.2067201    0.1199146 -61.46 0.0005582601    2.312    0.567
       380  -8.1932    159.8517    101.0574   5.9640002186e+01   3.0314006156e+01    0.2297418     0.194715 -69.12 0.0004804489    1.295    0.228
       381  -9.1770     82.1077     99.9263   8.0896809699e+01   4.6526683058e+01    0.3799138    0.2597203 -68.73 0.0009093762    1.966    0.491
       382 -10.2672     63.8896     95.7989   8.6134544160e+01   5.0333603577e+01    0.5969442     0.409113 -88.77  0.001795217    2.634    0.620
       383  -8.9382     64.2065     88.1785   8.3900516952e+01   5.2004439347e+01    0.3283196    0.1970013 -17.65  0.001361029    2.293    0.564
       384  -9.3977     94.9307     97.0014   7.5871290012e+01   4.4888763107e+01     0.323255    0.2701381 -70.93  0.000638597    1.466    0.318
       385  -9.2851    139.8368    104.5224   6.5244563759e+01   3.4040704498e+01    0.3482074    0.2830595 -85.85 0.0008012181    1.568    0.362
       386 -11.0256    247.8748     92.4566   4.3224055573e+01   1.3773747034e+01    0.5728293    0.2366941 -41.32  0.002678072    1.976    0.494
       387  -8.2292    164.9072     94.1609   5.6758905683e+01   3.0498587617e+01    0.2292971    0.1931726 -73.43 0.0005247692    1.307    0.235
       388  -8.6717     43.0650    109.1545   9.6924859621e+01   4.9770488972e+01    0.3412378    0.1659813   5.49  0.001261759    3.239    0.691
       389  -8.0820    176.4967     93.0407   5.4167098455e+01   2.8114452068e+01    0.2255385     0.137269 -42.97  0.000791172    1.571    0.364
       390  -8.4553    157.7189     91.9694   5.7697858242e+01   3.2527168245e+01    0.3163837    0.1856749 -32.91  0.001342451    1.841    0.457
       391  -9.1786    139.0059     92.2746   6.2085381916e+01   3.6680389070e+01    0.3512537    0.2697999 -84.36 0.0008188828    1.763    0.433
       392 -10.0435    124.0693     91.0971   6.5584878628e+01   4.0199872678e+01     0.507804    0.4193795  27.53  0.001583353    1.277    0.217
       393  -9.2032     22.8760     90.2827   1.0041888030e+02   5.6208734555e+01    0.4211847    0.2453142 -28.13   0.00189542    1.779    0.438
       394  -9.4173      5.3447     92.2693   1.0763558914e+02   5.6889907028e+01    0.2860034    0.1976107  62.82   0.00123514    1.935    0.483
       395  -9.6571     34.7809     89.8454   9.5627875054e+01   5.5253636897e+01    0.4700117    0.2862557 -77.77   0.00152673    2.310    0.567
       396  -7.9529    151.3462     89.1666   5.8337550825e+01   3.4493011521e+01    0.2165024    0.1318418 -49.95 0.0003950914    1.723    0.420
       397 -10.1331     86.4175     86.2038   7.5482129753e+01   4.8765578724e+01    0.5621604    0.3720146 -58.05  0.001850283    1.830    0.453
       398  -9.7894     48.4637     84.2552   8.8786416441e+01   5.5009447090e+01    0.5425839    0.3715267  83.45  0.001846179    2.891    0.654
       399  -8.3613     69.8217     86.5439   8.1372825193e+01   5.1506008244e+01    0.2779368    0.1418315  27.75  0.001143704    2.137    0.532
       400  -8.1970    157.8733     83.8254   5.5469466494e+01   3.3980350943e+01    0.2020885    0.1686899 -70.95 0.0003782599    1.313    0.238
       401  -9.6768    104.6625     83.0164   6.8705625584e+01   4.5888984373e+01      0.43527    0.3197466 -66.06   0.00105037    1.842    0.457
       402  -8.7524    105.8093     76.9939   6.6500532011e+01   4.6810683962e+01    0.5072987    0.2313929  28.84   0.00160148    3.643    0.725
       403  -9.1172    140.8339     82.4031   5.8855168810e+01   3.8127589326e+01    0.3567961    0.2059912 -47.09 0.0009479326    1.806    0.446
       404  -7.7136    185.4574     82.5067   4.9898505227e+01   2.7969935545e+01    0.1422911    0.1298956 -66.61 6.253242e-05    1.034    0.033
       405  -8.5074     64.0069     82.0772   8.2186989306e+01   5.3359553979e+01    0.2144627    0.1805902  85.32   0.00112152    1.719    0.418
       406  -8.0027     35.4827     82.4991   9.3496480694e+01   5.6862692430e+01    0.1395254    0.1153032 -32.08 0.0001402869    1.050    0.048
       407  -9.6577     24.7378     80.6363   9.7431988719e+01   5.8279292119e+01    0.4220445     0.290787  84.19  0.001396918    2.340    0.573
       408  -9.4643      9.7902     80.9987   1.0370156321e+02   5.9265485922e+01    0.3243483    0.2059722  57.67  0.001311761    2.370    0.578
       409  -8.4345    150.1425     80.6372   5.6245718173e+01   3.6318444390e+01    0.2584109    0.1940594 -51.21 0.0006215994    1.378    0.274
       410  -8.7475    119.4870     80.3746   6.3658623939e+01   4.3265405825e+01    0.3056683    0.2294532 -76.81 0.0007579711    1.919    0.479
       411  -8.6841     74.4865     80.1869   7.7770877479e+01   5.2094047005e+01    0.3173669    0.2320429 -69.33 0.0009958398    1.984    0.496
       412  -8.1370    166.8333     79.5956   5.2533401883e+01   3.2669860938e+01    0.2291313    0.1598895 -45.31 0.0005157645    1.409    0.290
       413  -8.1869     91.3437     79.3066   7.1728296625e+01   4.9250457834e+01    0.1536095    0.1121897   1.26 0.0007042696    1.691    0.409
       414  -8.0789    184.0000     78.0710   4.9039103415e+01   2.9037617377e+01    0.2312056     0.077061 -37.66 0.0007982494    2.913    0.657
       415  -7.4795    174.6726     78.3073   5.0731094073e+01   3.1101247260e+01    0.1482081    0.1073116 -74.70 0.0004699586    1.655    0.396
       416  -9.3373    128.1920     75.4469   5.9896023481e+01   4.2237634509e+01    0.3836803    0.2536579 -60.59 0.0007591455    1.976    0.494
       417  -7.7467    157.4341     76.5119   5.3564429785e+01   3.5357271529e+01    0.1460423    0.1353759 -77.20 0.0001306592    1.086    0.079
       418  -8.3086    140.3608     75.4137   5.6954301029e+01   3.9479641057e+01    0.2455079    0.1660295 -56.57 0.0007003677    1.717    0.418
       419  -9.7061     82.4730     72.6312   7.2560648653e+01   5.2202702079e+01    0.4255548    0.3028163 -67.83  0.001194835    2.190    0.543
       420  -9.9516     63.1754     73.5608   7.9868641826e+01   5.5256600119e+01     0.438643      0.29529 -59.39  0.001072689    1.878    0.468
       421  -8.2836    163.5188     73.2641   5.1477572049e+01   3.4497982309e+01     0.259484    0.1328449 -42.81  0.001053438    1.930    0.482
       422  -7.6740    151.4734     73.4646   5.3952050277e+01   3.7251179639e+01    0.1446206    0.1374871 -88.67 7.686969e-05    1.048    0.046
       423  -8.6672    115.7468     72.9845   6.2413613729e+01   4.5429960457e+01    0.2566068    0.2023709 -57.64  0.000660987    1.482    0.325
       424  -8.3655     42.4292     72.4415   8.7812560841e+01   5.8294433760e+01    0.3094465    0.1313989 -57.74  0.001223098    2.689    0.628
       425  -7.8256    175.4825     72.5275   4.9091922694e+01   3.1871062956e+01    0.1402048    0.1318498 -77.57 5.619764e-05    1.001    0.001
       426  -8.9988    105.9522     71.7043   6.4786551399e+01   4.7753933622e+01    0.2685652    0.2115597 -49.57 0.0006007304    1.401    0.286
       427  -9.2596     95.1606     71.0416   6.7858186359e+01   5.0081211791e+01    0.3611799    0.2373376 -55.12  0.001013446    1.919    0.479
       428  -9.2160     28.4973     70.6497   9.3211397822e+01   6.0144906306e+01    0.3811786    0.1570974 -28.81  0.001439829    3.151    0.683
       429  -9.4303     51.4347     69.5466   8.3211580609e+01   5.7756633288e+01    0.4404838    0.2679336 -64.63  0.001562689    2.484    0.597
       430  -8.9414     16.7680     70.1550   9.8202901524e+01   6.1226714121e+01     0.256802    0.1905387 -84.50  0.000972756    1.866    0.464
       431  -8.7813    147.0926     67.3961   5.3152372634e+01   3.9269860177e+01    0.4594365    0.2038631 -35.47  0.001217162    2.358    0.576
       432  -8.7803    121.6631     65.8445   5.8614786000e+01   4.5352709537e+01    0.2712849    0.2119973 -71.54 0.0006667321    1.667    0.400
       433  -8.9252     37.1704     63.9547   8.7434678182e+01   6.0648664222e+01    0.2710544    0.2147384 -67.61 0.0008989375    1.685    0.407
       434  -8.8826    110.2778     63.6619   6.0959426762e+01   4.8225296426e+01    0.2724825    0.2262529 -80.36 0.0005698811    1.593    0.372
       435  -9.4246     97.7315     60.6211   6.3600043138e+01   5.1384640341e+01    0.3418787    0.2852606  35.63 0.0009699286    1.129    0.114
       436  -8.6801     65.0316     62.7607   7.5575149927e+01   5.7060877900e+01    0.4407289    0.2375987  11.80  0.001677145    3.044    0.671
       437  -8.1256    158.3662     61.7741   4.9316266274e+01   3.7524989770e+01    0.1816376    0.1354625 -25.69 0.0002926396    1.528    0.346
       438  -8.3781     51.9550     61.8843   8.0473345417e+01   5.9194036736e+01    0.2314715    0.1430818  -0.42  0.000715693    2.037    0.509
       439  -9.5724     73.3898     59.5578   7.1340109759e+01   5.6231430374e+01    0.3335198    0.2467103 -54.46 0.0009959817    1.727    0.421
       440  -8.4499    138.7934     66.1596   5.4599655752e+01   4.1394945697e+01    0.2159871     0.191113 -72.39 0.0005061972    1.233    0.189
       441  -7.9193     88.8013     59.5615   6.6043798554e+01   5.3359316184e+01    0.1876819    0.1320742  53.35 0.0006314899    1.587    0.370
       442  -9.8530     23.3073     56.3862   9.1301303626e+01   6.3567216289e+01    0.4123136    0.2976419  88.21  0.002087546    2.761    0.638
       443  -8.0964    130.6651     57.9190   5.3960762656e+01   4.4568465206e+01    0.1916856    0.1790675 -46.57 0.0004650652    1.132    0.117
       444  -9.4386      7.4625     57.0177   9.8987283659e+01   6.4631927415e+01    0.2634017    0.2011982  85.51  0.001008285    2.031    0.508
       445  -7.4255    193.5478     56.5084   4.2261701335e+01   3.0237548238e+01    0.1338662    0.1178552 -73.31 7.335182e-05    1.022    0.022
       446  -8.1246    140.0038     56.0196   5.1322531301e+01   4.2687464286e+01      0.21564    0.1642696 -72.77 0.0003641158    1.595    0.373
       447  -9.2199    119.0158     55.1938   5.5903931148e+01   4.7637794521e+01    0.3702909    0.1881346 -42.23  0.001478964    2.124    0.529
       448  -9.1231     54.1500     53.9994   7.6796201381e+01   6.0333056596e+01    0.3782399    0.2067832 -55.28  0.001362403    2.648    0.622
       449  -8.9198     44.0287     54.6090   8.1304205122e+01   6.1628770939e+01    0.4713706    0.1620621 -48.56   0.00183122    2.969    0.663
       450  -9.4147     62.7597     53.2772   7.3081588114e+01   5.9120943668e+01    0.6613794    0.2374549 -42.25  0.002579238    2.813    0.645
       451  -8.5414    105.7700     53.3830   5.8807279700e+01   5.0838775128e+01    0.2540047    0.2170647 -74.72 0.0008168135    1.508    0.337
       452  -9.4750     92.4869     50.6057   6.1737154461e+01   5.4057030065e+01    0.3653449     0.233498 -48.73  0.001124331    1.930    0.482
       453  -8.5991     75.7903     50.9530   6.7383054077e+01   5.7247540109e+01    0.2935849    0.1564313  21.10  0.001181731    2.631    0.620
       454  -8.8946    149.9332     49.7118   4.7496562858e+01   4.1264182269e+01    0.2301117    0.1883213 -22.05   0.00128226    1.401    0.286
       455  -8.1904    144.5877     48.9942   4.8310149921e+01   4.2620237109e+01    0.2006837     0.135404 -33.75 0.0005394178    1.586    0.369
       456  -8.3195    129.7070     49.1316   5.1451043628e+01   4.6076209660e+01    0.2122708    0.1666628 -53.85 0.0004911965    1.429    0.300
       457  -8.9564    120.9725     47.4491   5.2921487551e+01   4.8318645116e+01    0.2452053    0.1875101 -52.54 0.0006082481    1.510    0.338
       458  -8.4979    112.1677     46.7598   5.4864618257e+01   5.0400389896e+01    0.2261815    0.1828226 -46.87 0.0005814104    1.398    0.285
       459  -8.9669     82.2664     46.3782   6.3474769178e+01   5.6732687535e+01    0.2701077    0.2208574 -50.34 0.0007193679    1.531    0.347
       460  -8.4410     45.0185     44.5774   7.7159775604e+01   6.3266677748e+01    0.2184165     0.174221 -47.81 0.0006905004    1.548    0.354
       461  -9.1029     16.6318     44.7890   9.0724287226e+01   6.6385366018e+01     0.197901    0.1837286 -78.29 0.0006343452    1.601    0.376
       462  -9.1304     58.1834     42.3052   7.0725581282e+01   6.1657951422e+01    0.3553783    0.2187334 -52.82  0.001435227    2.426    0.588
       463  -8.3379    132.7074     43.1741   4.8951035131e+01   4.6187916741e+01    0.2065374    0.1625096 -56.42 0.0004510943    1.430    0.301
       464  -8.4385     93.0054     42.5466   5.8686456598e+01   5.5122971381e+01    0.2394805    0.1702726   6.81   0.00123286    1.669    0.401
       465  -9.3118     69.6406     41.5570   6.6041726556e+01   5.9811653101e+01    0.3236008      0.25025 -58.61  0.001029641    1.946    0.486
       466  -9.7823      5.1845     41.7426   9.5589403720e+01   6.7800746478e+01     0.340111    0.2160048 -69.92  0.001823986    2.230    0.552
       467  -8.6672    105.9558     41.4635   5.4670058171e+01   5.2498148799e+01    0.2391681    0.1860133 -49.61 0.0005088471    1.527    0.345
       468  -7.5031    140.4516     41.4712   4.6879366417e+01   4.4596151322e+01    0.1361421     0.123626  83.47 9.214037e-05    1.092    0.084
       469  -8.2646     36.7773     40.4862   7.9301780035e+01   6.5037937257e+01    0.2037122     0.148473 -46.60 0.0005578402    1.602    0.376
       470  -8.2991     95.6478     38.1057   5.6302233272e+01   5.5166056396e+01    0.1964885    0.1620565 -50.31 0.0006543858    1.484    0.326
       471  -8.5923    236.0503     37.4537   3.3358276895e+01   2.3888964770e+01    0.1635437    0.1058536  77.05 0.0003849398    1.531    0.347
       472  -8.3926     80.5399     36.5140   6.0316546000e+01   5.8465897148e+01    0.2161163    0.1188313 -42.88 0.0007188406    2.195    0.544
       473  -9.4151     26.0811     35.3808   8.2453624245e+01   6.7143357628e+01    0.2506836    0.2144519 -43.40 0.0008813515    1.470    0.320
       474  -8.3089    125.7213     35.4165   4.7973300677e+01   4.8790489841e+01     0.240793    0.1480467  49.89 0.0008268812    1.468    0.319
       475  -8.4642    111.8275     34.3283   5.0736425559e+01   5.2097216008e+01    0.2169431    0.1771449 -43.00 0.0005379725    1.389    0.280
       476  -7.8915     88.6282     33.8060   5.6757438443e+01   5.7185424562e+01    0.1744813    0.1215453 -38.02 0.0009443569    1.629    0.386
       477  -9.0300     48.4371     33.2592   7.1103569150e+01   6.4551046731e+01     0.243361     0.212163 -35.60 0.0008585762    1.423    0.297
       478  -8.2467    119.3354     33.2496   4.8647698137e+01   5.0520684655e+01    0.1776304    0.1188482 -40.76 0.0004710599    1.666    0.400
       479  -8.7933     60.8324     32.6280   6.5771159940e+01   6.2630800508e+01    0.2249294    0.1803054 -31.59 0.0006514528    1.380    0.275
       480  -8.8765     72.2466     31.1339   6.0980317178e+01   6.0766689697e+01    0.2331491    0.2023253 -43.86 0.0006794266    1.469    0.319
       481  -7.6387    139.3098     31.6572   4.4145886177e+01   4.6061792155e+01     0.136758   0.09700608 -71.13 0.0007044889    1.697    0.411
       482  -9.3218     12.9353     30.2010   8.7270827712e+01   6.9295380476e+01    0.3027048    0.1876534 -56.12  0.001633982    2.097    0.523
       483  -8.5412    101.6895     29.5494   5.1570816761e+01   5.4912995453e+01    0.2035069     0.156333 -55.64 0.0008276914    1.672    0.402
       484  -8.1335     41.8088     29.8090   7.2569275752e+01   6.6029242545e+01    0.1535484    0.1427068  -5.44 0.0005050435    1.338    0.253
       485  -8.7928     81.6362     27.3804   5.6405678310e+01   5.9392116735e+01    0.2392756    0.2037433 -77.00 0.0006912095    1.724    0.420
       486  -9.1941      3.7150     27.5927   9.1401222848e+01   7.0458103216e+01     0.237367    0.1507599 -57.04 0.0009509288    1.905    0.475
       487  -8.8509     91.9060     26.5893   5.3088666103e+01   5.7358741237e+01     0.231152    0.1846224 -38.26 0.0007452196    1.463    0.316
       488  -7.9657     34.4997     23.0208   7.2986071072e+01   6.8005579992e+01    0.1399228    0.1073191 -56.73 0.0005185182    2.333    0.571
       489  -7.8720    104.5168     22.5616   4.8371678728e+01   5.5053172904e+01    0.1296664    0.1139571  51.52 0.0001302404    1.052    0.049
       490  -8.9684     63.5257     21.0932   5.9878026890e+01   6.3602425593e+01    0.2644909    0.2031893 -45.72 0.0009252256    1.789    0.441
       491  -8.8002     48.3248     21.5294   6.6039563933e+01   6.6159192013e+01    0.2068936    0.1846605 -17.15 0.0006463206    1.324    0.245
       492  -7.9106    120.6862     21.3015   4.4426770175e+01   5.1519155032e+01    0.1271803   0.09649287 -76.76 0.0003140497    1.612    0.380
       493  -8.2491     19.4328     21.2779   7.9922763513e+01   7.0083675276e+01     0.146823    0.1046046 -40.66 0.0009146529    1.584    0.369
       494  -8.8111     74.0492     19.4691   5.5598688675e+01   6.1786186533e+01    0.2132281    0.1704136 -40.20 0.0006813382    1.570    0.363
       495  -8.1863     38.9531     18.4591   6.8774770665e+01   6.7982478927e+01    0.1836028    0.1398019 -14.62 0.0005479159    1.221    0.181
       496  -8.2425     87.7884     17.7626   5.0839463799e+01   5.9162581396e+01    0.1560271    0.1476085 -89.35 0.0004726749    1.319    0.242
       497  -8.3687    112.6035     16.7771   4.4555025308e+01   5.3808968983e+01    0.1556203    0.1186184 -40.22  0.000278982    1.518    0.341
       498  -8.1623     30.2368     16.2069   7.1896569344e+01   6.9490000070e+01      0.14519    0.1310963  -3.24 0.0005190317    1.381    0.276
       499  -7.9521     97.1499     15.1291   4.7431322622e+01   5.7407164570e+01    0.1604635    0.1473397 -70.71 0.0004287038    1.339    0.253
       500  -8.4121      7.8041     15.5945   8.3935488852e+01   7.2069727839e+01    0.1446866   0.09360989  24.90 0.0004830981    1.631    0.387
       501  -8.3355     17.2205     14.1779   7.7815944867e+01   7.1341532833e+01    0.1426382    0.1225613   3.71 0.0003575538    1.325    0.245
       502  -7.5013     83.6590     11.2972   4.9414120718e+01   6.0637696582e+01    0.1160624   0.09650174 -84.33 0.0005724668    1.663    0.399
       503  -9.4078    246.5399    228.6546   6.9732277305e+01  -8.1707865214e+00    0.4050644     0.174519 -36.31  0.001721754    2.032    0.508
       504  -9.8958    248.8032    243.7368   7.1882609419e+01  -1.0519407723e+01    0.6162179    0.1906124 -41.89  0.002641304    3.526    0.716
       505  -9.0772    248.2148    235.0808   7.0538824251e+01  -9.2708162026e+00    0.3478756    0.1797904 -44.19  0.001655721    2.343    0.573
       506  -8.4818    156.6144    248.2887   9.0477041327e+01   6.8408796644e-01     0.295564    0.1869653  55.58  0.001468615    2.325    0.570
       507  -8.8204    132.3088    247.9373   9.5624324650e+01   4.2574179944e+00    0.2628249    0.1925776  65.75 0.0007494679    1.845    0.458
       508  -8.3603    112.9494    248.6202   9.9900601962e+01   6.9171484077e+00     0.234685    0.1673106 -88.26  0.001268271    1.953    0.488
       509  -9.3538    103.7997    247.0635   1.0170003495e+02   8.5100686207e+00    0.4197596    0.2529976 -89.55  0.001975996    2.702    0.630
       510  -8.1469     93.8704    249.1678   1.0408323311e+02   9.4861387646e+00    0.2056497    0.1461586  59.30  0.001144157    1.431    0.301
       511  -9.1538    243.1191    246.3686   7.3300395951e+01  -1.0247468186e+01    0.3768641      0.15141 -31.18   0.00174529    2.231    0.552
       512  -8.9060    175.4646    247.2872   8.6394658870e+01  -1.8189204497e+00    0.2759517    0.2321338  87.07  0.001082277    2.092    0.522
