#   1 NUMBER                 Running object number                                     
#   2 MAG_AUTO               Kron-like elliptical aperture magnitude                    [mag]
#   3 X_IMAGE                Object position along x                                    [pixel]
#   4 Y_IMAGE                Object position along y                                    [pixel]
#   5 X_WORLD                Barycenter position along world x axis                     [deg]
#   6 Y_WORLD                Barycenter position along world y axis                     [deg]
#   7 A_WORLD                Profile RMS along major axis (world units)                 [deg]
#   8 B_WORLD                Profile RMS along minor axis (world units)                 [deg]
#   9 THETA_WORLD            Position angle (CCW/world-x)                               [deg]
#  10 FWHM_WORLD             FWHM assuming a gaussian core                              [deg]
#  11 ELONGATION             A_IMAGE/B_IMAGE                                           
#  12 ELLIPTICITY            1 - B_IMAGE/A_IMAGE                                       
         1 -11.5797    225.3772     14.2800   6.6553226457e+01   2.7347300526e+01     0.976817    0.5630847 -34.33  0.005085344    1.509    0.337
         2 -10.6592    250.2092     12.3707   6.4259590944e+01   2.2190209914e+01     0.997622    0.3202806 -16.84  0.003821302    3.301    0.697
         3 -12.2428    237.8252      4.3796   6.3056137909e+01   2.5478936576e+01     1.410881     1.120106 -80.93  0.007196116    1.335    0.251
         4  -8.1137    169.4929      2.5256   6.8229761246e+01   4.1971981120e+01    0.1363215    0.1328354 -62.96 1.108467e-05    1.029    0.028
         5  -9.0007      4.1531    248.7866   1.5397048911e+02   2.4857281979e+01    0.1454942    0.1315951  85.10  0.001386269    1.469    0.319
         6  -8.3397    239.3695    250.2814   1.1489230099e+02  -1.6795584992e+00    0.1064646   0.05355823  14.66 0.0007014158    1.694    0.410
         7  -8.9463    227.7104    249.6222   1.1657167061e+02  -2.7534416669e-01    0.2894897    0.1141104  16.38   0.00135724    3.684    0.729
         8  -7.6612    214.0302    251.0000   1.1887092382e+02   1.2230950002e+00    0.1693972   0.04269346  36.14 0.0007330313    2.968    0.663
         9  -8.1416    200.5042    250.2052   1.2092028346e+02   2.9332283523e+00    0.3325294    0.1005571  25.65   0.00126008    4.953    0.798
        10  -8.1432    140.2291    250.6268   1.3102600968e+02   1.0355238834e+01    0.1503604   0.07498096  29.84 0.0009113972    1.624    0.384
        11  -7.9144    133.2413    250.6258   1.3222661862e+02   1.1211835411e+01    0.1504922   0.07543641  29.43 0.0008154627    1.661    0.398
        12  -8.0096    194.0226    248.3069   1.2173721259e+02   3.9163914774e+00    0.1743456   0.06045848  23.69 0.0007038514    4.187    0.761
        13  -7.3824     49.5042    248.4995   1.4651090592e+02   2.0868129558e+01   0.09697476    0.0698965  49.73  -0.00019015    1.010    0.010
        14  -9.1248     36.1337    247.7890   1.4872705069e+02   2.2247043173e+01    0.1496028   0.09090186  53.83 0.0007511699    1.201    0.168
        15  -7.7142     23.4841    248.4624   1.5084424453e+02   2.3289388824e+01   0.09296267   0.06597351  52.80 0.0001423814    1.030    0.029
        16  -7.6960    110.0304    247.4715   1.3597465635e+02   1.4409519751e+01    0.1416367   0.07790782  17.52 0.0008097719    2.541    0.606
        17  -8.0574     64.9022    247.4935   1.4382952185e+02   1.9454361733e+01    0.1406528   0.07480153  36.28 0.0003495852    1.459    0.314
        18  -7.9257     18.2718    247.6670   1.5167058306e+02   2.3856097729e+01   0.09735913   0.04501231  57.32 0.0004031138    1.593    0.372
        19  -8.6560     14.4780    247.4994   1.5228226776e+02   2.4201578681e+01   0.09210839   0.06464133  54.21 0.0008101421    1.026    0.025
        20  -7.9121      9.9668    247.4918   1.5301063057e+02   2.4576579873e+01    0.1314098    0.0681825  36.87 0.0009064146    1.532    0.347
        21  -9.3790    249.4743    245.5083   1.1274788394e+02  -2.4388976887e+00    0.2551492    0.1204426  -8.24  0.001631964    2.262    0.558
        22 -10.3781    247.9999    239.6624   1.1215382715e+02  -1.7925268036e+00    0.4472749    0.1863836  -7.42  0.002301585    3.457    0.711
        23  -8.2856    121.0358    246.4702   1.3396129067e+02   1.3219177556e+01    0.1642273   0.07785615  35.44  0.001025508    1.574    0.365
        24  -7.6536    206.4594    245.4322   1.1936640462e+02   2.6625560864e+00    0.1055854   0.07252144  20.14 0.0002106788    1.023    0.022
        25  -8.7462    166.1861    245.6443   1.2606207522e+02   7.6892011852e+00    0.1607012   0.07405043  28.73 0.0009503813    1.782    0.439
        26  -7.7158     68.5388    245.4539   1.4307984079e+02   1.9363264917e+01    0.1006879    0.0723742  48.13 0.0001411878    1.031    0.030
        27  -8.4465     45.0913    244.6326   1.4707684429e+02   2.1859604067e+01    0.1493413    0.1020393  61.36 0.0004091107    1.209    0.173
        28  -8.4939    240.6111    244.7099   1.1395720254e+02  -1.3602125738e+00    0.1095316   0.05461383  14.16 0.0007009795    1.764    0.433
        29  -7.8063    177.7718    250.6053   1.2468072069e+02   5.6973038414e+00    0.1494054   0.07274756  40.04 0.0007897772    1.704    0.413
        30  -7.9351    147.0356    242.8343   1.2905412760e+02   1.0444427170e+01     0.174409   0.09989395  18.50  0.001081304    1.925    0.480
        31  -7.5233     61.5446    243.4799   1.4417995490e+02   2.0380534037e+01    0.1002235     0.072414  49.49 0.0002389768    1.025    0.024
        32  -9.0985     29.0361    242.6388   1.4971591200e+02   2.3654676337e+01    0.1529669   0.09768265  64.45  0.000471641    1.276    0.217
        33  -7.8776    196.6832    242.6860   1.2060509269e+02   4.1502081017e+00    0.1077043   0.06316207  12.68 0.0007036298    1.646    0.392
        34  -8.3637     20.9815    241.7438   1.5103573548e+02   2.4500179510e+01    0.1670324   0.08731446  67.72 0.0008798829    1.623    0.384
        35  -7.7614     14.9319    242.5497   1.5206557641e+02   2.4895550110e+01    0.1093407   0.07680947   2.60 0.0008080769    2.541    0.607
        36  -8.1023    169.9668    241.5067   1.2494148514e+02   7.6741721904e+00    0.1691683   0.07962997  34.59  0.001032259    1.588    0.370
        37  -7.9611    142.9424    241.7684   1.2965817272e+02   1.1093544364e+01    0.1454472   0.06782088  34.57 0.0008712925    1.617    0.381
        38  -8.3657    133.4936    241.4797   1.3129335262e+02   1.2320945459e+01    0.1975559   0.06980182  42.86   0.00102858    2.296    0.565
        39  -8.7279      6.0394    243.3199   1.5354125512e+02   2.5510742590e+01    0.1313164   0.08472276  49.48 0.0005327708    1.106    0.096
        40  -8.0498     24.5627    241.4845   1.5042663600e+02   2.4226114270e+01   0.09410571      0.06825  54.33 4.615251e-05    1.031    0.030
        41  -7.8851    155.0774    240.4832   1.2739603817e+02   9.7031112317e+00    0.1707643   0.08064073  34.16  0.001032123    1.596    0.373
        42  -7.4019     85.5042    240.4871   1.3975916728e+02   1.8215916211e+01    0.1023614   0.07836456  42.50 -3.539988e-05    1.042    0.040
        43  -8.2079      8.8084    240.3136   1.5301300535e+02   2.5737572911e+01    0.1490509   0.07326203  49.02 0.0004686488    1.389    0.280
        44  -7.6906    215.3108    239.3314   1.1715084556e+02   2.1544242472e+00    0.1090526    0.0614212  11.17 0.0003581315    1.672    0.402
        45  -7.7366     69.6016    239.2305   1.4250522132e+02   2.0152673506e+01    0.1101806   0.09242093 -63.62 0.0004477976    1.548    0.354
        46  -9.9509    243.8542    236.5942   1.1234095168e+02  -1.0504558006e+00    0.2235264    0.1018232 -21.50  0.001436162    2.239    0.553
        47  -7.3205     81.6563    238.2746   1.4028695653e+02   1.8968407120e+01    0.1075165   0.05785085  52.95 0.0002523397    1.621    0.383
        48  -9.4793      5.4641    229.6443   1.5329323989e+02   2.7651932249e+01    0.2590493    0.1035614  44.34  0.001782329    1.704    0.413
        49  -8.8893      3.4844    237.5514   1.5382129012e+02   2.6582936122e+01    0.1451385    0.1001376  61.30 0.0007980962    1.068    0.064
        50  -8.7297      2.2007    233.1532   1.5393058459e+02   2.7360077037e+01    0.2672119   0.09432676  74.87  0.001638163    2.600    0.615
        51  -7.5136    221.3167    237.3729   1.1593101294e+02   1.5977255829e+00    0.1120031   0.06106677   9.64 0.0007032775    1.794    0.443
        52  -8.1795    209.6356    236.6353   1.1770248266e+02   3.1258177665e+00    0.1697416    0.0965374  11.73  0.001104097    1.684    0.406
        53  -7.9507    195.0083    237.4808   1.2021685227e+02   4.8991641048e+00    0.1580151   0.06982934  20.75   0.00081002    2.537    0.606
        54  -7.5943    106.7062    237.3169   1.3569455889e+02   1.6182499711e+01    0.1046255   0.06522249  55.35 0.0005706146    1.603    0.376
        55  -7.6755     44.6802    237.6966   1.4681611836e+02   2.2933965442e+01    0.0823025   0.07393163   1.79 0.0007027644    1.629    0.386
        56  -8.3615     27.5100    237.4846   1.4977961941e+02   2.4569791466e+01    0.1720066    0.0733995  34.25 0.0005913021    1.889    0.471
        57  -8.4289     19.4740    237.0679   1.5113413323e+02   2.5338932992e+01    0.1248334   0.08028722  88.12 0.0005657443    1.547    0.354
        58  -7.7979    204.7632    234.8251   1.1825472834e+02   3.9258736120e+00    0.1863968   0.09185124   9.16 0.0009603686    2.852    0.649
        59  -7.4193      6.6958    235.2914   1.5323251877e+02   2.6673731586e+01    0.0993896   0.04464791  55.45 0.0003389236    1.573    0.364
        60  -8.2293    156.5851    246.2375   1.2776719015e+02   8.8338938189e+00    0.1229093   0.09303635 -16.11 0.0007051726    1.618    0.382
        61  -8.0634    171.5699    233.2225   1.2366820690e+02   8.4188848987e+00    0.1325473   0.09440248 -14.26  0.000944088    1.629    0.386
        62  -7.6486     80.5466    233.4629   1.4013754179e+02   1.9801519468e+01    0.1060562   0.07744578  48.99 0.0002751557    1.081    0.075
        63  -7.9550     65.0226    233.5258   1.4296229029e+02   2.1495685478e+01    0.1509549   0.05191698  49.50 0.0008071655    2.360    0.576
        64  -7.8115     34.1745    233.3858   1.4845710520e+02   2.4593529733e+01     0.138865   0.06302267  43.32 0.0004781887    1.576    0.366
        65  -9.4862     15.2415    232.4233   1.5170429591e+02   2.6416985683e+01     0.353377   0.02436987  45.34  0.001666863    3.553    0.719
        66  -8.7826     11.0828    231.6888   1.5239266916e+02   2.6877169340e+01    0.1621847    0.1138548  54.80 0.0006350016    1.025    0.024
        67 -10.4231    241.7892    229.8809   1.1168871337e+02  -2.1702055661e-01    0.4521309    0.1812006  -8.29  0.001918087    4.780    0.791
        68  -8.2178    154.9977    232.4984   1.2649990504e+02   1.0688526277e+01    0.1606535   0.07846727  19.84 0.0008106846    2.617    0.618
        69  -8.0847    124.9461    232.0582   1.3188025184e+02   1.4645674849e+01    0.1705731    0.1089823  55.73  0.001073663    1.739    0.425
        70  -7.4503    213.6724    231.6859   1.1637218736e+02   3.1060726088e+00    0.1120042   0.06344897  11.96 0.0007043639    1.671    0.401
        71  -7.7743    188.3346    230.3636   1.2041169757e+02   6.5345896653e+00    0.1152441    0.0685117   9.69 0.0007035819    1.820    0.451
        72  -7.7210    136.1092    229.3588   1.2955448294e+02   1.3572484927e+01     0.161014   0.07699021  42.41  0.000392855    1.720    0.419
        73  -7.8430     47.0257    229.5449   1.4598328497e+02   2.3961908794e+01    0.1576006   0.04435847  48.40 0.0008086329    2.591    0.614
        74  -8.2020     40.0897    229.3295   1.4722079223e+02   2.4671081098e+01    0.1417136   0.09415214  47.05  0.000446406    1.136    0.119
        75  -7.6926    154.5023    227.5272   1.2600034729e+02   1.1381199781e+01    0.1114456   0.08554297  30.36 0.0003323085    1.026    0.025
        76  -7.5474     95.5252    227.5777   1.3690047093e+02   1.8936113736e+01    0.1085224   0.08185328  45.17 0.0001750311    1.054    0.051
        77  -9.3452    248.4884    224.4977   1.0987681081e+02  -5.4667331811e-01    0.3238999    0.1434244  -1.14  0.001627088    3.177    0.685
        78  -7.6312    230.4700    226.4800   1.1294555362e+02   1.4890862280e+00    0.1098206   0.07517026  13.85 0.0001603245    1.045    0.043
        79  -7.8180      6.6391    224.8294   1.5296133096e+02   2.8325265126e+01    0.1268301   0.06742021  74.69 0.0004453763    1.602    0.376
        80  -7.4643    164.4072    224.2612   1.2381263836e+02   1.0461222833e+01    0.1161293   0.07085606  15.82 0.0006960151    1.737    0.424
        81  -7.7119     89.2276    224.4453   1.3781552008e+02   2.0161636258e+01    0.1549899   0.07660428  43.57 0.0007972267    1.581    0.368
        82  -7.5478     10.7049    224.3091   1.5223708382e+02   2.8081388657e+01    0.1028861   0.04800236  57.07 0.0002708165    1.589    0.371
        83  -7.5651    137.5201    222.5429   1.2852938471e+02   1.4314572557e+01    0.1124278   0.08773784  36.18 6.587134e-05    1.056    0.053
        84  -7.1457     95.3086    222.6310   1.3650644548e+02   1.9710667558e+01    0.1132992   0.06793538  59.32 0.0007035586    1.761    0.432
        85  -8.6998     40.0476    222.3307   1.4687876120e+02   2.5796956816e+01    0.1472364   0.09972618  46.62 0.0004894513    1.144    0.126
        86  -7.3210     14.6270    220.2553   1.5141116193e+02   2.8418480898e+01    0.1065011   0.04737996  53.06 0.0003689209    1.646    0.393
        87  -7.5118    117.0058    219.7728   1.3209374074e+02   1.7415426016e+01    0.1491882   0.07466267  36.09 0.0005440261    1.592    0.372
        88 -11.3232     32.5010    215.1883   1.4792511850e+02   2.7691450316e+01    0.5517248    0.4110889  77.24  0.002853989    1.227    0.185
        89  -8.2469    248.7167    215.6043   1.0848117750e+02   2.2986976933e-01    0.1747665   0.09213106  11.78  0.001083797    1.709    0.415
        90  -7.7244    211.3288    216.3093   1.1454570375e+02   5.0072949583e+00     0.116747   0.06814095  11.32 0.0002881334    1.663    0.399
        91  -7.5542    234.3011    214.3655   1.1051811146e+02   2.1738432451e+00    0.1166557   0.06468216   7.67 0.0004864553    1.732    0.423
        92  -8.1167    247.4338    211.2461   1.0799040131e+02   7.9664723786e-01    0.1895758    0.0876992 -19.04  0.001118302    2.112    0.526
        93  -7.4480    157.3417    211.6815   1.2347020346e+02   1.3082839302e+01    0.1114125   0.08197408  55.36  0.000704938    1.716    0.417
        94  -8.0138      4.0947    211.2996   1.5302954403e+02   3.0761569479e+01    0.1385048   0.09380586  53.80  0.000510102    1.105    0.095
        95  -7.4453      2.3086    218.2695   1.5354192224e+02   2.9733186144e+01   0.07519934   0.07285842 -56.27 0.0004538309    1.541    0.351
        96  -7.8553     11.6016    209.7994   1.5160220384e+02   3.0423070754e+01    0.1312723   0.07234767  74.34 0.0003290491    1.553    0.356
        97  -7.5660    149.6763    209.3683   1.2461179624e+02   1.4486229402e+01    0.1131121   0.08364426  60.37 0.0006190561    1.801    0.445
        98  -8.7677    247.3653    206.1412   1.0718170191e+02   1.2920387884e+00    0.2641969     0.145956  15.22  0.001636516    1.545    0.353
        99  -7.3769    118.7029    206.3529   1.3027833016e+02   1.9237442596e+01    0.1151974   0.07960831  61.20 0.0006685887    1.691    0.409
       100  -8.5990     17.8860    206.1108   1.5028244278e+02   3.0541241200e+01    0.1640134    0.1158301  47.92 0.0004428519    1.162    0.139
       101  -8.3738      4.6327    204.0865   1.5271419546e+02   3.1962372693e+01    0.1370085   0.09664167  75.46 0.0004470144    1.176    0.150
       102  -8.7302    250.0599    199.9439   1.0575193227e+02   1.5451381244e+00    0.2461443    0.1295352 -13.80  0.001128826    1.763    0.433
       103  -9.1233    243.7253    198.6345   1.0650665001e+02   2.5070512662e+00    0.3355264    0.1314311 -20.83  0.001693412    2.701    0.630
       104  -7.9097    100.9292    200.6390   1.3322600443e+02   2.2530854972e+01    0.1580977    0.1246115  43.18 0.0004490205    1.062    0.058
       105  -7.5243    238.2970    199.3134   1.0746936463e+02   3.1635019960e+00    0.1170013   0.06752383   8.39 0.0002920396    1.602    0.376
       106  -8.2510    229.9992    198.4884   1.0865867198e+02   4.3795978921e+00    0.2168646    0.1216887   9.72  0.001233618    1.770    0.435
       107  -7.7679     21.4269    198.4921   1.4926701098e+02   3.1590453691e+01    0.1061121   0.07788478  61.83 6.191185e-05    1.057    0.054
       108  -7.4751     63.3439    196.6899   1.4062830998e+02   2.7782880222e+01    0.1209663   0.06735192  58.25 0.0005134347    1.700    0.412
       109  -8.9093    240.3974    216.8179   1.0994409192e+02   1.1576319023e+00    0.1468575   0.08177923  -9.68 0.0009445468    1.715    0.417
       110  -8.1607      1.4519    195.4929   1.5305455085e+02   3.3726894735e+01    0.1016522   0.07529355  64.21 6.485876e-05    1.005    0.005
       111  -8.3396    237.3516    193.5293   1.0664555332e+02   3.8953393034e+00    0.1759086    0.0935269 -24.21 0.0009688201    1.805    0.446
       112  -9.4758    243.3573    189.3233   1.0497703352e+02   3.5126884334e+00    0.3599513    0.1759268 -18.12  0.001773732    1.975    0.494
       113  -8.3480     52.3026    188.7242   1.4231740794e+02   3.0442577719e+01    0.1794093     0.127193 -87.55  0.000966621    1.412    0.292
       114  -7.6857     17.7986    189.6316   1.4958687966e+02   3.3520034108e+01     0.152715   0.07023276  43.14 0.0009350153    1.729    0.422
       115  -8.4140    237.7583    186.1458   1.0530274513e+02   4.6289256981e+00    0.2183964    0.1293935  -2.96 0.0009922927    1.606    0.377
       116  -7.7257      9.4604    187.4137   1.5118726426e+02   3.4603200704e+01    0.1031456   0.08030025  64.62 0.0001585171    1.023    0.023
       117  -9.1104    249.4594    184.0888   1.0311609423e+02   3.2210779135e+00    0.3702657    0.1797431 -13.39   0.00189096    2.062    0.515
       118  -7.5400     60.3182    186.6918   1.4042954731e+02   2.9957329451e+01    0.1210193   0.07073492  59.91 0.0007031725    1.636    0.389
       119  -9.5557    242.1374    177.8675   1.0312980886e+02   4.9085955952e+00    0.4007689    0.1915074 -17.67  0.002136193    2.069    0.517
       120  -8.1730    235.4055    179.3624   1.0446841511e+02   5.7127224761e+00    0.2344303   0.09248936 -16.83 0.0009655125    3.458    0.711
       121  -7.5354     39.3213    177.2768   1.4428035088e+02   3.3953859364e+01   0.09901787   0.08556028 -32.93 0.0003581682    1.579    0.367
       122 -10.6433    100.9970    175.9972   1.3026795545e+02   2.6878609910e+01    0.1726805    0.1532241  46.14  0.001158676    1.004    0.004
       123  -7.7352    224.0000    173.0607   1.0518182041e+02   8.1419197664e+00    0.1822804   0.06267771 -31.30 0.0007917197    2.869    0.651
       124  -8.0852    231.4845    172.4784   1.0383848168e+02   7.0782159798e+00    0.1223656   0.09468878   6.29 0.0002153065    1.011    0.011
       125  -8.2007    237.3246    167.9996   1.0205629350e+02   6.7210074974e+00    0.1974815   0.08306746 -10.20 0.0007048196    4.281    0.766
       126  -8.5405    244.5074    166.4873   1.0064146850e+02   5.8241641663e+00    0.2139127   0.09670948 -16.27  0.001033328    2.331    0.571
       127  -7.8541    251.0000    158.9767   9.8204721311e+01   5.7022600017e+00    0.1880726   0.05816937 -28.13 0.0007973134    2.907    0.656
       128  -8.4250    250.5513    155.4854   9.7586902341e+01   6.1591843040e+00    0.1234696   0.09263341   0.84 -4.611667e-05    1.027    0.027
       129  -7.4092     35.3300    155.2531   1.4349645939e+02   3.8832821635e+01     0.104478   0.08774026 -34.89  0.000315607    1.555    0.357
       130  -7.7143    249.6491    150.6848   9.6765656270e+01   6.8391394452e+00     0.130767    0.0768344   9.10 0.0007046809    1.731    0.422
       131  -7.8995    243.6876    147.6710   9.7056555555e+01   8.1137661157e+00    0.1310369   0.07944854   6.89 0.0003984791    1.670    0.401
       132  -9.8504    248.6274    133.8987   9.3446100791e+01   8.9504619897e+00     0.362189    0.1321179 -27.73  0.001607346    2.388    0.581
       133  -8.5170    242.4774    132.4553   9.4049420610e+01   1.0132754077e+01    0.2616367    0.1082621 -27.16  0.001201692    2.137    0.532
       134  -8.5767    239.3146    125.1674   9.2934615767e+01   1.1563877941e+01    0.2674128    0.1049847 -21.23  0.001089022    2.637    0.621
       135  -9.3337    247.6568    116.2851   8.9738991415e+01   1.1218557798e+01    0.3458025    0.1950877 -25.55  0.001852822    1.512    0.339
       136  -7.8471    241.0000    107.9410   8.8780637541e+01   1.3412018109e+01    0.2140972   0.06467611 -28.01 0.0007930631    2.878    0.653
       137  -8.2946    230.5938    113.7906   9.1679795506e+01   1.4560305025e+01    0.1905561    0.1091535 -34.16 0.0009559001    1.657    0.397
       138  -7.3975    248.5180     92.5067   8.4138653828e+01   1.3931089737e+01    0.1325832    0.1070173  -7.23 0.0002813954    1.064    0.060
       139  -8.3073    166.9910     74.0000   9.2341027136e+01   3.3739886989e+01    0.2427892   0.08545047  53.64  0.000802887    2.946    0.661
       140  -9.1515    182.3120     57.8890   8.4589918650e+01   3.2532451265e+01    0.2476532     0.175733 -43.56 0.0005182589    1.453    0.312
       141  -7.9378    136.0353     47.4753   9.0269643628e+01   4.5287454421e+01    0.2231781    0.1477178  52.41 0.0004558181    1.530    0.346
       142  -8.9743    250.3304     42.5693   7.1732513466e+01   1.9242481700e+01    0.2323812    0.1535417 -16.21  0.001302194    1.384    0.278
       143  -9.5501    203.0168     38.2299   7.5625446320e+01   3.0073177266e+01    0.4895769    0.2396965 -46.00  0.001510891    2.161    0.537
       144  -9.4633    245.1470     32.7850   6.9740891993e+01   2.1297702615e+01    0.3823624    0.1990269  61.69  0.001947218    2.130    0.530
       145  -8.5395    184.1198     34.5452   7.7004231170e+01   3.5073375798e+01    0.2742971    0.1819852 -40.25 0.0007789385    1.479    0.324
       146  -9.0277    210.9503     28.8385   7.1969239153e+01   2.9233114291e+01     0.265633    0.2464561 -14.07 0.0007695653    1.050    0.048
       147  -7.8694    191.5035     30.5291   7.4750857217e+01   3.3709842682e+01    0.1409514    0.1324159   5.77 0.0001564748    1.071    0.066
       148  -8.6446    145.1978     23.5615   7.9402561760e+01   4.6216678824e+01    0.2544588     0.199837 -19.96 0.0002841861    1.259    0.206
       149  -8.6257    153.8134    250.5455   1.2869825911e+02   8.6847885339e+00    0.2002438   0.07707706  33.10  0.001124518    1.977    0.494
       150  -9.7012    129.1310    248.5109   1.3273811103e+02   1.1974618618e+01     0.396609    0.1924011  20.69  0.002138093    2.738    0.635
       151  -7.1972     73.3028    249.2784   1.4249069474e+02   1.8316010403e+01     0.085615   0.06971912  16.35 0.0004859056    1.546    0.353
