#   1 NUMBER                 Running object number                                     
#   2 MAG_AUTO               Kron-like elliptical aperture magnitude                    [mag]
#   3 X_IMAGE                Object position along x                                    [pixel]
#   4 Y_IMAGE                Object position along y                                    [pixel]
#   5 X_WORLD                Barycenter position along world x axis                     [deg]
#   6 Y_WORLD                Barycenter position along world y axis                     [deg]
#   7 A_WORLD                Profile RMS along major axis (world units)                 [deg]
#   8 B_WORLD                Profile RMS along minor axis (world units)                 [deg]
#   9 THETA_WORLD            Position angle (CCW/world-x)                               [deg]
#  10 FWHM_WORLD             FWHM assuming a gaussian core                              [deg]
#  11 ELONGATION             A_IMAGE/B_IMAGE                                           
#  12 ELLIPTICITY            1 - B_IMAGE/A_IMAGE                                       
         1 -16.5672    184.5298    113.6669   8.6315094643e+01   2.2544627574e+01     2.539401     1.658979   9.39    0.0107776    2.302    0.566
         2 -18.3117    143.6981    105.1418   9.2922454956e+01   3.2958883808e+01     6.531147     3.839725 -61.66   0.02695178    2.326    0.570
         3 -15.6103     10.3960      8.1956   1.0751905366e+02   7.2081348201e+01     1.428749    0.9035817 -27.41   0.00953135    1.508    0.337
         4 -12.5377    206.0279    229.5723   1.0350804788e+02   2.7294690332e+00    0.2877158    0.1604041  35.82  0.001837591    1.366    0.268
         5 -12.6859     10.9106    229.2782   1.3454392143e+02   2.8747834031e+01    0.2451489    0.1287595  64.20   0.00200371    1.281    0.219
         6 -15.9830    161.8884    188.4722   1.0518417112e+02   1.5051253907e+01     1.065659    0.7641711  80.30  0.006116125    2.040    0.510
         7 -17.2761    165.0543    177.6715   1.0293112106e+02   1.6105720966e+01     4.856323     2.303478  63.80   0.01653581    4.819    0.792
         8 -15.2339    130.1536    184.6796   1.1054889679e+02   2.0986395043e+01     1.428394    0.6807373  66.02  0.005584518    3.909    0.744
         9 -15.4697    138.9568    178.3803   1.0798611757e+02   2.0554188649e+01     1.387961    0.6000899 -41.50  0.006240772    3.156    0.683
        10 -14.9647    132.2690    177.8764   1.0920182108e+02   2.1763086858e+01    0.8007115    0.5669619 -51.04  0.003895167    1.639    0.390
        11 -12.6844    121.2730    221.8824   1.1646922838e+02   1.6672534086e+01    0.2299143    0.1523228  62.33  0.001040063    1.368    0.269
        12 -12.2435    224.8376    220.3907   9.9283996107e+01   7.3507455934e-01    0.1949264    0.1800835  81.10  0.001505582    1.793    0.442
        13 -13.0268    129.8557    219.4878   1.1477518906e+02   1.5742814991e+01    0.2389141    0.1979031 -53.46  0.001837582    1.576    0.366
        14 -13.4822    110.1998    216.5387   1.1781418414e+02   1.9047957844e+01    0.5039162    0.1990957  39.67  0.002641031    2.270    0.559
        15 -17.1151     73.2383    194.8192   1.2229573317e+02   2.7568570291e+01      2.41594      1.43711  64.75   0.01589979    1.455    0.313
        16 -14.2722    192.3319    207.9165   1.0272122293e+02   7.3029579005e+00    0.4109467    0.2755423 -54.92  0.002427567    2.275    0.560
        17 -14.8801    173.6516    198.5859   1.0456745448e+02   1.1617795854e+01    0.5514076    0.3346505  61.44  0.003022794    2.052    0.513
        18 -16.4789    148.1688    207.7999   1.1027362610e+02   1.4551761112e+01     2.738727     1.615259  86.56   0.01228429    4.138    0.758
        19 -12.8013    219.3816    206.2677   9.8027995968e+01   3.0403710923e+00    0.2737043    0.1284865  39.48  0.001511933    1.677    0.404
        20 -14.0629    130.6390    199.1416   1.1231494876e+02   1.8613898708e+01    0.5360183    0.3071559 -55.56  0.003203691    2.095    0.523
        21 -15.1786    205.1846    195.4583   9.8666869869e+01   6.6318676273e+00    0.6944404    0.3465296 -32.63  0.003754896    2.397    0.583
        22 -14.2151    203.0011    183.3351   9.7045249392e+01   8.5085279600e+00    0.3230977    0.2629548  37.83  0.002132324    1.082    0.076
        23 -13.6138    115.7823    197.1899   1.1478053107e+02   2.1217553738e+01    0.3433022     0.246947  23.86  0.001906688    1.953    0.488
        24 -15.9194    192.6992    190.0453   9.9937153846e+01   9.4637810548e+00    0.9178405    0.5375994 -31.77  0.005208684    2.065    0.516
        25 -15.4331    123.1862    188.2232   1.1232640167e+02   2.1525203491e+01     0.868013    0.6408333 -89.89  0.005578713    1.565    0.361
        26 -13.6730    184.4558    200.3296   1.0294740818e+02   9.5589716877e+00    0.2326032    0.1808487  23.06  0.001163678    1.279    0.218
        27 -12.0541    247.4180    191.2352   9.1125092547e+01   3.3321141613e-02    0.1427101    0.1045379 -28.57 0.0006578098    1.619    0.382
        28 -15.7299    160.3679    202.3262   1.0742350565e+02   1.3331595823e+01     1.710555    0.5915583  55.57  0.005924242    4.722    0.788
        29 -13.3113    113.1164    187.0228   1.1407419982e+02   2.3293909615e+01    0.3895402    0.1654412 -52.20  0.001950039    2.759    0.638
        30 -16.1326     94.8923    193.2137   1.1817860231e+02   2.4932865506e+01     1.491076    0.8561391 -85.62  0.008669445    2.131    0.531
        31 -14.7458    127.1511    209.0990   1.1410326469e+02   1.7650683983e+01    0.9714524    0.2773764  46.94  0.004278359    2.781    0.640
        32 -15.6640    181.1295    177.5757   9.9951907637e+01   1.3220929819e+01    0.7889315    0.5249771 -36.27  0.004576687    1.758    0.431
        33 -12.4011    105.0962    182.3731   1.1504121743e+02   2.5305847501e+01    0.1906914    0.1712661  46.12  0.000552864    1.253    0.202
        34 -17.3302    144.3136    187.3049   1.0825219677e+02   1.8222556448e+01     2.144798     1.656003  87.79    0.0136163    1.605    0.377
        35 -14.4468    108.0386    171.8539   1.1313880172e+02   2.6717638324e+01    0.4729296    0.3950602 -88.37  0.002551829    1.191    0.161
        36 -13.9313    170.8096    171.4393   1.0082478780e+02   1.6009222164e+01    0.4688864    0.3306056  39.74   0.00189237    1.246    0.197
        37 -15.0689    193.8942    165.3639   9.5481373034e+01   1.2595537009e+01    0.8904385    0.3169777 -31.88  0.003398893    3.683    0.728
        38 -15.4023    205.2441    163.1848   9.3039359706e+01   1.0751775149e+01    0.7776352    0.4696377 -46.40  0.004011312    2.123    0.529
        39 -14.6833    215.3666    168.2153   9.2220628957e+01   8.1976240631e+00    0.4789673    0.4145139  68.09  0.002460831    1.563    0.360
        40 -13.8583    110.1965    209.3476   1.1709660873e+02   2.0136133334e+01    0.3743564    0.3036294  31.69  0.002735218    1.506    0.336
        41 -11.4493    130.7644    241.6095   1.1683113532e+02   1.2666146573e+01    0.1577844   0.07064045  49.77 0.0009566372    1.675    0.403
        42 -13.3494    143.7374    232.9901   1.1390374543e+02   1.1869182284e+01     0.372278    0.2028045  47.95  0.002433424    1.374    0.272
        43 -12.9120    219.8811    155.3654   8.8967005883e+01   9.0119519320e+00    0.3447846    0.1695846  24.82  0.001413531    2.777    0.640
        44 -14.2935    196.7600    150.9308   9.2185481438e+01   1.4126224152e+01    0.4452773    0.3152835  28.54   0.00242414    1.389    0.280
        45 -11.8813    101.1134    157.2095   1.1255543911e+02   3.0506602934e+01    0.1808719    0.1672743  49.30  0.000841401    1.213    0.176
        46 -13.8163    128.6930    149.7576   1.0552769642e+02   2.7346659740e+01    0.3911454    0.2373251 -42.17  0.001544371    1.950    0.487
        47 -13.3689    213.2297    152.7253   8.9590467399e+01   1.0643726166e+01    0.3125526    0.2151249  26.11   0.00170726    1.414    0.293
        48 -13.5322    188.4870    146.2460   9.2783121188e+01   1.6478707266e+01    0.3255441    0.2465555 -26.38  0.001383247    1.442    0.307
        49 -11.0412     91.4347    164.2213   1.1551964224e+02   3.0620622256e+01    0.1645667    0.1055969 -82.76  0.000834504    1.686    0.407
        50 -11.7056     90.0476    144.9814   1.1318851318e+02   3.4575418731e+01     0.209793    0.1346244  72.00  0.001130158    1.723    0.420
        51 -13.1843    204.0573    143.9733   8.9431189727e+01   1.3686207577e+01    0.2600958    0.1716839  43.39  0.001357049    1.385    0.278
        52 -15.7592    135.6960    116.6517   9.7465481229e+01   3.2366448748e+01     1.377247     1.133183 -89.86  0.006874792    1.415    0.293
        53 -11.1608     83.3216    140.3371   1.1402045713e+02   3.6492092472e+01    0.1174125   0.09746867 -30.34 0.0007050397    1.712    0.416
        54 -13.3605    191.4883    135.5081   8.9962877385e+01   1.7531723390e+01    0.3073407    0.2390225  19.47  0.001661216    1.360    0.265
        55 -13.8255    184.8591    132.9422   9.0677809387e+01   1.9319528884e+01    0.3944847    0.2864687  51.09  0.001583214    1.346    0.257
        56 -12.7262    125.4918    132.6746   1.0312090056e+02   3.1175151404e+01     0.338121    0.2049566  36.63  0.001605093    1.781    0.438
        57 -11.7069    103.4765    128.0552   1.0732549005e+02   3.5920160768e+01    0.1968578    0.1250363 -57.51 0.0007365798    1.560    0.359
        58 -13.8586    201.3902    129.9176   8.6881985253e+01   1.6319796006e+01    0.3520874    0.3083828  46.48  0.002036284    1.153    0.133
        59 -13.5030    115.0042    129.1494   1.0483741398e+02   3.3743124169e+01    0.4033812    0.2999828  77.71   0.00200429    1.543    0.352
        60 -13.8087    161.9234    163.7490   1.0120092903e+02   1.8855065307e+01    0.3198215    0.2556877  71.92  0.001339722    1.458    0.314
        61 -11.2795    104.3343    119.3067   1.0546211359e+02   3.7581774300e+01    0.1291174    0.1079361 -12.16      0.00046    1.669    0.401
        62 -11.9293     86.7586    118.5739   1.0965031782e+02   4.0530917799e+01     0.182175    0.1145184  53.40 0.0008436562    1.631    0.387
        63 -17.2500    149.6483    130.6628   9.7396542730e+01   2.6943831000e+01     2.106149     1.787542  42.89   0.01049058    1.129    0.115
        64 -11.8880    230.5972    115.7947   7.8544339511e+01   1.2169940471e+01    0.1997159    0.1213608 -37.85 0.0009549462    1.722    0.419
        65 -13.1393     34.9119    113.8330   1.2205071215e+02   4.7878747627e+01     0.606247    0.2623244  46.90   0.00317203    2.368    0.578
        66 -13.6710     45.2231    111.6808   1.1912046839e+02   4.7315258663e+01    0.5105988    0.2795794 -88.35  0.002670718    1.978    0.494
        67 -11.4618     81.4653    114.4914   1.1023987064e+02   4.2181925433e+01    0.1295046    0.1153818 -83.54  5.30981e-05    1.002    0.002
        68 -12.3480    229.8338    160.0976   8.8224216400e+01   6.5428794314e+00    0.1849836    0.1770342  24.79  0.001244512    1.276    0.216
        69 -13.8245    103.5292    107.5435   1.0323103116e+02   4.0173507030e+01     0.700861    0.1985385  50.21   0.00211512    4.562    0.781
        70 -11.5233     85.5372    108.5177   1.0805893492e+02   4.2862400991e+01    0.1309439    0.1191418 -76.29 8.101444e-05    1.026    0.025
        71 -13.4815    174.9372    105.6750   8.6269736922e+01   2.6035405666e+01    0.3600444    0.2788844 -61.87  0.001152016    1.586    0.370
        72 -13.8616    190.3851    157.0410   9.4560002192e+01   1.4473539220e+01    0.4200553    0.2411324 -24.88  0.002017003    2.187    0.543
        73 -13.0762    135.9899    210.0335   1.1266712858e+02   1.6153769426e+01     0.241358    0.2197654 -41.07 0.0009964582    1.459    0.314
        74 -12.8807     20.2179     95.5420   1.2364404241e+02   5.3099060771e+01    0.5437673    0.2875098 -64.82  0.003243855    1.513    0.339
        75 -15.1742    111.5893    156.1537   1.1018613937e+02   2.9049185422e+01     1.578498    0.8096602  74.25  0.005687832    4.301    0.768
        76 -12.7768     50.8944     95.6886   1.1505437494e+02   5.0202755543e+01    0.3822199    0.1207871 -54.15  0.001585204    2.706    0.630
        77 -12.5159     56.9715     95.2369   1.1325436414e+02   4.9605746210e+01    0.2262558    0.1606343 -65.94  0.000623457    1.218    0.179
        78 -11.8987    176.6067     91.7500   8.2296395273e+01   2.8031582766e+01    0.2125717    0.1375635 -44.05 0.0009467467    1.616    0.381
        79 -12.9867     95.8685     91.2961   1.0152171758e+02   4.4902414812e+01    0.3572645    0.1892622 -57.63  0.001396097    1.896    0.473
        80 -15.3812    117.2166    152.6886   1.0845344872e+02   2.8774498887e+01     1.519542    0.8191143  73.45  0.005978342    3.472    0.712
        81 -13.4825    118.3236    142.6813   1.0654668550e+02   3.0499222115e+01    0.3641433    0.3516648 -31.55  0.001295462    1.236    0.191
        82 -14.3995    106.0218     84.9528   9.7149315462e+01   4.4450220714e+01    0.7418427    0.5267921 -86.69  0.003479232    2.035    0.509
        83 -14.4969    104.1678     75.1062   9.4943882016e+01   4.6806768573e+01    0.6175619    0.5196294  54.90  0.003436156    1.280    0.219
        84 -14.4952     95.3464     74.1140   9.7165926921e+01   4.8590659171e+01    0.6926293    0.5193859 -70.80   0.00360185    1.558    0.358
        85 -13.6090     50.4157     83.6795   1.1293455900e+02   5.2900006392e+01    0.5470241    0.4413131 -39.44  0.002808009    1.374    0.272
        86 -14.3453    104.8364     69.2235   9.3025811208e+01   4.7864579615e+01     0.658416    0.5449347  79.60  0.003159026    1.489    0.329
        87 -13.4423    116.6228    137.8336   1.0607042997e+02   3.1737763304e+01    0.5092073    0.3740984   2.47  0.002497273    2.430    0.588
        88 -13.3545    108.9904    142.2717   1.0854187657e+02   3.2152606372e+01    0.4594292    0.3203861 -51.71  0.001760624    1.527    0.345
        89 -13.2259     99.2132     69.5431   9.4724860850e+01   4.8838352437e+01     0.450682    0.4222666 -66.25   0.00188303    1.096    0.087
        90 -13.2383     20.2943     68.3096   1.1952494541e+02   5.9033667306e+01      1.24758    0.5567558 -37.79  0.006012049    2.936    0.659
        91 -12.7321    177.1461     74.3662   7.7295291337e+01   3.0792704778e+01    0.2738521    0.2104462 -16.37 0.0007342201    1.393    0.282
        92 -14.1868    178.3944     65.0701   7.4283130308e+01   3.1966064893e+01    0.7310086    0.5352155  54.15  0.003479759    1.368    0.269
        93 -14.4467    104.3154    141.9590   1.0953299740e+02   3.2976176986e+01    0.5787968    0.5505611  71.83  0.002393019    1.124    0.110
        94 -12.8394     88.9927     65.1232   9.6420652937e+01   5.1520305483e+01    0.4076294    0.2679729 -83.62  0.001717347    2.787    0.641
        95 -12.9671     69.9773     62.4888   1.0161392410e+02   5.5019311213e+01    0.2523284    0.2016262  25.05  0.001194287    1.472    0.321
        96 -14.3738     80.7894     46.1393   9.2814922088e+01   5.6639177070e+01    0.9996061    0.5480273  57.64  0.004284578    2.785    0.641
        97 -13.5147     71.6039     47.7119   9.6441771948e+01   5.7785363538e+01    0.3466308    0.2662486  12.76  0.001958471    1.587    0.370
        98 -13.0825     49.0018     47.9932   1.0456402756e+02   6.0727992269e+01    0.6342177    0.3385214  23.69   0.00319232    2.463    0.594
        99 -13.3188     53.8298     43.5452   1.0137053070e+02   6.1055276321e+01    0.3769229    0.3701265  76.05  0.002589265    1.226    0.184
       100 -14.1321     65.0160     41.1711   9.6471134078e+01   6.0027304843e+01    0.7067103    0.5201327   8.01  0.003963666    1.710    0.415
       101 -12.4681     18.1308    154.0922   1.2961736652e+02   4.1107684624e+01    0.3833764    0.1253863 -78.27  0.001953755    2.589    0.614
