#   1 NUMBER                 Running object number                                     
#   2 MAG_AUTO               Kron-like elliptical aperture magnitude                    [mag]
#   3 X_IMAGE                Object position along x                                    [pixel]
#   4 Y_IMAGE                Object position along y                                    [pixel]
#   5 X_WORLD                Barycenter position along world x axis                     [deg]
#   6 Y_WORLD                Barycenter position along world y axis                     [deg]
#   7 A_WORLD                Profile RMS along major axis (world units)                 [deg]
#   8 B_WORLD                Profile RMS along minor axis (world units)                 [deg]
#   9 THETA_WORLD            Position angle (CCW/world-x)                               [deg]
#  10 FWHM_WORLD             FWHM assuming a gaussian core                              [deg]
#  11 ELONGATION             A_IMAGE/B_IMAGE                                           
#  12 ELLIPTICITY            1 - B_IMAGE/A_IMAGE                                       
         1 -15.6501    244.4518    100.9945   2.0437449142e+01   1.3272747829e+01     3.733902     1.756433 -43.00    0.0191917    1.919    0.479
         2 -10.6969     41.0807     13.8821   3.8719190146e+01   7.2481567922e+01    0.2211676    0.1924978  16.89 0.0002673933    1.083    0.077
         3  -9.2249     67.6726      1.3210   1.8226154619e+01   6.8199598196e+01    0.1866517    0.1104928  55.17 0.0008202276    1.499    0.333
         4  -9.5375    107.2630    247.2519   7.0725988128e+01   1.1151415149e+01    0.1475485   0.09831437 -86.56 0.0008996595    2.457    0.593
         5 -10.2234     53.4159    249.5601   8.2006753683e+01   1.6892008396e+01    0.1967268    0.1437984  42.76 0.0006105615    1.021    0.021
         6  -9.8390     20.5638    249.2682   8.8683495406e+01   2.0181837000e+01    0.1819512   0.09239904  83.11  0.001140905    2.120    0.528
         7 -10.1214     13.4308    250.3527   9.0134535821e+01   2.0640059578e+01    0.2187197   0.09360806  33.98  0.001098838    1.645    0.392
         8 -10.0430     73.7289    244.0720   7.7431284210e+01   1.5579259185e+01    0.2103642    0.1382452  26.87 0.0005240909    1.300    0.231
         9 -10.9545    167.0331    242.0166   5.8397569268e+01   4.6604126294e+00    0.1778806    0.1326723  16.69 0.0006765469    1.002    0.002
        10  -9.8403      3.9677    249.2004   9.1972322373e+01   2.1651826897e+01    0.1769627   0.09377682  48.35 0.0007642735    1.285    0.222
        11  -9.4933     16.5884    237.7386   8.9146124748e+01   2.2557369222e+01    0.1474006   0.08348676  69.31 0.0009472066    1.610    0.379
        12 -10.9100     87.1664    227.3993   7.3185401208e+01   1.6832051946e+01    0.3640927    0.1171368  30.67  0.001566468    2.464    0.594
        13 -11.3550     91.1699    230.6003   7.2596580445e+01   1.5785638511e+01    0.2489095    0.2158207  51.19  0.001780536    1.183    0.155
        14 -11.0509    162.2266    225.3810   5.7165273685e+01   7.4938136139e+00    0.3365906    0.2177915  15.20  0.002100479    1.376    0.273
        15 -11.0193    126.2860    220.9467   6.3949545527e+01   1.2889508084e+01     0.269921    0.2041501  45.36 0.0007850452    1.344    0.256
        16 -10.5502    114.8147    221.2510   6.6465157826e+01   1.4359346032e+01    0.2262838    0.1666027 -35.90  0.001418221    1.650    0.394
        17  -9.7776     99.8715    217.1492   6.9331462908e+01   1.7036672223e+01    0.2240845      0.17039  34.22 0.0006856759    1.067    0.062
        18  -9.9644     74.9048    219.3313   7.5235517071e+01   1.9791397178e+01    0.2119319    0.1173589  42.16  0.001147457    1.444    0.308
        19  -9.5024    143.5840    216.7698   5.9765222726e+01   1.1235344633e+01    0.1412883    0.1218771 -60.64 0.0007075973    1.584    0.369
        20 -10.1561    170.4850    215.2464   5.4147691671e+01   7.8608217338e+00    0.2265009    0.1742319  14.22 0.0007635539    1.049    0.046
        21 -11.0335     98.6032    225.4196   7.0470114713e+01   1.5746938734e+01       0.3403    0.2082997  26.91   0.00128713    1.392    0.282
        22  -9.6493    186.3352    214.6589   5.1069419072e+01   5.8817258306e+00    0.1042291   0.08991405  49.25 0.0005019933    1.758    0.431
        23  -9.1477    131.3125    214.3256   6.2042171008e+01   1.3299628635e+01    0.1246311    0.0878026  -1.22 0.0006170011    1.662    0.398
        24 -10.2257     76.7861    212.0631   7.4150705804e+01   2.0937933973e+01    0.2225645    0.1742586 -38.72  0.001381243    1.642    0.391
        25 -11.0468     95.6314    217.8076   7.0360217054e+01   1.7469745349e+01     0.377678    0.2821581  49.48  0.001400158    1.264    0.209
        26 -10.3631    186.0251    204.0693   4.9505596707e+01   7.3837620073e+00     0.166889    0.1500135  54.73  0.001140817    1.720    0.419
        27 -10.6644    164.9189    202.4496   5.3338194569e+01   1.0522496656e+01    0.4070505    0.2967862 -70.73   0.00220825    2.641    0.621
        28 -11.7050    166.5677    197.8090   5.2284500087e+01   1.1009596322e+01    0.3913379    0.2279974 -43.78  0.002146858    1.926    0.481
        29 -10.6138    162.8271    194.1209   5.2456992086e+01   1.2135152659e+01    0.3157354    0.2667615  79.40  0.001682953    1.954    0.488
        30 -11.7053    172.6813    196.0144   5.0780984876e+01   1.0414433912e+01    0.3486007    0.2513345 -34.54  0.001336425    1.461    0.316
        31 -11.5460    177.8024    196.8062   4.9908844730e+01   9.5688762205e+00    0.3111396    0.2339144   6.90  0.001323176    1.192    0.161
        32  -9.2211    148.5146    198.0118   5.6057039778e+01   1.3587350536e+01     0.157209    0.1168891 -84.21 0.0008102284    2.535    0.605
        33 -10.7758    125.3823    197.0509   6.1026216019e+01   1.7141512203e+01    0.3558286    0.2218729  35.43  0.001804371    1.379    0.275
        34  -9.6060    112.9603    197.9631   6.4025118713e+01   1.8772880818e+01    0.3472699    0.1834351  58.95  0.001453684    2.950    0.661
        35  -9.2820    112.8819    194.1742   6.3535753715e+01   1.9504492018e+01    0.1916035    0.1522698  31.87 0.0004694473    1.086    0.079
        36  -9.4311    105.1995    197.5662   6.5808164142e+01   1.9955443662e+01     0.190341    0.1572835 -46.48 0.0006076549    1.401    0.286
        37 -11.5864     14.9353    194.6767   8.8022074390e+01   3.1221386035e+01    0.6426929    0.3636705 -15.81  0.002949996    3.448    0.710
        38  -9.8000     66.5016    194.5252   7.5008488223e+01   2.5765870678e+01    0.3125129     0.147979  58.66  0.001368567    2.397    0.583
        39  -9.6878    179.5992    190.7662   4.8570172223e+01   1.0226061287e+01    0.1579287    0.1159696 -44.91 0.0006125247    1.643    0.391
        40  -9.8896    180.9861    199.7734   4.9774266865e+01   8.6857606037e+00    0.1575289    0.1350387  29.62 0.0003171308    1.302    0.232
        41 -10.5875    205.2236    189.1153   4.3588192805e+01   6.8859278729e+00    0.2094738    0.1654762 -41.98  0.001379011    1.630    0.387
        42 -11.5088     97.9234    188.0218   6.6351499674e+01   2.2893044037e+01    0.4663171    0.2341133  46.15 0.0008073479    1.889    0.471
        43 -11.4025     94.6709    182.8262   6.6486645810e+01   2.4442124033e+01    0.4361151    0.3580499  73.60  0.002161173    1.360    0.265
        44 -12.3033     12.0181    180.1046   8.8163018469e+01   3.4707024267e+01    0.5094784    0.3617282 -51.67  0.002413421    1.773    0.436
        45 -10.9012     11.5875    187.4551   8.8573471914e+01   3.3089679716e+01     0.210784    0.1866994  53.95 0.0006202793    1.141    0.124
        46  -9.6498    165.4046    186.2488   5.0637690177e+01   1.3031300679e+01    0.1630977    0.1227766 -50.99 0.0008734349    1.664    0.399
        47 -10.0993    109.6811    185.0200   6.3033060820e+01   2.1773370941e+01    0.3383563    0.2170633  27.76  0.001737425    1.455    0.313
        48 -10.9174    174.2431    183.1180   4.8320729291e+01   1.2207207094e+01    0.3378183    0.2355607 -55.34  0.001856082    2.029    0.507
        49  -9.6823    120.2160    184.2361   6.0365707690e+01   2.0331332642e+01    0.1954121    0.1134507 -67.29 0.0008840853    2.453    0.592
        50  -9.7483     44.8803    181.9421   7.9521580112e+01   3.1092430224e+01    0.2351755    0.1695356  86.83  0.001127153    1.403    0.287
        51 -10.3719     20.0769    181.0424   8.6081151510e+01   3.3795882552e+01    0.3006348    0.1753502 -80.74  0.001202956    1.708    0.414
        52 -10.1205    147.8079    179.7301   5.3283352911e+01   1.6868947012e+01    0.2318502    0.1833186 -88.99  0.001235515    2.057    0.514
        53 -10.5373    148.2183    174.9839   5.2378098346e+01   1.7662693719e+01     0.281908    0.1601715 -20.72  0.001193456    2.647    0.622
        54 -11.6222      4.8753    177.1335   8.9928692846e+01   3.5954687020e+01    0.3271872    0.1888556  81.91  0.001117338    1.566    0.361
        55  -9.7397    138.5877    188.3675   5.6743234264e+01   1.6743964102e+01     0.235523    0.1320875 -54.50  0.001145464    2.176    0.541
        56 -10.4392     77.6371    175.6659   7.0031400820e+01   2.8420147927e+01    0.2926812    0.1644646  60.07 0.0009899932    2.050    0.512
        57  -9.8588    183.4167    174.7619   4.5049253502e+01   1.2143600448e+01    0.2330852    0.1181036 -43.51    0.0011305    2.121    0.529
        58  -9.7134    105.6618    174.8549   6.2547783098e+01   2.4476903241e+01    0.2785883    0.1717262  84.83  0.001138265    2.933    0.659
        59  -9.2652     24.4718    174.5282   8.4530670838e+01   3.4898568273e+01    0.1333977    0.1064967  58.41 0.0005572314    1.043    0.042
        60 -10.2326      1.4936    178.4353   9.0855868011e+01   3.5911320456e+01    0.1879805    0.1526597 -87.65 0.0006636051    1.255    0.203
        61 -10.9573    206.6046    168.5447   3.9684281704e+01   9.6075014434e+00    0.3396317    0.1072991 -37.02  0.001390131    2.966    0.663
        62  -9.8768    138.4379    179.2987   5.5317045627e+01   1.8430416469e+01    0.2986946    0.2237198  84.39  0.001501715    2.233    0.552
        63  -9.4464     54.8134    169.2084   7.5603126984e+01   3.2891290591e+01    0.2555106    0.1080043  59.12 0.0009534872    2.852    0.649
        64 -10.5418    177.2521    169.4120   4.5268584605e+01   1.3966735874e+01    0.3733183     0.237989 -42.44  0.002006262    1.657    0.396
        65  -9.0567    199.6494    167.1471   4.0640128050e+01   1.0849282477e+01    0.1758588    0.1027491 -24.91 0.0004509978    1.674    0.403
        66 -10.5311    139.0628    164.7363   5.2641200745e+01   2.1105597692e+01    0.3932104    0.2744816 -76.71  0.001631864    2.366    0.577
        67 -10.2501     97.8137    164.6143   6.3031129316e+01   2.7918635118e+01    0.3455989    0.2000591  73.73  0.001308016    3.076    0.675
        68 -10.1648     80.3260    164.2342   6.7783106358e+01   3.0648410565e+01    0.3779514    0.1982886  78.13  0.001324922    3.550    0.718
        69 -11.2345    213.8656    163.5665   3.7526359998e+01   9.2627576849e+00    0.2371249    0.1472889 -45.28 0.0009338512    1.925    0.480
        70 -10.9102    121.6136    168.1644   5.7455117211e+01   2.3327958738e+01    0.5765725    0.3070397 -60.24  0.002497127    2.329    0.571
        71  -9.9660    177.4242    160.1962   4.3483126255e+01   1.5473562825e+01    0.2936897    0.1202767 -48.71   0.00114084    3.062    0.673
        72 -15.0612    247.7912    142.1264   2.8361585618e+01   7.3514881611e+00     3.446627    0.7606122 -38.30   0.01284496    3.929    0.745
        73 -12.1507    161.6562    242.8539   5.9508962980e+01   5.1944372577e+00    0.3269351    0.2911417  51.76  0.002504329    1.660    0.398
        74 -10.8894     68.2282    153.4960   6.9785537325e+01   3.4930222051e+01    0.4813684    0.2891536  70.14  0.001946305    2.037    0.509
        75 -10.7061     56.0345    145.3004   7.2416239771e+01   3.8604458278e+01    0.5349076    0.2477904  61.46  0.001960825    2.800    0.643
        76 -11.1194    148.7309    142.6288   4.6035727570e+01   2.3729097001e+01    0.7973867    0.3371629 -50.03  0.003011948    2.640    0.621
        77 -10.2965    106.9571    144.6348   5.7056471776e+01   3.0922155938e+01    0.5072026    0.3104567  78.21  0.001846605    3.126    0.680
        78  -9.4393    165.5007    143.5485   4.2540351048e+01   2.0468160943e+01    0.2451654    0.1292613 -51.88   0.00102864    2.307    0.567
        79 -10.5531    124.7730    141.6330   5.1678809320e+01   2.8385323776e+01    0.6639177     0.329241 -64.24  0.002308462    3.238    0.691
        80 -10.1496     87.8813    143.7098   6.2365924930e+01   3.4355329733e+01    0.2882883     0.188963  80.25  0.001007917    2.114    0.527
        81  -9.8195     38.5090    142.4883   7.7692033927e+01   4.1395737349e+01    0.1410983    0.1263756  69.42 0.0008105031    1.006    0.006
        82  -9.7479    181.9547    140.7718   3.8640770961e+01   1.7997711277e+01    0.2475056    0.1670965 -48.47  0.001266016    1.645    0.392
        83 -10.4930     68.7986    138.7420   6.7398784126e+01   3.8519798221e+01    0.4291748    0.2073822 -87.63  0.001378935    3.698    0.730
        84 -11.0234    188.5034    122.9299   3.3486509292e+01   1.9829515402e+01    0.3475872    0.1721935 -38.78   0.00154971    1.866    0.464
        85 -11.6451    188.0937    135.0372   3.6253354449e+01   1.7872586906e+01    0.6602573    0.2295585 -44.79  0.002413028    3.072    0.674
        86  -9.7554     81.4829    138.9730   6.3463870821e+01   3.6534637394e+01    0.2248155    0.1473216 -64.91  0.001029577    1.592    0.372
        87 -10.6588     22.9937    136.9019   8.2250169932e+01   4.4360429980e+01    0.6825194    0.2321986  81.27  0.002100362    4.236    0.764
        88 -11.7386    197.7415    136.4814   3.4835364283e+01   1.5939174629e+01    0.3742577     0.257996 -29.40  0.001811521    1.323    0.244
        89 -11.3467    203.1729    136.2921   3.3863214677e+01   1.5039423713e+01    0.2483898    0.2087816  36.10 0.0006814144    1.298    0.230
        90 -10.0255    172.3360    137.2694   3.9781044981e+01   2.0352480854e+01    0.3480136    0.1141073 -48.42  0.001101742    3.890    0.743
        91  -9.5921    162.5885    135.0505   4.1318516901e+01   2.2580854530e+01    0.3198716    0.1339326 -41.76  0.001242558    2.349    0.574
        92 -11.1915     41.3288    131.1996   7.5418742054e+01   4.4026641028e+01    0.5362757    0.2956356 -82.47  0.002356598    1.877    0.467
        93  -9.8717    179.6543    132.9373   3.7384251231e+01   1.9765873036e+01    0.3370115    0.1568437 -44.64  0.001415382    2.184    0.542
        94 -10.8955    132.2558    130.3387   4.7321059279e+01   2.9388488473e+01    0.6957507    0.3692166 -60.95   0.00260583    2.634    0.620
        95 -11.2923    111.7366    130.2249   5.2773243003e+01   3.3356539106e+01    0.6273091    0.3982187 -51.37  0.002808812    1.617    0.381
        96 -10.9152    117.2550    123.2945   4.9674768415e+01   3.3873199996e+01    0.7428701    0.3594925 -51.67  0.002860149    2.141    0.533
        97 -10.8861     83.4718    131.4705   6.1462848739e+01   3.8070311882e+01    0.4826659    0.3076706  80.78  0.001663798    2.262    0.558
        98  -9.7998    142.9270    130.4549   4.4725233192e+01   2.7275479813e+01    0.3505168    0.1928516 -53.34  0.001367199    2.061    0.515
        99 -12.0304    189.1796    148.7396   3.8938903505e+01   1.5413703665e+01    0.6269542    0.2503479 -44.23  0.002565205    2.639    0.621
       100 -10.2533    168.6386    128.4682   3.8572836075e+01   2.2642731468e+01    0.4266759    0.1613593 -44.46  0.001568182    2.658    0.624
       101 -11.2043     98.7271    127.1359   5.5884794118e+01   3.6485857319e+01    0.8626677    0.5871825 -57.25  0.003971277    1.515    0.340
       102 -10.5888     98.4011    120.4087   5.4500411884e+01   3.8159409346e+01    0.5814536    0.4038407   1.63  0.002367446    2.298    0.565
       103 -10.0598     72.9777    128.8160   6.4337984127e+01   4.0413438175e+01    0.3521346    0.2077578 -87.12  0.001383151    2.341    0.573
       104 -10.0602     13.0645    129.2016   8.4997813821e+01   4.7170412227e+01    0.4032137    0.1380398  65.03  0.001383789    3.392    0.705
       105 -10.2028    192.7008    128.7134   3.4034995761e+01   1.8093315051e+01    0.2593068    0.1513778 -27.34  0.001244083    1.711    0.416
       106 -10.3282    152.7087    127.3226   4.1737041701e+01   2.5974319001e+01    0.5478151    0.1833018 -47.39    0.0017972    3.199    0.687
       107  -9.4853    128.3893    158.2246   5.4011521914e+01   2.4233714569e+01    0.1966809    0.1384932 -63.34 0.0009542568    1.737    0.424
       108 -10.7169     59.2441    123.5658   6.8050710945e+01   4.3788033957e+01    0.6292076     0.315269  77.70  0.002016994    3.645    0.726
       109 -11.2412    180.6028    121.9072   3.4707563514e+01   2.1506627833e+01    0.5891153    0.2722595 -29.86   0.00233944    2.401    0.583
       110 -10.2817     29.3595    123.6762   7.8721969130e+01   4.7264545219e+01    0.3830979    0.1390509  46.18  0.001422132    2.657    0.624
       111 -10.6901    105.1984    123.6065   5.3184993181e+01   3.6125041564e+01    0.2839865    0.2364213  25.02 0.0008150091    1.285    0.222
       112 -10.9867     43.4701    121.9503   7.3397071429e+01   4.6231539014e+01    0.6930616    0.3307646  79.34  0.002411445    3.111    0.679
       113  -9.6220     99.4922    160.4617   6.1913210508e+01   2.8581691978e+01    0.1436963    0.1322753  41.97 3.611876e-06    1.003    0.003
       114  -9.7326    172.5478    119.8853   3.5792167189e+01   2.3437476958e+01    0.3582452    0.1304438 -41.80  0.001299279    2.622    0.619
       115 -10.1092    158.4219    119.9580   3.8737376656e+01   2.6256324576e+01    0.4251216    0.2158268 -44.57  0.001763062    1.951    0.488
       116 -10.9496    141.4666    117.5592   4.2030694639e+01   3.0209420410e+01    0.8242201    0.2622439 -48.93  0.002516068    3.490    0.713
       117 -10.3671    130.7158    117.4923   4.4691667241e+01   3.2441998644e+01    0.5374295    0.2867216 -58.19   0.00203652    2.362    0.577
       118  -9.4458    209.3141    118.3129   2.8958532781e+01   1.6765776512e+01    0.1326215   0.09576588   0.73 0.0004099453    1.637    0.389
       119  -9.6273     11.7463    118.6082   8.4648999600e+01   5.0059774796e+01    0.1847767    0.1171636  35.73 0.0009423731    1.555    0.357
       120 -10.0933      3.0315    116.9466   8.7730028843e+01   5.1041412552e+01    0.4674692    0.1454453  69.74  0.001545222    3.715    0.731
       121 -11.3299    186.0321    114.6075   3.2000491225e+01   2.1707493234e+01    0.3841472     0.186651 -39.02  0.001582189    1.895    0.472
       122 -11.5252    108.7511    112.1956   4.9432434449e+01   3.8099479473e+01    0.9018493    0.3537279 -54.86  0.002964682    2.856    0.650
       123 -10.6730    192.8103    113.9297   3.0653350583e+01   2.0510311302e+01    0.3393253    0.1828465 -36.56  0.001413325    1.683    0.406
       124 -11.3224     26.1487    123.7026   7.9882288900e+01   4.7555910232e+01    0.6396344    0.2068011 -58.36  0.001117695    2.844    0.648
       125 -10.7978     92.3299    111.5729   5.4346959871e+01   4.1432494921e+01    0.6629205    0.3313184 -66.69  0.002304067    2.717    0.632
       126 -10.8608     79.3043    112.5990   5.8914649932e+01   4.3510695514e+01    0.6126727    0.3593864  82.23   0.00209274    3.142    0.682
       127 -11.0406     14.5855    111.4017   8.2942835580e+01   5.1786118103e+01    0.5959914    0.1913142  67.87  0.001700102    4.867    0.795
       128 -11.6083     16.8340    105.0590   8.1399780473e+01   5.3330424705e+01    0.5518525    0.3415596 -41.62  0.002669603    1.812    0.448
       129 -10.2353    159.3088    110.4057   3.6201200450e+01   2.7892361704e+01    0.4230558    0.1917854 -41.45  0.001648535    2.125    0.529
       130 -10.6244    121.9094    110.7682   4.5340564196e+01   3.5728917983e+01    0.5185893    0.2273514 -45.85  0.001879818    2.291    0.564
       131  -9.8250     22.6274    110.7552   7.9748134691e+01   5.1336057239e+01    0.2093844    0.1213593  88.11 0.0008025651    1.721    0.419
       132 -10.0565    133.3456    108.4293   4.1731114091e+01   3.3815677092e+01    0.4287255    0.2435386 -51.25  0.001757527    1.853    0.460
       133 -10.8780     66.0355    108.9955   6.2815424065e+01   4.6602952463e+01    0.5409462    0.2590049 -70.91   0.00195321    2.503    0.601
       134 -11.5439    189.5154    106.9910   2.9571636211e+01   2.2299905438e+01    0.5042701    0.1883719 -43.13  0.001904035    2.565    0.610
       135 -10.2561    182.7636    108.3441   3.1087130535e+01   2.3422244919e+01    0.2788765    0.1538112 -44.82  0.001250031    1.774    0.436
       136  -9.9783    105.2357    157.3270   5.9834053121e+01   2.8349396687e+01    0.2924807    0.2253986  75.66  0.001172023    1.595    0.373
       137 -10.3020    166.6947    102.6079   3.2696128870e+01   2.7772585525e+01    0.4190981    0.1607418 -40.75   0.00152085    2.453    0.592
       138 -10.7990    150.0350    101.1190   3.5821822845e+01   3.1668654355e+01    0.6839322    0.1999178 -44.02  0.002079103    3.362    0.703
       139 -11.2773     22.5693    101.3399   7.8595883932e+01   5.3886176686e+01    0.6758109    0.2793244  64.05  0.002339112    3.262    0.693
       140 -10.7828    128.4744    100.1133   4.0763145021e+01   3.6626134496e+01    0.5881425     0.285468 -42.22  0.002233168    2.068    0.517
       141 -10.2446    174.6272    110.3418   3.3088906193e+01   2.4725634245e+01    0.4310389    0.1525358 -41.70  0.001539469    2.662    0.624
       142 -10.1932    175.5014    100.5165   3.0468047624e+01   2.6273124808e+01    0.3036621    0.1344086 -37.00  0.001197247    2.118    0.528
       143 -10.0004    159.6766     99.3540   3.3274278237e+01   2.9888408604e+01    0.4315424     0.128014 -40.83  0.001353488    3.179    0.685
       144 -11.0556    108.5073     98.1939   4.5821469796e+01   4.1366986193e+01    0.6353413    0.4530867  89.73  0.002196168    2.055    0.513
       145  -9.7900    107.7527     92.0017   4.4288727045e+01   4.2925995721e+01    0.3344094    0.2208133  21.47   0.00131905    2.189    0.543
       146  -9.9576     81.7876     98.7210   5.4692594666e+01   4.6554698587e+01    0.4427125    0.2228906 -73.18  0.001360329    3.564    0.719
       147 -10.6194     94.7464     96.3753   4.9639392249e+01   4.4630947304e+01    0.4043351    0.2281303 -60.08   0.00156782    1.995    0.499
       148 -10.9617     63.7846     95.5386   6.0586684646e+01   5.0450747366e+01    0.5562202    0.3301285  80.23  0.002001596    2.829    0.646
       149  -9.7123    164.7604     92.8749   3.0519214988e+01   2.9950805968e+01    0.3344874    0.1705611 -34.17  0.001359476    1.951    0.487
       150 -10.3680    139.7138    102.3956   3.8562151656e+01   3.3683326755e+01    0.6055164    0.2614124 -42.84  0.002210338    2.279    0.561
       151 -10.8295    176.9093     91.8885   2.7984120358e+01   2.7459060842e+01    0.3171223    0.1816675 -32.60   0.00141511    1.691    0.409
       152 -10.3287    138.6835     90.5520   3.5524144802e+01   3.6290966784e+01    0.5646977    0.1908142 -43.00  0.001812179    2.882    0.653
       153  -9.9438     43.7547     92.3967   6.8077512809e+01   5.4115089276e+01    0.2017013    0.1456676   9.90 0.0009530956    1.659    0.397
       154  -9.9304    167.6539    156.9180   4.4822463444e+01   1.7681883686e+01    0.2568319    0.1721752 -55.17  0.001189178    1.913    0.477
       155  -9.4540    157.6901     90.5246   3.1299907389e+01   3.1960504779e+01    0.2813192    0.1318609 -38.29  0.001086151    2.048    0.512
       156 -10.9404    124.7153     88.1051   3.8326820495e+01   3.9986737571e+01     0.825937    0.3719099 -35.44  0.002856856    2.570    0.611
       157 -10.5768     34.5836     88.7034   7.1335605848e+01   5.6163138176e+01    0.6332044    0.2514869 -78.44  0.002117366    3.127    0.680
       158 -11.0753     45.4276    101.8190   6.9277031156e+01   5.1387727098e+01    0.8073288    0.3553103  64.19  0.002378508    4.285    0.767
       159 -10.5656     86.3344     86.2412   4.9600505093e+01   4.8720550117e+01    0.4718136    0.3056784 -81.27  0.001664673    2.443    0.591
       160  -9.1823    163.7760     86.0225   2.8841568188e+01   3.1390136577e+01    0.2050263    0.1164455 -37.72 0.0008763095    1.668    0.401
       161 -10.3393     48.3745     84.1320   6.4173337217e+01   5.5698214671e+01    0.3791161    0.2335172  74.42   0.00152343    2.316    0.568
       162  -9.3402    116.5440     83.4879   3.9164112216e+01   4.2820655703e+01     0.265124    0.1503926 -32.29 0.0006996095    2.107    0.525
       163 -10.7762    104.3632     81.1868   4.2047795293e+01   4.6064627891e+01    0.7718812    0.2816939 -47.66  0.002491271    2.782    0.641
       164  -9.5701    157.6213    155.0350   4.6586562017e+01   1.9757128703e+01    0.3120775    0.1302541 -44.18  0.001251113    2.452    0.592
       165 -10.1093    158.4962     81.5555   2.8617928812e+01   3.3392438712e+01    0.3217842    0.1427085 -36.69  0.001212244    2.170    0.539
       166 -10.3458    140.9595     81.0878   3.2216508946e+01   3.7594637513e+01    0.4102117    0.2259282 -33.96  0.001649138    1.905    0.475
       167 -10.4605     24.3570     80.0062   7.4417429712e+01   5.9490726032e+01    0.4195929     0.221523  81.76  0.001677208    2.446    0.591
       168 -10.4787    150.4092     78.9258   2.9502197895e+01   3.5759208643e+01    0.4350713    0.1429827 -37.33  0.001394624    2.950    0.661
       169  -9.9559      8.5117     80.5133   8.2176242795e+01   6.0480047541e+01    0.1371976    0.1222697 -83.85 0.0008102916    1.026    0.025
       170 -10.0880     49.3146    154.5956   7.5636101268e+01   3.7101247022e+01    0.3252542     0.175656  69.46  0.001143893    2.138    0.532
       171  -9.5765    119.2916     77.9358   3.6661455795e+01   4.3332610572e+01    0.4115649    0.1403605 -33.77  0.001092015    4.300    0.767
       172 -10.5774    180.4381     77.2640   2.3483968440e+01   2.9101350386e+01     0.368474    0.1255475 -36.27  0.001308728    2.616    0.618
       173  -9.7769    174.5376     77.0005   2.4390740442e+01   3.0475030735e+01    0.2329902     0.134354 -35.66  0.001038884    1.616    0.381
       174 -10.8334    133.4424    152.6589   5.1710166100e+01   2.4493795231e+01    0.4972396    0.3442919  88.15  0.002102548    2.651    0.623
       175  -9.4190     68.6177    169.7875   7.1784717651e+01   3.0990240190e+01    0.1924898    0.1277394 -88.84 0.0009486952    1.725    0.420
       176  -9.2984     95.5018    154.4476   6.2016931398e+01   3.0591452541e+01    0.1441718    0.1357056  34.10 1.086594e-05    1.053    0.051
       177 -10.0135     81.6923    154.3382   6.5938809496e+01   3.2773915643e+01    0.2392173    0.1550335  62.47 0.0009872521    1.754    0.430
       178  -9.5833    157.4899     75.0182   2.6921755159e+01   3.4772969744e+01     0.236761    0.1430269 -35.95  0.001035684    1.601    0.375
       179 -10.1463    140.5172     73.8293   3.0103514460e+01   3.9053176391e+01    0.3829998    0.1433287 -39.88  0.001299301    2.561    0.610
       180 -10.1084    127.4941     74.4796   3.3404707710e+01   4.2070457185e+01    0.4354012    0.2147048 -46.34  0.001649869    2.047    0.511
       181  -9.8976    128.6600     69.6560   3.1554516856e+01   4.2706998331e+01    0.3439996    0.2366282   4.30  0.001338895    2.499    0.600
       182 -10.7475     82.3667     72.3119   4.6621265482e+01   5.2763823210e+01    0.4320703    0.2837934 -71.17  0.001463695    2.080    0.519
       183 -10.1684     10.0112     74.1192   8.0563658712e+01   6.2102944440e+01    0.2029918    0.1836512 -74.03  0.000368154    1.012    0.012
       184 -10.2561    182.9889    150.1392   4.0393781876e+01   1.6230818130e+01    0.3973654     0.203122 -48.32  0.001771515    2.291    0.564
       185 -10.5032     26.3134     72.2475   7.1864725038e+01   6.1374228359e+01      0.49675    0.1865502 -30.74  0.001307526    5.865    0.829
       186  -9.6628     74.4099     79.6534   5.2031867944e+01   5.2600705800e+01    0.3030889    0.1455845 -66.93 0.0009546226    3.253    0.693
       187  -9.6680    115.7320     71.1436   3.5425624761e+01   4.5539452871e+01    0.3847165    0.1384211 -38.64  0.001219561    2.893    0.654
       188 -12.0688    205.4442    153.0621   3.6911683903e+01   1.2083601617e+01      0.39671     0.260379 -22.53  0.001967714    1.424    0.298
       189  -9.2718     98.3379    150.6583   6.0570322575e+01   3.1003354761e+01    0.1566738    0.1086794  66.56  0.000705003    1.767    0.434
       190 -10.1726    105.4506     70.7427   3.8282004167e+01   4.8038261484e+01    0.3068703    0.1486262 -47.94  0.001130168    2.121    0.529
       191 -10.2676     94.7707     68.7911   4.1019837928e+01   5.0879562626e+01    0.7946458    0.2037091 -48.49  0.002075572    4.347    0.770
       192 -10.9953    199.9756    147.7564   3.6792472299e+01   1.3777230462e+01    0.3531486    0.1682563 -40.62  0.001654872    2.027    0.507
       193 -10.2032     49.4529     76.9417   6.1808425113e+01   5.7409527167e+01    0.2590595    0.2000633 -13.27  0.001250753    1.600    0.375
       194 -10.2393     63.0000     69.4883   5.3480653127e+01   5.7113274478e+01    0.3412756   0.08474742 -53.41  0.000936166    3.946    0.747
       195 -10.3594     51.1984     68.5795   5.8539168608e+01   5.9262383225e+01    0.4914128    0.2451699 -75.68   0.00159369    3.516    0.716
       196  -9.4948     16.5105     70.0093   7.6505643717e+01   6.2775601005e+01    0.2037624    0.1055205  75.27  0.000810268    2.527    0.604
       197  -9.8045    146.8762     65.9849   2.6290536076e+01   3.8893778415e+01     0.398945    0.1786473 -27.86  0.001383273    2.728    0.633
       198 -10.7037    203.5038     65.5630   1.7100900848e+01   2.5826340461e+01    0.2902696    0.1197928 -32.17  0.001205444    2.146    0.534
       199 -10.0269    138.5827     64.6024   2.7601923919e+01   4.1181313795e+01    0.4435674    0.1462481 -36.07  0.001408646    2.991    0.666
       200  -9.9447    121.4458     64.5088   3.1646639957e+01   4.5435347657e+01    0.5141036     0.139432 -40.83  0.001478656    3.540    0.718
       201  -9.9870    110.0049     61.3769   3.3651151247e+01   4.8819448640e+01    0.5823479    0.2226953 -35.41  0.001890278    2.895    0.655
       202 -10.1250     17.9180     62.1672   7.4140994732e+01   6.4727518133e+01    0.2882191    0.1335521 -46.80 0.0009496569    2.040    0.510
       203 -11.1316    188.4284    156.4243   4.0623508327e+01   1.4287082378e+01    0.4373935    0.2053489 -44.48  0.001973063    2.276    0.561
       204  -9.9512     73.0647     59.0227   4.5476565688e+01   5.7618074804e+01     0.391121     0.205992 -59.25  0.001456054    2.412    0.585
       205 -10.1930     92.6066    159.4823   6.3645439226e+01   2.9893293190e+01    0.3502842    0.2345311 -77.12  0.001447476    1.821    0.451
       206 -10.3463    197.2760    157.1545   3.9147249901e+01   1.2745885801e+01    0.2945644    0.1032334 -40.10  0.001194906    2.747    0.636
       207 -10.7725      7.0395     56.7867   7.9365055527e+01   6.6814825656e+01    0.2544128    0.1634091  84.16  0.001284037    1.667    0.400
       208  -9.4170    119.3175     55.6479   2.9072254198e+01   4.7571426623e+01    0.1645857     0.117469 -71.46 0.0007047044    1.740    0.425
       209 -11.6288     45.3849     49.3261   5.4688731377e+01   6.4750033492e+01     0.431824    0.2452626 -42.09  0.001907981    1.767    0.434
       210  -9.8904     62.4665     53.7971   4.8008418707e+01   6.0824125625e+01    0.2921818    0.1459009 -53.64  0.001139466    2.127    0.530
       211  -9.7779     92.1520     49.4236   3.4561217183e+01   5.5355235607e+01    0.5059755    0.1664362 -48.96  0.001445951    3.909    0.744
       212  -9.5453     31.3252     51.6432   6.3465946725e+01   6.6103891403e+01    0.1462764    0.1068941  68.56 0.0007045091    1.773    0.436
       213  -9.5850     53.0000     49.4645   5.0782262160e+01   6.3479085244e+01    0.3274065   0.08145116 -50.60 0.0009361191    3.946    0.747
       214  -9.9973     39.6270    147.4617   7.7864434977e+01   4.0001447389e+01    0.4078012    0.1389587  51.78  0.001416301    3.087    0.676
       215  -9.4994     81.9859     46.2030   3.6769968416e+01   5.8313343448e+01    0.2242158    0.1628627 -59.43 0.0007948565    1.604    0.376
       216  -9.8710     16.4113     44.2151   7.0409666983e+01   6.9390982044e+01    0.1932299    0.1255001 -80.75 0.0009528524    1.716    0.417
       217  -9.5616    113.8776     41.4708   2.5080279644e+01   5.1321138781e+01    0.2369225    0.2077709  17.93 0.0005607541    1.324    0.244
       218  -9.2717     58.3209     42.6434   4.5205739634e+01   6.3971869505e+01    0.1486096    0.1178202  89.61  0.000704548    1.761    0.432
       219 -10.6142      4.8970     40.9964   7.7453501834e+01   7.0924065653e+01    0.3545893    0.1618218 -89.67  0.001434193    2.792    0.642
       220  -9.5735    123.6323     40.6224   2.2476408401e+01   4.8923422026e+01    0.2299261    0.1766697  25.27 0.0007089322    1.631    0.387
       221  -9.2728    106.2989     37.3428   2.5340502411e+01   5.3910047247e+01    0.1546356    0.1163543  22.95 0.0007035614    1.671    0.402
       222  -9.1827     26.3439     36.6695   6.0990558371e+01   7.0217908294e+01     0.138006    0.1052593  65.86 0.0007050734    1.752    0.429
       223  -9.7200      6.6782     33.6819   7.4175498851e+01   7.2620133661e+01    0.1436633   0.08077253 -38.21 0.0004961682    1.666    0.400
       224  -9.2171     83.9745     39.8596   3.3263256239e+01   5.9005777112e+01    0.2572881    0.1651521  28.08 0.0009789127    2.033    0.508
       225  -9.5077     44.2582     25.1903   4.3810394304e+01   6.9956651393e+01    0.2027035    0.1743979  -2.63 0.0004932469    1.175    0.149
       226  -8.7298    110.4825     24.5022   1.8889705642e+01   5.4628442011e+01    0.1472886    0.1386302  63.36 0.0008100023    1.046    0.044
       227 -10.1171     13.1995     21.0132   6.3926012638e+01   7.5068087965e+01    0.2177458    0.1789436   5.34 0.0006041618    1.224    0.183
       228 -11.6842    166.3041    248.0189   5.9265963328e+01   3.9868642184e+00     0.308567    0.1510113  30.72  0.001631211    1.582    0.368
       229  -8.9068     97.3455     12.3479   1.6322526476e+01   5.9524789679e+01    0.1576964   0.09954745  35.26 0.0007042849    1.806    0.446
