#   1 NUMBER                 Running object number                                     
#   2 MAG_AUTO               Kron-like elliptical aperture magnitude                    [mag]
#   3 X_IMAGE                Object position along x                                    [pixel]
#   4 Y_IMAGE                Object position along y                                    [pixel]
#   5 X_WORLD                Barycenter position along world x axis                     [deg]
#   6 Y_WORLD                Barycenter position along world y axis                     [deg]
#   7 A_WORLD                Profile RMS along major axis (world units)                 [deg]
#   8 B_WORLD                Profile RMS along minor axis (world units)                 [deg]
#   9 THETA_WORLD            Position angle (CCW/world-x)                               [deg]
#  10 FWHM_WORLD             FWHM assuming a gaussian core                              [deg]
#  11 ELONGATION             A_IMAGE/B_IMAGE                                           
#  12 ELLIPTICITY            1 - B_IMAGE/A_IMAGE                                       
         1 -14.5276    193.7533     15.5951   6.8933348754e+01   3.4214737537e+01     2.615069     1.755117  13.57  0.009311091    1.960    0.490
         2 -13.9146    200.6220      8.4866   6.6106652429e+01   3.3176374560e+01      1.68203     0.862575  50.58  0.001467062    1.976    0.494
         3 -11.2115     32.6474      4.6011   1.0422379621e+02   6.9877383468e+01    0.4456806    0.0902629 -38.29  0.001599981    4.375    0.771
         4 -15.5032     58.7002    216.7484   1.4250330795e+02   2.4208930430e+01     6.817831    0.5052866  44.12   0.01999487    5.467    0.817
         5 -11.0936    162.6373    249.2897   1.2788811092e+02   3.9367011005e+00    0.2475553    0.1677526  49.71  0.001675322    1.246    0.197
         6 -11.5797    140.3438    250.2287   1.3172880021e+02   7.2563078818e+00    0.4313496    0.1225159  44.03  0.001938612    2.678    0.627
         7 -11.1568    126.4721    249.6394   1.3397853466e+02   9.4328201454e+00    0.2830962    0.1968302  21.09  0.001695456    2.141    0.533
         8 -11.3727    128.4913    244.4726   1.3309691813e+02   9.8681922803e+00    0.2225573    0.1746549  23.41  0.001048324    1.632    0.387
         9 -11.3727    124.9850    243.4905   1.3358606560e+02   1.0541620482e+01    0.2296398    0.1508931  64.82  0.001119756    1.519    0.342
        10 -12.2873    108.0736    248.7565   1.3694038990e+02   1.2257925188e+01    0.5262196    0.2114476  50.51  0.002876853    1.969    0.492
        11 -11.7242     98.9182    249.8510   1.3854096214e+02   1.3392711771e+01    0.4209692    0.2244336  49.71  0.002719385    1.426    0.299
        12 -11.2731    101.8331    246.9802   1.3780548507e+02   1.3413437989e+01    0.2838455    0.1622776  67.01  0.001276742    1.776    0.437
        13 -10.5460     73.9698    250.3064   1.4258750193e+02   1.6678313242e+01    0.3146338    0.1681682 -50.69  0.001643326    2.979    0.664
        14 -12.1318     80.9733    248.1371   1.4130399732e+02   1.6097845359e+01    0.7355037    0.2739471  61.03  0.003570526    3.015    0.668
        15 -11.7690     82.6723    243.5639   1.4065898629e+02   1.6584329806e+01    0.5153701     0.228811  71.40  0.002498538    3.248    0.692
        16 -12.2054     66.5425    243.2828   1.4325230797e+02   1.8728650477e+01    0.4272822    0.2447305  47.14 0.0005730542    1.442    0.307
        17 -11.0902     67.1073    249.9172   1.4364066500e+02   1.7612064420e+01    0.2810439    0.2559768  75.11  0.001280555    1.421    0.296
        18 -10.6417     63.0564    250.5506   1.4431786076e+02   1.8018800656e+01    0.3242081    0.1180178  51.16 0.0007352541    2.035    0.509
        19 -13.7233     32.9246    246.2763   1.4867039687e+02   2.2200549451e+01     1.489489     0.478783  42.86  0.008690691    2.471    0.595
        20 -16.3549     11.0558    237.8060   1.5151788457e+02   2.5829085941e+01     16.75846     1.524581 -76.49   0.03369296   10.187    0.902
        21 -10.8702     33.9928    206.1780   1.4601450639e+02   2.9008181158e+01    0.2621339    0.1542365  49.45 0.0008546786    1.503    0.335
        22 -11.8851     72.8434    195.7930   1.3793591833e+02   2.6276587148e+01    0.3801319     0.302756 -56.81     0.001635    1.513    0.339
        23 -11.8722     77.4256    188.7097   1.3625158278e+02   2.7029704281e+01     0.283446    0.2277661 -50.86 0.0006008408    1.556    0.357
        24 -10.8450    193.1778    195.3316   1.1446637560e+02   6.2714169136e+00    0.7372627    0.3690442 -60.58  0.002252199    6.717    0.851
        25  -9.8068    119.9369    188.4114   1.2764008232e+02   2.0555914045e+01    0.2926927    0.1978605  21.09  0.001043567    2.203    0.546
        26  -9.3608    125.8142    186.2252   1.2611886158e+02   1.9969668314e+01    0.3618104    0.1455972  34.76   0.00138985    3.054    0.673
        27 -11.1662     85.5757    176.5713   1.3307486291e+02   2.8300327342e+01    0.2240238    0.2007644  85.01 0.0003884969    1.078    0.073
        28 -13.3293     73.4252    174.1545   1.3531866036e+02   3.0515810687e+01    0.4286993    0.2669125 -43.98   0.00202638    2.182    0.542
        29 -11.8756     50.1272    130.0169   1.3456717702e+02   4.3022042372e+01    0.4264436     0.266646  51.51    0.0014881    1.719    0.418
        30 -12.9715     91.8738    167.9694   1.3052099063e+02   2.9127664392e+01      2.82912    0.5409061  47.35  0.002166863    5.555    0.820
        31 -13.6948     67.6225    144.7519   1.3254868751e+02   3.7587919594e+01     1.666481    0.8368832  85.69  0.006171763    3.822    0.738
        32 -13.3087     57.6893    130.8220   1.3279451604e+02   4.1950501982e+01     1.768654    0.5619781 -71.88  0.005190436    5.353    0.813
        33 -12.6035     47.1745    149.0843   1.3792154817e+02   3.9139321555e+01    0.6071032       0.2822 -76.01  0.002958968    2.093    0.522
        34 -10.2125    103.1794    151.0265   1.2523623334e+02   3.0897397325e+01    0.2902946    0.2758844 -49.60 0.0008604206    1.178    0.151
        35  -9.5053    105.5603    147.1933   1.2398983720e+02   3.1317307748e+01    0.3067912    0.2175809 -33.31  0.001266029    1.834    0.455
        36 -12.2223     92.1674    150.6107   1.2771847127e+02   3.2761615350e+01    0.2618775    0.2417995 -42.80 0.0005457007    1.264    0.209
        37 -10.0240    134.3549    147.7567   1.1746906259e+02   2.5978767214e+01    0.4768617    0.1345921 -51.39  0.001462989    3.924    0.745
        38 -11.6057     54.5027    145.0844   1.3569505834e+02   3.9165883274e+01    0.3497702    0.1460371 -58.95  0.001650587    2.101    0.524
        39  -8.7188    192.4045    144.4212   1.0440708810e+02   1.4685985729e+01    0.1418039    0.1347262  12.75 0.0001049772    1.022    0.022
        40 -10.1061    112.6499    136.5939   1.2024744215e+02   3.2358457971e+01    0.2851126    0.2395201  -7.92  0.001121119    1.574    0.365
        41 -10.7506    100.5682    133.7630   1.2261308486e+02   3.5069460739e+01    0.2690115    0.2296418 -33.49 0.0007887945    1.350    0.259
        42 -11.2173     69.8011    134.8644   1.3043592531e+02   3.9489947999e+01    0.3689992    0.1822063  41.90  0.001765651    2.117    0.528
        43 -13.8946     10.6758    206.9623   1.5004402413e+02   3.1208427991e+01    0.8506699    0.6315949  56.45  0.002622237    1.304    0.233
        44 -12.2161     44.1987    129.5634   1.3598428221e+02   4.3779293542e+01    0.3278637    0.2470919 -82.10  0.001772528    1.166    0.143
        45 -12.4739     41.1433    126.5509   1.3631202159e+02   4.4775297253e+01    0.5083068    0.1774879 -59.89  0.002273797    2.296    0.564
        46  -9.5490    109.0144    123.6877   1.1838981506e+02   3.5801551109e+01    0.1879471    0.1757698  51.82 0.0003157398    1.106    0.096
        47 -13.4931     50.9474    230.6790   1.4487698700e+02   2.2720754618e+01    0.6954495     0.369532  80.51  0.002986687    1.811    0.448
        48 -11.0866    174.3594    222.1450   1.2223374349e+02   5.6851522401e+00    0.2232793    0.1446225  35.49 0.0009859581    1.337    0.252
        49 -11.4723     94.9249    240.5574   1.3836858013e+02   1.5376181483e+01    0.3235112    0.1534514 -55.54   0.00188667    2.599    0.615
        50 -11.1071    168.2680    113.5166   1.0192866668e+02   2.5635531362e+01    0.4179597    0.3301557 -74.54  0.001216185    1.651    0.394
        51  -9.0764    152.6753    212.9369   1.2485472243e+02   1.0744653219e+01    0.1571582    0.1438642  56.94 0.0003408641    1.110    0.099
        52  -9.3674    184.6884     77.6209   8.8703697355e+01   2.8124815358e+01    0.1637885    0.1177524  14.44 0.0007026485    1.797    0.444
        53  -9.7763     37.2046    231.1723   1.4713587813e+02   2.4216529732e+01    0.1450588    0.1142677  74.99 0.0005055643    1.161    0.138
        54 -10.0190    229.8282    230.1140   1.1388903522e+02  -4.3923587745e+00    0.1640154    0.1419229  29.55 0.0005359179    1.274    0.215
        55 -10.4161     33.7775    228.6874   1.4753236207e+02   2.5016968005e+01    0.1741274    0.1161841  80.58  0.001336854    1.177    0.151
