#   1 NUMBER                 Running object number                                     
#   2 MAG_AUTO               Kron-like elliptical aperture magnitude                    [mag]
#   3 X_IMAGE                Object position along x                                    [pixel]
#   4 Y_IMAGE                Object position along y                                    [pixel]
#   5 X_WORLD                Barycenter position along world x axis                     [deg]
#   6 Y_WORLD                Barycenter position along world y axis                     [deg]
#   7 A_WORLD                Profile RMS along major axis (world units)                 [deg]
#   8 B_WORLD                Profile RMS along minor axis (world units)                 [deg]
#   9 THETA_WORLD            Position angle (CCW/world-x)                               [deg]
#  10 FWHM_WORLD             FWHM assuming a gaussian core                              [deg]
#  11 ELONGATION             A_IMAGE/B_IMAGE                                           
#  12 ELLIPTICITY            1 - B_IMAGE/A_IMAGE                                       
         1 -11.1659     41.3855     20.8849   7.8964159974e+01   6.7512807748e+01    0.4315729    0.3518652  57.88  0.002218447    2.222    0.550
         2 -12.6413    216.4651     13.8853   3.5909059325e+01   2.9465202309e+01    0.5068164    0.4225239  53.83   0.00186779    1.398    0.285
         3 -10.4424     46.6153     17.6481   7.5029111871e+01   6.7245501765e+01     0.385599    0.1557578 -27.77  0.001314936    2.567    0.610
         4 -10.9696     66.1673     11.0713   6.3824372112e+01   6.4843061443e+01    0.4089473    0.1470007  44.20   0.00178059    2.410    0.585
         5 -12.6223    190.4803      9.4072   3.7413154509e+01   3.6091035082e+01    0.4799839    0.2510815  84.84  0.002281114    1.914    0.478
         6 -11.4669     57.6687      7.2242   6.5244790174e+01   6.6761512179e+01    0.3764373    0.2980604  16.29  0.001320943    1.011    0.011
         7 -11.1330    165.7530      1.6234   3.8158400353e+01   4.2889223634e+01    0.3571325    0.1273653  64.04 0.0008031561    2.231    0.552
         8 -11.8607     43.5648      8.4957   7.1954683698e+01   6.8867157089e+01    0.3153106    0.2135265  35.64 0.0009189222    1.485    0.327
         9 -10.3052    108.9047    232.5656   1.0646606330e+02   1.1779783494e+01     0.201813    0.1841173  85.60   0.00100125    1.197    0.165
        10 -10.2122     71.9762    228.7904   1.1375009582e+02   1.7837656001e+01    0.2015968    0.1638234  89.45 0.0005597622    1.220    0.180
        11 -10.6844     12.8909    227.7959   1.2519563816e+02   2.4874829045e+01    0.1902353    0.1252201  86.07 0.0006538563    1.258    0.205
        12 -10.2794    104.2212    225.4566   1.0661500218e+02   1.3846559711e+01    0.2232901    0.1797702 -68.11   0.00103237    1.394    0.283
        13 -11.4251     96.3303    223.8141   1.0811302064e+02   1.5360221023e+01    0.4242369    0.3384583 -70.28  0.002634008    1.379    0.275
        14 -10.5000    232.0228    223.5033   8.0008428677e+01  -6.2299429356e+00    0.1887334    0.1060789  32.17  0.000970863    1.608    0.378
        15 -11.2960    226.1363    221.4862   8.0746567172e+01  -5.0918311791e+00    0.1873366    0.1710908  -7.00  0.001034878    1.338    0.253
        16 -10.4575    233.4547    219.4940   7.9038267320e+01  -5.8845395339e+00    0.1272398   0.09921003   3.98  7.99592e-05    1.018    0.018
        17 -10.2891    211.5392    218.2504   8.2963288601e+01  -2.4005493887e+00    0.2213343    0.1224197 -41.39  0.001123353    2.049    0.512
        18 -11.0636    239.6155    214.6668   7.7051672567e+01  -6.1041548058e+00    0.2833745    0.1108856 -38.03  0.001289909    2.607    0.616
        19 -10.6746    230.4464    213.4909   7.8516434970e+01  -4.5952678647e+00    0.1291219    0.1026144   3.23  0.000113575    1.014    0.014
        20 -10.3809    116.1667    208.9814   1.0183063548e+02   1.5233326224e+01    0.3905801     0.181204 -53.03  0.001715873    2.367    0.578
        21 -10.5404    149.9742    223.9943   9.6581354829e+01   6.7540159444e+00    0.2140557    0.1540894  61.94  0.001139596    1.740    0.425
        22  -9.4604    109.6484    205.3267   1.0279948341e+02   1.7046812390e+01    0.1469072   0.09649222  64.96 1.670342e-05    1.763    0.433
        23 -11.4226     50.0139    201.8462   1.1589079879e+02   2.6268320622e+01    0.4360932    0.2235281  59.04  0.002197176    1.898    0.473
        24 -10.0208    112.3367    197.6593   1.0106482455e+02   1.8226393295e+01    0.1489027    0.1011017  67.45 0.0007050677    1.761    0.432
        25  -9.8213    133.4046    196.1748   9.5900749742e+01   1.4935009772e+01    0.1902687    0.1382543 -70.10 0.0007048166    1.711    0.415
        26 -12.1816    160.0528    191.9706   8.9042466864e+01   1.0979240007e+01    0.7253677    0.5252389  86.84   0.00324656    2.428    0.588
        27 -10.1447    149.3242    198.6599   9.2660180822e+01   1.1608201066e+01    0.1434245    0.1094358  69.65 0.0004240254    1.726    0.421
        28  -9.5745    215.3118    193.6658   7.7685657796e+01   8.3945834840e-01     0.121384    0.1118834 -88.64  0.000447202    1.681    0.405
        29 -10.1695     94.6139    186.4480   1.0364531873e+02   2.3560253873e+01    0.2735618     0.129852 -77.15 0.0009552418    3.453    0.710
        30 -10.2551     34.4897    187.0293   1.1800251795e+02   3.1318195000e+01    0.1932105    0.1081526 -78.01  0.001037426    1.611    0.379
        31 -10.3308    182.9928    182.9167   8.2226927658e+01   8.4651911066e+00    0.3680846    0.1984863 -39.32  0.001616077    1.921    0.479
        32 -10.2328    147.3937    180.1795   8.9775309448e+01   1.5722186090e+01    0.2063437    0.1431675 -62.35 0.0009518454    1.768    0.434
        33  -9.7669    191.6653    178.3233   7.9447785528e+01   7.7022004059e+00    0.1378936    0.1180961  81.99   0.00070507    1.710    0.415
        34  -9.4900     28.5553    176.5117   1.1842406406e+02   3.4325629300e+01    0.1240577    0.1040763 -89.01 0.0002131799    1.052    0.049
        35  -9.7770     12.6814    176.3573   1.2206004925e+02   3.5798003781e+01    0.1314827   0.07093383  67.39 0.0007044937    1.756    0.431
        36  -9.7500     76.3402    175.6486   1.0662573450e+02   2.8801922201e+01    0.1518244   0.09683064  68.76 0.0005863464    1.801    0.445
        37 -10.3123     38.5322    174.5031   1.1585642367e+02   3.3777070880e+01    0.1286836    0.1086609  85.23 -8.320179e-06    1.004    0.004
        38 -11.1452     34.3035    173.1103   1.1673541493e+02   3.4543270864e+01    0.3052283    0.1654523  79.90  0.001497808    1.978    0.494
        39 -11.5670     44.9707    171.2955   1.1393642624e+02   3.3830412883e+01    0.4809039    0.2644454  88.87  0.002296848    1.985    0.496
        40 -11.5406     55.3658    168.0845   1.1093732521e+02   3.3380745898e+01    0.4888997    0.2649047 -89.04  0.001911546    2.205    0.546
        41 -10.0327    138.8342    164.9890   8.8882949801e+01   2.0630912643e+01    0.2494768     0.182589 -86.73  0.001086607    2.013    0.503
        42 -10.3186     80.2652    164.6940   1.0398241047e+02   3.0842877186e+01    0.3593637     0.178721  69.63  0.001152355    4.021    0.751
        43  -9.6203     69.6806    163.3373   1.0656781672e+02   3.2674673158e+01    0.1486901   0.09902315  70.38 0.0007049555    1.707    0.414
        44 -12.0332    107.2138    158.3592   9.5722440723e+01   2.8010384199e+01    0.8544884    0.4398111  61.40  0.002916628    3.181    0.686
        45 -10.5586     22.0512    159.4002   1.1839415437e+02   3.8931252527e+01    0.3266607    0.1541607  54.11  0.001585957    2.216    0.549
        46 -11.6412    118.8117    157.7131   9.2533414562e+01   2.6076980997e+01    0.4041589    0.3994612  40.52  0.001217175    1.024    0.023
        47 -10.4003    218.4373    156.2616   6.9388770703e+01   6.6725198392e+00    0.3589333    0.1286404 -41.08  0.001303838    2.684    0.627
        48 -10.8197    167.4461    156.6730   8.0234279696e+01   1.6708496894e+01    0.3235661    0.2740943  73.38  0.001200004    1.486    0.327
        49 -10.0472     67.9939    154.4767   1.0567422680e+02   3.5061882686e+01    0.2076499   0.09938867  54.20 0.0008096603    2.529    0.605
        50  -9.7348     40.4892    153.0657   1.1292677805e+02   3.8695166175e+01    0.1948484    0.1156078 -69.87 0.0004070563    1.486    0.327
        51  -9.4285     23.3302    153.6828   1.1749901199e+02   4.0180123589e+01    0.1334841   0.08158967  67.60 0.0007046817    1.684    0.406
        52  -9.8679    189.9795    150.5051   7.3838641920e+01   1.3334905277e+01    0.2049061     0.134879  68.03 0.0008095208    2.500    0.600
        53 -10.4139     93.0066    160.8292   9.9960180815e+01   2.9807192684e+01    0.2575347    0.1547396  61.18   0.00108566    2.061    0.515
        54 -10.1900    148.9528    145.4640   8.2165323628e+01   2.2925974982e+01    0.4162066    0.2553883  79.72  0.001213236    4.498    0.778
        55 -10.6657    106.8049    145.4066   9.3268847966e+01   3.1172948902e+01    0.4583587    0.2707671  79.79  0.001457767    3.843    0.740
        56 -10.7152     55.5350    145.3864   1.0772578853e+02   3.8891742064e+01     0.370953    0.1965789  77.85     0.001414    3.028    0.670
        57 -10.2309     52.0609    160.0266   1.1075244406e+02   3.5719293486e+01    0.2106599    0.1799337  83.55 0.0007660727    1.079    0.073
        58 -10.0212    181.9850    141.8128   7.3571980694e+01   1.6720433359e+01    0.2489438    0.1851769  76.94   0.00107966    2.032    0.508
        59 -10.2178     23.4826    138.8072   1.1581666918e+02   4.3749260611e+01    0.3185823    0.1307167  68.25  0.001092297    4.318    0.768
        60 -12.1813     99.6697    128.9183   9.1738186842e+01   3.6410139873e+01     1.258059     0.666119  64.60  0.003865382    4.008    0.751
        61 -11.0415     83.5472    131.7425   9.7114680161e+01   3.8404906545e+01    0.5140889    0.3252423  81.63  0.002029101    2.584    0.613
        62 -10.1648    132.1778    131.9975   8.3339350321e+01   2.9427370851e+01    0.2593557    0.1874042 -79.80 0.0009468487    2.012    0.503
        63 -11.3440     94.2093    121.9430   9.1764277264e+01   3.9041221429e+01    0.5072955    0.2901386  41.02  0.001047083    1.796    0.443
        64 -11.3420     43.8577    122.8876   1.0755729808e+02   4.5763902821e+01    0.8224234    0.4283496  77.79  0.003038311    3.505    0.715
        65  -9.9304    117.3213    125.6530   8.5888519214e+01   3.3887891461e+01    0.1614888    0.1252451  83.68 0.0007049409    1.736    0.424
        66 -10.4559     58.7986    124.1457   1.0314371141e+02   4.3751559218e+01       0.3266    0.1908707 -84.62  0.001368131    2.337    0.572
        67 -11.5027     28.2539    122.4774   1.1228949971e+02   4.7328173898e+01    0.6827031    0.3105217  77.24  0.002309726    4.441    0.775
        68 -11.7423    193.2889    118.4862   6.5557942188e+01   1.8849005912e+01    0.5974401    0.4454731 -75.44  0.001775924    1.902    0.474
        69 -10.3733     70.9957    120.0214   9.8503872617e+01   4.3150032803e+01    0.3689436    0.2239908  86.33  0.001405248    2.901    0.655
        70 -10.1979     71.4985    115.4936   9.7366443360e+01   4.4184207959e+01    0.2346654    0.1222707 -47.32 0.0009301234    1.810    0.448
        71 -11.2587    141.6634    114.9862   7.6553736628e+01   3.1199531081e+01    0.7267277      0.37271 -42.61  0.002766681    1.957    0.489
        72 -10.0118    130.3200    118.6472   8.0527825913e+01   3.2841116289e+01    0.1632224    0.1279732  89.34 0.0007047254    1.748    0.428
        73 -10.2522      2.3357    116.8467   1.1934842572e+02   5.0449818138e+01     0.259969   0.09742042 -82.98  0.001097632    2.651    0.623
        74 -10.7266    108.4347    112.9745   8.5295575394e+01   3.8566815981e+01    0.6407091    0.2836574 -60.74  0.001975782    3.439    0.709
        75 -11.2459     79.2505    113.0843   9.4341859198e+01   4.3617244155e+01    0.5270268    0.3144589 -82.76  0.001923923    3.052    0.672
        76 -12.6195    159.9829    110.7623   7.0875558350e+01   2.7957533233e+01    0.8732684    0.5269513 -60.87  0.003304981    2.309    0.567
        77 -10.4621     92.1464    111.4763   8.9878836164e+01   4.1893713571e+01    0.5072103    0.2479268 -67.15  0.001629176    3.441    0.709
        78 -11.8244     15.2146    110.1449   1.1457140991e+02   5.1284320968e+01    0.6670747    0.3986578  85.39  0.003492045    1.893    0.472
        79 -10.5073     66.3964    110.6285   9.7938432189e+01   4.6075532290e+01    0.2796589    0.1342651 -72.51 0.0009529602    3.251    0.692
        80 -12.7937    141.4276    103.8037   7.3601320241e+01   3.3642340969e+01    0.7340083    0.5980102 -61.14  0.003486835    1.388    0.280
        81 -11.9663     44.9809    101.2548   1.0311026426e+02   5.0914784425e+01    0.6971519    0.4373832  86.21  0.003132779    2.422    0.587
        82 -12.3754    150.3927    103.4550   7.1231026172e+01   3.1667480689e+01    0.4798948    0.3783323  78.78  0.002176693    1.635    0.388
        83 -10.7553     22.2147    101.9430   1.1102317596e+02   5.2762860371e+01    0.5545027    0.2474377  71.99  0.001550606    7.160    0.860
        84 -13.1367    110.1346    100.1230   8.1338845752e+01   4.1145595803e+01     1.385062    0.6647242  55.16  0.004663416    2.987    0.665
        85 -11.0811    174.0382    110.5212   6.7595008084e+01   2.4766176507e+01    0.4370811    0.2953922 -51.89   0.00112411    1.602    0.376
        86 -11.2893     63.2745     96.2310   9.5600666006e+01   4.9926326309e+01    0.4091345    0.2571307 -82.22  0.001691233    2.610    0.617
        87 -12.2497    127.8866    100.9963   7.6453953945e+01   3.7244137058e+01    0.5309246    0.4689187 -58.98  0.001892045    1.224    0.183
        88 -11.3416    170.3202     94.9737   6.4260470869e+01   2.8657369465e+01    0.3038835     0.260984  47.91 0.0003750656    1.165    0.142
        89 -12.3819    169.9000     90.7661   6.3195645585e+01   2.9549307804e+01    0.3805279    0.3587967  71.80 0.0004495344    1.093    0.085
        90 -10.6770    124.1492     91.4737   7.4763451387e+01   4.0065357857e+01    0.2926627    0.2087649 -79.73  0.001175511    2.289    0.563
        91 -10.4269      4.7216     91.7546   1.1537186673e+02   5.6219897783e+01    0.2480974    0.1289879  84.84  0.001179146    2.504    0.601
        92 -10.8094     34.2758     88.8051   1.0425950238e+02   5.4894936797e+01    0.4899077    0.1995976 -69.31  0.001904661    2.844    0.648
        93 -11.4690     87.0318     87.0688   8.4938914348e+01   4.8348430299e+01     0.439789    0.2992109  58.91  0.001959766    2.020    0.505
        94 -10.8059     49.0005     85.4928   9.8038720839e+01   5.4173128357e+01    0.4434632    0.2493261  65.79   0.00155164    4.376    0.771
        95 -10.8313     45.4379     81.9254   9.8468798994e+01   5.5378085628e+01    0.2939751     0.251883  54.01  0.000691236    1.455    0.313
        96 -11.0013    104.5253     83.2316   7.8109882979e+01   4.5887850271e+01    0.3770693    0.2778577 -65.14  0.001503753    1.790    0.441
        97 -10.8895     24.1614     80.1236   1.0616747991e+02   5.7721014163e+01    0.4357069    0.2207586 -77.63  0.001920718    2.600    0.615
        98  -9.3971    151.7067     78.7193   6.3838690919e+01   3.6163884041e+01    0.1529526    0.1199524  17.47 0.0002800096    1.532    0.347
        99 -11.1658     62.6188     72.1569   8.9178501226e+01   5.5393339151e+01    0.6940345    0.2260332 -53.62  0.002346908    3.346    0.701
       100 -11.1910     82.2214     73.0045   8.2278645091e+01   5.2150900564e+01     0.482984    0.3301517 -79.16  0.001925517    3.016    0.668
       101  -9.8907    116.0198     73.5019   7.1571783620e+01   4.5409372853e+01    0.2123747    0.1367357  70.40 0.0008101936    2.544    0.607
       102 -10.9287     51.9002     71.0104   9.2972165185e+01   5.7041877990e+01    0.2698744    0.1948046 -56.08  0.001049918    1.421    0.296
       103 -11.5491     21.0594     50.6610   9.9977354509e+01   6.4316256317e+01    0.5692476    0.2864662 -52.42  0.003024283    1.654    0.395
       104 -11.8523     42.1996     63.7104   9.4703796791e+01   5.9699868113e+01    0.6547639    0.2627895 -53.30  0.002112189    2.268    0.559
       105 -13.3448     29.5592     59.9022   9.8915023144e+01   6.1725295184e+01      1.20654    0.7606132  21.45  0.002291133    1.740    0.425
       106 -10.3887    197.2217     67.2477   5.1650493952e+01   2.6978130384e+01    0.3446063    0.1878043  56.50 0.0008087003    1.819    0.450
       107 -11.6925    239.3994     64.6805   4.5120537887e+01   1.7777212173e+01    0.3921686    0.2318856 -86.48  0.001815214    2.324    0.570
       108 -11.7062    144.8877     64.1473   6.1004606034e+01   4.0359496813e+01    0.2697285    0.2383757  59.79   0.00029018    1.126    0.112
       109  -9.8713      9.1239     65.0455   1.0887482169e+02   6.2033086531e+01    0.1961524    0.1291073 -44.09 0.0007850323    1.215    0.177
       110 -11.9314    231.0434     58.8767   4.4800615063e+01   2.0426575542e+01    0.3668656    0.2388986 -49.21  0.001939826    1.399    0.285
       111 -10.3219    100.8056     61.1829   7.2088474096e+01   5.0897062225e+01    0.2440389    0.1723036 -83.81 0.0009629151    2.955    0.662
       112 -10.2687     72.9848     58.9952   8.0929330495e+01   5.6454161812e+01    0.4347544    0.2512221 -64.47  0.001578048    3.765    0.734
       113 -11.0446      8.1218     55.5734   1.0712177727e+02   6.4116479429e+01    0.4266566    0.3193069 -75.77   0.00274497    1.530    0.346
       114 -10.0645    119.7967     57.1934   6.5101924778e+01   4.7454513444e+01    0.2464566    0.1661849 -77.19 0.0009525531    2.842    0.648
       115 -10.2738     54.1554     54.4703   8.6747297204e+01   6.0118167923e+01    0.2596777    0.1754949 -59.90  0.001313569    1.969    0.492
       116 -10.1050    161.6465     53.2770   5.4074720526e+01   3.7916658206e+01    0.2741648    0.1785065  71.79 0.0008244737    1.683    0.406
       117 -11.2920    149.2675     53.0127   5.6535248643e+01   4.1045274336e+01    0.3317473    0.2212122  69.94 0.0009184732    1.660    0.398
       118 -10.5894     92.3973     50.7102   7.1076545494e+01   5.4395795278e+01    0.2759772    0.1315614 -40.88  0.001141567    2.195    0.544
       119 -11.0408    153.9733     48.3556   5.4101981060e+01   4.0556730783e+01    0.2521714     0.217537 -31.40 0.0003404918    1.234    0.189
       120 -11.5203     73.8266     43.3195   7.4812709263e+01   5.9074342057e+01    0.4049701    0.3329748  57.42  0.002273889    1.649    0.394
       121 -10.9592     69.4868     41.9863   7.5938810530e+01   6.0033590738e+01    0.3496607    0.2196015 -49.02  0.001672034    2.009    0.502
       122 -11.1413      9.6806     44.1006   1.0336381634e+02   6.6388543136e+01       0.3855    0.1604482  11.85  0.001819157    2.716    0.632
       123 -10.8069      5.1751     41.4028   1.0476042435e+02   6.7168748013e+01    0.2427441    0.2115086 -56.07  0.001026142    1.285    0.222
       124 -10.9061     36.8554     38.7774   8.8612332493e+01   6.5138076422e+01     0.350633    0.2750951 -60.50  0.002112902    1.780    0.438
       125 -10.2004     41.9834     36.4363   8.5333589304e+01   6.4954887730e+01    0.1788154    0.1152021  25.13 0.0007543216    1.558    0.358
       126  -9.9018     47.8413     35.4240   8.2281629266e+01   6.4379384931e+01    0.1702444    0.1090648  13.40 0.0003726847    1.586    0.369
       127 -10.4944     73.7680     32.3640   7.0421126226e+01   6.0769016455e+01    0.3089926    0.2092637  61.41  0.001504738    2.319    0.569
       128 -10.3941    109.4307     31.9481   5.8911366066e+01   5.3506656863e+01    0.2592396     0.192842  68.68 0.0006748998    1.588    0.370
       129 -10.6184    102.9109     29.6681   5.9846686817e+01   5.5251986780e+01    0.4202731    0.3123841  77.31  0.002133559    1.881    0.468
       130 -11.9663    204.1775     21.3944   3.8938723760e+01   3.1511710457e+01    0.3405466    0.2140502  86.34  0.001783147    1.554    0.356
       131 -10.9867    219.9166    248.7267   8.6441904524e+01  -7.8380345634e+00    0.2528673    0.1964165  63.40  0.001449922    2.793    0.642
       132 -11.1761    239.6088     20.6174   3.5371586714e+01   2.3551204247e+01    0.2751137    0.1842386  83.15 0.0006843177    1.409    0.290
       133 -11.7029     22.0976    248.4028   1.2460315624e+02   2.0050003282e+01    0.2373847    0.1832835  23.94  0.001384428    1.841    0.457
       134 -10.6120    222.6864     16.4920   3.5936493805e+01   2.7757475778e+01    0.2931912    0.2139761  52.30  0.001743935    1.603    0.376
       135 -10.0255     89.0764     18.3379   5.9350629043e+01   5.9561109017e+01    0.2525803    0.1705737  66.51  0.001290268    1.914    0.478
       136 -10.7215     10.6158    246.2000   1.2646987154e+02   2.1616973114e+01    0.1379895    0.0818097 -74.93 0.0009506742    1.699    0.411
       137 -10.2454     32.9630    242.4641   1.2234924621e+02   1.9977031748e+01    0.1656102   0.08971611  41.88  0.001026994    1.585    0.369
       138 -10.7299      7.8847    240.8557   1.2670162338e+02   2.2866306887e+01    0.1511725    0.1243569  77.32 0.0007434801    1.223    0.182
       139  -9.9744      2.7744    240.3871   1.2755449235e+02   2.3435318111e+01    0.1254094    0.0919185  36.17   0.00092824    1.593    0.372
       140 -11.0828     19.3946    236.6281   1.2447538245e+02   2.2523388942e+01    0.2054782    0.1302755  30.48  0.001354198    1.856    0.461
