#   1 NUMBER                 Running object number                                     
#   2 MAG_AUTO               Kron-like elliptical aperture magnitude                    [mag]
#   3 X_IMAGE                Object position along x                                    [pixel]
#   4 Y_IMAGE                Object position along y                                    [pixel]
#   5 X_WORLD                Barycenter position along world x axis                     [deg]
#   6 Y_WORLD                Barycenter position along world y axis                     [deg]
#   7 A_WORLD                Profile RMS along major axis (world units)                 [deg]
#   8 B_WORLD                Profile RMS along minor axis (world units)                 [deg]
#   9 THETA_WORLD            Position angle (CCW/world-x)                               [deg]
#  10 FWHM_WORLD             FWHM assuming a gaussian core                              [deg]
#  11 ELONGATION             A_IMAGE/B_IMAGE                                           
#  12 ELLIPTICITY            1 - B_IMAGE/A_IMAGE                                       
         1  -9.9774     40.8273     13.1161   7.3851316004e+01   6.8151977311e+01    0.2764253     0.148398 -28.32 0.0001840126    1.672    0.402
         2  -9.5284     84.6457     11.2587   5.7274921989e+01   6.0746029297e+01    0.2270726     0.157152  63.84  0.001250908    1.760    0.432
         3 -10.0205     56.5604      9.6787   6.5715600629e+01   6.6120658155e+01    0.2317406    0.1922947 -82.14  0.001337185    2.527    0.604
         4  -9.1531     91.4770      9.4821   5.4650818381e+01   5.9506335262e+01    0.1283736    0.1114778  26.47 0.0001717702    1.042    0.041
         5  -9.8399     71.2832      6.8243   5.9253693121e+01   6.3775816904e+01    0.2217939    0.1502206  66.24  0.001205187    2.115    0.527
         6  -9.6673     34.9647      5.9365   7.2757003758e+01   6.9845874116e+01    0.1573999     0.145829 -31.27  0.001015595    1.707    0.414
         7  -9.3572     73.4874    229.4748   1.1422943345e+02   1.7412743255e+01    0.1212688   0.09853639  65.34 0.0003454407    1.050    0.048
         8 -11.2179    164.1331    225.9548   9.5531556089e+01   4.6435616600e+00    0.4406716    0.2765056  32.66  0.002408057    1.427    0.299
         9 -10.4173     99.5476    226.1585   1.0868485591e+02   1.4496374320e+01    0.2753907    0.1755542  30.52  0.001528537    1.645    0.392
        10 -11.1523    125.8189    220.9960   1.0262745976e+02   1.1556201986e+01    0.2950984     0.257505   2.73 0.0008027065    1.327    0.247
        11  -9.3038    108.6769    222.6714   1.0639468879e+02   1.3836125174e+01    0.1216245   0.09874628  -9.68 0.0007049265    1.694    0.410
        12  -9.2591    171.0739    225.6808   9.4102385055e+01   3.5937673351e+00    0.1741987    0.1432714  26.14 0.0003101062    1.064    0.060
        13  -9.3286     74.6774    220.2965   1.1307276785e+02   1.9070801177e+01    0.1284674   0.08012319  65.18 0.0003173339    1.621    0.383
        14  -9.1952    143.7532    216.9798   9.8308492353e+01   9.4703477705e+00    0.1600631    0.1122008 -48.47  0.000572801    1.564    0.360
        15  -9.2664    131.4893    214.4726   1.0050286427e+02   1.1901275940e+01    0.1301025    0.1196449  30.98 9.288659e-05    1.048    0.046
        16  -9.2523     99.3515    206.6518   1.0628169608e+02   1.8422963480e+01    0.1417229   0.09234855  68.57  0.000703777    1.825    0.452
        17  -9.8223     89.2049    199.7171   1.0758115462e+02   2.1371116853e+01    0.2661236    0.1789067  64.32    0.0014109    1.594    0.373
        18  -9.3973    149.4994    199.0102   9.4156408593e+01   1.1920816728e+01    0.1872312    0.1247244 -77.35 0.0008105856    2.599    0.615
        19 -11.2475    172.9902    195.9547   8.8588241649e+01   8.4638372749e+00    0.3089772    0.2756652  61.13 0.0009889805    1.386    0.279
        20  -9.5775    174.0032    192.0028   8.7632253851e+01   9.0205791915e+00    0.2437721    0.1921576 -45.36 0.0005253824    1.366    0.268
        21 -10.1714    126.3941    197.5785   9.8993668843e+01   1.6078078205e+01     0.291815    0.2415795  10.28  0.001636481    1.396    0.283
        22  -9.5760     44.4903    194.0183   1.1670255341e+02   2.8341239387e+01    0.1793947   0.08906886  80.54 0.0006911101    2.453    0.592
        23 -10.0997    139.1017    190.2022   9.4908625761e+01   1.5462385179e+01    0.2712722    0.1922615  55.98  0.001353721    1.602    0.376
        24  -9.7811    156.6995    188.0128   9.0602559372e+01   1.2834244693e+01    0.1968431    0.1860414 -25.87 0.0007836784    1.078    0.073
        25  -9.7526     87.3285    189.6602   1.0663677578e+02   2.3847654350e+01    0.1431876   0.09581447  71.22 0.0007051667    1.736    0.424
        26 -11.3908     96.6297    187.6351   1.0420159866e+02   2.2927546792e+01    0.5776565    0.2359928  47.72  0.002290093    2.566    0.610
        27  -9.7536     55.7561    187.7543   1.1356795073e+02   2.8447435372e+01    0.3825105     0.128584  55.24   0.00129514    4.235    0.764
        28 -10.0836    110.1366    186.6224   1.0091532093e+02   2.1050872755e+01    0.3853105    0.1990779  61.20  0.001455803    2.999    0.667
        29 -10.9335     13.4432    184.7101   1.2247861469e+02   3.3477759358e+01    0.2617967    0.2131252   7.80  0.001616885    1.805    0.446
        30  -9.4529     75.0102    184.5283   1.0877258244e+02   2.6728269499e+01    0.1963769   0.09266239  55.73  0.000809259    2.510    0.602
        31  -9.9663    211.9389    182.8787   7.8154271397e+01   4.0629281017e+00    0.2214725    0.1707526   0.01  0.001225147    1.254    0.203
        32  -9.7560    120.8239    186.2598   9.8384287935e+01   1.9387381112e+01    0.3027641     0.109566 -60.09 0.0009964281    3.583    0.721
        33  -9.8167    148.6886    181.5809   9.1169240787e+01   1.5559452047e+01    0.2009869    0.1317086  48.06 0.0009052596    1.608    0.378
        34  -9.4655     89.3365    177.6581   1.0440123661e+02   2.6279590822e+01    0.1475644    0.1007494  72.73 0.0007050351    1.763    0.433
        35 -10.4045     78.3236    176.6070   1.0688334880e+02   2.8101364804e+01    0.4478113    0.1750614  50.81   0.00167017    3.042    0.671
        36  -9.6075     60.5132    177.5141   1.1124217339e+02   3.0225671723e+01    0.2366696    0.1009666  45.28   0.00103095    2.345    0.574
        37  -9.8276     13.1849    177.1734   1.2194369372e+02   3.5191266069e+01    0.1739488    0.1143674  73.23 0.0009164056    1.364    0.267
        38 -10.1283    204.6821    175.8967   7.8121363404e+01   6.5367525196e+00     0.236937    0.1650146 -18.29  0.001195094    1.454    0.312
        39  -9.1933     24.3264    175.6543   1.1936366487e+02   3.4557011209e+01     0.132672   0.07622648  70.04 0.0007050292    1.746    0.427
        40  -9.3260    135.9716    172.4955   9.2348326588e+01   1.9762666257e+01    0.2107487    0.1207288  59.67 0.0008100019    2.551    0.608
        41  -9.3316     45.3560    172.6706   1.1422108782e+02   3.3129227834e+01    0.1398747   0.08491689  69.14 0.0007044819    1.783    0.439
        42  -9.7436    106.4673    175.9598   1.0001193908e+02   2.4023465214e+01    0.3017905    0.1595914  65.85  0.001039894    3.535    0.717
        43 -10.0578    122.2277    170.1498   9.5170722051e+01   2.2704034133e+01    0.2921552    0.1840376  62.50  0.001242735    2.155    0.536
        44  -9.9792     55.3316    170.1508   1.1153049654e+02   3.2585291423e+01    0.2722106    0.1426807  59.06  0.001239098    2.227    0.551
        45  -9.5843    112.2069    167.4797   9.7109783908e+01   2.5019547539e+01    0.3452303    0.2137314  84.99  0.001289109    3.046    0.672
        46  -9.8021    100.4588    166.9615   9.9917329560e+01   2.7059854663e+01    0.4306824     0.158865  50.43  0.001391826    3.623    0.724
        47  -9.9488    140.2755    165.8976   9.0019391277e+01   2.0420046820e+01    0.3309181    0.2290587  69.22  0.001433373    2.132    0.531
        48 -10.1695     80.5612    164.7308   1.0451265281e+02   3.0588690538e+01    0.4282123    0.2438715  73.44  0.001699247    2.791    0.642
        49  -9.5561     38.3982    165.1888   1.1500532647e+02   3.5637622949e+01    0.1842229    0.1066714 -83.95 0.0004705266    1.653    0.395
        50  -9.4675     70.3389    163.6671   1.0691483167e+02   3.2249085144e+01    0.1462674   0.09839322  72.72  0.000705175    1.746    0.427
        51  -9.9580      9.5121    161.2901   1.2142743286e+02   3.9134591340e+01    0.3359096    0.1380406  73.29  0.001405587    3.139    0.681
        52  -9.2657    152.3251    161.6578   8.6308624159e+01   1.9081085636e+01    0.1507468    0.1214015  87.31 0.0007050997    1.734    0.423
        53 -10.1646     93.8634    161.0855   1.0053026001e+02   2.9480868198e+01    0.3552642    0.1855987  47.51  0.001511338    2.058    0.514
        54 -10.2639    107.1370    158.8721   9.6750242666e+01   2.7867978581e+01    0.4585925    0.2123198  55.12  0.001581092    3.180    0.685
        55  -9.5511     23.3290    159.6648   1.1801904333e+02   3.8383884815e+01    0.1331451   0.08017707  71.00 0.0004530155    1.726    0.421
        56  -9.4216    168.6556    158.3179   8.1867950442e+01   1.6637999472e+01    0.1483884    0.1225561  88.62 0.0007048955    1.721    0.419
        57  -9.9044    120.4685    156.4587   9.2909997322e+01   2.6132893577e+01    0.3359152    0.2269714  79.41  0.001300138    2.411    0.585
        58  -9.9102    219.0546    156.0797   7.1085454775e+01   7.4670526595e+00    0.2122365    0.1879893 -19.29  0.000401676    1.058    0.055
        59 -10.2285     82.9104    155.6053   1.0237574362e+02   3.2443489529e+01    0.3812891    0.2152136  59.71  0.001596463    2.339    0.573
        60 -10.5697     50.2294    155.6363   1.1084174351e+02   3.6663492228e+01     0.381067    0.1942547  56.69  0.001695086    2.375    0.579
        61  -9.6650    213.2471    155.6420   7.2074516354e+01   8.6107521385e+00    0.1938366    0.1286467  29.20 0.0004365684    1.624    0.384
        62 -10.3319     68.9412    154.4908   1.0582765829e+02   3.4654150136e+01    0.3588895    0.2141019  61.17  0.001618854    2.074    0.518
        63 -10.0824    134.5060    154.0090   8.8913180445e+01   2.4128530676e+01    0.3816233    0.2392883  62.54  0.001534433    2.310    0.567
        64  -9.6252     99.3203    151.6398   9.7356918162e+01   3.0869591995e+01    0.2294322    0.1710724  76.73  0.000974065    1.695    0.410
        65  -9.3915     92.1598    152.4078   9.9378124845e+01   3.1822570214e+01    0.2059514    0.1303871  48.94 0.0009458718    1.712    0.416
        66  -9.5496    190.4910    150.9700   7.5515918883e+01   1.3831404886e+01    0.2095183    0.1267075 -59.74 0.0008099481    2.533    0.605
        67  -9.9184     29.2891    150.7197   1.1554128545e+02   3.9992240208e+01    0.3170049    0.1347604  66.81  0.001143214    3.946    0.747
        68 -10.5507     40.3754    148.2828   1.1237087240e+02   3.9513833713e+01    0.4663927    0.2096542  54.29  0.001962234    2.809    0.644
        69 -11.0358    108.6395    146.3341   9.3837599916e+01   3.0574909349e+01    0.7123663    0.3815494  62.64  0.002416704    3.399    0.706
        70  -9.9803     78.9576    147.7625   1.0201664711e+02   3.4920883571e+01    0.2376094    0.1521318  63.01  0.001072656    1.982    0.495
        71 -11.0524     57.1056    146.4527   1.0766299877e+02   3.8111459891e+01    0.6096082    0.3090148  63.23  0.002387985    3.023    0.669
        72 -10.6866    150.3052    146.0578   8.3310823837e+01   2.2844238148e+01    0.6196402    0.3701779  68.00  0.002123895    3.327    0.699
        73  -9.9857     13.7197    146.4151   1.1898250536e+02   4.2324616283e+01    0.2545959    0.1231054  44.94  0.001221905    2.252    0.556
        74 -10.8549    125.7690    143.8115   8.8851087607e+01   2.8086622402e+01    0.4629894    0.3078801  89.03  0.001734134    2.833    0.647
        75 -10.6553     89.0910    144.5886   9.8687201533e+01   3.4189618198e+01    0.4180991    0.2287242  54.48  0.001706372    2.326    0.570
        76 -10.9490    197.1284    143.2009   7.2359235758e+01   1.4015752859e+01    0.3418541    0.2634584 -27.73 0.0005154825    1.212    0.175
        77 -10.2678     70.2967    141.2946   1.0319027156e+02   3.7708792967e+01    0.3958219    0.2279808  81.00  0.001495991    3.056    0.673
        78 -10.6844     23.8602    138.6579   1.1545967993e+02   4.3390767685e+01    0.5046206    0.2357333  64.99  0.002108975    3.080    0.675
        79  -9.4298    173.6353    139.3180   7.6364651604e+01   1.9547983149e+01    0.1543331    0.1247057 -84.99 0.0007040006    1.775    0.437
        80 -10.2221     39.2086    136.3909   1.1097431330e+02   4.2547905180e+01    0.2578127    0.1788688  68.53  0.000878635    1.648    0.393
        81 -10.0706    114.0384    134.1704   8.9712336636e+01   3.2494957415e+01     0.362293    0.1914897  59.17  0.001242329    3.098    0.677
        82 -10.9986     84.5599    132.4362   9.7457762063e+01   3.7844624219e+01    0.5919753    0.3483039  57.71  0.001977926    2.305    0.566
        83 -10.9120    133.2978    132.6628   8.4317900745e+01   2.9190356298e+01    0.4105563    0.2870663  74.13  0.001676203    2.260    0.557
        84  -9.8529    144.1008    132.3824   8.1544865224e+01   2.7091547118e+01    0.3086555    0.2006117  57.49   0.00128855    1.926    0.481
        85  -9.8230    154.3266    130.4865   7.8603767192e+01   2.5402569185e+01    0.3187255    0.2290607  79.90  0.001298973    2.286    0.563
        86 -11.0165    100.6965    129.2697   9.2221004971e+01   3.6008518930e+01     0.654797    0.4012316  64.98  0.002415758    2.614    0.617
        87 -10.8021     74.1200    130.1381   9.9956960985e+01   3.9931392201e+01    0.4267257    0.2575112  59.74  0.001695236    2.273    0.560
        88 -10.4690     13.1509    129.6446   1.1722343622e+02   4.6397755016e+01    0.4063266    0.2082317  68.88  0.001766423    2.520    0.603
        89  -9.8623    169.7622    130.5927   7.5080979821e+01   2.2147310823e+01    0.2139332    0.1505643  56.08 0.0007967706    1.676    0.403
        90  -9.3274      2.3402    130.6568   1.2024442253e+02   4.6859760476e+01    0.1278049   0.07715878  71.53 0.0006208435    1.777    0.437
        91 -10.6054    120.0545    126.8533   8.6350463857e+01   3.3083281061e+01    0.6306262    0.3280602  60.13  0.002059683    3.433    0.709
        92 -11.1865     60.5021    125.1149   1.0291710823e+02   4.2966274506e+01    0.6425722    0.3785146  70.65  0.002609924    2.815    0.645
        93 -11.3108     45.1560    124.0236   1.0724652389e+02   4.4991266160e+01    0.7707441    0.4238656  69.71  0.003128769    3.016    0.668
        94 -11.3502     28.5750    122.3529   1.1184565982e+02   4.6977227165e+01    0.7919585    0.3696265  76.01  0.002629083    4.765    0.790
        95 -10.0970    180.4419    125.6049   7.1506927639e+01   2.0896473358e+01    0.2978601    0.1446725  60.70 0.0009568761    3.471    0.712
        96 -10.6791    143.0982    120.3335   7.8731762190e+01   2.9939951090e+01    0.4528951    0.3476792  68.21  0.001721808    1.700    0.412
        97 -10.2402     72.1646    120.7495   9.8545011641e+01   4.2504986536e+01    0.4004039    0.2302255  57.66  0.001652632    2.511    0.602
        98 -10.2238    132.1611    119.7060   8.1344022930e+01   3.2328666679e+01    0.4412177    0.2777671  66.46  0.001662974    2.573    0.611
        99 -10.6679      3.4304    117.3837   1.1843246651e+02   4.9963447233e+01    0.5269964     0.242871  79.05  0.002279465    3.003    0.667
       100 -10.6889    110.3709    115.4496   8.6117019946e+01   3.7536479960e+01    0.5095508    0.3480088 -80.84  0.002026031    2.442    0.591
       101 -11.0288     80.3571    113.8225   9.4489058510e+01   4.2993970989e+01    0.6629544    0.4167344  70.34  0.002596867    2.866    0.651
       102 -11.1073     94.3531    113.5803   9.0245484868e+01   4.0813287014e+01    0.6469914    0.3931623  52.18  0.002618077    2.052    0.513
       103 -10.2126    123.5047    113.5419   8.2001011791e+01   3.5442427193e+01    0.3753125    0.2587816  64.79  0.001580533    2.033    0.508
       104 -10.8162     67.8295    111.7383   9.7841727036e+01   4.5288499031e+01    0.4847564    0.2928549  56.66  0.002112096    2.336    0.572
       105 -10.9422     14.5915    110.9555   1.1426807124e+02   5.0813251108e+01    0.4166227    0.2587919  85.25  0.001957436    1.829    0.453
       106  -9.2874    175.7504    112.7683   6.9186749784e+01   2.4457314629e+01    0.2359373    0.1301245  60.12 0.0008814693    2.420    0.587
       107  -9.7301    134.2803    110.3086   7.8281683249e+01   3.3957979167e+01    0.3028969    0.1926661  65.67  0.001162905    2.410    0.585
       108 -10.0884     59.9520    109.9384   9.9896289566e+01   4.6746876670e+01    0.2189077    0.1687557  77.25  0.001127228    1.686    0.407
       109 -11.6158     46.7910    103.4726   1.0268322999e+02   4.9835192818e+01    0.8801203    0.4780453  67.18  0.003145551    4.124    0.758
       110 -11.6448     23.6158    103.0779   1.1014157269e+02   5.2060161514e+01    0.7921802    0.4174127  69.76  0.003239572    3.449    0.710
       111 -10.2079    140.9094    105.6977   7.5317042327e+01   3.3537930489e+01    0.4049556    0.2713513  75.43  0.001544448    2.583    0.613
       112  -9.8265    150.6614    104.3112   7.2542610128e+01   3.1702582257e+01    0.2507675    0.1941125 -76.19  0.001113885    1.785    0.440
       113 -10.5098    130.2982    103.3290   7.7374458762e+01   3.6290141548e+01    0.4785652    0.2669907  60.54  0.001729025    2.699    0.629
       114 -10.4707      7.3396    103.5438   1.1539094793e+02   5.3041588667e+01    0.3087423    0.1930797  70.72  0.001690771    2.013    0.503
       115 -11.4049    111.8902    100.6888   8.1665645265e+01   4.0575177695e+01    0.9386851    0.4757782  59.80  0.002987796    3.750    0.733
       116 -10.3977     83.0054    100.7154   9.0336408472e+01   4.5673135574e+01    0.4427392    0.2923288  65.72   0.00185668    2.487    0.598
       117 -11.2693     65.3252     97.2150   9.5097618263e+01   4.9080039708e+01    0.6934163    0.3910438  54.33  0.002872188    2.717    0.632
       118 -10.5147     96.6821     97.9416   8.5350915819e+01   4.4007155689e+01    0.5883367     0.254727  46.44  0.002137324    2.731    0.634
       119 -10.2912    140.4329     93.1303   7.1824065205e+01   3.6219784158e+01    0.4165423     0.231251  63.95  0.001475763    2.823    0.646
       120 -10.6017    126.7196     92.2219   7.5088156373e+01   3.9367862043e+01    0.5966173    0.3288094  58.78  0.002231665    2.523    0.604
       121 -10.6312      7.0437     92.5168   1.1374022361e+02   5.5664096532e+01    0.5118381     0.238023  39.24  0.002556149    2.751    0.637
       122 -11.3906     35.5232     90.3653   1.0354867895e+02   5.4074856944e+01    0.5116857    0.3383103  87.09  0.002332197    2.278    0.561
       123 -11.1997     88.1400     87.9951   8.5098969549e+01   4.7685485003e+01    0.5982841    0.3765057  63.71  0.002366439    2.841    0.648
       124 -11.1189     50.3002     85.9571   9.7270557455e+01   5.3559528195e+01    0.6259681    0.3792136  61.61  0.002637383    3.082    0.676
       125  -9.4515     20.6316     88.3059   1.0830599909e+02   5.5784730830e+01     0.123919   0.09311101  72.75 0.0007035169    1.752    0.429
       126 -10.8761    106.8503     84.8691   7.8410682553e+01   4.4925459950e+01    0.6888537    0.4083867  61.51  0.002641224    2.718    0.632
       127  -9.7309    141.9721     84.0010   6.8709709580e+01   3.7654255646e+01    0.2675892    0.1739234  75.03   0.00102236    2.559    0.609
       128 -10.9884     25.6010     81.4091   1.0502339109e+02   5.7003719544e+01    0.4803731    0.3156475  63.47  0.002106905    2.393    0.582
       129 -10.7724     10.7957     81.9501   1.1050933267e+02   5.7904532232e+01    0.4716802    0.2294793  30.90  0.002451232    2.523    0.604
       130 -10.2763     75.3528     81.5395   8.7329478086e+01   5.1160633154e+01     0.297076    0.2345237  80.51  0.001373411    2.001    0.500
       131  -9.2445    151.2240     81.3978   6.5741176485e+01   3.6029557825e+01    0.2134881    0.1498365  63.75 0.0009198987    1.688    0.408
       132  -9.4944    120.4589     81.5923   7.3516095825e+01   4.2820973819e+01    0.3543375     0.227869  78.58  0.001223817    3.479    0.713
       133 -10.3379     62.2679     77.5309   9.0635262809e+01   5.3930400706e+01    0.3122043    0.2108669 -84.26  0.001283647    3.071    0.674
       134 -10.3966    129.9996     76.8180   6.9468287086e+01   4.1674561786e+01    0.5036386    0.3020029  66.81  0.001932602    2.576    0.612
       135  -9.4771    142.6758     76.4385   6.6212882455e+01   3.8894085897e+01    0.2967362    0.1529727  55.74  0.001148915    2.160    0.537
       136 -10.8070     83.7493     73.9849   8.2131412083e+01   5.1378316264e+01    0.5120965    0.3805211  83.89   0.00226493    2.566    0.610
       137  -9.9592     43.3279     73.6670   9.6419117683e+01   5.7085227295e+01    0.2602015    0.2187696  81.06  0.001388066    1.706    0.414
       138 -10.0199      7.5264     73.1632   1.0990989011e+02   6.0088313026e+01     0.369061    0.1942011  56.02  0.001694883    3.410    0.707
       139  -9.6568    116.7721     73.5991   7.1961360720e+01   4.5128806586e+01    0.2119545    0.1456763  57.34 0.0009551734    1.745    0.427
       140  -9.9037    106.8536     72.6906   7.4490178555e+01   4.7339359790e+01    0.3110644    0.2347216  71.24  0.001440679    1.965    0.491
       141 -10.2025     95.9032     72.2047   7.7639608339e+01   4.9557872075e+01    0.3847131    0.2812648 -73.36  0.001559975    2.289    0.563
       142 -10.7783     52.6429     70.8021   9.2074449211e+01   5.6623868242e+01    0.5134868    0.3913291  78.59  0.002592798    2.299    0.565
       143 -10.6789     17.4043     70.4611   1.0550591266e+02   6.0080657371e+01    0.3121158    0.2509167  67.09  0.001701827    1.748    0.428
       144  -9.4251    139.7945     67.5855   6.4096605492e+01   4.1108418536e+01    0.2132511    0.1469954  65.54 0.0009524997    1.755    0.430
       145  -9.5844    122.9711     67.1852   6.8162654870e+01   4.4961960772e+01    0.2390965    0.1818815  86.74  0.001079435    2.027    0.507
       146 -10.6214     39.1343     65.3934   9.5580963123e+01   5.9308479109e+01    0.4643643    0.2538889  45.37  0.002175457    2.695    0.629
       147  -9.6245     10.3079     66.1206   1.0724421818e+02   6.1493574332e+01    0.2093057    0.1466244  55.32  0.001221953    2.121    0.529
       148 -10.1414    111.9731     64.9014   7.0387372280e+01   4.7720652583e+01     0.428591    0.2500758  65.15  0.001637147    2.833    0.647
       149 -10.0205    101.6986     61.6439   7.2238215290e+01   5.0397641679e+01    0.3527764    0.2556929 -88.57  0.001477015    2.775    0.640
       150 -10.9646     75.0911     60.3680   8.0412731235e+01   5.5483932271e+01    0.5706637    0.3482996  53.54   0.00256682    2.406    0.584
       151 -10.3352     26.6050     60.1531   9.9035634928e+01   6.1600953743e+01    0.3962988    0.2153633  48.05  0.001835446    3.142    0.682
       152  -9.2876     89.9667     60.4713   7.5460538918e+01   5.2864709233e+01    0.1888546    0.1303346  68.00 0.0008097939    2.550    0.608
       153 -11.2221      8.7925     58.0512   1.0584822485e+02   6.3327316539e+01     0.414813    0.2978704  50.93  0.002533653    2.075    0.518
       154  -9.9751    120.9891     57.2553   6.5308794263e+01   4.7074796684e+01    0.4115943    0.2158509  64.82    0.0015106    2.939    0.660
       155 -10.4095     55.0050     55.0365   8.5896981627e+01   5.9498894543e+01    0.4293576    0.3005439 -71.19  0.002007037    2.697    0.629
       156 -10.5005     45.0645     56.2107   9.0236981951e+01   6.0528647271e+01    0.3583033    0.2873846  69.78  0.001978959    2.168    0.539
       157 -10.3367     63.9010     55.3584   8.2634113237e+01   5.8173205749e+01    0.3546227    0.2993862  57.14  0.002027316    1.700    0.412
       158  -9.8157    107.7338     54.6563   6.7989715912e+01   5.0349713368e+01    0.3613424    0.2341762  80.25  0.001330358    3.537    0.717
       159 -10.7499     32.5325     52.4610   9.4119191057e+01   6.2627698675e+01    0.4709634    0.3292173  55.51  0.002498494    2.512    0.602
       160 -10.2635     21.9081     53.2009   9.8888882949e+01   6.3430656443e+01    0.3497041    0.1977014  36.58  0.001882158    2.324    0.570
       161 -10.7046     94.1582     51.8212   7.0974172168e+01   5.3558674844e+01    0.4593823     0.328147  65.53  0.002195316    2.090    0.522
       162 -10.0662     83.2542     47.5698   7.2854907435e+01   5.6312082450e+01    0.3401549    0.2459935  67.21  0.001631015    2.312    0.568
       163 -10.3627     46.2687     45.3934   8.5803394040e+01   6.2428307105e+01    0.3352044     0.216906  37.96  0.001736779    1.862    0.463
       164 -10.6497     18.4515     45.5373   9.7935581974e+01   6.5240048847e+01    0.4126926    0.2437354  34.44  0.002342118    2.197    0.545
       165 -10.3013     58.9387     43.2740   7.9895371163e+01   6.1059886296e+01    0.3321236    0.2606595 -72.26  0.001724428    2.406    0.584
       166 -10.8443      5.8393     42.2671   1.0265281385e+02   6.6748017514e+01    0.4383596    0.2845449 -77.81  0.002442624    2.353    0.575
       167  -9.9226    107.5450     42.4730   6.3566023643e+01   5.2252865313e+01    0.2717327    0.2126937  75.62  0.001245785    1.775    0.437
       168 -10.4468     70.5784     42.4442   7.5212039589e+01   5.9358721148e+01    0.4318807    0.2948633  60.78  0.002073176    2.504    0.601
       169 -10.2897     37.8161     41.2063   8.7758558965e+01   6.4197271868e+01    0.3218871    0.2175306  40.38  0.001709652    1.972    0.493
       170 -10.0827     96.9350     39.0973   6.5273857869e+01   5.4949271341e+01    0.3253525    0.2031247  60.49  0.001519162    2.068    0.516
       171  -9.8033     82.3926     38.1139   6.9393341584e+01   5.7932438705e+01    0.3271172    0.2296099  74.62  0.001466244    2.901    0.655
       172 -10.6341     27.2113     36.3191   9.0583383768e+01   6.6201318446e+01    0.2777845    0.2557747 -26.93  0.001930247    1.344    0.256
       173  -9.8049    113.0691     35.7197   5.9584419738e+01   5.1970654727e+01    0.3002588    0.2035055 -74.06  0.001291166    2.741    0.635
       174  -9.1547    105.5917     35.8145   6.1569328063e+01   5.3586417036e+01    0.1946485    0.1228319 -38.64 0.0009456839    1.709    0.415
       175 -10.4420     62.2819     33.4194   7.4526506377e+01   6.2117911191e+01    0.3954947    0.2776882  55.33  0.002092146    2.172    0.540
       176 -10.4752     50.8892     33.2835   7.8962052385e+01   6.3860180443e+01    0.3129634    0.2715891  70.33  0.001872442    2.075    0.518
       177  -9.2674    120.9413     34.0000   5.7036639238e+01   5.0422577083e+01    0.2353297   0.07586235  56.42 0.0008102918    2.997    0.666
       178 -10.3427     74.0841     32.3347   6.9790637393e+01   6.0276526573e+01    0.4112316      0.22864  56.77  0.001829539    2.708    0.631
       179 -10.4784     13.6137     30.9767   9.4978281366e+01   6.8360912404e+01    0.3188981    0.2515725 -72.23  0.002017366    2.060    0.515
       180  -9.6286    102.6749     30.1326   6.0145682715e+01   5.4935578016e+01    0.2476155    0.1898806  82.15  0.001278721    1.934    0.483
       181  -9.6585     43.1874     30.5517   8.1018481633e+01   6.5341237631e+01     0.217746    0.1160579  36.23  0.001132691    2.066    0.516
       182 -10.2479     82.9295     28.5841   6.5274079082e+01   5.9141866312e+01    0.3711263    0.2743836  89.98  0.001746308    2.872    0.652
       183 -10.3850      4.4340     27.9683   9.8443692169e+01   6.9554208461e+01    0.2491204    0.1992425 -78.98  0.001635775    2.070    0.517
       184 -10.1048     93.2107     27.7067   6.1802573917e+01   5.7211740105e+01    0.3490128    0.2433485  79.55  0.001644777    2.539    0.606
       185 -10.5262     50.4349     22.1988   7.4175543998e+01   6.5559477418e+01    0.3375999    0.2157889  43.42  0.001904526    1.870    0.465
       186 -10.3531     64.6821     21.4363   6.8317077908e+01   6.3370635062e+01     0.340233    0.2697374  62.92  0.001976805    1.967    0.492
       187  -9.7989     20.4820     21.9862   8.7784760159e+01   6.9297742504e+01    0.1890405    0.1457817  64.03  0.001023125    3.314    0.698
       188 -10.3436     75.7504     20.4820   6.4074244183e+01   6.1499047781e+01    0.4053088    0.2321586  60.30   0.00190839    2.506    0.601
       189  -9.3930     12.2455     21.4339   9.1750293492e+01   7.0127131248e+01    0.1384417    0.1028639  20.72 0.0008809405    1.573    0.364
       190  -9.9036     40.4583     19.3155   7.7063950635e+01   6.7376602151e+01    0.2084259    0.2027897  63.09  0.001449429    1.774    0.436
       191  -9.5274     89.1054     18.3584   5.9078033958e+01   5.9122242310e+01    0.2459619    0.1698119  67.56  0.001288043    1.937    0.484
       192 -10.1433     31.4989     16.9948   8.0047906271e+01   6.8852908645e+01    0.2044247     0.166061  33.56  0.001178048    1.637    0.389
       193  -9.7465     98.5574     15.8935   5.5506249665e+01   5.7400883855e+01    0.2584651     0.178775  75.61  0.001331509    1.999    0.500
       194  -9.1881      2.3472     16.6764   9.4991608856e+01   7.1664356931e+01   0.09254655   0.09056479 -80.00 0.0007049685    1.743    0.426
       195  -9.3434      8.2996     15.6541   9.1267344602e+01   7.1394064632e+01    0.0962557   0.08859972 -48.16 0.0004383455    1.680    0.405
       196 -11.1849    166.3332    248.9364   9.8484695062e+01   6.8615057797e-01    0.2486574    0.1563181  28.45  0.001466987    1.393    0.282
       197  -9.5638     17.7066     14.3486   8.5625581582e+01   7.0758792081e+01    0.1457378    0.1421632 -31.90 0.0009420749    1.760    0.432
       198 -10.1288    246.7293    247.8167   8.3741813797e+01  -1.0299686375e+01    0.2031004    0.1180597  36.59  0.001253582    1.837    0.456
       199 -10.5952    173.5205    244.0103   9.6417352890e+01   3.5270296411e-01    0.1672447     0.119583 -39.72  0.001036855    1.605    0.377
       200  -9.2248     48.3037     10.6212   6.9419882955e+01   6.7348620532e+01     0.109698   0.09451042 -44.01 0.0007025985    1.774    0.436
       201 -10.2387    167.5199    242.4905   9.7345902683e+01   1.4791201825e+00    0.1232529    0.1030118  24.25 1.693434e-05    1.006    0.006
       202  -9.7756    237.5450    239.7383   8.3982780499e+01  -8.1561026028e+00    0.2423156    0.1125269  23.35 0.0008223246    2.072    0.517
