#   1 NUMBER                 Running object number                                     
#   2 MAG_AUTO               Kron-like elliptical aperture magnitude                    [mag]
#   3 X_IMAGE                Object position along x                                    [pixel]
#   4 Y_IMAGE                Object position along y                                    [pixel]
#   5 X_WORLD                Barycenter position along world x axis                     [deg]
#   6 Y_WORLD                Barycenter position along world y axis                     [deg]
#   7 A_WORLD                Profile RMS along major axis (world units)                 [deg]
#   8 B_WORLD                Profile RMS along minor axis (world units)                 [deg]
#   9 THETA_WORLD            Position angle (CCW/world-x)                               [deg]
#  10 FWHM_WORLD             FWHM assuming a gaussian core                              [deg]
#  11 ELONGATION             A_IMAGE/B_IMAGE                                           
#  12 ELLIPTICITY            1 - B_IMAGE/A_IMAGE                                       
         1 -12.2129     43.4595     82.4069   1.0975662333e+02   5.4690125270e+01     1.112459    0.9606325 -19.96  0.007176537    1.386    0.278
         2 -10.5831     50.8638     36.2354   9.3612738100e+01   6.3642962862e+01    0.7527685    0.5412407 -74.08  0.003965646    2.185    0.542
         3  -9.4160     39.7916      7.4978   8.5555948762e+01   7.0040310295e+01    0.3782044    0.2817969  11.62  0.002402052    1.343    0.255
         4 -10.7057     39.7520     29.7009   9.5817985136e+01   6.6252623567e+01    0.5892018    0.3300466 -53.26  0.002726159    1.744    0.426
         5 -11.9807     44.3086     21.3915   9.0248839071e+01   6.7191591159e+01     1.186098    0.9316501 -76.10  0.006825119    2.164    0.538
         6 -12.6479     80.2768      7.4346   6.9368599743e+01   6.3233271242e+01     2.112342     1.601225  19.26   0.01220939    1.264    0.209
         7 -10.7347    131.2541      3.4959   5.4991046300e+01   5.1846852010e+01    0.9571287    0.3656598  61.75  0.003234984    2.313    0.568
         8 -11.0131    128.7827     15.4023   6.0255024162e+01   5.1256810179e+01     1.131378    0.5382591 -27.84  0.004720174    2.100    0.524
         9 -10.8314    115.0918     16.8806   6.3955483748e+01   5.4439648914e+01    0.8103634    0.6827602 -82.35  0.004400227    1.484    0.326
        10 -10.2731     93.1701     18.0418   7.0381891092e+01   5.9244336806e+01    0.6984823    0.5149809  31.86  0.003691493    1.331    0.249
        11 -10.5871    248.5911     14.6193   4.4314167093e+01   2.0558889699e+01    0.6101601    0.3670678  -5.10  0.002925529    2.243    0.554
        12 -10.9861    249.0210      5.0395   4.1938339902e+01   2.1443373569e+01    0.7811676    0.6181217 -68.48  0.004800385    1.166    0.142
        13 -10.9688     59.4661      4.8462   7.5495863371e+01   6.7418677693e+01     0.853614    0.5545015  -9.58  0.004756273    1.544    0.352
        14  -8.7517     52.2644      2.1112   7.6956257324e+01   6.8962677812e+01    0.2373118    0.1914468  15.92 0.0009997631    1.153    0.133
        15 -10.6546     63.8694     16.4388   7.9681254882e+01   6.5064841266e+01    0.6000565    0.3153195  56.32  0.002667453    2.901    0.655
        16 -13.8839    163.7550     11.2161   5.2510723936e+01   4.2570568378e+01     3.810946     2.135713  65.57   0.01701365    1.664    0.399
        17  -8.8535     20.2416     13.9055   9.8661230581e+01   7.1157183844e+01    0.5161623    0.1956718 -36.54  0.002417885    2.458    0.593
        18  -9.4123    227.2140     14.7773   4.6184042571e+01   2.5629979578e+01    0.3572343    0.2157739 -87.82   0.00171601    1.807    0.446
        19 -10.7988    121.0308      3.9900   5.7183905566e+01   5.4372434697e+01    0.6855611    0.5055896  69.72  0.002546118    1.404    0.288
        20  -9.9833    199.5421      8.1767   4.7063420486e+01   3.3350818895e+01    0.2819265    0.2054864  43.61  0.001452527    1.496    0.331
        21 -11.4243    109.1356      4.4516   5.9989118511e+01   5.7211939867e+01     1.432705    0.6434184  56.92  0.006152614    2.032    0.508
        22  -9.1550     26.8838      3.4187   8.9922338006e+01   7.2252236939e+01    0.4110171    0.1880528 -48.09  0.002071065    2.331    0.571
        23  -8.7318     49.4760      7.0046   8.0839297353e+01   6.8734775478e+01    0.2341373    0.1564779  14.37   0.00117398    1.600    0.375
        24  -9.4771    230.2045      6.1165   4.3639108189e+01   2.5785638160e+01    0.2505583    0.1874733 -75.21 0.0008689396    1.295    0.228
        25  -9.5027    222.6589      3.8554   4.3666405452e+01   2.7864860155e+01    0.3417752    0.1912472 -49.58  0.001312494    1.693    0.409
        26 -10.3671    218.3525      2.1647   4.3573829082e+01   2.9103307847e+01    0.5813969    0.1887283  67.69  0.002211524    2.772    0.639
        27  -7.5672     19.2476      5.6096   9.5270098508e+01   7.2687949136e+01    0.1047707   0.08415605 -60.06 0.0006945257    1.669    0.401
        28 -10.3339    204.3580      4.1594   4.5402533200e+01   3.2486548512e+01    0.3578453    0.2304251  82.83  0.001276194    1.530    0.346
        29  -8.8499     40.2333      1.8497   8.2249292661e+01   7.0803869697e+01    0.3060512    0.1512914  29.99  0.001393924    2.209    0.547
        30  -8.6173     16.7736      1.7558   9.4685009884e+01   7.3558171805e+01     0.193106    0.1501967  30.57  0.001044512    1.622    0.383
        31  -7.6166      1.6397      1.2846   1.0363298023e+02   7.4821705227e+01   0.09225299    0.0844332  80.06  0.000702007    1.679    0.405
        32  -9.8286     68.8341     62.1991   9.5780561325e+01   5.5914614549e+01    0.4117968    0.2448429   6.20  0.001615776    3.382    0.704
        33  -7.8650     83.4743     89.5078   9.8677969577e+01   4.7715613654e+01     0.139684    0.1295202 -54.75 4.878518e-05    1.034    0.033
        34  -8.4786     76.1531     60.1469   9.2607697093e+01   5.5197977216e+01    0.1897466     0.164998 -74.51   0.00108099    1.333    0.250
        35  -8.6085     93.1580     56.9238   8.5937183959e+01   5.2841253717e+01    0.2207083     0.197202 -69.19  0.001102973    1.282    0.220
        36  -9.4616    198.9783     55.2859   6.1099300015e+01   2.7764549285e+01    0.3116043    0.2714098  11.13 0.0006606809    1.268    0.211
        37  -9.3459     66.3120     53.8462   9.3979452773e+01   5.8013718893e+01    0.5087993    0.1608189 -51.80  0.001781607    3.165    0.684
        38 -10.0190     24.9017     65.1936   1.1258605438e+02   6.0288770687e+01    0.6607013    0.2287993 -53.70  0.003018912    2.212    0.548
        39  -8.2316     23.1643     52.1559   1.1020609119e+02   6.3278876100e+01    0.1614898    0.1337615 -82.99  0.001077938    1.317    0.241
        40 -10.5701     81.9753     39.8606   8.3307176524e+01   5.8076795264e+01    0.6016776    0.3695078 -46.77  0.002922466    1.674    0.403
        41  -9.8098     87.0293     48.7497   8.4998441117e+01   5.5538266224e+01    0.3839683    0.2828261 -33.05  0.001952172    1.292    0.226
        42 -10.0869     82.9797     47.5071   8.5889878391e+01   5.6507874423e+01    0.4718128    0.3450425 -27.30  0.002241626    1.365    0.267
        43  -9.0551    110.8221     45.5354   7.6530655641e+01   5.1272519994e+01    0.3368056    0.2014655 -32.91  0.001509301    1.650    0.394
        44  -9.2757     92.4206     45.1818   8.1918293453e+01   5.5161902866e+01    0.2276345    0.1741418  49.84  0.001193484    1.420    0.296
        45  -9.2143     12.2819     34.1095   1.1001162778e+02   6.7859846445e+01    0.3875894    0.2119221 -56.04  0.001775661    1.408    0.290
        46 -10.4746      3.3721     40.2435   1.1567466754e+02   6.7098073893e+01    0.5001729    0.3651667 -74.89  0.002875454    1.290    0.225
        47  -9.5435    160.5110    240.8271   1.0693020914e+02   6.4521491816e+00    0.2201813    0.1028564  54.04  0.001151914    2.292    0.564
        48  -9.3358    200.8075    226.4135   9.8209544535e+01   1.9027383205e+00    0.1728831   0.08479055  33.90 0.0007448015    1.687    0.407
        49  -8.8804    210.3158    224.3411   9.6312925141e+01   6.4592788159e-01    0.1192741   0.07380641  16.79 0.0007048215    1.707    0.414
        50  -9.2915    124.0028    206.0052   1.0934392628e+02   1.7234211354e+01    0.1712423    0.1397545  51.20   0.00115304    1.025    0.024
        51  -8.7224     38.2318     37.1933   9.9310010636e+01   6.4978457746e+01    0.2314362     0.212282  76.30  0.001563306    1.437    0.304
        52  -9.0823     67.7600     36.1176   8.6905200584e+01   6.1186116086e+01    0.4112454    0.2765425  63.23  0.001986486    2.415    0.586
        53  -9.5139     66.6083     29.7851   8.4708609773e+01   6.2480036227e+01     0.410836    0.2220701 -27.29  0.001735264    1.969    0.492
        54  -9.6671    108.5118     38.6788   7.4568077716e+01   5.2906143279e+01    0.3044046    0.2107701  23.64 0.0006942961    1.696    0.410
        55  -8.9129     27.4632     35.0502   1.0332765694e+02   6.6482176467e+01    0.2198665     0.185444   3.17  0.001515279    1.332    0.249
        56 -10.4532    225.1925     29.6220   5.0381475603e+01   2.4472560901e+01    0.5049589    0.3991405  44.56  0.001770301    1.403    0.287
        57  -9.8487     86.3454     31.1730   7.8287901633e+01   5.8714233264e+01    0.3329797    0.2709867 -14.04  0.001875301    1.190    0.159
        58  -8.9725     91.4923     29.6204   7.5969993721e+01   5.7935256891e+01     0.454501    0.2510827 -50.57  0.001936785    2.371    0.578
        59 -11.4789     11.5518    140.8680   1.2647203419e+02   4.4448871836e+01    0.5440869    0.2785454 -70.40  0.003275729    1.647    0.393
        60 -10.7511      4.8983    139.4756   1.2790635255e+02   4.5256248128e+01    0.3985775    0.2830818 -76.55  0.002863481    1.229    0.186
        61  -8.8689     97.3809     28.1864   7.3550740186e+01   5.6930041712e+01    0.5145766    0.2568955 -16.57  0.001954314    2.785    0.641
        62  -8.6916    125.6156     28.7020   6.6223793018e+01   5.0391353479e+01     0.279179    0.2628158 -53.55   0.00127607    1.163    0.140
        63  -8.2680    250.3042     27.6563   4.7392831814e+01   1.8740076602e+01    0.1452196   0.08528863 -54.73 0.0007040746    1.685    0.407
        64  -8.9788    104.5582     26.2886   7.0670305852e+01   5.5645285766e+01    0.3860175    0.2366343  63.36  0.001758203    1.949    0.487
        65  -8.6952     10.8441     22.6246   1.0703504042e+02   7.0255636623e+01    0.2919354    0.1060723 -49.88   0.00124364    1.981    0.495
        66  -8.4313     22.3948     23.9732   1.0172094427e+02   6.9102138656e+01    0.4005566     0.289553  60.19  0.002399089    2.289    0.563
        67  -8.7311     40.6603    143.3205   1.1982325025e+02   4.1208312761e+01    0.1301732   0.07526202  68.72 0.0007050111    1.715    0.417
        68 -10.2490     10.8930    127.7793   1.2556912908e+02   4.7324714175e+01    0.3585101   0.08485423 -67.29  0.001529965    3.036    0.671
        69  -8.6808     22.4425    125.7040   1.2246242209e+02   4.6848727932e+01    0.1790658    0.1408435 -31.73 0.0008104091    1.783    0.439
        70 -12.6752    241.3283    132.4969   7.4029983783e+01   6.8348783432e+00     1.496364     1.016036  41.31  0.005843447    1.464    0.317
        71  -9.5900     17.0829    104.4894   1.2154033033e+02   5.2030780749e+01    0.2872108     0.269656  38.76  0.002167482    1.334    0.250
        72  -9.1428     68.7773    105.1000   1.0657146213e+02   4.6405054088e+01    0.2689447    0.1710538 -45.44  0.001366427    1.653    0.395
        73  -9.4727     30.2621    101.5517   1.1730652588e+02   5.1608013215e+01     0.234177    0.1906503 -48.10  0.001549191    1.335    0.251
        74  -9.1226     47.2978     99.4460   1.1185921978e+02   5.0381448888e+01    0.2754785    0.1909082 -30.34  0.001502482    1.925    0.481
        75  -9.3219      2.1348     90.0605   1.2425975184e+02   5.6248733599e+01    0.4373761    0.1706298 -73.68  0.002249693    1.947    0.486
        76 -10.8815    172.6887    242.3475   1.0505404703e+02   4.4057750434e+00    0.4010095    0.2266374  26.87  0.002397502    1.869    0.465
        77  -8.0903      8.3947     16.1454   1.0596095812e+02   7.1666272601e+01    0.2359312    0.1174033  -8.21  0.001230476    2.787    0.641
        78  -8.8829     20.0189     89.1951   1.1859670512e+02   5.5268201030e+01      0.19611    0.1136357  61.16  0.001077681    2.021    0.505
        79  -9.2519    227.7254     79.0281   6.3257798982e+01   1.7336853384e+01    0.4594271    0.2854632   6.57  0.001905803    2.411    0.585
        80  -9.6114     13.5529     61.7432   1.1611900779e+02   6.1874339313e+01    0.4558426    0.3939836 -40.54  0.003318019    1.225    0.184
        81 -10.7703      3.9441     75.9817   1.2191347724e+02   5.9283849545e+01    0.6282485    0.4955086  88.53  0.004488225    1.197    0.165
        82  -9.2528      9.2996     80.0406   1.2070680214e+02   5.8067458712e+01    0.2970659     0.218342 -48.50  0.001274833    1.358    0.264
        83 -10.7576     18.1441     73.5195   1.1665532351e+02   5.8943065541e+01    0.6168701    0.3898397 -45.10  0.003583508    1.540    0.351
        84 -10.4754     11.9814     70.6896   1.1832690204e+02   5.9990781759e+01    0.5872734    0.3136482 -52.83  0.003213088    1.576    0.366
        85  -8.8531    138.7148     78.5967   8.0274048558e+01   3.8961603986e+01    0.2638787    0.1958842  60.72 0.0006732951    1.451    0.311
        86  -9.6007     74.3628     68.5216   9.5818260186e+01   5.3734671141e+01    0.3951331    0.3236347 -26.15  0.002229437    1.303    0.232
        87  -8.5237     64.0632     69.3437   9.9546415856e+01   5.5079810051e+01    0.2415988     0.167075 -43.26  0.001188148    1.345    0.256
        88  -8.6439     84.4688     69.4891   9.2801894141e+01   5.1878198072e+01    0.2375824    0.1316309  52.24  0.001027572    2.189    0.543
        89  -9.3508     33.0781     68.8389   1.1039841320e+02   5.8772725582e+01    0.2701807     0.204246 -10.99  0.001432825    1.684    0.406
        90  -9.6621     47.2551     62.6824   1.0367484697e+02   5.8665156926e+01    0.5646263    0.3928871 -21.68  0.003108126    1.777    0.437
