#   1 NUMBER                 Running object number                                     
#   2 MAG_AUTO               Kron-like elliptical aperture magnitude                    [mag]
#   3 X_IMAGE                Object position along x                                    [pixel]
#   4 Y_IMAGE                Object position along y                                    [pixel]
#   5 X_WORLD                Barycenter position along world x axis                     [deg]
#   6 Y_WORLD                Barycenter position along world y axis                     [deg]
#   7 A_WORLD                Profile RMS along major axis (world units)                 [deg]
#   8 B_WORLD                Profile RMS along minor axis (world units)                 [deg]
#   9 THETA_WORLD            Position angle (CCW/world-x)                               [deg]
#  10 FWHM_WORLD             FWHM assuming a gaussian core                              [deg]
#  11 ELONGATION             A_IMAGE/B_IMAGE                                           
#  12 ELLIPTICITY            1 - B_IMAGE/A_IMAGE                                       
         1 -12.1642    173.9498     41.3740   6.7893516059e+01   3.6321995922e+01     1.454639    0.9766641  14.01   0.00537444    1.779    0.438
         2 -11.7391    192.4799     13.0788   5.5809900823e+01   3.4542015423e+01    0.9963332    0.7385985  81.53  0.004995257    1.434    0.303
         3  -9.0381    120.1594      9.1035   6.6572159909e+01   5.3708676731e+01    0.3266082    0.2880899  19.53  0.001481916    1.021    0.021
         4 -11.4046    193.4678      6.1497   5.3481209488e+01   3.4902002801e+01    0.9202084     0.531684  80.76  0.004006487    1.877    0.467
         5  -8.3774    114.5678    187.7005   1.1448895773e+02   2.3872473094e+01    0.2852636    0.1044879  49.11  0.001179404    2.393    0.582
         6  -8.0311    168.0468    249.7240   1.1260339665e+02   7.5104737016e+00    0.1465044    0.1283109  62.20 0.0008926177    1.384    0.277
         7  -8.9657    139.3997    249.3147   1.1697187735e+02   1.1685851229e+01    0.3107056    0.1968954  43.37  0.002347036    1.164    0.141
         8 -10.0356    133.5859    249.5435   1.1788835797e+02   1.2476740046e+01    0.3218231    0.2411418  24.56  0.002278134    1.695    0.410
         9 -13.4699     75.2574    249.1500   1.2671062593e+02   2.0118479807e+01    0.2761237    0.2145204  84.54  0.002530822    1.344    0.256
        10 -18.2751     47.3593    239.6437   1.3030226467e+02   2.4579975211e+01     3.230247     2.550489  65.30    0.0183468    1.215    0.177
        11  -9.6543    174.7913    213.8678   1.0718186322e+02   1.0505178573e+01    0.3336834    0.1281412  43.64  0.001680809    2.007    0.502
        12  -8.7581    125.7975    186.9976   1.1228602667e+02   2.2234179122e+01    0.2136029    0.1432802  54.37 0.0003608825    1.309    0.236
        13  -8.1056     24.7135    187.5480   1.3101252238e+02   3.5037907241e+01    0.1271925   0.07148942  53.91 0.0003632047    1.437    0.304
        14  -7.6635    195.8396    184.8343   9.9148755356e+01   1.0494492546e+01    0.1541442    0.1378674  55.71 0.0004790574    1.335    0.251
        15  -9.3642     17.5978    181.0956   1.3188819927e+02   3.6808104675e+01    0.1745939    0.1333182 -79.69 0.0007259671    1.329    0.248
        16  -8.4260    222.3084    179.7534   9.3737018280e+01   6.3674341889e+00    0.1934988    0.1473924 -22.36 0.0005274603    1.455    0.313
        17  -9.0509    162.5616    178.4553   1.0411176950e+02   1.7325723252e+01    0.3185599    0.2384427 -84.79  0.001808294    2.076    0.518
        18  -8.3316    190.6526    209.6827   1.0393210302e+02   8.3934449295e+00    0.1207051   0.07534983  22.62 0.0007048324    1.727    0.421
        19  -8.9402    204.5539    176.8311   9.6237112201e+01   9.9197110683e+00    0.2518983     0.222267  34.78 0.0009968466    1.156    0.135
        20  -7.6898      4.5424    176.4814   1.3395518446e+02   3.8722591914e+01    0.1306653    0.1082721  57.25 0.0005113484    1.326    0.246
        21  -9.1644      7.2920    173.9685   1.3333599018e+02   3.8941605804e+01    0.5375006    0.2433046 -49.45  0.002935429    4.010    0.751
        22  -9.1824    195.8850    208.1113   1.0282778631e+02   7.7043002899e+00    0.1777696    0.1407051  45.05  0.001244087    1.212    0.175
        23  -8.7834    185.7689    228.5362   1.0731491911e+02   7.0759231652e+00    0.2547923    0.1407691 -44.23  0.001489444    2.517    0.603
        24  -9.8532    102.6720    170.9601   1.1464345087e+02   2.8504827062e+01     0.448828    0.1979564  55.88  0.002102173    2.447    0.591
        25  -8.4838    154.4306    203.2995   1.0925874401e+02   1.5191106065e+01    0.4154506    0.2644435  77.66   0.00216162    2.850    0.649
        26  -9.2405    110.9967    169.2233   1.1273667382e+02   2.7533338298e+01    0.2344248    0.1443821  57.87  0.001130573    1.574    0.365
        27  -9.5105    192.6279    164.9403   9.6184975462e+01   1.3696420425e+01     0.469926    0.3393732 -72.54  0.002251234    2.624    0.619
        28  -9.7060    113.9483    164.9761   1.1152936986e+02   2.7811324493e+01    0.3616866    0.2378638  74.21  0.001306771    1.884    0.469
        29  -7.7583      4.2514    166.3426   1.3348298429e+02   4.0546559323e+01   0.08884673   0.06269347 -66.04 0.0004323989    1.576    0.366
        30  -9.1758    247.8916    163.7189   8.6558396068e+01   3.5642054971e+00     0.307117    0.1844106  43.30  0.001269988    1.538    0.350
        31  -8.2979    126.0365    163.8130   1.0889362729e+02   2.6031184006e+01    0.1957467    0.1501092  66.54 0.0007885349    1.337    0.252
        32  -9.5659    117.3517    153.1780   1.0899491603e+02   2.9365982662e+01    0.4355746    0.2138143  41.58  0.002111556    1.915    0.478
        33  -9.8193    102.8340    145.3760   1.1086415126e+02   3.3169015463e+01    0.4236858    0.3088374  57.10 0.0009192598    1.310    0.236
        34 -10.0587    111.7662    151.4139   1.0989862596e+02   3.0607829618e+01    0.3851979    0.2957263  56.84  0.001707745    1.212    0.175
        35 -10.9583    103.9538    153.2314   1.1185558991e+02   3.1516920838e+01    0.6076972    0.5098818 -88.46  0.002797342    1.198    0.166
        36  -9.6800    103.8815    160.8977   1.1300764735e+02   3.0119901736e+01    0.2590302    0.2329033  -5.16  0.001731642    1.526    0.345
        37  -9.6304    101.0075    157.7784   1.1315765648e+02   3.1130358293e+01    0.3645036    0.2039044  45.24 0.0003497866    1.633    0.388
        38 -11.1657     25.3046    157.1057   1.2882406466e+02   4.0467591753e+01    0.4383177    0.3632864  80.20  0.002919448    1.114    0.102
        39  -9.3090    248.3784    158.6437   8.5475375034e+01   4.0191708442e+00    0.2442942    0.1894123  16.09 0.0001515535    1.047    0.045
        40  -8.7725    133.4736    157.4174   1.0633378214e+02   2.5856707133e+01    0.4766596    0.2712967  76.32  0.001779312    4.094    0.756
        41  -9.9757     42.5482    157.0287   1.2531530273e+02   3.8792339445e+01    0.3400985    0.2240831  82.33  0.002327053    1.349    0.259
        42  -8.4817    169.9442    156.9575   9.8949683830e+01   1.9198152589e+01    0.1939431    0.1700645  33.13 0.0003155071    1.035    0.034
        43  -8.2150    146.4925    157.5136   1.0369740221e+02   2.3508594684e+01    0.2242945    0.1112432  53.44 0.0006231085    2.064    0.516
        44  -8.6568    189.3696    155.5795   9.4991087346e+01   1.5633735573e+01    0.2782962    0.2513622  47.61  0.001744672    1.179    0.152
        45  -8.6900    248.2166    153.9153   8.4544683400e+01   4.5610927645e+00    0.2083695    0.1555315  32.21 0.0003524297    1.178    0.151
        46  -7.3945    155.3461    154.3047   1.0133534435e+02   2.2395554226e+01    0.1338117   0.09882611  16.57 0.0007041384    1.692    0.409
        47 -10.0738     10.8536    153.0092   1.3141679440e+02   4.2479739454e+01    0.4584827     0.226617  16.63  0.002554715    3.745    0.733
        48 -10.0634    216.4661    152.0216   8.9399736765e+01   1.0802546562e+01    0.2330387    0.1923123  31.62 0.0003119416    1.075    0.070
        49  -9.9642    134.1093    148.4630   1.0463894609e+02   2.7308009271e+01    0.7539263    0.3444642 -61.92  0.002877367    3.611    0.723
        50 -10.1568    113.7235    137.9097   1.0716676891e+02   3.2810864866e+01    0.5174431    0.4049576  79.65  0.003006542    1.435    0.303
        51  -9.8909    116.4434    146.0062   1.0799056085e+02   3.0832978000e+01    0.3761688    0.2200079  56.77  0.001515578    1.793    0.442
        52  -9.6083    112.0351    143.0570   1.0844888450e+02   3.2120476767e+01    0.2755175    0.2126934  61.60 0.0004534342    1.274    0.215
        53 -10.6750      7.7190    144.8477   1.3150041118e+02   4.4274938000e+01    0.3539922    0.1606328  81.96 0.0009090203    2.038    0.509
        54  -9.4454     27.6193    145.1954   1.2735787317e+02   4.2540187109e+01    0.1930981    0.1731241  60.78  0.001571811    1.271    0.213
        55  -9.9115     31.1876    142.6072   1.2635420392e+02   4.2715755619e+01    0.2261693    0.1974657  13.40  0.001741254    1.655    0.396
        56  -9.4162     14.1288    142.6150   1.3000349131e+02   4.4202580670e+01    0.2092032    0.1677014  41.27  0.001678145    1.460    0.315
        57 -10.2883    120.4615    201.8708   1.1511961834e+02   2.0761371298e+01    0.3755666    0.2438976 -59.28  0.001657864    1.843    0.458
        58  -9.7789    103.2493    137.4805   1.0945260544e+02   3.4617926855e+01    0.2228406    0.2070057  77.48 0.0003828338    1.017    0.017
        59  -9.2877    144.4854    147.5421   1.0229526759e+02   2.5566527492e+01    0.2890625     0.197964  82.98  0.001372766    2.343    0.573
        60 -10.2980     37.6489    136.3167   1.2429062659e+02   4.3341207174e+01    0.3096122    0.1588824  73.05  0.001680644    2.210    0.547
        61  -8.7281    235.4041    134.0907   8.2381322435e+01   9.3010275295e+00     0.217294    0.1757127  40.16 0.0001908812    1.227    0.185
        62  -7.6961    163.9602    134.2399   9.5588041917e+01   2.4019628654e+01    0.1898013    0.1627948  43.31 0.0003199003    1.080    0.074
        63  -9.6257    119.4069    130.2492   1.0444147323e+02   3.3284755646e+01    0.5245138    0.2258355 -56.05  0.002147589    2.679    0.627
        64  -8.2780    167.8932    230.6244   1.1045805656e+02   9.6245944107e+00    0.1532866    0.1345787  16.49 0.0005765165    1.321    0.243
        65  -9.5672     90.8767    129.2171   1.1088801369e+02   3.8169327311e+01    0.2943118    0.2218961  64.06 0.0009291341    1.352    0.260
        66 -10.3592     27.8116    127.4239   1.2559991629e+02   4.6060299129e+01    0.3007454     0.173158  64.68  0.001166455    1.739    0.425
        67  -8.6290    173.9527    201.0953   1.0553119918e+02   1.2235177499e+01    0.1847388    0.1721905 -73.44 0.0005391188    1.416    0.294
        68  -9.6954    135.1347    195.5833   1.1168982241e+02   1.9422034350e+01    0.4277253    0.2365512 -66.19  0.002200664    2.657    0.624
        69  -8.8200    107.0037    125.1893   1.0633321375e+02   3.6403051381e+01    0.2235657    0.1877603 -44.03 0.0008005764    1.279    0.218
        70  -9.8817      7.8295    116.1222   1.2921115637e+02   4.9942834282e+01     0.225665    0.1351493  68.35  0.001111328    1.594    0.373
        71 -10.1823      5.3120    112.9797   1.2953288680e+02   5.0753303196e+01    0.2986419    0.2288215  -1.55  0.002230825    1.992    0.498
        72  -8.8069    168.4959    113.9925   9.0034155496e+01   2.6444331687e+01    0.3154479     0.242355 -68.91  0.001149713    1.800    0.444
        73  -9.3315    156.7095    192.5112   1.0734349241e+02   1.6312199229e+01    0.5461261    0.3001035 -68.70  0.002359957    4.161    0.760
        74  -7.9433    171.6613    195.3067   1.0507843512e+02   1.3380407474e+01    0.1169956   0.08660302  66.03 0.0007041879    1.679    0.405
        75 -10.0005     59.8267    109.9737   1.1529555239e+02   4.6355322631e+01    0.2787865     0.212888   7.62  0.001674341    1.913    0.477
        76  -8.9570     88.0590    109.3811   1.0785750626e+02   4.2629062455e+01    0.2822003    0.1224645  40.26  0.001235518    2.388    0.581
        77  -8.7742     35.2736     97.6502   1.1988788976e+02   5.1583383276e+01    0.2154578    0.1267924  53.14  0.001256433    1.903    0.475
        78  -9.5376    191.4743    192.7346   1.0120716692e+02   1.0280581746e+01    0.3732825     0.234054 -59.71  0.001919202    3.004    0.667
        79  -8.3850    175.9951     87.8728   8.1693965844e+01   2.9017169618e+01    0.2149316    0.1977866  18.04 0.0002746784    1.039    0.038
        80  -7.5998    138.7815     88.3054   8.9979437625e+01   3.7405928146e+01    0.1984934    0.1275838  40.71 0.0003447407    1.575    0.365
        81  -9.6143    231.9722     78.7573   6.9464483654e+01   1.7005243737e+01    0.2853015     0.233703  34.54 0.0005049034    1.191    0.160
        82  -8.4266    236.0366     74.9989   6.7886173659e+01   1.6533487379e+01    0.2691137    0.1811829  31.57 0.0007913921    1.545    0.353
        83  -8.9123      2.4438     77.4395   1.2645113187e+02   5.8293769522e+01    0.2588114    0.1280947  68.44  0.001409733    2.566    0.610
        84  -8.3127    118.1187     70.9702   9.0093047727e+01   4.4917063593e+01    0.2072098     0.197905 -12.48 0.0004072895    1.012    0.012
        85  -8.0731    234.4512     67.5279   6.6128746903e+01   1.7811512335e+01    0.1434338    0.1307818   2.43  0.000182492    1.016    0.016
        86 -11.2528    161.1050     56.6683   7.5378444471e+01   3.7477249669e+01    0.6559371    0.4935479 -56.97  0.001889956    1.626    0.385
        87  -7.7723    174.8649     61.1407   7.4053403309e+01   3.3380380295e+01    0.2045956    0.1683456  19.96  0.001016211    1.252    0.201
        88  -8.2207    150.8378    249.1333   1.1519075783e+02   1.0074063480e+01    0.1520067     0.109021  52.26 0.0007050731    1.172    0.147
        89 -10.3307    178.5264     34.3796   6.4797448683e+01   3.5988799715e+01    0.4205833    0.3240823   7.74 0.0009608854    1.394    0.283
        90  -8.5406    148.6732     51.1646   7.6203803132e+01   4.1359728224e+01    0.2556433     0.168687  10.29 0.0007903965    1.983    0.496
        91 -10.2771    130.7481     48.5423   7.9450668818e+01   4.6013367030e+01    0.2623132    0.2406927  -8.30 0.0002593822    1.042    0.041
        92  -8.6335    142.0107     44.7332   7.5465400183e+01   4.3929789003e+01    0.2078327    0.1882498  40.15 0.0003315557    1.090    0.082
        93  -9.1077    226.1615     30.0504   5.6835288275e+01   2.4094996779e+01    0.3433502    0.2376303 -16.10  0.000946286    1.445    0.308
        94 -11.9480    242.5381    241.3636   1.0030009462e+02  -2.7157758152e+00     0.218474    0.1514099  31.31 0.0002197744    1.093    0.085
        95  -7.5519    171.3959     14.7686   5.9296961962e+01   4.0017469291e+01    0.1935083    0.1392263   0.60  0.000276036    1.497    0.332
        96 -10.1204    184.1622    214.0716   1.0564010659e+02   8.9531179294e+00    0.4784124    0.2781506 -50.97   0.00283382    2.583    0.613
