#   1 NUMBER                 Running object number                                     
#   2 MAG_AUTO               Kron-like elliptical aperture magnitude                    [mag]
#   3 X_IMAGE                Object position along x                                    [pixel]
#   4 Y_IMAGE                Object position along y                                    [pixel]
#   5 X_WORLD                Barycenter position along world x axis                     [deg]
#   6 Y_WORLD                Barycenter position along world y axis                     [deg]
#   7 A_WORLD                Profile RMS along major axis (world units)                 [deg]
#   8 B_WORLD                Profile RMS along minor axis (world units)                 [deg]
#   9 THETA_WORLD            Position angle (CCW/world-x)                               [deg]
#  10 FWHM_WORLD             FWHM assuming a gaussian core                              [deg]
#  11 ELONGATION             A_IMAGE/B_IMAGE                                           
#  12 ELLIPTICITY            1 - B_IMAGE/A_IMAGE                                       
         1 -13.5339    225.1879      6.5113   3.4842370054e+01   2.8580046969e+01     2.114543     1.136747  48.27  0.009887018    2.409    0.585
         2 -12.9858    182.1356     50.9059   5.1254909274e+01   3.3389829290e+01     1.013504    0.9242011  -3.88 0.0008265658    1.251    0.201
         3 -13.2237    194.1265     41.2628   4.6778228474e+01   3.1783830146e+01     1.182079     0.957782 -44.41  0.003736594    1.216    0.178
         4 -13.4447    201.9289     32.9062   4.3550615250e+01   3.0974706380e+01     1.082973    0.9128501 -16.45   0.00141076    1.411    0.291
         5  -9.1953    189.4876     15.0119   4.0355869023e+01   3.6033949648e+01      0.18617    0.1299125 -29.25 0.0006400696    1.562    0.360
         6 -12.6241     41.6144      9.4163   7.4111531371e+01   6.8934164338e+01    0.7403115    0.4162864 -11.69  0.004061833    1.834    0.455
         7 -12.0652     59.7000      3.0524   6.3345841646e+01   6.6759471209e+01    0.7809391    0.2136412  40.63  0.003090841    3.171    0.685
         8  -8.9237    149.4508    176.9806   9.0257827326e+01   1.6166698675e+01    0.2089537    0.1451038 -49.68 0.0004608964    1.519    0.342
         9 -10.2621    140.3777    249.8160   1.0352100564e+02   4.1908336949e+00    0.2656579    0.1880677  48.75  0.001399484    1.286    0.223
        10 -10.4941    125.2383    243.9818   1.0579012600e+02   7.4455711158e+00    0.5280759    0.1332947 -49.57  0.001956795    4.736    0.789
        11 -10.7554    120.1880    245.8159   1.0699998913e+02   7.8954761563e+00    0.3297623    0.1954764  52.10  0.001148858    1.558    0.358
        12 -11.0111    115.1540    246.6535   1.0808140181e+02   8.5023413146e+00    0.4541553    0.2637523 -74.32  0.002440623    2.407    0.585
        13  -8.6075    107.3594    250.3030   1.0998476610e+02   9.0215145752e+00    0.1129706   0.08984912   9.80 0.0007038235    1.721    0.419
        14 -19.1264     14.1928    175.5166   1.2240937174e+02   3.5799168457e+01     17.72484     4.407706 -79.30   0.06345663    3.960    0.747
        15  -9.2618     87.3727    204.0764   1.0890554222e+02   2.0814504622e+01    0.3490614    0.2287778 -85.01  0.001837808    1.721    0.419
        16 -10.2864    143.8576    178.0067   9.1755373083e+01   1.6992825988e+01    0.3478754    0.2122223 -47.36  0.001079053    1.710    0.415
        17  -8.5492    224.0041    206.7483   8.0343740462e+01  -2.2884767464e+00    0.1579663   0.09965641  32.30 0.0003894605    1.482    0.325
        18  -9.9626    138.0033    169.5010   9.1515361150e+01   1.9911953144e+01    0.3378118    0.2596816  39.48 0.0007946347    1.260    0.206
        19 -10.0527    240.1270    169.1328   7.0035929100e+01   9.7017483742e-01    0.2119139    0.1615545  -5.44 0.0004689201    1.246    0.198
        20 -10.0763    230.3777    167.0679   7.1336496142e+01   2.9610156345e+00    0.3856776    0.1936682 -54.08  0.001342814    3.637    0.725
        21 -10.5404    112.4832    205.5268   1.0350116388e+02   1.6653443108e+01    0.3069504    0.2150263  53.78 0.0007902887    1.368    0.269
        22  -9.3389    187.7541    162.7137   7.8774405646e+01   1.1653820159e+01    0.2549849    0.2076417 -38.34 0.0008220592    1.231    0.188
        23  -8.7115     93.4744    205.3922   1.0771460701e+02   1.9633219166e+01    0.2258187    0.1179811  37.19 0.0009525157    1.800    0.445
        24 -10.1769     53.0904    157.4831   1.1112192409e+02   3.6129745187e+01    0.2521681    0.1657956 -54.25 0.0008003101    1.495    0.331
        25 -11.7035     92.9323    151.8376   9.9628438554e+01   3.1954378129e+01    0.7250118    0.5436972 -27.46  0.003543201    1.694    0.410
        26  -9.9924    149.3580    187.9224   9.2318009609e+01   1.3932175401e+01      0.31488    0.2290144  46.45 0.0008476309    1.343    0.256
        27 -10.9335    133.8238    145.3721   8.7533457942e+01   2.6113440058e+01     1.249597    0.3581474 -55.16  0.003097655    5.164    0.806
        28  -9.2953    186.8371    151.6093   7.6522895482e+01   1.3997836493e+01    0.2098573     0.141794  52.70 0.0009494232    1.679    0.405
        29  -9.2705    112.5124    150.9186   9.4241610844e+01   2.8843908963e+01    0.2264116    0.1997686  44.31 0.0004574809    1.137    0.121
        30  -9.2013    174.7017    149.0277   7.8582043938e+01   1.6994143735e+01    0.2175028    0.1942922 -36.45 0.0004536358    1.112    0.101
        31  -9.6188    143.6101    146.1831   8.5256108916e+01   2.3978526624e+01     0.227018    0.1426928 -37.13 0.0009569814    1.698    0.411
        32 -10.6815    105.2320    138.1543   9.3544514847e+01   3.3176195407e+01     0.596428     0.334245 -32.21  0.002256996    2.502    0.600
        33 -10.3087    106.0003    130.7413   9.1695785535e+01   3.4811086920e+01    0.4164616    0.3340236 -62.19  0.001268802    1.267    0.211
        34 -11.6349     92.9475    137.9138   9.6916107327e+01   3.5326817820e+01    0.2921856     0.264777 -35.01 0.0003485444    1.165    0.142
        35 -10.7181    135.7939    129.4171   8.3316803413e+01   2.9335247560e+01    0.7632836    0.1937936 -50.30  0.001955124    4.461    0.776
        36  -8.4531    223.4654    198.4888   7.8897997827e+01  -9.4563491865e-01    0.1322622     0.111627   1.24 1.183655e-05    1.022    0.021
        37 -10.7994    114.0453    128.9800   8.9045916910e+01   3.3744063949e+01    0.5070354    0.3516683  22.27  0.001384576    1.760    0.432
        38  -8.4955     96.5472    128.5297   9.3887505998e+01   3.6998240249e+01    0.1496564    0.1421866 -72.57 5.781722e-05    1.048    0.046
        39  -9.1174    160.1572    126.8070   7.6630233574e+01   2.4720457557e+01    0.2234576    0.1876328  -7.08  0.001074401    1.346    0.257
        40 -10.3342    100.7180    125.1369   9.1915598966e+01   3.7090236079e+01    0.3197233    0.2518144 -21.45  0.001217746    1.508    0.337
        41 -10.9666    119.5316    122.7224   8.6023699311e+01   3.4145896635e+01    0.5752578    0.3723087  -6.02  0.002068714    2.906    0.656
        42  -8.9956    133.2572    195.4102   9.7271407421e+01   1.5263723239e+01    0.1961858    0.1220796  47.11 0.0004092993    1.540    0.351
        43  -9.2776    109.0347    118.2568   8.7870791048e+01   3.7203006748e+01    0.2470166    0.2114469 -47.40 0.0004181351    1.129    0.114
        44 -10.0248    231.2700    113.8176   5.9346921327e+01   1.1896184074e+01    0.2935167    0.2518544 -38.67 0.0007478555    1.063    0.059
        45  -8.9167    167.6495    112.6256   7.1266101937e+01   2.5996716324e+01    0.3248893    0.2342742 -80.96  0.001279036    2.140    0.533
        46 -11.7379    117.7721    108.6591   8.2900330444e+01   3.7705163685e+01    0.8194808    0.7075189  80.86  0.003585864    1.398    0.284
        47  -9.4944    205.4467    110.1668   6.2910067970e+01   1.7977173798e+01    0.3082539    0.2139472  40.58 0.0008210409    1.563    0.360
        48  -9.6816    134.5277    105.0083   7.7319007104e+01   3.4997508930e+01    0.6083161    0.1529091 -43.72  0.001635609    3.916    0.745
        49 -12.1034    109.5972    200.8118   1.0347979086e+02   1.8096716586e+01    0.7287088     0.437278 -32.22  0.002836158    2.638    0.621
        50 -11.7966    193.7081    200.7735   8.5139079167e+01   3.6318617144e+00     1.562979    0.8217025 -42.63  0.007342136    2.041    0.510
        51 -11.2270     51.5771     89.9659   9.9188549988e+01   5.2715803250e+01    0.4849876    0.2915505  62.47 0.0005851632    2.870    0.652
        52  -9.1492     63.4896     98.9700   9.7283627491e+01   4.9130440185e+01    0.2608722    0.1892726  50.96 0.0006443486    1.655    0.396
        53 -10.8601     99.0505    180.8976   1.0298397049e+02   2.4144378326e+01    0.3580764    0.2602315  20.84  0.001527446    1.685    0.407
        54  -8.4325    156.5318     82.4587   6.5431271339e+01   3.4474296596e+01    0.1514824    0.1509056 -15.44 0.0001457258    1.010    0.010
        55  -8.5842    184.5005     77.4424   5.8242815526e+01   2.8633947997e+01    0.1463201    0.1453263  -3.81 8.249651e-05    1.050    0.047
        56  -8.9330     63.5109     69.9174   8.9233030381e+01   5.5621034474e+01    0.2077123    0.1264257 -47.81 0.0006184331    1.526    0.344
        57  -8.6941    168.2037    248.1618   9.7889566870e+01   1.9992981083e-01    0.1526373    0.1254278  46.02 0.0002154314    1.278    0.217
        58  -9.7770    120.0208    194.0600   1.0008473851e+02   1.7807925920e+01    0.2055048    0.1892306  57.87 0.0003411968    1.032    0.031
        59 -12.0247    107.7171    203.9937   1.0435154358e+02   1.7730736971e+01    0.5950588    0.5599214  -3.01 0.0004105166    1.273    0.215
        60  -8.8638    158.6419    235.0604   9.7931372323e+01   3.7231577592e+00    0.1740647    0.1574138  22.19  0.001157883    1.091    0.083
        61 -15.2247     72.4051    150.7746   1.0498205474e+02   3.5287780944e+01     5.582969      2.92472  85.38   0.01143318    3.740    0.733
        62 -11.2142    203.5798    199.5086   8.2924165444e+01   2.1648394412e+00    0.4314362    0.2405052  24.24  0.002015707    1.922    0.480
        63 -12.1506    183.7341    211.8053   8.9141997462e+01   3.4629086944e+00     1.119712    0.5093713  39.70  0.005015617    1.999    0.500
        64 -10.2378    189.2663    177.2588   8.1500772988e+01   8.6101303533e+00    0.4825304    0.3618159 -60.71   0.00240034    1.799    0.444
