#   1 NUMBER                 Running object number                                     
#   2 MAG_AUTO               Kron-like elliptical aperture magnitude                    [mag]
#   3 X_IMAGE                Object position along x                                    [pixel]
#   4 Y_IMAGE                Object position along y                                    [pixel]
#   5 X_WORLD                Barycenter position along world x axis                     [deg]
#   6 Y_WORLD                Barycenter position along world y axis                     [deg]
#   7 A_WORLD                Profile RMS along major axis (world units)                 [deg]
#   8 B_WORLD                Profile RMS along minor axis (world units)                 [deg]
#   9 THETA_WORLD            Position angle (CCW/world-x)                               [deg]
#  10 FWHM_WORLD             FWHM assuming a gaussian core                              [deg]
#  11 ELONGATION             A_IMAGE/B_IMAGE                                           
#  12 ELLIPTICITY            1 - B_IMAGE/A_IMAGE                                       
         1  -9.9141    249.8564     22.5735   1.0532283232e+00   2.2874521308e+01    0.3074598    0.1824172 -24.73  0.001897031    1.845    0.458
         2 -13.6489    221.9035    101.1730   2.0113359828e+01   1.7472180262e+01     3.398582     2.189889  32.62    0.0186238    2.229    0.551
         3 -12.2962    246.5297     57.9039   8.5234844375e+00   1.9253444555e+01     1.564304     1.080456 -18.72  0.007875655    1.774    0.436
         4 -12.0277    226.3819     52.8340   9.0292249537e+00   2.3511455246e+01     1.188642    0.5775492 -22.56   0.00409954    2.712    0.631
         5 -10.8653    243.2532     42.0737   5.4551034722e+00   2.1782137890e+01    0.6094041    0.3317438 -19.79   0.00216907    2.470    0.595
         6 -11.0362    235.8077     40.1853   5.5435723299e+00   2.3352276934e+01    0.8143518     0.430716 -18.61  0.003992367    2.748    0.636
         7 -11.7357    244.1050     28.5710   2.5776923007e+00   2.3218002827e+01     1.412188    0.3939595 -43.28  0.006239105    2.252    0.556
         8 -11.6698    221.8959     22.5839   2.5128841929e+00   2.8095902871e+01    0.8518384    0.5852451   1.64  0.002059104    2.654    0.623
         9  -8.7788    203.0628     19.8254   3.0204542603e+00   3.2320835819e+01    0.4090237    0.1891286 -20.44  0.001801085    2.895    0.655
        10  -8.7761    250.2516     14.4939   3.5939618711e+02   2.3679095600e+01    0.2688999    0.1342283 -26.39  0.001541248    2.060    0.514
        11  -8.8713    200.3318     13.5913   1.6436246128e+00   3.3605882619e+01    0.2118633    0.1779598 -52.27 0.0003295561    1.158    0.136
        12  -8.8105     92.9529     13.2206   1.3919501099e+01   6.0783795281e+01    0.2188354    0.1977217 -52.03 0.0003609287    1.172    0.147
        13  -8.2813    109.0209     12.4763   1.0486190662e+01   5.6578106153e+01    0.1978301    0.1806265 -80.35  0.001158217    1.070    0.065
        14  -9.3440    120.2502      9.4210   7.5392664229e+00   5.3878136503e+01    0.3544037    0.2773914 -30.86  0.001402685    1.408    0.290
        15  -8.4852    225.7929      5.3426   3.5844601463e+02   2.9184118830e+01     0.197942    0.1564038  78.28 0.0007559284    1.499    0.333
        16  -7.7189    204.1834      6.3697   3.5965137457e+02   3.3530631332e+01    0.1617187    0.1278811 -48.31 0.0005238106    1.158    0.137
        17  -8.0528     93.8442      3.8423   9.2541567253e+00   6.1457796507e+01      0.19251    0.1468648 -69.04 0.0003610345    1.306    0.235
        18  -8.0135     99.9776      3.0026   7.8141423330e+00   5.9895240636e+01    0.2291011    0.1419834 -62.92 0.0006009436    1.668    0.400
        19  -8.6777    114.5851      5.1746   6.6061216741e+00   5.5794208205e+01    0.2473557     0.179234   8.75  0.001271386    1.904    0.475
        20  -9.7034    249.7895    169.9751   2.9657133587e+01   3.7432759829e+00    0.3096452     0.182759 -41.49  0.001434842    1.679    0.404
        21  -8.4626      1.4985    249.9873   9.0590982084e+01   2.0610946060e+01    0.1477163    0.1086885  61.24 -0.0008077317    1.200    0.167
        22  -9.7277    230.1567    169.2542   3.2251667228e+01   6.2029632873e+00    0.3689803    0.1928462 -24.89  0.001744089    1.797    0.443
        23 -10.1218    193.3507    166.8093   3.7737533728e+01   1.1631511065e+01    0.4177772    0.3189285 -46.06  0.001688133    1.418    0.295
        24  -8.7079    113.2112    169.6765   5.5780862082e+01   2.4050982915e+01    0.2681104    0.2209216 -27.58 0.0007727397    1.386    0.278
        25  -8.7159      6.4544    169.9778   8.7253978189e+01   3.7749044104e+01    0.1979709    0.1634845  49.10 0.0004294363    1.080    0.074
        26  -7.2887     51.6527    169.4671   7.3390529273e+01   3.3277006609e+01    0.1399381    0.1287693  68.60 -1.020721e-05    1.074    0.068
        27 -10.1514    201.8491    165.7372   3.6067918950e+01   1.0557197440e+01    0.5079419    0.3179016 -15.18  0.002751986    1.822    0.451
        28 -10.7113    235.5490    161.3043   3.0075899119e+01   6.6245552050e+00    0.3837934    0.2788544  12.72  0.002632739    1.485    0.327
        29  -7.9998    184.7556    157.1106   3.7462115844e+01   1.4582183016e+01    0.1824679     0.168863 -50.30 0.0005313327    1.247    0.198
        30 -12.0850    205.6452    104.9985   2.3096597637e+01   1.9754120912e+01     1.075038    0.8217062 -40.93  0.005651873    1.115    0.103
        31  -7.6448    195.6871    249.6761   5.0179149539e+01  -4.7014268205e-01    0.1102242   0.06398712  -2.81 0.0007012483    1.659    0.397
        32  -7.5819    238.7257    229.6650   4.0565306864e+01  -2.3522256134e+00    0.1043406   0.05820228  -8.58 0.0002887942    1.602    0.376
        33  -9.1008      4.6713    225.9835   8.9413084528e+01   2.5018305015e+01    0.1853555     0.161219  -4.82 0.0007676599    1.564    0.361
        34  -8.4499     10.6523    225.1452   8.7982284219e+01   2.4668417123e+01    0.1568087    0.1026909 -74.30 0.0009479172    1.786    0.440
        35 -11.4635    234.9539     50.2687   7.7840688041e+00   2.2254158022e+01    0.6613644    0.5311297 -47.36  0.002732443    1.089    0.082
        36  -7.5249     41.7581    219.9259   8.0188674028e+01   2.2684852637e+01    0.1436953    0.1048508 -83.16 0.0005417584    1.535    0.349
        37  -8.0673     20.0330    219.0000   8.5511414479e+01   2.5092749772e+01    0.2079034   0.06010656  24.48 0.0008059439    2.967    0.663
        38 -12.7725    238.8775     85.0809   1.4832012525e+01   1.6931104003e+01     1.530937     1.032478 -17.83   0.00608771    1.780    0.438
        39 -12.8117    241.8827    120.0890   2.1552627351e+01   1.1553184487e+01     1.467271    0.4954684 -44.97  0.001672133    2.754    0.637
        40  -8.3448    192.0805    153.3288   3.5406932737e+01   1.4057944128e+01     0.173617    0.1609764   9.27 0.0006407107    1.121    0.108
        41 -12.6521    241.3483    108.0317   1.9240757504e+01   1.3330810371e+01     1.547248    0.8513886  30.49  0.007870921    3.116    0.679
        42  -8.4855    200.7957    147.7931   3.2831608789e+01   1.3597174251e+01    0.4000933    0.2013384 -57.27   0.00156938    3.617    0.724
        43  -7.9797     97.2286    151.3305   5.6991730711e+01   3.1017579571e+01     0.250771    0.1838876  87.24  0.000717173    1.686    0.407
        44  -9.7290    133.8722    143.2728   4.5533633779e+01   2.6219598791e+01     0.922471     0.370837 -55.50  0.003183882    2.958    0.662
        45  -9.8986    221.3876    145.5326   2.9184580243e+01   1.0832673157e+01    0.2878167    0.1786238  24.72  0.001627523    2.019    0.505
        46  -9.0385     66.7500    143.5000   6.5148884258e+01   3.7965354112e+01    0.4308002    0.2403384 -81.24  0.001700782    2.155    0.536
        47  -7.9114     36.2102    145.4621   7.5841414309e+01   4.1443586422e+01    0.2875379    0.1497861  14.58  0.001144897    2.318    0.569
        48  -7.7967    192.1064    144.1394   3.3579769288e+01   1.5606847617e+01    0.1700002    0.1468644 -52.48 0.0004578163    1.277    0.217
        49  -8.3520    158.9924    143.0038   3.9722031945e+01   2.1599028399e+01    0.3140464    0.1737142 -36.62  0.001390718    1.874    0.466
        50  -8.5971    150.7157    142.0251   4.1318887981e+01   2.3322711374e+01    0.2043672    0.1866426 -33.57 0.0008370413    1.078    0.072
        51  -7.4217      1.2272    141.9848   8.7787879165e+01   4.5429375277e+01    0.1749339    0.1034753 -88.90            0    1.539    0.350
        52  -8.6311     69.6605    145.3089   6.4479333872e+01   3.7047812200e+01    0.2607736    0.1764657  49.51 0.0007058199    1.403    0.287
        53  -9.1966    217.9994    139.0215   2.8418412149e+01   1.2324661998e+01    0.3377855     0.140717 -48.26  0.001064744    2.713    0.631
        54 -10.4396    138.2814    138.4821   4.3444385886e+01   2.6413829306e+01    0.4628851    0.3476228 -60.06  0.002287085    1.447    0.309
        55  -7.4215     34.4659    136.4681   7.5460862137e+01   4.4100073745e+01    0.1495589    0.1351617  69.44 0.0001392576    1.010    0.010
        56 -10.4348     23.5459    132.1427   7.9039191041e+01   4.6399738526e+01    0.2726276    0.2313303  32.41 5.979365e-05    1.205    0.170
        57 -10.5242    222.3382    130.2631   2.6065910506e+01   1.2996679571e+01    0.4213945    0.2498018 -16.82  0.001485371    2.127    0.530
        58  -7.6714     75.9678    129.6748   5.9604683911e+01   4.0156400501e+01    0.2132069    0.1964162  55.67 0.0005633431    1.034    0.033
        59 -10.3505     45.6397    124.5869   6.9680266086e+01   4.6069604398e+01    0.5642563    0.4496486  83.41  0.002824758    1.235    0.190
        60 -10.5867     37.4298    123.5401   7.2698198175e+01   4.7359937404e+01    0.8318794    0.6267034 -75.94  0.003798857    1.282    0.220
        61 -10.4557     29.9801    124.1291   7.5691279816e+01   4.8005901416e+01    0.5819214    0.4133956   0.72   0.00154816    1.755    0.430
        62  -9.9059    160.2121    126.4759   3.5856896887e+01   2.4610444465e+01    0.5485438    0.2251937 -47.78  0.000717651    2.425    0.588
        63  -8.4202    142.7831    123.7879   3.9074277619e+01   2.8645031210e+01     0.215302    0.1808787 -84.12    0.0010923    1.382    0.276
        64 -10.3543    186.1848    119.2532   2.9315027139e+01   2.0961428277e+01    0.4536646    0.3384641  87.58  0.002344196    1.940    0.485
        65 -10.7135    248.3504     46.9264   6.1302212327e+00   2.0307454280e+01    0.4549901    0.2916829 -32.15 0.0008826068    1.404    0.288
        66  -8.2430    172.0369    119.9272   3.2014263295e+01   2.3546185318e+01     0.203633    0.1874713 -47.25 0.0003110896    1.032    0.031
        67  -8.5712    135.4816    120.4924   4.0037721872e+01   3.0849238925e+01    0.1500441    0.1460763 -77.92 5.263695e-05    1.003    0.003
        68  -8.0592    143.0064    116.3248   3.7240673185e+01   3.0164376653e+01    0.2014714    0.1941298  58.05  0.000419836    1.062    0.058
        69  -8.0744    105.9449    112.0049   4.5955625110e+01   3.8959057288e+01    0.2390913    0.1978109  -4.76  0.000583415    1.631    0.387
        70  -8.4886    168.9750    109.5355   3.0153088583e+01   2.6096221997e+01    0.2692368    0.1802231 -53.95 0.0007390268    1.512    0.338
        71  -9.4820    181.8004    107.2683   2.7316739937e+01   2.3917983012e+01    0.3929324    0.2626442 -60.61  0.001594554    1.700    0.412
        72  -8.2231     99.6524    107.9283   4.6849943765e+01   4.1245395350e+01    0.2447606    0.2122842  32.67 0.0002480631    1.247    0.198
        73  -9.2216    135.1263    104.3599   3.6079773686e+01   3.4381036010e+01    0.4847058    0.1872343 -44.96  0.001666202    2.540    0.606
        74  -9.2772    188.0189    105.4180   2.5854281209e+01   2.3014903336e+01    0.2895858    0.2479283  85.65 0.0009467115    1.346    0.257
        75  -7.9588    113.6110    105.8197   4.2117900894e+01   3.8784505294e+01    0.2293343    0.1473756 -60.49 0.0009522472    1.685    0.406
        76  -9.3332    160.9042    101.8617   2.9814463083e+01   2.9236654211e+01    0.3247143    0.2443183 -34.91 0.0007271172    1.349    0.259
        77  -9.1036    157.9863     97.1969   2.9196268019e+01   3.0757590245e+01    0.4507351    0.1970503 -48.10  0.001711816    2.239    0.553
        78  -7.3184     69.0268    102.0123   5.6063865365e+01   4.8669507303e+01    0.1889766    0.1743867 -78.34  0.000328877    1.065    0.061
        79  -8.5227    142.1997    101.4501   3.3658032606e+01   3.3416963417e+01    0.4706847    0.1454781  47.85  0.001464698    3.326    0.699
        80  -9.0826    121.4524     99.9944   3.8385489109e+01   3.8369341623e+01    0.2627167     0.214667  51.96  0.001277497    1.222    0.181
        81 -10.1248    179.6169     97.3251   2.5302124522e+01   2.6108531848e+01    0.4059813     0.331721 -34.52   0.00194629    1.197    0.165
        82  -8.2917    140.4351     94.8251   3.2283534132e+01   3.5159712323e+01     0.295211    0.2341416 -80.75  0.001433024    1.414    0.293
        83 -12.6306    246.8405    148.2954   2.6236740843e+01   6.9695369485e+00     1.746562     1.231357 -53.28  0.008616554    1.839    0.456
        84  -9.6256     95.0210    212.7495   6.6354591298e+01   1.7642984575e+01    0.2180685    0.1911504 -56.15 0.0004701959    1.346    0.257
        85  -8.5848    191.9424    101.5619   2.4338297335e+01   2.2904015192e+01    0.2216761    0.1708965 -31.68 0.0004497947    1.255    0.203
        86  -9.4003    217.3647     91.4153   1.8552066155e+01   1.9737209474e+01    0.3075892    0.1842112 -37.22 0.0009305886    1.392    0.282
        87  -8.5179     73.8427     90.5726   5.1165567258e+01   5.0732422221e+01    0.2736254    0.2268198 -72.95 0.0004789789    1.238    0.192
        88  -7.9726    127.5269     88.0864   3.3455641026e+01   3.9523137127e+01    0.2419032    0.1501827 -45.81  0.001030234    1.587    0.370
        89  -8.1084    214.0161     84.6328   1.7441802641e+01   2.1370418916e+01    0.2147847    0.1669096 -15.71   0.00071807    1.549    0.355
        90  -8.5323    136.1243     77.9627   2.8440829058e+01   3.9495108596e+01    0.2417586    0.2111935  71.92 0.0003261113    1.128    0.113
        91  -9.5479    198.4258     74.9445   1.7089577599e+01   2.5895497763e+01    0.5149539    0.2339761 -31.81  0.002230183    2.186    0.542
        92 -10.1785    200.2524     65.4022   1.4547281493e+01   2.6952822016e+01    0.5769022    0.2488132 -28.42  0.002358848    2.621    0.619
        93  -8.4942    184.1709     78.1141   1.9806315202e+01   2.8391427360e+01    0.2046985    0.1886734 -14.27  0.000795955    1.298    0.230
        94  -9.1422    215.3633     77.0402   1.5567160820e+01   2.2242002024e+01    0.2467422    0.1881271   7.72  0.001386652    2.030    0.507
        95  -8.4253    125.1175     76.0353   3.0430338265e+01   4.2534839243e+01    0.2312859    0.2095104 -81.37 0.0002865972    1.047    0.045
        96  -9.0689    205.2110     71.2628   1.5383548226e+01   2.5073686726e+01    0.3353947    0.1923767 -28.35  0.001593754    1.828    0.453
        97 -10.8172    248.9950    112.0524   1.9186914323e+01   1.1638405171e+01    0.6302939     0.271515 -36.08 0.0004486412    1.770    0.435
        98  -8.9427    193.4886     72.0197   1.7002707218e+01   2.7371362134e+01    0.2122691    0.1175522 -38.81 0.0006505097    1.572    0.364
        99  -9.4300    218.9216     69.9519   1.3576571734e+01   2.2589550775e+01    0.2909633    0.1557772 -37.24 0.0008168601    1.539    0.350
       100  -8.0259    190.0843     67.7919   1.6382054618e+01   2.8746205619e+01    0.2094469    0.1563081 -64.49 0.0003059697    1.271    0.213
       101  -7.8489    124.5084     68.9529   2.8334105445e+01   4.4053100863e+01    0.2288923    0.1478741 -45.47 0.0006522549    1.526    0.345
       102  -8.1278    207.6568     61.7058   1.2836981800e+01   2.5967785506e+01    0.1177662    0.1011041  16.45 0.0004558001    1.661    0.398
       103  -9.4029    194.8456     59.0106   1.3586469404e+01   2.9030507005e+01    0.6270691    0.3223108 -16.25  0.002290422    3.854    0.741
       104  -8.9378    199.7765     48.3577   1.0390467727e+01   2.9469362685e+01    0.3642634    0.2069248 -15.28  0.001289867    2.843    0.648
       105  -9.0491    202.8920     42.7801   8.7114487900e+00   2.9548850390e+01     0.328398    0.2019585 -20.50 0.0009529207    2.056    0.514
       106  -8.5830    164.8541     60.8482   1.8060361844e+01   3.5558944715e+01    0.1958056    0.1908873 -70.01 0.0002941392    1.177    0.151
       107  -7.3833    121.1937     60.9976   2.6498289978e+01   4.6356264950e+01    0.1980202    0.1183211 -40.68 0.0004095943    1.690    0.408
       108  -8.8576    144.1584     59.2501   2.1077735091e+01   4.0874072317e+01    0.3249412    0.1962066 -44.42  0.001088728    1.567    0.362
       109  -8.5970    210.7700     57.6462   1.1554842907e+01   2.5908457277e+01    0.2816218    0.1644115 -20.58  0.001167688    2.236    0.553
       110  -8.2783    135.3406     58.4830   2.2545496226e+01   4.3219320661e+01    0.2536294     0.137249 -38.57  0.001052783    1.836    0.455
       111  -7.9440     72.5372     58.9362   4.1126917265e+01   5.8424312919e+01    0.2277684    0.1511688 -48.74 0.0007770685    1.548    0.354
       112  -8.3126    201.2356     57.8141   1.2579234775e+01   2.7844891301e+01     0.212842    0.1516515 -54.28  0.001221144    1.186    0.157
       113  -7.6151    213.2799     49.6977   9.4422066023e+00   2.6481822192e+01    0.1326824   0.07606765 -57.36 0.0002154011    1.548    0.354
       114  -9.1449    187.7823     44.5229   1.0637332708e+01   3.2630612701e+01    0.6505006    0.1591763 -35.18  0.002264188    3.258    0.693
       115  -9.5747    214.0480     42.2399   7.6197325136e+00   2.7299831215e+01    0.3259978    0.1988094 -56.53   0.00118923    1.374    0.272
       116  -9.7740    220.7419     39.0776   6.3615802039e+00   2.6359171934e+01    0.5848098    0.2471952 -75.74  0.002463887    3.299    0.697
       117  -9.3307    220.3824     34.3798   5.3093220896e+00   2.7008631196e+01    0.2722018    0.1834733 -84.53  0.001682247    1.494    0.331
       118  -7.6686    250.4571    212.4455   3.6362985062e+01  -1.5085556027e+00    0.1020292   0.07294124 -10.85 8.364642e-05    1.016    0.016
       119  -8.4638    205.1468     33.7956   6.3092510290e+00   3.0214855721e+01    0.1891931    0.1355488 -59.14            0    1.133    0.117
       120  -9.1831    198.1259     30.1155   5.9538158863e+00   3.2185441091e+01    0.2217254    0.2106728 -46.55 0.0005890909    1.293    0.227
       121  -7.9035    200.2485     26.0201   4.7584832657e+00   3.2213867689e+01    0.1572446    0.1467707 -52.03 0.0004213114    1.268    0.211
       122  -8.7823    182.0560     26.9442   6.4816085207e+00   3.6215029844e+01    0.2067062    0.1621588 -61.06 0.0004011324    1.042    0.040
       123  -7.6704     87.8886     24.8707   2.0723053940e+01   6.0705006560e+01    0.1918143    0.1583875 -74.10   0.00101476    1.263    0.208
       124  -7.6120    101.4549    211.3976   6.4640471100e+01   1.7041568244e+01    0.1329686    0.1108528  30.31 0.0002200518    1.028    0.027
       125  -7.1142     15.2962     18.2790   5.6438305476e+01   7.6695484198e+01    0.1297709   0.09129173 -17.60 0.0006951335    1.535    0.348
       126 -10.0922    194.6156    193.6913   4.2198679128e+01   7.2355523158e+00    0.5105523    0.3986883  75.47  0.002037199    2.853    0.649
       127  -7.8136    143.0163     14.8992   6.7274001384e+00   4.7295345822e+01    0.2197259    0.1456009  10.82 0.0008613273    2.497    0.600
       128  -8.3787    178.1784    193.9560   4.5277997542e+01   9.3991700861e+00    0.1683109    0.1623928  -1.20 0.0005894176    1.281    0.219
       129  -8.7742     39.0158    192.0375   7.9072084570e+01   2.9215488228e+01    0.1989511    0.1712741  47.10 0.0003170229    1.062    0.059
       130  -8.7867    224.3058    188.6625   3.6442540627e+01   4.2465912365e+00    0.1975577    0.1767888  41.27 0.0008701683    1.645    0.392
       131 -10.0140    220.8508    185.1770   3.6396610074e+01   5.1423819284e+00    0.2917641    0.2481108  68.82  0.001887075    2.218    0.549
       132  -7.9010    185.7854    198.5374   4.4589023432e+01   7.6567675880e+00    0.1507121    0.1064927  38.22 0.0006746441    1.554    0.356
       133 -10.0659    243.3502    179.5558   3.2141451576e+01   3.2403135649e+00    0.3006998     0.260457 -80.88 0.0007030232    2.394    0.582
       134  -7.7599    228.3586    180.6996   3.4492220215e+01   4.8453076581e+00   0.09739763   0.08894416 -57.55 0.0003619403    1.713    0.416
       135  -7.5925    184.6037    180.5237   4.1791925032e+01   1.0672239332e+01    0.1232617    0.1076302 -10.40 -3.438635e-05    1.036    0.034
