#   1 NUMBER                 Running object number                                     
#   2 MAG_AUTO               Kron-like elliptical aperture magnitude                    [mag]
#   3 X_IMAGE                Object position along x                                    [pixel]
#   4 Y_IMAGE                Object position along y                                    [pixel]
#   5 X_WORLD                Barycenter position along world x axis                     [deg]
#   6 Y_WORLD                Barycenter position along world y axis                     [deg]
#   7 A_WORLD                Profile RMS along major axis (world units)                 [deg]
#   8 B_WORLD                Profile RMS along minor axis (world units)                 [deg]
#   9 THETA_WORLD            Position angle (CCW/world-x)                               [deg]
#  10 FWHM_WORLD             FWHM assuming a gaussian core                              [deg]
#  11 ELONGATION             A_IMAGE/B_IMAGE                                           
#  12 ELLIPTICITY            1 - B_IMAGE/A_IMAGE                                       
         1 -16.0340      9.8810     25.1690   4.6629232121e+01   7.4245588320e+01     1.825211     1.002631 -24.92  0.008535907    2.054    0.513
         2 -15.9425     28.1430     95.6792   5.6823685140e+01   5.5353632374e+01     4.331944   0.08212533 -60.24   0.01037524    5.498    0.818
         3 -16.0847     21.9884     76.5264   5.5757315452e+01   6.1048903412e+01     4.142617    0.4275548 -64.23  0.009869092    6.001    0.833
         4 -15.1441     23.8608     35.3798   4.1094331674e+01   7.0554970584e+01     1.003297    0.6835428   0.25  0.003107144    1.682    0.405
         5 -15.0390     31.9176     20.5705   2.8065131750e+01   7.2079673242e+01    0.9825636    0.7521654  -0.34  0.003709084    1.419    0.295
         6 -17.0609      6.7230     69.6553   6.2581108582e+01   6.4009535397e+01     4.388122    0.9455255 -70.45   0.01335036    3.993    0.750
         7 -17.0972      4.1655    141.8305   7.2073061179e+01   4.4476044788e+01     3.414803     1.053103 -75.82    0.0122373    2.828    0.646
         8 -17.2664    103.2577     62.6403   1.7573704793e+01   4.9951806669e+01     4.447494     2.403569 -49.79    0.0185424    1.950    0.487
         9 -13.2252    206.0506     23.0125   3.5030076007e+02   3.2315822977e+01    0.4421298    0.3438784 -66.32  0.003057548    1.080    0.074
        10 -14.2147     19.3355      6.6461   2.7629624542e+01   7.6298095247e+01    0.6592541    0.3992291  30.67   0.00272584    1.539    0.350
        11 -15.2764      3.9962    218.1432   7.5811652002e+01   2.5504971574e+01     1.366758    0.5148198  44.75  0.005231269    2.012    0.503
        12 -14.8590     77.7212    240.4386   5.9649477983e+01   1.3736966935e+01    0.6700099    0.6221529 -65.04  0.002530156    1.289    0.224
        13 -14.5955     82.1531    231.9460   5.7832205572e+01   1.4866646992e+01      0.89821    0.5289932  14.20   0.00462141    1.755    0.430
        14 -16.0564     90.6274    246.9568   5.7323639575e+01   1.1124936825e+01     2.005729     0.732277  26.76  0.006379665    2.229    0.551
        15 -13.7238     81.2474    250.4539   5.9723102861e+01   1.1521055969e+01    0.7267752    0.1456196  27.36  0.002564566    3.753    0.734
        16 -14.0157     62.0729    248.4314   6.3853542784e+01   1.3909444795e+01    0.9640083     0.349867  25.15   0.00416354    2.300    0.565
        17 -15.2033     30.9904    247.2581   7.0766755801e+01   1.7180756382e+01     2.601383    0.5573239  23.87   0.00943216    3.905    0.744
        18 -16.1428     38.5605    230.3039   6.8084557552e+01   1.9846514454e+01     1.422448     1.207613  85.94   0.00662788    1.270    0.213
        19 -14.5248     21.5977    219.8825   7.1603818178e+01   2.3652508722e+01     1.133512    0.4136487 -65.93  0.005060181    2.863    0.651
        20 -14.5024      1.8202    243.9866   7.7086262587e+01   2.0321542413e+01    0.7376645    0.1970015 -84.95  0.003083475    4.061    0.754
        21 -15.8486      6.7247    234.9849   7.5732878781e+01   2.1727517047e+01     1.405078    0.5375984  38.21  0.006566057    1.882    0.469
        22 -12.2194    125.8479    210.6675   4.5051308340e+01   1.3648963157e+01    0.2739745    0.1835595 -20.68  0.001232396    1.706    0.414
        23 -16.7819    109.9071    193.9742   4.6455271840e+01   1.9168084168e+01      3.49298     1.752486  30.84  0.006814749    1.837    0.456
        24 -11.5990      6.1360    209.1571   7.4959034238e+01   2.7340049281e+01    0.1757274    0.1667333  72.62 0.0006990154    1.177    0.150
        25 -13.3280     25.3218    204.3516   6.9796357756e+01   2.6814850597e+01    0.4510103     0.406388 -39.92  0.002236942    1.339    0.253
        26 -14.2922     19.6693    201.5725   7.1118787663e+01   2.7970215263e+01     0.803317    0.7776336 -31.86  0.004572191    1.244    0.196
        27 -13.2688    214.7968    241.7070   3.2119502642e+01  -1.2520730442e+00    0.2579053    0.1676416  -3.22  0.001337399    1.215    0.177
        28 -12.9259     66.0526    238.2643   6.2163677000e+01   1.5418962230e+01    0.4132504    0.2495251  23.11  0.001504711    1.462    0.316
        29 -12.1333    194.7670    237.0389   3.4878772755e+01   1.2937995456e+00    0.2679369    0.1616688 -19.26  0.001734331    1.474    0.321
        30 -12.7670    209.9771    235.9760   3.2106039626e+01  -5.9777933254e-02    0.4172462    0.1970773  10.54  0.002312238    2.303    0.566
        31 -14.9606    106.4785    227.6195   5.1698302359e+01   1.2845105134e+01     1.159779    0.4972225  35.64  0.003972548    2.003    0.501
        32 -14.4312    107.0758    220.7649   5.0740651456e+01   1.4080094256e+01    0.7552189    0.4746304  15.15  0.002687436    1.578    0.366
        33 -14.7702     17.3086     48.0702   5.0484926428e+01   6.8522965520e+01    0.8125328    0.6265072 -65.72  0.002612099    1.371    0.271
        34 -16.2217      4.1482    190.1176   7.4700197961e+01   3.1964500853e+01     1.650744    0.6364929 -82.14  0.006490793    2.507    0.601
        35 -16.7338     16.1643    166.0170   6.9863146434e+01   3.7127829877e+01     3.083167     1.027149 -74.48   0.01151839    2.766    0.638
        36 -15.1251      5.1990    172.3989   7.3565784744e+01   3.6309083724e+01    0.7474341    0.5215685  49.86  0.003656246    1.284    0.221
        37 -14.4705    130.9020    228.4396   4.6320985108e+01   9.7605277248e+00    0.6621474    0.4945181  15.48  0.002362295    1.158    0.137
        38 -13.8529     92.2322    188.6770   5.0234330564e+01   2.2768784371e+01    0.9402286    0.4837222 -58.59  0.004179204    2.047    0.512
        39 -14.4765     60.3334    185.2967   5.8558406683e+01   2.7683725626e+01     1.195975    0.5843051  45.46  0.005140119    1.963    0.491
        40 -12.9678     57.6548    168.8559   5.7367892079e+01   3.2122661211e+01    0.6954384    0.3562748 -74.74  0.002879108    2.144    0.534
        41 -11.8565     44.0459    173.9020   6.2056297538e+01   3.2407476741e+01    0.3723137    0.1578221  36.10  0.001512966    2.076    0.518
        42 -14.0415    117.9368    179.4970   4.2173903375e+01   2.1140366246e+01     0.734525    0.5604115 -56.01  0.003596525    1.401    0.286
        43 -13.5345    186.3295    162.0955   2.4017280527e+01   1.4219205310e+01    0.3281049    0.2691297  -1.63  0.002030638    1.212    0.175
        44 -12.6418    250.0000    158.9982   1.3613492488e+01   6.3515229199e+00    0.1925646   0.04865888 -38.16 0.0008091096    2.989    0.665
        45 -14.5732    127.1745    147.5378   3.3880945381e+01   2.6742794421e+01    0.9784809    0.7631833 -70.05  0.003404754    1.536    0.349
        46 -15.6591    122.7434    133.5663   3.2013252824e+01   3.0682524912e+01      1.61777     1.092994 -56.87  0.005539203    1.542    0.351
        47 -14.2464     35.0138    147.7408   6.2022166425e+01   4.0301258447e+01     0.915445    0.5534853  62.01  0.003199485    1.778    0.437
        48 -14.7906     55.3492    139.8257   5.3949281115e+01   4.0085585161e+01     1.192101    0.7052206 -88.40  0.003329393    2.118    0.528
        49 -13.4370    177.7794    141.3629   2.1459124218e+01   1.9306988967e+01    0.6004251    0.4561926 -23.59  0.002510452    1.303    0.233
        50 -15.8950     99.2351    122.0248   3.5969069295e+01   3.7738345349e+01     3.129914     2.116458 -48.25    0.0141483    1.457    0.314
        51 -14.2773     76.6650    128.0320   4.4511378461e+01   4.0122686804e+01     1.142011    0.7130744  84.02  0.004309356    2.531    0.605
        52 -15.6170     73.5324    116.9683   4.3179808811e+01   4.3506876248e+01     1.632895     1.480092  71.05  0.005930284    1.151    0.131
        53 -11.9714     45.4490    127.7855   5.5500831714e+01   4.4613030379e+01    0.2833464    0.2144231  27.87 0.0009282499    1.356    0.263
        54 -13.1593    169.1676    122.7346   1.9039599450e+01   2.4304408019e+01    0.5369341    0.4094468 -26.00  0.002887911    1.353    0.261
        55 -12.1299    187.6213    119.6607   1.5034295478e+01   2.1556659892e+01    0.2810712    0.1976896 -30.24  0.001531166    1.360    0.264
        56 -13.4992     60.0891    114.9103   4.7595853093e+01   4.6145106513e+01    0.6545795    0.5099936 -38.02  0.002150659    1.376    0.273
        57 -13.7393     53.5487    114.5200   4.9993007605e+01   4.7183839049e+01    0.8050297    0.4239612 -66.59  0.002547816    1.925    0.480
        58 -14.8971     48.7307    104.1579   4.9700437690e+01   5.0629073421e+01     1.882499    0.5836163 -56.66  0.006124561    2.833    0.647
        59 -14.1875     14.4177     97.3103   6.3377749571e+01   5.6095652493e+01    0.5091116    0.4088077 -44.72  0.001332091    1.224    0.183
        60 -12.8921    180.0297    228.8703   3.6397155737e+01   4.0139156889e+00    0.3208277    0.2461796 -29.02  0.002230933    1.286    0.223
        61 -14.4163     54.3868     70.0160   3.7917540244e+01   5.8402492772e+01     1.229369    0.7867113 -67.61  0.005374528    1.925    0.481
        62 -11.9770    175.8673     75.1520   6.3546850811e+00   3.1425617344e+01    0.3090915    0.1907403 -39.60   0.00156736    1.453    0.312
        63 -14.1495     55.6425     62.3773   3.4689386917e+01   5.9914337233e+01    0.8172681    0.4700359 -48.39  0.003610812    1.736    0.424
        64 -12.1393    163.0733     55.1916   2.9661400019e+00   3.7293621291e+01    0.4960247    0.1438729 -42.59   0.00177636    2.936    0.659
        65 -13.4731     37.7281     46.2118   3.7373726629e+01   6.6344254279e+01    0.5049235    0.3097981 -44.62  0.002052962    1.614    0.380
        66 -13.3377    214.2812     30.8332   3.5149457604e+02   2.9815761744e+01    0.4708463    0.1933244 -59.28  0.002291016    2.337    0.572
        67 -11.8904     94.8297    215.1660   5.2990789191e+01   1.6709017843e+01    0.2354825     0.202697  28.81  0.001087315    1.036    0.034
        68 -13.3060    209.5573     83.1296   3.7090216157e+00   2.3634320399e+01    0.7910449    0.2783182 -43.81  0.003417335    2.297    0.565
