#   1 NUMBER                 Running object number                                     
#   2 MAG_AUTO               Kron-like elliptical aperture magnitude                    [mag]
#   3 X_IMAGE                Object position along x                                    [pixel]
#   4 Y_IMAGE                Object position along y                                    [pixel]
#   5 X_WORLD                Barycenter position along world x axis                     [deg]
#   6 Y_WORLD                Barycenter position along world y axis                     [deg]
#   7 A_WORLD                Profile RMS along major axis (world units)                 [deg]
#   8 B_WORLD                Profile RMS along minor axis (world units)                 [deg]
#   9 THETA_WORLD            Position angle (CCW/world-x)                               [deg]
#  10 FWHM_WORLD             FWHM assuming a gaussian core                              [deg]
#  11 ELONGATION             A_IMAGE/B_IMAGE                                           
#  12 ELLIPTICITY            1 - B_IMAGE/A_IMAGE                                       
         1 -13.0638    183.4644     35.7484   6.0990969212e+01   3.4767919148e+01     1.488075     1.057007  15.64  0.004721865    1.722    0.419
         2 -11.6081    187.9199     29.6329   5.8325694795e+01   3.4364059802e+01    0.5473909    0.5043401 -10.09  0.001323008    1.105    0.095
         3 -12.0700    205.2550      4.4033   4.8270844630e+01   3.2518553905e+01    0.9310841    0.6114626  73.54  0.004607358    1.507    0.336
         4  -8.7526     72.6801      9.0475   7.5881566622e+01   6.4505968398e+01    0.1830928     0.152675 -11.56 0.0004596101    1.039    0.037
         5  -9.6280      8.2882    218.0030   1.3306078833e+02   2.9983590025e+01     0.125231   0.08732559  78.47 0.0002727336    1.144    0.125
         6 -19.5600     30.9015    149.6794   1.2486036421e+02   4.0609478670e+01     17.33256     2.750426 -73.62   0.05372765    6.022    0.834
         7 -10.1121     87.7237    202.8784   1.1856056866e+02   2.3475932524e+01    0.4424379     0.181325  59.38  0.002139387    2.584    0.613
         8 -11.3141    112.9883    195.8441   1.1312772348e+02   2.0993198888e+01    0.6423485    0.3771317  18.21  0.002591774    4.623    0.784
         9  -9.8577    193.1788    195.0125   9.8351281063e+01   7.7333887246e+00    0.5581262    0.3217409 -66.38  0.002029467    5.932    0.831
        10  -8.9857    141.1695    197.9630   1.0815237449e+02   1.6153074487e+01    0.1842227    0.1415064  65.76 0.0005149647    1.318    0.241
        11  -8.6988    120.8400    197.5770   1.1186985937e+02   1.9484302032e+01    0.1665575    0.0921804  52.94 0.0003807779    1.572    0.364
        12  -8.8119    153.5403    193.9110   1.0530527060e+02   1.4714989150e+01    0.2613124    0.1404641  56.54  0.001293376    1.980    0.495
        13  -9.8734     99.2646    191.6405   1.1523333201e+02   2.3788321305e+01     0.231559    0.1703476  60.20 0.0007861849    1.135    0.119
        14 -10.3322    109.2380    189.9305   1.1312690157e+02   2.2589143158e+01    0.2048445    0.1695773 -42.58  0.001363649    1.623    0.384
        15  -8.8712    186.4880    216.5170   1.0273297563e+02   6.1077117276e+00    0.1164097   0.09200139  37.70 0.0008102132    1.024    0.023
        16  -9.5199     99.2338    180.9487   1.1397921937e+02   2.5726268538e+01     0.197536    0.1541395  51.48 0.0006184404    1.162    0.139
        17  -9.3571    167.1675    174.9328   9.9759886233e+01   1.5287298620e+01    0.4132321     0.257098 -74.46  0.001780214    3.323    0.699
        18 -10.2600     71.6429    174.1614   1.1872718684e+02   3.0917862609e+01    0.3921062    0.1642348  55.23  0.001829516    2.289    0.563
        19  -9.2684    118.5088    173.4824   1.0911959630e+02   2.4070104665e+01    0.1265825    0.1094269  63.40  0.000810364    1.004    0.004
        20  -9.4492     10.0458    214.1156   1.3263452919e+02   3.0466392452e+01    0.2115529    0.1270003  28.79  0.001519683    2.409    0.585
        21  -9.8305    125.8030    172.3306   1.0747503776e+02   2.3063817630e+01    0.3548002     0.136271  55.04  0.001353483    3.137    0.681
        22  -8.7440    141.4815    169.4664   1.0386789291e+02   2.0853743759e+01     0.129932    0.1151711  55.31 0.0001630564    1.009    0.009
        23  -9.0102    204.1683    165.4321   9.1185438967e+01   9.8198356078e+00    0.3949915     0.169612 -46.78  0.001607225    3.183    0.686
        24  -9.9374    194.3505    167.3176   9.3316094953e+01   1.1395625908e+01    0.2845614    0.2574036  27.18  0.000774967    1.039    0.038
        25  -8.2880    161.4865    166.9835   9.9478179666e+01   1.7632190424e+01    0.1695179    0.1150994 -75.78 0.0007263668    2.361    0.576
        26  -9.3419     71.0160    166.7482   1.1804242855e+02   3.2462351300e+01    0.1663993     0.134736  70.51 0.0003972359    1.044    0.042
        27 -10.2844     94.9223    160.6934   1.1221599569e+02   3.0273519231e+01    0.2739282    0.2213607 -62.76 0.0006339662    1.304    0.233
        28  -9.2526    190.0168    160.8309   9.2876791407e+01   1.3196287165e+01     0.217242    0.1931208 -24.94 0.0006476991    1.204    0.169
        29  -9.6155    188.9952    155.1399   9.1948851271e+01   1.4277583347e+01    0.3070292    0.2887452  -8.28  0.001775596    1.106    0.096
        30 -11.0840    100.2506    153.5068   1.1000821564e+02   3.0891801378e+01    0.5190779    0.3755294 -32.69  0.002463519    2.069    0.517
        31  -9.8491    134.3708    147.9411   1.0160660202e+02   2.6118901501e+01    0.6280678    0.1793476 -55.48   0.00186757    4.937    0.797
        32  -9.3372    130.4768    212.9756   1.1195976316e+02   1.5545642762e+01    0.1454768    0.1127268 -66.82 0.0005455886    1.541    0.351
        33 -10.7800    109.7531    139.3971   1.0553024581e+02   3.2222846184e+01     0.453553    0.3026967 -33.76  0.002218097    2.117    0.528
        34 -10.7559     99.0453    138.9359   1.0792621617e+02   3.4098423567e+01      0.25327    0.2356582  73.03 0.0004145227    1.088    0.081
        35  -9.8986    105.9001    130.6580   1.0482120206e+02   3.4712335865e+01    0.3854446    0.2847554 -69.37  0.001217387    1.363    0.266
        36  -9.5892    104.5641    125.8711   1.0422102969e+02   3.5960361081e+01    0.2616794    0.2132054 -30.17 0.0006470035    1.565    0.361
        37  -9.9390    116.2712    130.0983   1.0225922970e+02   3.3013155419e+01    0.2872908     0.241753 -26.54 0.0008683035    1.497    0.332
        38  -9.0893    160.6954    127.4158   9.1712730361e+01   2.4810623693e+01    0.3431511    0.2172333 -77.03  0.001293062    3.112    0.679
        39  -8.8398    111.4403    118.9860   1.0113427032e+02   3.6227149629e+01    0.2136834    0.1814413  52.13 0.0004784067    1.187    0.157
        40  -9.2178     93.7943    116.3523   1.0500934508e+02   3.9823011383e+01    0.2455085    0.2054926 -49.10 0.0006156953    1.245    0.197
        41  -9.2280    128.3428    209.6977   1.1195614892e+02   1.6375991873e+01    0.1611088     0.097901  89.10 0.0008466271    2.629    0.620
        42  -8.9157    168.1337    113.2141   8.6773544893e+01   2.5828738899e+01     0.274749    0.1909091 -66.56  0.001209909    1.988    0.497
        43  -8.7462    205.9548    110.0618   7.8624911780e+01   1.7895084259e+01    0.2380066    0.1709544  13.22 0.0007232248    1.662    0.398
        44 -11.1386    102.3955    197.3777   1.1528586395e+02   2.2326121334e+01    0.4681702    0.2533323 -40.34  0.002293389    3.394    0.705
        45 -12.3726    106.3662    210.4208   1.1595855635e+02   1.9572233648e+01    0.6880407    0.3917713  43.85   0.00424323    1.485    0.327
        46 -10.8974    171.4887     70.8635   7.4339948710e+01   3.2578210365e+01    0.5309297    0.3580851 -80.39  0.002116638    2.344    0.573
        47 -12.0364    169.1733     51.2239   6.8563255638e+01   3.6314561391e+01    0.7769946    0.5770583 -22.18  0.001273086    1.368    0.269
        48 -11.0716    108.4806    203.6422   1.1485423304e+02   2.0367675857e+01     0.315199    0.1804045  43.43  0.001886216    1.507    0.337
        49 -10.5499     95.2045    202.7225   1.1718132751e+02   2.2454447607e+01    0.4133686    0.2469801 -55.42  0.002559642    2.019    0.505
        50  -8.6071    168.9665    235.5312   1.0809247399e+02   6.5525572448e+00    0.1459918    0.1286688  39.39 0.0001481569    1.170    0.145
        51 -10.6423    162.2719    217.6653   1.0699852271e+02   9.8584678682e+00    0.4230269    0.1406756  37.95  0.001831783    2.846    0.649
