#   1 NUMBER                 Running object number                                     
#   2 MAG_AUTO               Kron-like elliptical aperture magnitude                    [mag]
#   3 X_IMAGE                Object position along x                                    [pixel]
#   4 Y_IMAGE                Object position along y                                    [pixel]
#   5 X_WORLD                Barycenter position along world x axis                     [deg]
#   6 Y_WORLD                Barycenter position along world y axis                     [deg]
#   7 A_WORLD                Profile RMS along major axis (world units)                 [deg]
#   8 B_WORLD                Profile RMS along minor axis (world units)                 [deg]
#   9 THETA_WORLD            Position angle (CCW/world-x)                               [deg]
#  10 FWHM_WORLD             FWHM assuming a gaussian core                              [deg]
#  11 ELONGATION             A_IMAGE/B_IMAGE                                           
#  12 ELLIPTICITY            1 - B_IMAGE/A_IMAGE                                       
         1 -11.7128     36.9864     20.7515   9.8876513861e+01   6.7476876664e+01    0.4122055    0.2679686  39.73  0.002475441    1.959    0.489
         2 -11.4769    190.5560     20.0126   5.8114041901e+01   3.4745840649e+01    0.3861812    0.2639427  23.50  0.001316144    1.849    0.459
         3 -11.6189     59.2891     15.4282   8.7118415311e+01   6.5276489498e+01    0.3235841    0.2003093 -44.64 0.0004520428    1.905    0.475
         4 -11.5136      7.4184     17.0663   1.1144971911e+02   7.0778143127e+01    0.3504731    0.2009435 -46.94 0.0008682701    1.310    0.237
         5 -12.1346    113.1674     15.3700   7.0362540830e+01   5.4767184055e+01     0.427851    0.3148746  64.71  0.001280094    1.494    0.331
         6 -11.6087     80.6393     14.8421   7.9270146101e+01   6.1661160911e+01    0.3163559      0.22973 -34.19  0.001802239    1.435    0.303
         7 -10.9078    132.6383     16.2714   6.6377447065e+01   5.0042658458e+01    0.2562241    0.1507605  39.98 0.0008592662    1.678    0.404
         8 -12.5696     26.0148     13.0646   1.0052392380e+02   6.9924461409e+01    0.2520729    0.2173302   1.75 0.0004605752    1.258    0.205
         9 -12.7294    209.1982      5.7834   5.1878077099e+01   3.1443327794e+01    0.5952961    0.2827108 -37.48  0.001153648    1.981    0.495
        10 -10.7264     64.0577     13.5179   8.4401521257e+01   6.4774086036e+01    0.2364786    0.1542817  38.34 0.0007797442    1.566    0.361
        11 -11.8913    175.3201      8.7577   5.6651609858e+01   3.9886842024e+01     0.381872    0.1886225 -31.50  0.001661715    2.023    0.506
        12 -10.8629     46.3544      9.2797   8.9382569193e+01   6.8053155609e+01    0.2277275    0.1519352   1.79 0.0005563924    1.534    0.348
        13 -11.8170     49.9600      8.4921   8.7468258936e+01   6.7646914211e+01    0.4676786    0.3176211 -16.51  0.002860829    1.291    0.225
        14 -10.9228      7.1075     10.2765   1.0888688011e+02   7.1998109110e+01    0.1733115    0.1582808  54.91 0.0003992906    1.729    0.422
        15 -10.3238      2.4716     10.6945   1.1152278539e+02   7.2226192290e+01    0.2057447    0.1183638  19.63 0.0009689471    2.055    0.513
        16 -11.5201     18.7120      7.6409   1.0162523222e+02   7.1503489961e+01    0.4114198    0.2096818   6.82  0.001007634    2.630    0.620
        17 -10.2577     74.6515      8.9924   7.8490772241e+01   6.3495214378e+01    0.1836814    0.1496981 -13.04 0.0005838185    1.130    0.115
        18 -11.3968     39.4970      4.8782   9.0143585086e+01   6.9591536126e+01     0.344056    0.2369402 -45.47  0.001888564    1.843    0.458
        19  -9.9454     35.6660      4.3032   9.1600023751e+01   7.0162619266e+01    0.1559907    0.1059983 -40.82    0.0009467    1.602    0.376
        20  -9.7876    108.3659      8.2871   6.8557501712e+01   5.6616644238e+01    0.1488521   0.08932278  30.46  0.000702215    1.699    0.411
        21 -10.5643     87.7208      7.4489   7.3673036182e+01   6.1139643037e+01    0.2291575    0.1664793 -12.21 0.0005136554    1.313    0.238
        22 -11.5146     24.6456      6.8244   9.8217887604e+01   7.1052393382e+01    0.2414377    0.1583529 -42.06 0.0005910223    1.455    0.313
        23 -11.8665    190.9640      5.4897   5.3725037017e+01   3.6133590998e+01     0.370552    0.2151594 -49.26  0.001347515    1.791    0.442
        24 -11.4985    195.0247      3.6511   5.2737147286e+01   3.5259883256e+01    0.3080724    0.2182469  68.69 0.0009238686    1.316    0.240
        25 -11.1950     65.8715      4.6121   7.9361199247e+01   6.5581554983e+01    0.3868084   0.09949619  46.13  0.001445809    3.634    0.725
        26 -11.7526     74.6379      2.9864   7.5564708073e+01   6.4174605294e+01    0.3520717    0.3312213  31.89  0.002379051    1.272    0.214
        27 -11.4432    161.2488      3.2381   5.6778471109e+01   4.4058462820e+01    0.3173783    0.2414023 -52.85   0.00169662    1.437    0.304
        28 -10.7018     30.9628      3.4945   9.3407009238e+01   7.0847631158e+01    0.2260329    0.1431014 -30.25  0.000719529    1.305    0.234
        29 -10.8908    218.0170      3.0179   5.0301654318e+01   2.9508906232e+01    0.2186789    0.1532073  37.08  0.001147841    1.740    0.425
        30 -10.6276     91.4166      2.7033   7.0425789861e+01   6.0865369925e+01    0.2091694    0.1842275  35.66 0.0002455798    1.122    0.109
        31 -10.6051     11.3465      2.4579   1.0301342040e+02   7.2970777646e+01    0.2073169    0.1684478 -51.87  0.001181202    1.596    0.373
        32 -12.0124    180.9198      2.8747   5.4103564316e+01   3.8979954935e+01    0.4507893    0.2556184  60.28  0.001613915    1.602    0.376
        33 -10.4056    119.3861    238.1623   1.2098475402e+02   1.2210680001e+01    0.1899476    0.1359597 -88.54 0.0008635402    1.683    0.406
        34 -11.2433    200.3770    249.5886   1.0855943459e+02  -1.7153621044e+00    0.2088318    0.1554381  17.60 0.0005088116    1.285    0.222
        35 -10.9903    199.3760    245.4997   1.0817829660e+02  -1.1101407934e+00     0.273598    0.1713775  21.55  0.001744468    1.598    0.374
        36 -10.1659    149.6478    250.7206   1.1715947731e+02   5.8853167278e+00    0.1830041   0.07587902  43.22            0    1.810    0.447
        37 -11.3598    116.3687    249.6519   1.2262511790e+02   1.0969811579e+01    0.3390096     0.177006  43.78   0.00178569    1.478    0.323
        38 -11.5383    106.6477    248.6579   1.2415282184e+02   1.2502402026e+01    0.4334972     0.192518  60.62  0.002295738    2.448    0.592
        39 -12.2606    109.5154    244.7853   1.2331974247e+02   1.2664986205e+01    0.3224762     0.214025  74.84  0.002191608    1.620    0.383
        40  -9.9074    102.7043    250.3946   1.2495792079e+02   1.2801777347e+01    0.1773486   0.09712289  63.01  0.001108455    1.742    0.426
        41 -11.1803     91.9560    250.2940   1.2671326929e+02   1.4293525367e+01    0.1544243    0.1142818  55.08 0.0008676191    1.059    0.056
        42 -11.2390     44.8933    244.3091   1.3385228492e+02   2.1113679068e+01    0.4960793     0.269183  73.25  0.003509665    1.555    0.357
        43 -14.2548     26.7047    217.8599   1.3529882445e+02   2.7551327703e+01    0.9921142    0.8683438   6.12  0.006034547    2.108    0.526
        44 -12.5348     19.5694    210.8518   1.3611238121e+02   2.9524645386e+01    0.2439411    0.2296646  88.96 0.0005554017    1.548    0.354
        45 -13.2329     19.4144    200.4739   1.3555461565e+02   3.1444336878e+01    0.9266467    0.7555436 -39.77  0.007030627    2.111    0.526
        46 -12.7084      5.9949    224.5469   1.3897352227e+02   2.8420988796e+01    0.5267288    0.3638749 -64.18  0.004228105    1.913    0.477
        47 -13.0866      9.3115    213.6013   1.3796106341e+02   3.0016054524e+01    0.8171017    0.3791134  82.64  0.005353438    1.779    0.438
        48 -12.9204     45.1319    200.2960   1.3089085446e+02   2.8756796440e+01    0.7768434    0.3137039  84.37  0.003499394    3.340    0.701
        49 -13.1627     46.4880    218.9257   1.3200412456e+02   2.5193574144e+01     0.601284     0.389937 -52.37  0.004006637    2.288    0.563
        50 -12.3235     46.2517    234.2072   1.3303678169e+02   2.2602283958e+01    0.5075905    0.3100818 -72.26  0.002878384    1.732    0.423
        51 -12.1694     22.8506    228.2973   1.3648211344e+02   2.6141381290e+01    0.1990405    0.1302039  76.75 0.0003173649    1.142    0.125
        52 -13.5628     20.6315    237.3081   1.3726170988e+02   2.4864986797e+01    0.6546217    0.3871888  42.99  0.004997446    1.625    0.385
        53 -13.1966     28.1856    230.6757   1.3575171408e+02   2.5185852347e+01    0.3771658    0.2521687  39.17 0.0009328874    1.687    0.407
        54 -14.7756     32.9822    244.2179   1.3569608670e+02   2.2451607886e+01    0.8277096    0.6033735 -71.38  0.004001288    1.688    0.407
        55 -15.2567     13.4924    247.9962   1.3878589023e+02   2.3864638946e+01     1.074873    0.3895035  45.51  0.005063064    2.019    0.505
        56 -12.4522      9.5926    240.0837   1.3905065661e+02   2.5503544314e+01    0.2681122      0.11624  54.36 0.0003778492    1.613    0.380
        57 -14.0467     10.9868    232.2818   1.3852299453e+02   2.6647902300e+01    0.4829506    0.4456335 -56.14  0.004406029    1.893    0.472
        58 -13.0613     37.6380    225.3020   1.3391060547e+02   2.5081752343e+01    0.2732487    0.2182675 -75.52  0.002077354    1.488    0.328
        59 -13.1980     37.3079    218.5050   1.3354881701e+02   2.6303974857e+01    0.3252268    0.2679175 -80.51   0.00154017    1.401    0.286
        60 -10.5607    116.0274    237.5344   1.2150297648e+02   1.2804036045e+01    0.2099564    0.1764255  84.88  0.001211358    1.284    0.221
        61 -10.1428    109.4916    239.0815   1.2278391652e+02   1.3526501915e+01     0.136795    0.1066473 -74.16 0.0004716699    1.497    0.332
        62 -11.7767     83.6875    238.1263   1.2709879913e+02   1.7284356870e+01    0.2471743    0.1707653  59.76 0.0005950473    1.101    0.092
        63 -10.0396     87.4439    236.4480   1.2632136952e+02   1.7044221036e+01    0.1638858   0.09933317 -63.09 0.0006760932    1.937    0.484
        64 -10.7705    157.0932    237.5150   1.1435045091e+02   6.4934477729e+00    0.2374849    0.1733944  59.98  0.001591992    1.428    0.300
        65 -11.7843    154.5699    232.6681   1.1419270026e+02   7.5644270806e+00    0.3978738    0.1904696  48.60 0.0004064775    1.759    0.431
        66 -11.1997    152.0300    226.8605   1.1391074140e+02   8.8037114561e+00    0.1681069    0.1656896  53.23 0.0003083616    1.233    0.189
        67  -9.7407     54.3142    238.1407   1.3197303138e+02   2.1008878509e+01    0.1264405   0.09145981  70.64 0.0002708366    1.071    0.066
        68 -11.3369    187.7167    236.4469   1.0891575715e+02   1.7708953060e+00    0.3338947    0.1534436  28.98  0.001627371    2.435    0.589
        69 -10.5991    161.9713    235.7017   1.1327463603e+02   5.9664251739e+00    0.2430793    0.1556154 -32.43  0.001156791    2.177    0.541
        70 -10.7746    140.0283    237.0000   1.1726531388e+02   9.2389058782e+00     0.284471    0.1187787  47.29  0.001473716    1.909    0.476
        71 -10.4194    135.8183    236.6616   1.1796253185e+02   9.9392787578e+00    0.2113347    0.1314097  37.56  0.000743727    1.431    0.301
        72 -10.6079    124.6200    236.4556   1.1989624772e+02   1.1680965169e+01    0.1569577    0.1374342 -16.34 0.0009082139    1.708    0.414
        73 -10.2556    173.8766    233.8723   1.1096046606e+02   4.3071117211e+00    0.2265541    0.1342233  30.56 0.0009444127    1.601    0.375
        74 -10.8549    181.3456    235.3151   1.0985800696e+02   2.9258730913e+00    0.2364214    0.1602654  33.20 0.0007090642    1.223    0.183
        75 -10.4556    178.7865    232.1883   1.0987767200e+02   3.7373342899e+00    0.2114885    0.1699087  17.37  0.000635984    1.295    0.228
        76 -10.6877    110.2716    235.0361   1.2225327983e+02   1.4035173451e+01    0.2009571     0.134518  40.34 0.0007844843    1.369    0.269
        77 -10.8183    197.0140    233.3668   1.0689319667e+02   6.6979284152e-01    0.2129759    0.1638956  55.97 0.0004919812    1.560    0.359
        78 -10.3655    119.7294    233.7295   1.2046385546e+02   1.2831594115e+01     0.190704    0.1350889  78.24 0.0008388122    1.589    0.371
        79 -11.8142     59.6169    232.1368   1.3069208202e+02   2.1357812097e+01    0.3249646    0.1763352  74.14  0.001113343    1.732    0.423
        80 -10.5668     55.6193    228.5087   1.3110947314e+02   2.2454583420e+01    0.1592489    0.1236723  70.21 0.0001616613    1.089    0.081
        81  -9.4347    231.4593    233.4373   1.0114055971e+02  -4.6770067100e+00    0.1139616    0.0863428  24.40 0.0001310792    1.036    0.034
        82 -10.8989    219.2526    231.6102   1.0287637907e+02  -2.6191550560e+00    0.2336135     0.172451 -37.23 0.0009579918    1.761    0.432
        83 -10.8235    132.8161    232.8504   1.1805990611e+02   1.0964973117e+01    0.1854601     0.147051  51.37 0.0004028837    1.018    0.018
        84 -10.8178     81.2122    231.9370   1.2700787817e+02   1.8617857896e+01    0.1784888    0.1386953  76.98 0.0003828018    1.160    0.138
        85 -11.3663     78.8213    223.1872   1.2667703408e+02   2.0405521479e+01    0.3223554    0.1747344 -67.23  0.001566133    1.993    0.498
        86 -11.4118     75.2932    228.6219   1.2775455362e+02   1.9954092376e+01    0.3243465    0.1776831 -60.33  0.002043917    2.147    0.534
        87 -10.6353     72.2842    226.3718   1.2809271972e+02   2.0727195282e+01    0.3944091    0.2112319 -80.19  0.002332566    2.008    0.502
        88 -10.6375     87.9821    231.2168   1.2577530372e+02   1.7816305295e+01     0.322475   0.09483662  48.07 0.0002976987    2.616    0.618
        89 -11.0129    235.6746    228.9772   9.9761409814e+01  -4.8415436768e+00    0.2582969    0.2261221  65.67  0.001495786    1.954    0.488
        90 -10.5826     95.6239    229.7052   1.2430226353e+02   1.6996213474e+01    0.2664819    0.1787768  27.63  0.001136508    2.029    0.507
        91 -11.3860     94.3378    227.2965   1.2430213386e+02   1.7573388831e+01    0.2025635    0.1830419  65.94  0.001549335    1.237    0.192
        92  -9.1309    172.6692    228.2852   1.1041914448e+02   5.2464866776e+00     0.115107   0.08238454  60.41 0.0003919402    1.615    0.381
        93 -11.3951    158.3931    225.5034   1.1259112751e+02   7.9659136575e+00    0.2998041    0.1971071 -61.49   0.00124588    2.099    0.524
        94 -11.9382    111.4338    227.2323   1.2125109047e+02   1.5095435245e+01    0.2206906    0.1899062 -73.98  0.001164222    1.355    0.262
        95 -11.0881     90.0433    228.0723   1.2513230195e+02   1.8048170147e+01    0.1665733     0.126282  62.71 0.0003051649    1.038    0.037
        96  -9.7601    241.3194    227.6752   9.8639274154e+01  -5.5500950079e+00   0.09747729   0.08771321  49.44 0.0004947106    1.676    0.404
        97 -11.5374    143.7806    232.2187   1.1604560926e+02   9.3422958808e+00    0.3084474    0.1503449  44.70 0.0007507476    1.616    0.381
        98  -9.9231    133.7920    227.4385   1.1726034165e+02   1.1629905766e+01    0.1603337   0.09592903  36.52  0.000311204    1.557    0.358
        99 -10.2596    164.1958    225.7110   1.1157781446e+02   6.9872178955e+00    0.2038996    0.1486486  -1.48  0.001220235    2.015    0.504
       100 -10.4221    144.2055    224.1980   1.1498474942e+02   1.0462855348e+01    0.3159446    0.1883169  77.58  0.001490902    3.191    0.687
       101 -10.3325    122.1545    225.1175   1.1909146276e+02   1.3805259903e+01    0.2701694    0.1285789  46.63  0.001318095    1.684    0.406
       102  -9.6505    228.0533    223.9709   1.0022554980e+02  -3.1333313337e+00    0.1379058    0.1081958  19.78 0.0003195811    1.034    0.033
       103  -9.7631    178.4745    224.5196   1.0886505862e+02   4.8038754864e+00    0.1213345   0.09685312  35.35 5.507568e-05    1.024    0.024
       104 -10.5826     99.2212    223.4281   1.2305360423e+02   1.7515930333e+01    0.1976505    0.1228486  76.01  0.001188892    1.776    0.437
       105 -10.2062    188.4530    219.5542   1.0636546464e+02   3.8159961300e+00    0.1512497    0.1137748 -20.65 0.0005302354    1.592    0.372
       106 -10.5630     84.9613    221.4629   1.2542782228e+02   1.9865251969e+01    0.1622632     0.127579  65.92  0.000625921    1.030    0.029
       107 -11.1275    196.4919    220.4748   1.0508341140e+02   2.3611483373e+00    0.2451774    0.1685547 -46.56  0.001512275    1.919    0.479
       108 -10.8165    194.5161    216.4815   1.0481958097e+02   3.2109048593e+00    0.1718647    0.1434741  61.62 0.0008804484    1.515    0.340
       109  -9.9269    124.8400    221.1400   1.1814484641e+02   1.4023051948e+01    0.1550247    0.1365335  24.79  0.001085694    1.387    0.279
       110 -10.9879     63.0802    220.0703   1.2919763119e+02   2.2990922625e+01    0.2202551    0.1237724  66.37 0.0006043917    1.557    0.358
       111  -9.7348     52.9704    221.2806   1.3105063287e+02   2.4017680308e+01    0.2899407   0.03411072  44.44  0.001108323    4.343    0.770
       112 -11.2703    222.3347    218.3180   1.0027974727e+02  -1.5848581851e+00    0.2343598    0.1703551  26.08 0.0001824744    1.103    0.093
       113  -9.5557    203.6636    219.2853   1.0364470710e+02   1.3301789971e+00    0.1117722    0.0884838  58.67 0.0005340794    1.627    0.385
       114 -10.8232    133.4490    219.1070   1.1631646507e+02   1.2983113296e+01    0.2874244    0.1491085  38.51 0.0003787136    1.732    0.423
       115 -11.3671    236.7300    217.2109   9.7690124551e+01  -3.7286593131e+00    0.2602905    0.1717162  38.02 0.0005759065    1.354    0.261
       116 -10.7681    217.6170    217.7595   1.0099273283e+02  -7.5970303824e-01    0.2217795    0.1598453  36.24 0.0006844997    1.184    0.156
       117 -10.2591    141.7588    217.4387   1.1456902165e+02   1.1900418890e+01    0.1761897    0.1669265 -75.31   0.00055386    1.253    0.202
       118 -12.5417    107.5359    214.8083   1.2061916787e+02   1.7741086160e+01     0.512964    0.3519356 -51.12  0.002598908    1.826    0.452
       119 -10.3381    100.7079    217.6495   1.2219068029e+02   1.8273923080e+01    0.1829318    0.1710409  51.88 0.0006853136    1.291    0.225
       120 -11.6002    103.0449    214.0594   1.2137379692e+02   1.8544331594e+01    0.3106253    0.2496667 -57.04 0.0003035222    1.519    0.342
       121  -9.9105     70.7529    202.4786   1.2627219744e+02   2.5188927898e+01    0.4535289    0.2262043  57.09  0.002525324    1.786    0.440
       122 -10.6606     72.9866    217.3406   1.2720915084e+02   2.2196242329e+01    0.1797733    0.1659168 -79.76 0.0009404783    1.396    0.284
       123 -10.6362     76.6473    216.1571   1.2644323996e+02   2.1918566640e+01    0.2131087    0.1319742  64.36 0.0004571583    1.394    0.283
       124 -10.6550     74.4614    212.6574   1.2652522756e+02   2.2833078014e+01    0.2636069    0.1524515  49.27  0.001639823    1.430    0.301
       125 -10.9575     69.9503    212.9240   1.2737349207e+02   2.3379518599e+01    0.4268752    0.2013432 -58.82  0.002188259    2.402    0.584
       126 -11.1771     67.0704    206.9579   1.2737598415e+02   2.4838111494e+01    0.2726052    0.1817342  77.79 0.0008605294    1.349    0.259
       127  -9.7536    159.4193    217.5449   1.1132633169e+02   8.9611028135e+00    0.1216566    0.1005696  38.09 6.406767e-05    1.064    0.061
       128 -12.4900     39.1132    203.9332   1.3226041275e+02   2.8750842462e+01    0.6575346     0.192445 -70.84  0.001056519    3.106    0.678
       129 -11.4830    126.0048    215.5751   1.1726298748e+02   1.4743746258e+01    0.2416162    0.1753944  50.11 0.0003999971    1.131    0.116
       130 -11.1983     84.8303    215.3630   1.2487713072e+02   2.0941818829e+01    0.2719842    0.2169509  25.95  0.000777821    1.728    0.421
       131 -10.0758     85.5591    211.4845   1.2436386226e+02   2.1527208053e+01    0.1776157    0.1498474  83.50  0.000585242    1.152    0.132
       132 -10.5861     59.5918    215.5098   1.2945523049e+02   2.4232229496e+01    0.2031332    0.1715771 -47.03  0.001023006    1.822    0.451
       133 -10.5252     57.6750    211.7216   1.2949793028e+02   2.5150091853e+01    0.2578053    0.1645244 -50.81  0.001427935    2.267    0.559
       134 -11.2339    172.3499    214.9946   1.0859202576e+02   7.1580923657e+00    0.2113668    0.1493116  45.48 0.0003836483    1.211    0.174
       135 -10.2002    146.5162    215.0082   1.1336485636e+02   1.1497806153e+01    0.1630523    0.1229326 -51.62  0.001034989    1.599    0.375
       136 -11.0211    132.9768    214.6536   1.1584549593e+02   1.3774924121e+01    0.3130679    0.1782137  41.59  0.001749643    1.498    0.332
       137  -9.5414    199.6747    214.3079   1.0356461563e+02   2.6321262775e+00     0.127992    0.1023618  27.79 0.0003764716    1.035    0.034
       138 -11.4747    200.6101    211.1566   1.0289552410e+02   2.8895379069e+00    0.3247406    0.1713137  39.29 0.0008702869    1.579    0.367
       139 -10.7321    218.0069    212.2835   1.0003318161e+02  -1.5835632097e-01    0.2805656    0.1684433  30.36  0.001626927    1.427    0.299
       140 -10.8486    214.2851    210.0462   1.0030725049e+02   7.3580759236e-01    0.1661511    0.1405801  13.63 0.0004205992    1.091    0.083
       141 -10.8712    161.5146    213.0855   1.1030981013e+02   9.2771278605e+00    0.4054351    0.1419394  45.12  0.001602662    2.395    0.582
       142  -9.4340    250.3185    212.2737   9.4642080271e+01  -5.2737381400e+00    0.1197815   0.07203035  15.57 0.0002098707    1.568    0.362
       143 -10.4015    121.9473    212.3360   1.1762785278e+02   1.5927110953e+01    0.1713235    0.1272697  49.29 0.0003734579    1.119    0.106
       144 -11.0840    117.7943    212.0158   1.1837223152e+02   1.6636459543e+01     0.281821    0.1537638  41.66 0.0004490525    1.597    0.374
       145 -10.4955     94.8184    210.7076   1.2255297429e+02   2.0343413516e+01    0.2733862    0.1677898 -40.12  0.001467485    2.756    0.637
       146 -10.1327    144.0111    211.0130   1.1329343406e+02   1.2547862214e+01    0.1838514    0.1406478  19.40 0.0008821258    1.621    0.383
       147 -11.5525     80.5643    208.4059   1.2499313691e+02   2.2774512504e+01    0.3682374    0.2197116 -86.61  0.002186528    1.814    0.449
       148 -10.2278    184.2832    199.0231   1.0388736084e+02   7.4286779663e+00    0.1665835    0.1544071  -0.93 0.0004024943    1.166    0.142
       149 -10.4528    184.0224    210.0280   1.0570588500e+02   5.8760211383e+00    0.1818163    0.1504107  31.96 0.0003261436    1.027    0.027
       150 -12.6185    183.2695    204.6246   1.0498906596e+02   6.7828831773e+00    0.3417018    0.2833694  -5.64 0.0007606948    1.363    0.266
       151 -11.7393    128.7526    207.9390   1.1578096803e+02   1.5574155395e+01    0.3212245    0.2886236 -30.96   0.00148979    1.454    0.312
       152 -11.4160    245.0062    199.9811   9.3354759622e+01  -3.0695420352e+00    0.2520332    0.1505532  31.09 0.0009323543    1.436    0.304
       153 -12.4764    239.2144    198.7888   9.4100965722e+01  -1.9946833452e+00    0.2619964    0.2311428  19.30 0.0003303124    1.214    0.177
       154 -10.5281    192.4838    207.9986   1.0384542194e+02   4.7048228902e+00     0.156108    0.1106427 -69.65  0.000810288    2.619    0.618
       155 -10.2010    117.4871    207.5032   1.1788139406e+02   1.7459284003e+01    0.2554011    0.1635459  73.82 0.0009837889    1.874    0.466
       156 -10.8709    121.4941    199.1435   1.1603152809e+02   1.8284598264e+01    0.2136723    0.1901501 -82.09 0.0006156356    1.206    0.171
       157 -11.1477    121.2359    203.2502   1.1662090463e+02   1.7601121561e+01    0.2374634    0.1873183  61.24 0.0004428789    1.132    0.116
       158 -10.9825    117.5545    203.5108   1.1736898277e+02   1.8146421040e+01    0.2176904    0.1874385  53.74 0.0007670955    1.071    0.066
       159 -10.9180     52.3995    207.4073   1.3011159698e+02   2.6577985273e+01    0.2039633    0.1693095  73.02 0.0007237081    1.145    0.127
       160 -10.4326    152.8663    207.2815   1.1109574460e+02   1.1649009338e+01    0.2040659     0.134899  53.46 0.0006069578    1.416    0.294
       161 -11.2598    199.3035    205.2401   1.0216317710e+02   3.9090655847e+00    0.3336746     0.219785  50.27  0.001846573    1.566    0.361
       162 -10.6084    144.8754    205.0760   1.1230346796e+02   1.3366763847e+01    0.2126496    0.1888091 -38.47   0.00141864    1.366    0.268
       163 -11.6685    239.4370    206.3114   9.5392168756e+01  -2.9169932851e+00    0.5029101    0.2534078   6.23  0.002132526    3.433    0.709
       164 -11.3919     98.6964    205.3524   1.2123122439e+02   2.0729829366e+01    0.1993633    0.1737222  58.15 0.0002809411    1.128    0.114
       165 -12.1817     95.8956    200.2378   1.2119169600e+02   2.2079828670e+01    0.2852575    0.2261117 -88.68 0.0005325963    1.245    0.197
       166 -10.0892     91.6829    200.3117   1.2202133802e+02   2.2686091675e+01    0.2699418    0.1081154  57.48  0.001161019    2.801    0.643
       167 -10.0962      2.2417    205.7746   1.3877095604e+02   3.2056443100e+01     0.251271    0.1015664  66.95   0.00153531    1.996    0.499
       168 -11.0753     59.5715    204.1358   1.2852355720e+02   2.6311095476e+01    0.1989138    0.1394593  61.90  0.000305401    1.150    0.130
       169 -10.6594    137.8080    202.5314   1.1330698779e+02   1.4987302500e+01    0.2223681    0.1587406  31.53  0.001295052    1.476    0.322
       170 -11.1239     52.5416    202.0304   1.2965469401e+02   2.7562585651e+01    0.2300449    0.1786223 -61.81 0.0006078014    1.577    0.366
       171 -10.5637    249.0239    202.3375   9.3118256382e+01  -3.9755794485e+00    0.1691456    0.1300866  20.75 0.0005543944    1.072    0.067
       172 -10.6832    166.9317    202.0579   1.0764312341e+02   1.0034745431e+01    0.1856076    0.1592436  34.34 0.0003173236    1.060    0.056
       173 -10.8685    190.5923    200.7629   1.0300648163e+02   6.0574259292e+00    0.1971363    0.1603609 -46.82 0.0006631353    1.518    0.341
       174 -12.1179    188.6251    196.1052   1.0258765420e+02   7.0876048036e+00    0.2444156    0.2063155  41.12 0.0003408459    1.112    0.100
       175 -10.3966    193.0185    194.2879   1.0145884169e+02   6.5683195518e+00    0.2456981    0.1800694  14.65 0.0004523734    1.477    0.323
       176  -9.9624    171.5271    201.5077   1.0668665305e+02   9.3114709306e+00    0.1845387    0.1280568 -43.32  0.001064755    1.689    0.408
       177 -10.9744    149.9877    200.6798   1.1068051533e+02   1.3214478474e+01    0.2021635    0.1846569 -56.62 0.0001902906    1.274    0.215
       178 -10.1058     86.7607    201.2956   1.2308425206e+02   2.3213083045e+01    0.1409747    0.1353708 -86.63 0.0008770157    1.321    0.243
       179  -9.7663    232.4651    200.5615   9.5552464532e+01  -1.1029461861e+00     0.123641   0.09958268  18.46 0.0001038856    1.010    0.010
       180 -11.3055    207.2536    199.1398   9.9701569674e+01   3.3632549821e+00    0.2493033    0.2253941 -46.50 0.0009055407    1.445    0.308
       181 -12.0349    228.6448    195.7334   9.5341996860e+01   1.3597240108e-01    0.4556333    0.2523263 -13.62  0.002276737    2.269    0.559
       182  -9.8376     13.7101    210.6993   1.3709114273e+02   3.0120247280e+01   0.08591606   0.07102682 -71.67 0.0003147931    1.563    0.360
       183 -10.4400    102.9150    198.6730   1.1963116899e+02   2.1309952806e+01    0.1664847    0.1528451  51.03   0.00032555    1.213    0.175
       184 -12.1765    109.7098    197.7508   1.1817629856e+02   2.0424599415e+01    0.2466045    0.1919352  59.26 0.0002793641    1.105    0.095
       185 -11.5734    105.9582    194.4900   1.1850942573e+02   2.1614517594e+01    0.2932527    0.2450328  12.34 0.0005314124    1.723    0.420
       186  -9.9863    161.8359    198.1638   1.0800840226e+02   1.1550044802e+01    0.1672086    0.1398211  19.89 0.0002586105    1.285    0.222
       187 -12.4053    216.7697    193.1655   9.6950477232e+01   2.5119710547e+00    0.3814152    0.3461412  -7.46 0.0006634199    1.195    0.164
       188 -10.3644     82.3335    196.0497   1.2338211825e+02   2.4825679403e+01    0.1632417    0.1294429 -89.22  0.000367211    1.187    0.158
       189 -10.9858     60.7785    187.7739   1.2679513066e+02   2.9303966089e+01    0.1873055    0.1378114  77.03  0.000606878    1.150    0.130
       190 -10.7154     70.0306    195.7560   1.2575935141e+02   2.6557421288e+01    0.2289505    0.1962033  44.27 0.0008616658    1.346    0.257
       191 -12.6523     66.2592    191.1734   1.2604385321e+02   2.7937150035e+01    0.4236482    0.2064379  45.65 0.0007158928    1.807    0.447
       192 -10.2127     62.7889    196.0547   1.2719155566e+02   2.7436816473e+01    0.1768907    0.1207891  71.70 0.0004926275    1.260    0.206
       193 -10.6932      9.8328    196.1001   1.3699829595e+02   3.3163173299e+01    0.1532197    0.1145761  79.16 0.0003657084    1.080    0.074
       194 -10.6709     13.4244    193.5744   1.3622109078e+02   3.3311657578e+01    0.1429907    0.1338844  85.24 0.0005265232    1.473    0.321
       195 -11.6240      4.4757    195.5458   1.3790763740e+02   3.3742445535e+01    0.1885673     0.134878  78.14 8.314267e-05    1.030    0.029
       196 -12.2954      1.8202    192.7954   1.3823565129e+02   3.4486281558e+01    0.2208356    0.1217074 -76.44 0.0004942518    1.577    0.366
       197 -10.7913    199.4092    194.9773   1.0040020756e+02   5.3257446169e+00    0.2389229    0.1650371  53.61  0.001328372    1.616    0.381
       198 -10.7370    139.9775    194.6127   1.1173887585e+02   1.5975996875e+01    0.2060681    0.1796301 -82.57  0.001315296    1.286    0.222
       199 -10.6900     95.5766    195.0263   1.2064603240e+02   2.3099893225e+01    0.2057293    0.1555495  44.36 0.0004187587    1.274    0.215
       200 -10.8377    250.1479    193.9553   9.1420357242e+01  -3.1870838677e+00    0.1936098    0.1547862  -6.10 0.0005628847    1.152    0.132
       201 -12.3049    246.3103    190.5976   9.1428127026e+01  -2.1674692384e+00    0.5279416    0.2202709  30.92  0.001810716    2.471    0.595
       202 -11.5095    210.6011    191.5589   9.7761871019e+01   3.8171592455e+00    0.2502847    0.1980497 -88.99  0.001147451    2.358    0.576
       203 -10.8334     86.3314    191.7249   1.2210668998e+02   2.5085369432e+01    0.2869363    0.1473382  54.69  0.001504901    1.787    0.440
       204 -11.0488     80.4818    189.4457   1.2302356406e+02   2.6357661613e+01    0.4706204    0.2057924  31.43  0.002075197    3.052    0.672
       205  -9.8105    187.3045    186.6848   1.0119752283e+02   8.7540055394e+00    0.2241857    0.1507756  48.45 0.0006239167    1.427    0.299
       206 -11.0031    188.3010    190.6772   1.0171317394e+02   7.9599297021e+00     0.254835    0.2385408 -67.90 0.0006870612    1.358    0.264
       207 -11.3918    193.1822    188.2574   1.0036858760e+02   7.4350712059e+00     0.420381    0.3054404  22.10  0.002386692    1.386    0.278
       208 -10.2106    148.1704    192.3526   1.0977109919e+02   1.4935086103e+01    0.2058497    0.1476343  30.67 0.0008348603    1.454    0.312
       209 -10.2050    177.9868    189.5480   1.0347998799e+02   1.0017664878e+01    0.2084622     0.175773 -82.54  0.001231094    1.625    0.385
       210 -10.7953     91.6544    189.1224   1.2072640558e+02   2.4811142692e+01    0.2518584     0.187877 -73.04 0.0009439089    1.358    0.264
       211 -12.6214     53.1186    192.8380   1.2876593218e+02   2.9251240704e+01    0.2820601    0.2401022  57.97  0.000496319    1.239    0.193
       212 -11.4735    129.9224    188.5237   1.1285182762e+02   1.8791521674e+01    0.2958857    0.2107213  66.10 0.0007737429    1.490    0.329
       213 -10.0293     17.1377    187.8241   1.3520147334e+02   3.4069120049e+01    0.1486239     0.112031  69.24 0.0006046063    1.107    0.097
       214 -12.0534     15.8759    182.9858   1.3513125131e+02   3.5130220901e+01    0.3668693    0.2413426 -70.97  0.001446782    1.477    0.323
       215  -9.9981    221.2213    186.5131   9.4944590019e+01   2.6288460357e+00    0.2460749    0.1742873  55.06 0.0009735192    1.764    0.433
       216 -10.9863    225.3999    183.9405   9.3728005379e+01   2.2389897433e+00    0.2606108    0.1727456  13.89  0.000522634    1.598    0.374
       217 -11.1066    104.5857    187.0402   1.1782210407e+02   2.3238870738e+01     0.250307     0.150111  56.00 0.0007024585    1.557    0.358
       218 -10.0629     67.9055    185.3868   1.2512242669e+02   2.8863149565e+01    0.2613533    0.1332955  87.20  0.001266148    2.445    0.591
       219 -11.3165     33.1493    185.3696   1.3200517519e+02   3.2961279720e+01     0.266839    0.2389091  15.36  0.001519891    1.729    0.422
       220 -10.4895     29.6154    183.2834   1.3252942927e+02   3.3739711032e+01    0.2088989    0.1353416  86.46 0.0005876558    1.257    0.205
       221 -10.8578     27.0987    179.9011   1.3276501536e+02   3.4667217318e+01    0.2546235    0.1725857  60.95  0.001365455    1.259    0.206
       222 -10.8370    163.5797    191.9887   1.0668103752e+02   1.2243289773e+01    0.4030665    0.2127821 -34.56  0.001381408    2.477    0.596
       223 -11.2260    176.1888    183.4418   1.0276198839e+02   1.1329794760e+01    0.4860804    0.2608494  42.80  0.002350934    1.655    0.396
       224 -10.5295    156.6045    184.6931   1.0685352991e+02   1.4739274060e+01    0.3041262    0.1588053  31.70  0.001339193    2.203    0.546
       225  -9.6279     75.3108    185.6466   1.2364683127e+02   2.7820361399e+01    0.1306061   0.07807966  71.46 0.0007044369    1.726    0.421
       226 -10.3869      6.4722    175.5017   1.3644926093e+02   3.7434749695e+01    0.4854883   0.05478932 -68.46   0.00181422    4.980    0.799
       227 -11.8742      7.7533    182.0675   1.3659448827e+02   3.6034051088e+01    0.3484457    0.1575138  82.02  0.002055837    1.915    0.478
       228 -11.1076      4.5823    182.8111   1.3722218090e+02   3.6159847702e+01    0.2801196    0.1328578 -88.75  0.001110169    1.694    0.410
       229 -10.6546     44.8145    183.5986   1.2957924195e+02   3.2041796519e+01    0.3249577    0.1183259  51.88  0.001589758    2.463    0.594
       230 -10.2140     47.9306    181.5501   1.2877459759e+02   3.2096179344e+01    0.1617122    0.1421583 -79.37 0.0006127553    1.279    0.218
       231 -10.8833    122.2856    182.6550   1.1354662179e+02   2.1183618990e+01    0.3539088    0.1926453  58.87  0.001393428    2.024    0.506
       232 -11.1479    103.4928    183.0218   1.1750954954e+02   2.4188512567e+01    0.2551193    0.1501039  56.19 0.0007986173    1.618    0.382
       233 -11.4051    230.1457    180.7239   9.2289958810e+01   1.8342692806e+00    0.2592116    0.1977557 -51.26  0.001023704    1.885    0.470
       234 -11.7970    120.9331    189.8632   1.1487108193e+02   2.0061417044e+01    0.2831577    0.2613523  -8.39 0.0009438958    1.423    0.297
       235 -11.5776     58.0591    181.1727   1.2668929675e+02   3.0961668868e+01    0.4077232    0.3191768  28.63  0.002021671    1.677    0.404
       236 -11.0920     54.4387    180.8982   1.2739871679e+02   3.1459059879e+01    0.3534445    0.1743676  63.18  0.001761708    2.035    0.509
       237 -10.8565     91.9455    180.0348   1.1952893529e+02   2.6554458594e+01    0.2690337    0.1702045 -67.73 0.0007875859    1.610    0.379
       238 -10.1943    154.1021    180.1563   1.0659190106e+02   1.5991511623e+01    0.1874169    0.1498562  65.94 0.0007220607    1.363    0.266
       239 -10.6237    132.0860    180.5235   1.1118276494e+02   1.9894275866e+01    0.1981133    0.1180855  45.00 0.0004550858    1.508    0.337
       240  -9.7570    126.9491    180.4529   1.1224133652e+02   2.0802244155e+01    0.2000482    0.1168401  45.34 0.0004498847    1.540    0.351
       241 -10.7211    106.8395    172.7119   1.1533629937e+02   2.5694153511e+01    0.3226428    0.1998171 -37.49  0.001562457    2.356    0.576
       242 -10.3052    100.8289    170.3725   1.1629523859e+02   2.7133898831e+01    0.6216835    0.3780925 -26.13  0.002444276    4.039    0.752
       243 -11.2038    104.1933    178.2209   1.1669919474e+02   2.5021191549e+01    0.2612011    0.2155295  81.15 0.0005347678    1.161    0.139
       244 -10.7219    101.0114    176.0042   1.1706396066e+02   2.5966837764e+01    0.1723319    0.1602623  65.39            0    1.125    0.111
       245 -11.9806     72.5991    178.0432   1.2334610818e+02   2.9716446756e+01    0.3656152    0.2686933  24.85   0.00218837    1.858    0.462
       246 -12.2274     79.0446    174.3501   1.2154027357e+02   2.9582258031e+01    0.4345767    0.2624437  48.54  0.002429429    1.522    0.343
       247 -10.3994     40.0777    178.2949   1.3006221577e+02   3.3636661711e+01    0.1809023     0.130159 -76.49 0.0002605902    1.274    0.215
       248 -10.5150    237.3552    178.0764   9.0543731276e+01   9.2192336464e-01    0.2061913     0.148592  25.84 0.0005511621    1.236    0.191
       249 -10.5051    119.4978    177.5346   1.1335787661e+02   2.2637185915e+01    0.3305456    0.1827153  29.77   0.00149319    2.345    0.574
       250 -12.5443    136.8219    173.3593   1.0902153326e+02   2.0398755628e+01     0.586981    0.3321629 -57.28  0.001648303    2.007    0.502
       251 -11.0640     31.7025    176.2573   1.3157118230e+02   3.4936318444e+01    0.2086929    0.1516588  63.92 0.0007427958    1.183    0.155
       252 -10.7032    131.6604    174.7566   1.1034497252e+02   2.1058642378e+01    0.3236188    0.2220883 -22.57   0.00090718    2.391    0.582
       253  -9.6774    249.8369    175.1165   8.7888111388e+01  -8.4100871178e-01    0.1731887    0.1240157  12.48 0.0003512137    1.285    0.222
       254 -10.8827    189.0951    173.9637   9.8508570679e+01   1.0425872305e+01    0.4343023    0.2437584  58.71  0.001892832    2.384    0.581
       255 -11.7669    172.8540    173.2614   1.0157181875e+02   1.3659052106e+01    0.3944902    0.2230295  32.66  0.001217456    1.869    0.465
       256 -10.2445     94.0064    173.9800   1.1828395976e+02   2.7462152475e+01    0.1906132    0.1649873  74.78  0.000380575    1.013    0.013
       257 -11.2547     86.8380    170.8972   1.1941489137e+02   2.9169896147e+01     0.320342    0.1717098 -77.36  0.001529518    2.198    0.545
       258 -11.5445    157.8578    173.4400   1.0464760722e+02   1.6485686710e+01    0.3793649    0.2034507  39.90  0.001224403    1.746    0.427
       259 -11.5021     63.8517    170.5643   1.2434055576e+02   3.2410077251e+01    0.3561201    0.2225116  35.83  0.001733683    1.764    0.433
       260  -9.6855     25.7075    171.6883   1.3241088208e+02   3.6465122987e+01    0.1016117   0.07758056 -57.66 0.0002753467    1.590    0.371
       261 -11.3403     12.8644    170.1763   1.3486768705e+02   3.7955651122e+01     0.179003    0.1501477  87.27 0.0002577261    1.197    0.164
       262 -11.1948     31.3997    169.4995   1.3107048835e+02   3.6350559887e+01    0.2006927    0.1621433 -84.48 0.0007227504    1.151    0.131
       263  -9.4120    144.2960    169.2815   1.0673495060e+02   1.9796636163e+01    0.1294608    0.1064505   9.43  0.000259913    1.539    0.350
       264 -11.2494    114.8582    168.6872   1.1297616104e+02   2.5170436873e+01    0.2298703    0.2068019  67.81 0.0003840114    1.002    0.002
       265  -9.8818    108.8063    169.1530   1.1437077185e+02   2.6089504396e+01    0.1616201    0.1564618 -26.51 0.0003680326    1.279    0.218
       266  -9.9631      5.8141    169.1401   1.3618749083e+02   3.8760476090e+01    0.1273564    0.1062537 -84.62 0.0004492243    1.257    0.204
       267 -10.0262      1.8212    169.1253   1.3696409198e+02   3.9084562155e+01    0.1330202   0.09830931 -77.67 0.0002649812    1.274    0.215
       268 -10.4729    195.1351    168.1753   9.6220252857e+01   1.0190815750e+01    0.2062705    0.1695187  19.08 0.0003961848    1.186    0.157
       269 -11.7808     49.9841    165.0026   1.2671327031e+02   3.5273224508e+01     0.408691    0.2610016 -48.94  0.002378276    1.973    0.493
       270 -10.7031     47.5836    159.1812   1.2661057068e+02   3.6786827979e+01    0.2153091    0.1382405 -83.18 0.0006310208    1.381    0.276
       271 -10.9970     82.0672    166.1187   1.1981638967e+02   3.0860409956e+01    0.3065836    0.1822437  28.74   0.00154204    2.182    0.542
       272 -10.4799     73.5665    165.9963   1.2167617299e+02   3.2080571540e+01     0.187249    0.1124483 -68.16 0.0004199021    1.586    0.370
       273  -9.9229     40.5302    166.4738   1.2888729391e+02   3.6024209864e+01    0.1176137   0.09391885  84.05  0.000616254    1.013    0.013
       274 -10.9007    159.2051    164.4329   1.0270307199e+02   1.7859397767e+01    0.2312541    0.1913433 -44.25 0.0002721597    1.307    0.235
       275 -10.3051    124.0872    165.0801   1.1036342596e+02   2.4292550786e+01    0.1988334    0.1882766   1.40 0.0008664155    1.270    0.213
       276  -9.6460     61.3383    165.2635   1.2427169673e+02   3.3842897165e+01    0.1075287    0.0953087 -34.03 0.0004117468    1.589    0.371
       277 -10.3193    203.0542    162.4151   9.3552650151e+01   9.5625888143e+00      0.25187    0.1919536 -48.67  0.001357116    1.569    0.363
       278  -9.6583    147.4553    163.4832   1.0501035319e+02   2.0298312523e+01     0.137851    0.1284035  48.65 0.0001438214    1.012    0.012
       279 -11.1702    143.6309    162.8085   1.0570677716e+02   2.1153305320e+01    0.1966709    0.1583395  69.44            0    1.355    0.262
       280 -10.2609    101.1400    163.3507   1.1517038089e+02   2.8530110225e+01    0.2522171    0.1230478  33.11  0.001085905    2.455    0.593
       281 -10.4094     19.0479    161.9360   1.3300758237e+02   3.9100139825e+01     0.267182    0.1548685 -78.01  0.001401257    1.410    0.291
       282 -10.3052     10.8951    162.9585   1.3476288798e+02   3.9597255153e+01    0.2249855   0.09591847  58.00  0.001249482    2.169    0.539
       283 -11.9995    107.4233    158.1535   1.1292175739e+02   2.8583245909e+01    0.2486939    0.2214603  87.72 0.0003109138    1.068    0.064
       284 -10.5773     52.8373    158.2087   1.2533219340e+02   3.6386580789e+01    0.2057345    0.1401756 -86.23 0.0005737327    1.316    0.240
       285 -11.9743     33.8639    157.8499   1.2948962795e+02   3.8545010722e+01    0.4963767    0.1810103  52.31  0.001057942    2.723    0.633
       286 -11.7378     24.4566    158.0237   1.3154049650e+02   3.9424169697e+01    0.2222628    0.1576002  35.21 -2.079416e-05    1.666    0.400
       287 -10.9482    190.6476    157.1998   9.4865411100e+01   1.2882603153e+01    0.2611379    0.2111301  44.18  0.001048872    1.191    0.160
       288 -10.6078    145.5423    158.0395   1.0439780417e+02   2.1708917428e+01    0.2227648     0.174115  44.94 0.0007675263    1.202    0.168
       289  -9.4482     11.3008    158.2843   1.3434234727e+02   4.0529764945e+01   0.09981804    0.0739281 -58.79 0.0003636464    1.553    0.356
       290  -9.6171     91.2791    162.6952   1.1728110021e+02   3.0212875081e+01    0.1317293   0.09122952  75.72 0.0006966798    1.551    0.355
       291 -10.1970    162.2681    157.0422   1.0061838419e+02   1.8618827386e+01     0.185826    0.1821375 -30.07 0.0002879325    1.086    0.079
       292 -10.4095    137.0213    151.4849   1.0501547855e+02   2.4636860695e+01    0.3400849    0.1719884  37.80  0.001428049    2.064    0.515
       293 -10.5846    140.0051    156.9919   1.0540963474e+02   2.2972860381e+01    0.2132618    0.1910533  66.65  0.001229181    1.108    0.097
       294 -10.8749    137.4411    154.7326   1.0554726095e+02   2.3907431050e+01      0.30535    0.2374959 -34.53  0.001620643    1.492    0.330
       295 -10.7256    183.9890    156.0799   9.5953280322e+01   1.4418599500e+01     0.207879    0.1940387  29.68 0.0003543019    1.024    0.024
       296 -10.5962    124.2684    156.0101   1.0873437555e+02   2.6092304925e+01    0.2267623    0.1832179  50.91 0.0007039576    1.170    0.146
       297 -10.7729    113.3205    154.1283   1.1088898994e+02   2.8420835489e+01    0.3022687    0.2240138 -78.60  0.001570112    1.499    0.333
       298 -10.5663     12.0392    154.4114   1.3389512592e+02   4.1277398689e+01    0.2271135     0.123808  62.88  0.001403802    1.683    0.406
       299  -9.8018     85.7096    154.6901   1.1735687465e+02   3.2758024309e+01    0.1210793    0.1020887 -32.00 0.0002629072    1.582    0.368
       300 -10.5425     36.0858    153.1297   1.2852762178e+02   3.9329674446e+01    0.2730491    0.1442528 -85.14  0.001078173    1.758    0.431
       301 -11.2595    225.2417    151.2697   8.7150880713e+01   6.9304271405e+00    0.3148642    0.2973913 -68.89  0.001858769    1.393    0.282
       302 -10.9312     20.4210    150.7821   1.3178219445e+02   4.1328724105e+01    0.3046663    0.1360766 -52.09  0.001565716    2.634    0.620
       303  -9.4630      4.6948    152.3336   1.3529667367e+02   4.2295797299e+01    0.1166084   0.06236554  70.68 0.0003774795    1.664    0.399
       304 -10.6851    249.0977    151.0105   8.3070707291e+01   2.4636603264e+00    0.2002234    0.1725457  -3.40 0.0003699016    1.035    0.034
       305  -9.2569    123.4928    150.5045   1.0789753448e+02   2.7365667051e+01    0.1398949     0.129373  72.49 1.520021e-05    1.028    0.028
       306 -10.0769     98.6881    148.9518   1.1339867716e+02   3.1977387896e+01    0.1844395    0.1623376 -82.05 0.0002284993    1.075    0.070
       307  -9.8215     92.1754    147.6107   1.1471585608e+02   3.3304746703e+01    0.1738495    0.1278908  26.89 0.0003632152    1.695    0.410
       308 -10.2060     13.3211    146.2874   1.3296274731e+02   4.2891613667e+01    0.1822998   0.09111992 -73.34 0.0005001573    1.597    0.374
       309 -10.5208    237.0418    144.9067   8.3737779767e+01   5.5810619682e+00    0.2062743    0.1750559   6.89 0.0003712857    1.073    0.068
       310 -10.6282    167.3028    144.3172   9.6902169861e+01   1.9965678061e+01    0.2514243    0.1308041  38.24 0.0002655836    1.979    0.495
       311  -9.7549      5.4974    144.9836   1.3458239662e+02   4.3780033176e+01    0.1636431   0.08567515 -81.66 0.0006121493    1.490    0.329
       312  -9.9386     52.8573    144.1111   1.2359741254e+02   3.9460898269e+01    0.1886579    0.1412273  85.34 0.0004806336    1.216    0.178
       313 -10.4255    242.0325    142.2927   8.2335586298e+01   5.0009425807e+00    0.1840791    0.1656555  12.77  0.000412073    1.081    0.075
       314 -12.7340    132.4059    140.6327   1.0389517378e+02   2.7736685103e+01     0.279166    0.2656189  82.73 0.0003664793    1.037    0.035
       315 -10.6598     91.5346    142.2716   1.1396524790e+02   3.4572470490e+01    0.4160724    0.1855173  31.90  0.001660178    2.869    0.651
       316 -11.6181     24.0090    139.0828   1.2985263222e+02   4.3539504014e+01    0.3733911    0.1910169 -53.54  0.002067629    2.046    0.511
       317 -10.4148    224.0982    139.5987   8.4785110475e+01   8.9312325476e+00    0.2140167    0.1834655 -32.15 0.0003911301    1.201    0.168
       318  -9.5168     62.8299    140.1385   1.2063720944e+02   3.9124851639e+01    0.1573399    0.1441201 -50.95 0.0003890527    1.286    0.222
       319  -9.5094    242.3005    138.3029   8.1409948537e+01   5.5227378936e+00    0.1391241    0.0969181   9.36 0.0002732157    1.588    0.370
       320 -10.8732     49.5838    136.6545   1.2340015993e+02   4.1497770186e+01    0.3267055    0.1545709 -52.98  0.001595908    2.114    0.527
       321 -10.9562     35.2546    137.3726   1.2698683073e+02   4.2859461834e+01    0.3184896    0.1720809  66.87  0.001210218    2.034    0.508
       322  -9.6499    106.7694    136.9495   1.0927451652e+02   3.3226497031e+01    0.1791402    0.1122013 -54.54 0.0004037936    1.571    0.364
       323  -9.8022      7.0166    137.4849   1.3364152066e+02   4.5266501536e+01    0.1341049    0.1083475  40.29  0.000470892    1.494    0.331
       324  -9.9139    122.0175    135.7933   1.0534831508e+02   3.0728087014e+01    0.1909521    0.1788058  66.01   0.00028382    1.037    0.036
       325 -10.2679     44.9455    135.6698   1.2441163555e+02   4.2232653975e+01    0.1638333    0.1403725  81.37 0.0003793349    1.087    0.080
       326  -9.1477    114.2740    135.6568   1.0719000500e+02   3.2180545208e+01    0.1436742    0.1077074  87.34 0.0002599894    1.619    0.382
       327 -12.1437    195.9473    133.4648   8.8600148936e+01   1.5832265992e+01    0.2542887    0.2372067  -9.63 0.0001494302    1.050    0.048
       328 -11.1121     40.9990    132.8565   1.2502144956e+02   4.3281693430e+01    0.3714272    0.1450147 -69.84  0.001698082    2.230    0.551
       329 -12.8472     26.2157    130.0468   1.2834294237e+02   4.5335139535e+01    0.2725281    0.2294451  71.33 0.0005373766    1.182    0.154
       330 -11.7601     62.1699    129.4949   1.1917511817e+02   4.1600860548e+01    0.4046037       0.1913 -59.79  0.001924544    1.867    0.464
       331 -10.9234     49.0635    130.2217   1.2263493259e+02   4.3001245139e+01    0.3657874    0.2131787 -31.82  0.001595878    2.982    0.665
       332 -13.1074    156.5589    128.7249   9.5744607213e+01   2.5227400869e+01    0.3189115    0.3064104  64.96  0.000537577    1.062    0.059
       333  -9.6682    122.2983    129.3945   1.0392712710e+02   3.2038909167e+01    0.1481003    0.1145172 -14.87 0.0007006477    1.803    0.445
       334 -10.1545     36.2483    128.5387   1.2565345490e+02   4.4731084110e+01    0.1417598    0.1223782   5.54  0.000602746    1.613    0.380
       335  -9.6061      1.3057    128.6658   1.3422647226e+02   4.7564952200e+01    0.1165938    0.0657732  72.37 0.0007039541    1.667    0.400
       336 -10.6327     91.8851    126.5272   1.1097492731e+02   3.8010881684e+01    0.2409089     0.183526 -57.85 0.0005187786    1.246    0.197
       337 -10.3246     20.2979    125.9838   1.2935349855e+02   4.6743616279e+01    0.1694986    0.1222354 -80.58 0.0006384452    1.100    0.091
       338 -11.0891     55.7732    124.6851   1.2006743398e+02   4.3477582374e+01    0.2703181    0.1553341  35.50   0.00108257    1.939    0.484
       339  -9.7850    108.4993    123.5293   1.0609715096e+02   3.5857099837e+01    0.1412871    0.1350376 -78.99 2.683267e-05    1.013    0.013
       340  -9.9295     50.6784    122.8701   1.2112121603e+02   4.4482892787e+01    0.2062596    0.1147049 -36.21 0.0005876172    2.702    0.630
       341 -11.3009     67.9301    120.3974   1.1611583476e+02   4.2917433383e+01    0.3577616    0.2311531 -66.90  0.001901146    1.420    0.296
       342 -10.9531     63.1496    122.0959   1.1769120712e+02   4.3155160455e+01    0.1949862    0.1689088 -53.58 0.0008231184    1.197    0.165
       343  -9.4872     38.6614    122.7150   1.2425198667e+02   4.5802195707e+01    0.1189051   0.08585659 -42.60 0.0006397589    1.631    0.387
       344 -10.5009     14.3623    121.5126   1.3035378499e+02   4.8202676679e+01    0.2056798     0.101608 -58.08 0.0007703938    1.789    0.441
       345 -11.7009     93.1114    118.6948   1.0906008105e+02   3.9565220790e+01    0.4323738     0.241084 -59.82   0.00197013    1.765    0.433
       346 -10.4333     83.3554    120.0123   1.1192060138e+02   4.0805846260e+01    0.3642649    0.2226584  85.48  0.001546986    2.557    0.609
       347 -11.7155     20.0498    109.7847   1.2746758627e+02   5.0378326112e+01    0.2946822    0.2053955 -66.55  0.001918107    1.172    0.147
       348 -12.0970     23.8707    116.4025   1.2729524590e+02   4.8584436076e+01    0.3824525    0.2016386 -74.07  0.002128885    1.559    0.359
       349  -9.9371     72.2330    118.3739   1.1458466128e+02   4.2792306556e+01    0.1755365    0.1201065  50.00 0.0004085841    1.555    0.357
       350  -9.8714     54.9803    117.6822   1.1913083584e+02   4.5165305414e+01    0.1679724    0.1536057 -88.58 0.0004411183    1.088    0.081
       351 -10.9892      1.9710    116.7326   1.3299491636e+02   5.0112223702e+01    0.3530573    0.1539394  72.52  0.001740372    2.701    0.630
       352 -11.8078      3.2133    112.2057   1.3223019340e+02   5.1025173762e+01    0.3525078    0.1956935 -73.51 0.0005842149    1.364    0.267
       353  -9.4186    138.6241    115.7469   9.6802675192e+01   3.1647977201e+01    0.1503687    0.1172405  14.05 0.0002539938    1.648    0.393
       354 -10.9345     33.5210    113.9440   1.2437351595e+02   4.8284417820e+01    0.3180056    0.1710619 -81.89  0.001644894    1.837    0.456
       355  -9.6280     60.5456    114.4702   1.1704786511e+02   4.5221852730e+01    0.1315714    0.1137531 -76.51 0.0002355878    1.030    0.029
       356 -10.5221     50.6103    113.9087   1.1968716685e+02   4.6530890223e+01    0.3223936    0.1830189  68.69   0.00152429    2.380    0.580
       357  -9.8668    111.9969    113.3313   1.0289520642e+02   3.7448872748e+01    0.1958724    0.1833716  54.10 0.0002943345    1.093    0.085
       358  -9.6683    120.5009    112.4764   1.0049884188e+02   3.6011335453e+01    0.1449478    0.1420183 -52.34 -6.377565e-05    1.033    0.032
       359 -10.3703     74.7617    111.8072   1.1260359721e+02   4.3929099398e+01    0.2074008     0.184892  20.68 0.0005566604    1.342    0.255
       360  -9.8264     85.0255    109.2174   1.0920941080e+02   4.2984318237e+01    0.2287031    0.1528247  70.98  0.001069132    2.013    0.503
       361 -10.7582     37.0882    108.5953   1.2257836776e+02   4.9158370728e+01    0.2284579    0.1693485 -85.58 0.0005446899    1.260    0.206
       362 -10.3191    152.7909    106.8823   9.1203157427e+01   3.0368710665e+01    0.4300785    0.1542912 -47.99  0.001360769    3.107    0.678
       363 -10.4657     44.5125    106.7869   1.2017945102e+02   4.8820107405e+01    0.2158143    0.1711394  37.82  0.001357408    1.458    0.314
       364 -10.1221     63.9249    106.1539   1.1451097250e+02   4.6688656994e+01    0.1925752    0.1613772 -87.75  0.000355441    1.206    0.171
       365  -9.6452     87.4616    104.5149   1.0746897778e+02   4.3655002723e+01    0.1398657    0.1285796 -65.09 -1.309956e-05    1.014    0.013
       366 -10.6427     29.0876    103.3873   1.2403217698e+02   5.1073524938e+01    0.1953077    0.1367938 -61.89 0.0003295067    1.192    0.161
       367 -11.4546     74.6496    103.3071   1.1083637837e+02   4.5871116971e+01     0.314705    0.1669783  42.74  0.001465344    2.041    0.510
       368 -10.9439     74.6912    100.3717   1.1017039741e+02   4.6527368406e+01    0.2684587    0.1790847 -84.43 0.0008939768    1.986    0.497
       369 -11.1219     20.4999    118.4977   1.2843785788e+02   4.8392752410e+01    0.2937535    0.1511348  25.72  0.001497408    2.445    0.591
       370  -9.6785    233.6327    102.4824   7.4409859426e+01   1.2648848282e+01    0.1428006    0.1271933 -18.63 -1.112755e-05    1.040    0.038
       371 -10.7673    135.4832    101.5434   9.3932892598e+01   3.5235156763e+01    0.2575704    0.2478043 -54.00 0.0005704776    1.037    0.035
       372 -10.5532     50.9538    102.5384   1.1755279796e+02   4.9084984084e+01    0.1693289    0.1289828  33.81  0.000489446    1.526    0.345
       373 -11.5580     84.4172    100.1919   1.0732036959e+02   4.5103270156e+01    0.4234324    0.3081883 -23.38   0.00123975    1.804    0.446
       374 -12.6662     55.3978     96.8478   1.1510814555e+02   4.9862623532e+01    0.3621591    0.2397804 -66.12 0.0003525188    1.368    0.269
       375 -10.1058     43.9012    100.4998   1.1923989817e+02   5.0315132826e+01    0.1696183    0.1250067  36.80  0.001019633    1.568    0.362
       376 -10.4526      9.3149     99.6988   1.2914942704e+02   5.3399151512e+01    0.2075977    0.1386382  45.83 0.0006407779    1.730    0.422
       377 -10.4172      4.8628     98.1361   1.3021526887e+02   5.4023916055e+01    0.2300808    0.1248079 -72.92 0.0007721193    1.404    0.288
       378 -12.7003    106.4614     97.8141   1.0052940358e+02   4.1845444683e+01    0.3023763    0.2822809  37.79 0.0004138196    1.131    0.116
       379 -10.0179    124.9890     97.6037   9.5531233157e+01   3.8254189964e+01    0.2356933    0.1887871 -43.22  0.000627208    1.220    0.180
       380 -10.9200     24.3362     96.8062   1.2438855445e+02   5.2955987649e+01    0.2199327    0.1494403  84.58 0.0006016399    1.552    0.356
       381 -10.7951     22.4710     93.4976   1.2441940583e+02   5.3847281404e+01     0.121798   0.09664711 -68.23 0.0001407006    1.012    0.012
       382 -10.8485     62.8312     96.0818   1.1271532540e+02   4.9114764045e+01      0.19472    0.1885665  77.85 0.0003633782    1.135    0.119
       383  -9.7138     40.1870     96.4626   1.1960208931e+02   5.1609698174e+01    0.1553926    0.1116358  53.09 0.0006615688    1.600    0.375
       384 -11.6479    113.8992     91.1625   9.6705999383e+01   4.1835653108e+01     0.404826     0.241932  42.32 0.0005837188    1.748    0.428
       385  -9.6277      1.2738     92.5888   1.3056561300e+02   5.5453436412e+01    0.1185565   0.07014646  78.53 0.0003002663    1.780    0.438
       386 -10.1697     34.6354     93.2262   1.2068846724e+02   5.2874051645e+01    0.1750918   0.09295785 -57.68 0.0003877514    1.528    0.346
       387 -11.0189     74.9908     90.8038   1.0782204698e+02   4.8624199996e+01     0.332822    0.1700737  47.89 0.0008860882    2.298    0.565
       388 -11.0354     77.9925     87.7867   1.0615303697e+02   4.8843575937e+01    0.2729806    0.1775138 -43.40 0.0003676204    1.457    0.314
       389 -11.1905      7.0148     89.8499   1.2851592703e+02   5.5726136368e+01    0.3193549    0.1855676  55.60   0.00190772    2.058    0.514
       390 -12.3088      9.4267     85.7338   1.2719225007e+02   5.6488978881e+01    0.2116717    0.1870954 -70.66 0.0002472499    1.145    0.127
       391 -10.8469    172.0036     90.0661   8.2369003165e+01   2.9085051427e+01    0.2202752    0.2153213   0.78            0    1.010    0.010
       392 -11.2013     88.7931     88.1317   1.0300655627e+02   4.7053286819e+01    0.3628465    0.3258635 -26.09  0.001217134    1.163    0.140
       393  -9.6039     13.4197     89.4335   1.2652409170e+02   5.5410988753e+01    0.1180808   0.09138291 -69.21 7.619115e-05    1.008    0.008
       394 -12.3860     63.0716     87.0433   1.1056447433e+02   5.1110582915e+01    0.2860397    0.2522387 -84.81 0.0003650154    1.215    0.177
       395 -10.7157    154.1554     86.3624   8.5225173795e+01   3.4012528264e+01     0.270712    0.2132873 -20.00  0.001044554    1.390    0.280
       396  -9.9706     33.8084     86.8619   1.1975135235e+02   5.4382106067e+01    0.1779686    0.1372042 -51.49 0.0002280454    1.167    0.143
       397 -11.2534     26.8669     85.4550   1.2168250236e+02   5.5297926716e+01    0.3541934     0.245828  83.30  0.002115366    1.655    0.396
       398 -10.2496     30.6877     84.6720   1.2031973453e+02   5.5149993421e+01    0.2368702    0.1546193 -38.42  0.001382166    1.629    0.386
       399 -11.0639    128.2520     85.8342   9.1378925127e+01   3.9965485274e+01    0.3849196      0.23912  29.45  0.001599301    2.037    0.509
       400 -10.6357    132.5409     82.6281   8.9336380789e+01   3.9663656803e+01    0.2521023    0.2427013  37.99 0.0005764473    1.057    0.054
       401  -9.9966     48.4363     85.5000   1.1482437148e+02   5.3216812821e+01    0.2217683    0.1592028 -52.87 0.0001177949    1.192    0.161
       402 -11.6595     51.9640     82.3877   1.1298269418e+02   5.3511950918e+01     0.371265    0.2451187  34.47  0.001671053    1.745    0.427
       403 -11.0809     42.3746     79.5721   1.1545975224e+02   5.5181527057e+01    0.3718709    0.1837469 -64.75 0.0007164147    1.869    0.465
       404 -10.8874     20.1821     82.0662   1.2320320728e+02   5.6573911403e+01    0.1978194    0.1698726  34.67 0.0004276292    1.438    0.304
       405 -10.2535    149.1375     79.8978   8.4479144167e+01   3.6394759197e+01    0.4127382    0.1885348 -53.11  0.001162378    3.079    0.675
       406 -11.2948     77.2500     80.9642   1.0457426993e+02   5.0442702000e+01    0.2088013    0.2006655  15.88 0.0005210997    1.142    0.125
       407 -10.7193    154.0623     79.1452   8.3120533930e+01   3.5366776721e+01     0.264637    0.2262969 -54.05 0.0005141769    1.241    0.194
       408 -10.2817     68.8334     78.5092   1.0656816443e+02   5.2205574310e+01    0.1830012    0.1358726  34.31 0.0005572423    1.514    0.339
       409 -10.5946     29.1780     76.3821   1.1915192110e+02   5.7121694331e+01    0.3936896    0.1893674 -73.60  0.001865044    2.233    0.552
       410  -9.7132    108.1723     77.6471   9.4377173661e+01   4.5743783013e+01    0.1997165    0.1356353  32.50 0.0004519255    1.651    0.394
       411 -10.7646     96.7964     76.9000   9.7451649454e+01   4.8042031827e+01     0.288903    0.2069693  25.24 0.0009481376    1.650    0.394
       412 -11.3759     58.6116     74.2077   1.0875249107e+02   5.4502076636e+01    0.3891752    0.2889833  88.17   0.00156735    1.869    0.465
       413 -10.2276      3.6226     77.2539   1.2774234044e+02   5.8689690220e+01    0.1737616   0.07617319 -61.94 0.0009507162    1.647    0.393
       414 -10.3775     81.7276     75.6235   1.0167090512e+02   5.0882815010e+01    0.2324674    0.1608592 -66.75  0.000725952    1.746    0.427
       415 -11.3774     52.8703     74.4998   1.1074564394e+02   5.5140679744e+01    0.2685333    0.1829904 -41.08 -0.001995868    1.369    0.270
       416 -10.0293    131.0269     75.3260   8.7504316322e+01   4.1403701619e+01    0.2083684    0.1850118  48.48 0.0003021276    1.156    0.135
       417  -9.8777     18.1870     74.2246   1.2241501208e+02   5.8449743890e+01     0.279154   0.04408727 -59.71  0.001002854    3.508    0.715
       418 -10.3121    115.8737     72.8233   9.0737445225e+01   4.5146157362e+01    0.2241294    0.1951043   0.76 0.0005735526    1.251    0.201
       419  -9.8993     69.1434     72.7787   1.0488147567e+02   5.3391476497e+01    0.3085996   0.09087306 -55.41 0.0009824947    3.700    0.730
       420 -10.9694     37.2607     72.0697   1.1544855946e+02   5.7339739010e+01    0.2975267    0.2116997  51.90   0.00176738    1.770    0.435
       421 -11.2579     87.9181     69.7683   9.7976615254e+01   5.1068172746e+01    0.3760681    0.2364325 -53.14  0.001612377    1.618    0.382
       422  -9.3031     84.2908     72.3264   9.9892212272e+01   5.1154172153e+01    0.1419481    0.1046382 -18.46 0.0002709642    1.617    0.382
       423 -10.3334     42.0317     71.0400   1.1355678179e+02   5.7090027305e+01    0.1867618    0.1528696 -50.38 0.0003103467    1.029    0.028
       424 -10.4741     79.6091     69.5400   1.0053258118e+02   5.2489797354e+01    0.2506467    0.2061453  81.21 0.0009274101    1.638    0.390
       425  -9.8559     75.2467     66.5978   1.0104630493e+02   5.3778310201e+01    0.2191364    0.1313241  37.87 0.0008665346    1.840    0.457
       426 -10.9243     53.1888     69.2816   1.0925765793e+02   5.6229551156e+01    0.3738869    0.1555998 -53.00  0.001255338    2.025    0.506
       427 -10.8066     52.7904     62.3303   1.0743547012e+02   5.7747901230e+01    0.2759493    0.1604424 -44.01  0.001393875    1.488    0.328
       428 -10.4184    188.9669     68.4337   7.2837202177e+01   2.8575680761e+01    0.3939501    0.2388934  27.07  0.001543228    2.308    0.567
       429  -9.5153    130.4794     68.4335   8.5469021339e+01   4.2810796321e+01    0.1481756    0.1457718 -26.55 6.700012e-05    1.041    0.039
       430 -11.2652      4.9776     68.0000   1.2577581722e+02   6.0628923794e+01    0.2599326    0.1921028   1.30  0.001471086    1.767    0.434
       431 -10.9515      1.4549     66.4412   1.2672271069e+02   6.1148189820e+01    0.1851489    0.1094994 -66.42 0.0005042934    1.267    0.211
       432 -11.4851    212.9118     66.8918   6.8403041301e+01   2.2865487006e+01    0.2488387    0.2278971  14.30 0.0002959239    1.167    0.143
       433 -10.0856     26.9240     67.5414   1.1800312017e+02   5.9244418911e+01    0.1485919    0.1218388  13.90 0.0004553374    1.496    0.332
       434  -9.7143    127.2893     66.6807   8.5721836013e+01   4.3845979861e+01    0.1488247    0.1189863 -71.29  0.000333776    1.599    0.375
       435  -9.4617    106.3284     66.3324   9.1347511630e+01   4.8337322287e+01     0.151598    0.1130125  -0.78 0.0007051733    1.717    0.418
       436 -11.4397     17.2942     64.3189   1.2072322019e+02   6.0668097785e+01     0.325709    0.1654193 -16.72  0.001580347    3.120    0.679
       437 -12.1136     16.1045     60.8136   1.2039311073e+02   6.1501978528e+01    0.4292543     0.288819  49.57  0.002279522    1.955    0.488
       438  -9.7930    102.0000     63.0005   9.1513330302e+01   4.9823516746e+01    0.2407623   0.07852536 -41.36  0.000797616    2.909    0.656
       439 -10.7712      9.7935     62.8928   1.2312447142e+02   6.1456884403e+01    0.2219616    0.1624157  34.39 0.0009715304    1.726    0.421
       440 -12.0895      5.3377     59.6765   1.2410325766e+02   6.2397255828e+01    0.4477028    0.2725044 -38.29  0.002834586    1.598    0.374
       441  -9.9562    131.8212     62.1896   8.3093360367e+01   4.3625621845e+01    0.1997893    0.1705393   4.05 0.0003342748    1.270    0.213
       442 -10.0055    128.2010     62.0031   8.3949305488e+01   4.4482469340e+01    0.2093045    0.1860052 -28.60 0.0003653291    1.100    0.091
       443 -10.1815     77.2033     61.2139   9.8695129173e+01   5.4560393061e+01    0.1850932    0.1632122 -71.67  0.001072103    1.358    0.264
       444 -10.8437     70.1898     61.1359   1.0102051574e+02   5.5653488141e+01    0.3722792    0.1797056  33.86  0.001658498    2.360    0.576
       445 -10.6198     38.6854     59.3166   1.1168001685e+02   5.9935894393e+01    0.2480259    0.1941026 -89.35 0.0008390479    1.685    0.407
       446 -10.9518     31.5779     59.0779   1.1424662715e+02   6.0659299635e+01     0.222236    0.1942659  79.64 0.0005006584    1.430    0.301
       447 -11.8895     27.8876     55.3312   1.1464349230e+02   6.1768449352e+01    0.3703177    0.2260173 -53.67  0.001612726    1.301    0.231
       448 -10.3088     79.0090     56.5876   9.6557382014e+01   5.5175816857e+01    0.4224205    0.1233444 -47.59  0.001399422    3.382    0.704
       449  -9.7374    110.7147     57.2989   8.7057183127e+01   4.9121728631e+01    0.1396012     0.115785 -71.37 0.0002506134    1.551    0.355
       450  -9.9708     58.2559     56.9438   1.0384372114e+02   5.8166929774e+01    0.1819748    0.1442382 -40.60            0    1.086    0.079
       451 -10.3204     21.4990     56.9761   1.1748849570e+02   6.1933093334e+01    0.1959401    0.1589418  45.92  0.000901765    1.573    0.364
       452  -9.5896    102.3120     56.2848   8.9133039380e+01   5.1011183698e+01    0.1440692    0.1093949   4.15            0    1.575    0.365
       453  -9.3739    181.3535     55.7184   7.0427038794e+01   3.2468062180e+01    0.1562528    0.1163055 -71.63 0.0007015485    1.657    0.397
       454 -11.9563     93.3118     54.2275   9.1139971997e+01   5.3115417235e+01    0.2707443     0.235593  18.41 0.0002515257    1.182    0.154
       455 -10.1365     45.5348     54.9436   1.0786856889e+02   6.0118090107e+01    0.3165129    0.1810922 -22.74  0.001522791    2.326    0.570
       456 -10.9944     41.7189     52.1012   1.0843650955e+02   6.1113996686e+01    0.3080374    0.1596944 -57.53  0.001017261    1.821    0.451
       457  -9.7064    164.4548     54.0380   7.3094057160e+01   3.7030467539e+01    0.2136359    0.1490346 -29.83 2.042394e-06    1.444    0.307
       458 -10.9908    118.8493     53.9432   8.3651498823e+01   4.7968900060e+01    0.2317559    0.1944136   4.05 0.0006512344    1.274    0.215
       459 -10.5378     82.9412     51.4830   9.3479396735e+01   5.5479789549e+01    0.3280592    0.1644183 -46.99   0.00143255    1.991    0.498
       460 -10.9032     72.9210     52.2751   9.7128752091e+01   5.6977314007e+01    0.2272275    0.1726097 -49.98 0.0004671314    1.331    0.248
       461 -10.2319    107.3249     50.6118   8.5662495641e+01   5.0999352156e+01    0.3300272    0.1551689  32.49  0.001190491    2.900    0.655
       462 -10.5730     18.9975     49.5428   1.1656067253e+02   6.3671876781e+01    0.1868364    0.1666442 -50.13 -1.349421e-05    1.144    0.126
       463 -12.0560     13.9880     49.5683   1.1855324422e+02   6.4012732522e+01    0.6782476    0.2989133 -25.36  0.003125507    3.264    0.694
       464 -10.9947     12.1734     45.9362   1.1835622317e+02   6.4879223541e+01     0.247658     0.166306 -64.72 0.0006474165    1.320    0.243
       465  -9.7858     65.4475     49.5326   9.8789170972e+01   5.8628813742e+01    0.1349535     0.114163 -26.23 9.655776e-05    1.055    0.052
       466 -10.2016     46.4105     48.1819   1.0539205460e+02   6.1378214671e+01    0.1772526    0.1098346 -58.04 0.0009414506    1.668    0.400
       467  -9.7637     31.9335     48.4391   1.1112002293e+02   6.2831264190e+01    0.1563014    0.1193208  22.53  0.001007011    1.549    0.354
       468 -10.0042     94.0051     46.7214   8.8208355208e+01   5.4321852436e+01     0.188669    0.1778553   8.48 0.0004309081    1.077    0.071
       469 -12.1785    164.3749     42.9778   6.9536847372e+01   3.8678177752e+01     0.354855    0.3439507 -40.01  0.001039212    1.054    0.052
       470 -10.3523    122.6538     45.9458   7.9808283483e+01   4.8436838124e+01    0.2445466    0.1927523  34.04  0.000452475    1.278    0.218
       471 -12.1685     61.7517     44.8121   9.8442886399e+01   6.0050960162e+01    0.2443978    0.2104428 -24.52 0.0002935793    1.022    0.021
       472 -10.9762    141.3902     42.9811   7.4259462273e+01   4.4457894790e+01    0.3656666    0.2456458 -24.32  0.001209435    1.538    0.350
       473 -10.7640     34.9110     44.9046   1.0883661646e+02   6.3256573103e+01    0.1770296     0.171577 -66.91  0.001269954    1.283    0.221
       474 -10.1163     80.4986     43.9696   9.1531764151e+01   5.7255247700e+01    0.2110544    0.1241743 -37.17 0.0009895307    1.564    0.361
       475  -9.7646     26.0040     44.0808   1.1218702952e+02   6.4235046009e+01    0.1437163    0.1145842 -42.82 0.0004749809    1.013    0.013
       476 -10.2783     70.0306     41.5645   9.4235322141e+01   5.9404642140e+01    0.2007531    0.1563948 -31.89 0.0002992509    1.139    0.122
       477 -10.2645     92.2504     41.3971   8.6741878458e+01   5.5558258079e+01     0.178969    0.1346031  53.62 0.0007649608    1.549    0.354
       478 -10.4117     38.9409     40.2956   1.0566825623e+02   6.3743652139e+01    0.3006507    0.1772922   5.99  0.001442913    2.322    0.569
       479 -11.1801     14.9126     40.4235   1.1571592181e+02   6.5817458164e+01    0.2998511    0.1863241  46.20  0.001396104    2.323    0.570
       480 -11.3970      9.6449     39.7268   1.1775163302e+02   6.6298324073e+01    0.2871007    0.1641735 -48.14  0.001049792    1.316    0.240
       481 -10.6080     24.4190     39.7502   1.1150103340e+02   6.5229458058e+01     0.201375    0.1619145 -36.78 0.0002603397    1.060    0.057
       482 -10.4372     22.5148     36.5048   1.1126733763e+02   6.6022255023e+01    0.2027424    0.1581064 -44.62 0.0006128747    1.050    0.047
       483 -10.2370    166.0282     37.9929   6.7600949726e+01   3.8937426159e+01    0.2173555    0.2143367  34.15 0.0003472154    1.013    0.013
       484  -9.8418     31.6822     37.9500   1.0785465253e+02   6.4929483103e+01    0.1640147    0.1236966 -44.94 0.0001503959    1.108    0.098
       485 -10.1852      2.3234     38.3210   1.2049981639e+02   6.6989496469e+01     0.121335   0.06050478 -40.76 0.0007045971    1.677    0.404
       486 -10.0922     41.3088     36.4736   1.0333206129e+02   6.4207013169e+01    0.2074027    0.1419186 -62.90  0.001159203    1.874    0.466
       487 -10.1901    239.2804     36.5599   5.6905254273e+01   2.0635481519e+01     0.183347    0.1238104  55.39 0.0009420153    1.580    0.367
       488 -10.1059     84.7972     30.0778   8.4585759278e+01   5.8761111519e+01    0.2378586    0.1781007 -24.04  0.000694871    1.240    0.193
       489 -12.0604     78.0414     33.0466   8.8063237580e+01   5.9517610376e+01    0.4457519    0.3455957  79.05   0.00230563    2.248    0.555
       490 -10.6846     81.6588     32.2909   8.6533788979e+01   5.8995483303e+01    0.2010851    0.1676011  50.13  0.000669062    1.418    0.295
       491 -11.0176     60.0831     34.6447   9.5191633738e+01   6.2120986883e+01    0.3617519     0.250339  -3.12  0.001884334    1.673    0.402
       492 -10.0390     55.3502     33.7147   9.6641178042e+01   6.2950801133e+01    0.1901295    0.1614722 -39.46 0.0005911397    1.204    0.169
       493  -9.9248     97.2195     35.3911   8.2871050200e+01   5.5543196295e+01    0.1854276    0.1346717  57.65 0.0007100822    1.632    0.387
       494  -9.8998     35.8432     34.7055   1.0495549863e+02   6.5128842167e+01    0.1547734    0.1340264 -13.77 0.0006037019    1.152    0.132
       495 -11.1253    143.0368     32.0220   7.0030941697e+01   4.5575829895e+01     0.409025    0.2184285 -25.10 0.0009794692    1.945    0.486
       496 -10.9755    120.5784     33.6695   7.5782375997e+01   5.0747660860e+01    0.2798117    0.2432157  62.46  0.001069415    1.262    0.207
       497 -10.3880     91.8638     33.8384   8.3883384848e+01   5.6841331363e+01    0.2088448     0.171334   3.10  0.000469574    1.198    0.165
       498  -9.8963     29.0081     34.2352   1.0769861934e+02   6.5891526062e+01    0.1662148     0.133985  63.77  0.001054539    1.951    0.487
       499 -11.3008    105.7085     31.9276   7.9037193649e+01   5.4296884879e+01    0.3901944     0.241944  26.16  0.001793184    1.869    0.465
       500 -10.1178    232.8174     32.3822   5.6529589431e+01   2.2677814414e+01    0.1829623    0.1218084  57.03 0.0001497846    1.567    0.362
       501 -11.1680    206.4349     31.6567   5.9451328687e+01   2.9297608445e+01    0.2521289    0.2354471  82.07 0.0002537762    1.053    0.050
       502 -11.3478    159.1485     30.5183   6.6364702038e+01   4.1681988868e+01    0.2861828    0.2363652 -10.92 0.0005279353    1.289    0.224
       503  -9.9762    139.3562     32.2893   7.0906406297e+01   4.6452973946e+01    0.1572646     0.104745  29.16 0.0003616911    1.680    0.405
       504 -10.6703     24.3599     31.1679   1.0864121812e+02   6.6888857558e+01    0.1781841    0.1484068  -6.40 0.0002150471    1.264    0.209
       505 -11.1078     36.2681     29.9290   1.0297211007e+02   6.5961165726e+01    0.2922037    0.1683919  26.92  0.000353133    1.972    0.493
       506 -10.8927    187.1774     27.1358   6.0737476546e+01   3.4807377515e+01    0.2095088    0.1900842  34.89 0.0002884238    1.162    0.139
       507 -10.8312    100.8124     27.0714   7.8455336580e+01   5.6018364991e+01    0.3027696    0.1853295  44.51 0.0008897418    1.595    0.373
       508  -9.4003     17.4418     27.4884   1.1045591506e+02   6.8146626854e+01    0.1190145   0.08803745 -37.77 0.0001095608    1.045    0.043
       509 -12.1505      2.0305     25.6803   1.1705578481e+02   6.9491434085e+01     0.233242    0.1367924 -47.91 0.0003675068    1.237    0.191
       510 -11.3423      9.8042     23.3031   1.1256071993e+02   6.9476578346e+01    0.2292994    0.1531716 -45.19 0.0007558101    1.127    0.113
       511 -11.1707      5.9886     23.3488   1.1440897076e+02   6.9709749449e+01    0.2412956    0.1665812 -56.36 0.0005141551    1.284    0.221
       512 -10.8992    131.9599     24.7239   6.9721087470e+01   4.9229207935e+01    0.3287487    0.1967862 -29.34 0.0009789792    1.685    0.406
       513 -10.1904    233.5095     24.4287   5.4405678211e+01   2.3452123577e+01    0.1357384    0.1218831 -63.12 8.285839e-05    1.025    0.024
       514 -10.0866     89.9388     24.2969   8.0517440008e+01   5.8613987960e+01    0.1885281    0.1643927  22.42 0.0004518824    1.094    0.086
       515 -12.2410     16.4812     22.4433   1.0905403656e+02   6.9152793451e+01    0.2667838    0.2157019  40.89 -5.935306e-06    1.741    0.426
       516 -11.2500    117.9334     22.2801   7.2002547630e+01   5.2858192885e+01    0.5524301    0.3278635  59.70  0.001780816    1.750    0.429
       517 -10.3880     78.5200     23.0932   8.3675139223e+01   6.0942348876e+01    0.2252631    0.1666899  10.79  0.001260969    1.375    0.273
       518 -10.0502     50.6222     21.6318   9.3435434945e+01   6.5616320896e+01    0.1920549    0.1262883 -10.57  0.001072273    1.612    0.380
       519  -9.9634     98.7013    249.4418   1.2553633585e+02   1.3497643236e+01    0.1381176   0.08538479  39.41 0.0005109826    1.512    0.339
       520 -11.6266    141.5003    247.5152   1.1818247280e+02   7.5457093746e+00    0.2037318    0.1406264  43.73 0.0005659828    1.118    0.105
       521 -10.6593    182.3895     18.6697   5.8805002187e+01   3.7020285812e+01    0.2575354      0.22882  42.79 0.0006198394    1.154    0.133
       522 -10.4486     92.8519     18.9621   7.7336839174e+01   5.8739990811e+01    0.2417088    0.1730645 -28.27 0.0007392336    1.370    0.270
       523  -9.9839     99.7902     17.8165   7.4857916259e+01   5.7437736844e+01    0.1656412    0.1583103 -50.66 0.0002495354    1.276    0.216
       524 -11.8153    145.6518    244.1842   1.1710852726e+02   7.3658762391e+00    0.3359207     0.265559  63.47  0.002116725    1.298    0.229
       525 -11.5253    140.4871    244.4634   1.1802221850e+02   8.1173663623e+00    0.2667107    0.1562204  43.05  0.001692719    1.319    0.242
       526 -10.4635    137.0073     17.3254   6.5892369926e+01   4.8848789824e+01    0.1942673    0.1757689  47.94  0.000512576    1.048    0.046
       527 -11.1012    129.5952    247.5995   1.2020423628e+02   9.3214625236e+00    0.2311684    0.1492505  34.52 0.0007111994    1.525    0.344
       528 -11.7289    206.9577    246.3318   1.0703686179e+02  -2.3550367010e+00    0.4020198    0.1663562  44.49 0.0009738764    2.016    0.504
       529 -10.6953     43.6316     16.4944   9.4040476129e+01   6.7353430614e+01    0.3050451    0.2283538  75.78  0.001521289    3.511    0.715
       530 -10.0447     21.3064     17.3300   1.0468565337e+02   6.9656270870e+01    0.1227766   0.06984916 -25.61 0.0007038189    1.658    0.397
       531 -10.8978     95.7749    246.8874   1.2580453430e+02   1.4282490335e+01    0.1514937    0.1233703  48.93 0.0007098301    1.237    0.191
       532 -11.8073     77.6228    246.0781   1.2872701645e+02   1.6836214252e+01    0.2886942    0.1639771  37.61  0.001518322    1.793    0.442
       533 -12.8877     75.8251    241.1002   1.2864843623e+02   1.7849677613e+01    0.3756682    0.1870388  62.05  0.001052593    1.766    0.434
       534 -10.4934     86.6368     13.9936   7.6998054333e+01   6.0605419571e+01    0.2602067    0.1582466  47.57   0.00134292    1.628    0.386
       535 -11.1641     89.4315    244.5001   1.2665899736e+02   1.5512088963e+01    0.2627827    0.1950965  26.38  0.001812377    1.923    0.480
       536 -10.0840     13.2502     14.5645   1.0750953563e+02   7.0806162149e+01      0.14227   0.09513851  -6.41 0.0009431801    1.562    0.360
       537  -9.8996    153.7744     15.2416   6.2058194125e+01   4.4828956980e+01    0.2441479    0.1399007  32.23  0.001045905    2.028    0.507
       538 -10.9661    216.2084    244.9507   1.0532671571e+02  -3.5992610515e+00    0.1746216    0.1229948  32.89  0.000337182    1.086    0.079
       539 -10.4434    187.8922    245.2114   1.1005876582e+02   6.8956881519e-01    0.2581722    0.1142281  37.30 0.0009871591    1.789    0.441
       540 -11.2076    164.6664    244.3259   1.1387803068e+02   4.4061960838e+00    0.2354943    0.1663275  23.43 0.0005378357    1.538    0.350
       541 -10.7562    121.4724    243.4235   1.2115965303e+02   1.1122959302e+01    0.1757974    0.1099792 -60.90 0.0005409349    1.997    0.499
       542 -10.4504    115.8826    243.6967   1.2213815952e+02   1.1904353490e+01    0.1669582    0.1104526  49.67  0.001141777    1.149    0.130
       543  -9.9911    227.0462    243.3039   1.0332870527e+02  -5.0385042413e+00    0.1584311    0.1089722  28.84 0.0004423109    1.083    0.077
       544 -11.3390    191.1822    240.9494   1.0893791583e+02   6.8160341889e-01    0.2585391     0.221622 -12.68  0.001959491    1.387    0.279
       545 -12.1770     85.3656    244.9026   1.2736513770e+02   1.5997336226e+01    0.2219611    0.1994652  89.56 0.0005079167    1.369    0.270
       546 -10.8086     65.0245    242.4914   1.3052209710e+02   1.9002114449e+01     0.184956    0.1106422  76.06 0.0008923755    1.524    0.344
       547 -11.0311     67.2037    239.0045   1.2991953554e+02   1.9287826741e+01    0.3013999    0.1437387  42.46  0.001868224    1.775    0.437
       548 -11.0047    100.1510    241.8527   1.2463452687e+02   1.4437744685e+01    0.1722071    0.1389171  76.92 0.0003550514    1.212    0.175
       549 -10.3153    104.0186    228.2753   1.2268023022e+02   1.6021825837e+01    0.1687174    0.1420165  80.13  0.000237484    1.193    0.162
       550 -11.9931    105.8645    233.5149   1.2287251952e+02   1.4916120477e+01    0.4984007    0.1701036 -54.97   0.00242395    3.529    0.717
       551 -10.4156    102.4649    234.0606   1.2351796821e+02   1.5320989007e+01    0.2415129    0.1921868 -82.95  0.001612126    1.378    0.274
       552 -10.7345    100.0393    237.7534   1.2428236557e+02   1.5086966086e+01    0.2160024    0.1352247  44.29 0.0002787018    1.334    0.251
       553 -12.5186     94.4231    237.1985   1.2519454943e+02   1.5963118950e+01    0.3966628    0.2482116  65.15  0.001847936    1.431    0.301
       554 -11.5761    202.1933    240.3894   1.0700702814e+02  -9.6568617450e-01    0.5345507    0.1521756  42.76  0.002345948    2.769    0.639
       555 -10.7941    183.9304    240.2922   1.1008093990e+02   1.8969397201e+00    0.2311193    0.1429584  51.87  0.001281728    1.621    0.383
       556 -11.4610    129.2838    241.0600   1.1957689385e+02   1.0298765109e+01    0.3044749    0.1286138  44.83  0.001640603    1.815    0.449
       557 -11.0028    168.3752    239.1587   1.1260094446e+02   4.4925755633e+00    0.2309403    0.1959309  82.19  0.000991597    1.577    0.366
       558  -9.7263    221.2897    239.6571   1.0373501020e+02  -3.8034384736e+00    0.0976825   0.08428709  55.07 0.0007024389    1.651    0.394
