#   1 NUMBER                 Running object number                                     
#   2 MAG_AUTO               Kron-like elliptical aperture magnitude                    [mag]
#   3 X_IMAGE                Object position along x                                    [pixel]
#   4 Y_IMAGE                Object position along y                                    [pixel]
#   5 X_WORLD                Barycenter position along world x axis                     [deg]
#   6 Y_WORLD                Barycenter position along world y axis                     [deg]
#   7 A_WORLD                Profile RMS along major axis (world units)                 [deg]
#   8 B_WORLD                Profile RMS along minor axis (world units)                 [deg]
#   9 THETA_WORLD            Position angle (CCW/world-x)                               [deg]
#  10 FWHM_WORLD             FWHM assuming a gaussian core                              [deg]
#  11 ELONGATION             A_IMAGE/B_IMAGE                                           
#  12 ELLIPTICITY            1 - B_IMAGE/A_IMAGE                                       
         1 -14.6276     24.4124     49.5499   1.0425357126e+02   6.4691605097e+01     3.278502     1.800643 -27.34   0.01570773    2.805    0.643
         2 -15.5247      9.2033     25.6373   1.0562578900e+02   7.1240583551e+01     2.912853     1.391725 -65.56   0.01572959    1.642    0.391
         3 -13.4633     30.5319     10.6804   8.7137499981e+01   7.2458850750e+01     1.942183    0.5405441 -49.19  0.007529648    2.959    0.662
         4 -14.7469     96.5059     71.6754   8.3847418636e+01   4.9413002728e+01     1.905343     1.465938  -9.57  0.002186996    1.943    0.485
         5 -14.4525     37.0278     85.0287   1.0637101695e+02   5.5271880989e+01     2.158257     1.036794 -61.69   0.01086741    1.806    0.446
         6 -14.6305     79.3824     70.4714   8.8852968379e+01   5.2800630040e+01     2.726708      1.59493 -30.09   0.01111784    2.762    0.638
         7 -15.1490     60.6367     71.2555   9.5393920681e+01   5.5556526060e+01     2.304817      1.11528  46.45 0.0008739878    2.218    0.549
         8 -14.9715     70.3735     55.7785   8.7504534617e+01   5.7504782395e+01       2.6263     1.773318  81.60   0.01215577    2.218    0.549
         9 -12.8477     79.5158     30.9721   7.4724853337e+01   6.0832423559e+01    0.5982414    0.5566554 -28.45  0.001360537    1.032    0.031
        10 -11.7470     73.1997      1.5347   6.1751226223e+01   6.6732490276e+01    0.2864158    0.1664446  54.11 0.0005505973    1.797    0.444
        11 -13.3005    121.0816     10.7806   5.3611734593e+01   5.4140194617e+01       1.5564    0.7360379  62.36  0.002482414    2.060    0.515
        12 -13.2234     83.6609     22.5620   6.9403630353e+01   6.1443914318e+01    0.6556677    0.5703359  54.14 0.0005188989    1.238    0.192
        13 -13.3719    104.4909      5.0457   5.4602337702e+01   5.9052969999e+01     1.067214    0.7313341  55.87  0.005263519    1.434    0.303
        14 -12.5168     75.8319     13.3762   6.7505279500e+01   6.4524336733e+01    0.4269551     0.375254 -41.83  0.001111628    1.157    0.136
        15 -13.8501     86.0894     11.9840   6.3299708257e+01   6.2532932768e+01      1.35483    0.6047422  52.06  0.004154667    2.247    0.555
        16 -13.8237     85.1546      3.7040   5.9116937094e+01   6.3834611992e+01     2.024434    0.5802343  57.30   0.00691146    3.372    0.703
        17 -11.9003     64.8090     17.8592   7.4100707956e+01   6.5938300555e+01    0.4532478    0.3419645  28.51  0.001481327    1.491    0.329
        18 -12.6205    185.8615     11.7834   4.3990408030e+01   3.6210317461e+01    0.6302813    0.4654287  69.79  0.002694351    1.349    0.259
        19 -11.6847    175.7124     13.6931   4.5860693563e+01   3.8823078105e+01    0.4293987    0.3157238  17.99  0.001962714    1.575    0.365
        20 -11.8862    193.0125      6.1725   4.1362130352e+01   3.4784873469e+01    0.5561695    0.3732256 -22.12  0.001663542    1.464    0.317
        21 -11.0483    150.3963      8.6459   4.7458626692e+01   4.6401322485e+01    0.3549997    0.2758866  64.25 0.0008945749    1.255    0.203
        22 -10.5289    170.1732     10.9970   4.5600238982e+01   4.0639336725e+01    0.2694196    0.1391498 -45.93  0.001011754    1.993    0.498
        23 -12.0091    137.5652      5.1086   4.8023998831e+01   5.0311290404e+01    0.6421183    0.4063623  70.22  0.001964162    1.573    0.364
        24 -10.9008    142.9967      2.6354   4.6122461152e+01   4.9048752524e+01     0.384688    0.2783303 -88.05 0.0007963196    1.508    0.337
        25 -10.5413     49.1238      4.5196   7.3578117879e+01   7.0881502852e+01    0.2780556    0.2096495 -43.16   0.00141848    1.301    0.232
        26 -11.4113    188.3303      5.3351   4.1548437483e+01   3.6143260004e+01    0.3651518    0.2656727  23.50  0.001199764    1.585    0.369
        27 -13.2489    204.1343    125.4400   7.3376016148e+01   1.6817824107e+01    0.6779772    0.6183022 -25.33  0.004245694    1.191    0.161
        28 -10.8657     33.6984    135.7899   1.1342608487e+02   4.4333466925e+01    0.1990541    0.1453427  56.67    0.0010006    1.194    0.163
        29 -12.1106    223.4275    133.1599   7.1862135071e+01   1.2035411091e+01    0.4248698    0.3639612 -31.53  0.002713881    1.331    0.249
        30 -11.8157     82.3650    134.3869   1.0111589842e+02   3.8456281507e+01    0.2501563    0.2010864 -58.73  0.001545172    1.387    0.279
        31  -9.9452    138.8450    152.1945   9.1159061532e+01   2.5548420889e+01    0.1733202    0.1489668  23.34 0.0008923048    1.317    0.241
        32 -11.0709    122.3487    127.4731   9.0319694780e+01   3.3046052696e+01    0.3722049    0.2938838  52.19  0.001462505    1.155    0.134
        33 -13.4514    217.1202    120.9895   7.0246278559e+01   1.4766845763e+01     0.865761    0.3489187  42.75  0.003655303    2.343    0.573
        34 -10.1090    119.9979    104.0005   8.5904030142e+01   3.8096204364e+01    0.1745519    0.1642261 -79.09 0.0008961545    1.061    0.058
        35 -10.5753    195.0020    249.0000   9.4431906417e+01   4.5451534212e+00    0.1710686   0.03940376  42.03  -0.06039624    2.965    0.663
        36  -9.9475    123.9872    205.9774   1.0133715911e+02   1.9639690079e+01    0.1554322    0.1173753  48.49            0    1.009    0.009
        37  -9.4930    178.3245    184.6666   8.8839549061e+01   1.3816665999e+01    0.1129264    0.0873782  67.64 0.0007050938    1.710    0.415
        38  -9.6323    246.4718    183.4978   7.7755041486e+01   2.8693922358e+00    0.1132527   0.08340573  19.67 0.0008098872    1.025    0.024
        39 -10.6816     33.9762    177.4531   1.1633679395e+02   3.6130383440e+01    0.2318014    0.1753722  24.01  0.001670077    1.841    0.457
        40 -10.3962    100.9991    176.0046   1.0239385652e+02   2.7775026765e+01    0.1683458    0.1345442  57.42  0.001148391    1.004    0.004
        41 -11.7899    136.5191     93.2138   7.9214320568e+01   3.6722189014e+01    0.6102478    0.2537853  53.97  0.002230391    2.501    0.600
        42 -11.9824    141.9450     96.3189   7.8756820541e+01   3.4947347824e+01    0.5215175    0.4019354 -17.80  0.002468081    1.641    0.391
        43 -10.2834    133.4923     99.0114   8.1412456636e+01   3.6278166193e+01    0.2447852    0.2078183  23.81  0.001298227    1.371    0.271
        44 -10.9754    136.6821     97.6806   8.0324831747e+01   3.5844382837e+01    0.2850761    0.2198543  -7.03 0.0006644292    1.830    0.454
        45 -11.0233    114.3399     97.0587   8.5686608264e+01   4.0624898106e+01    0.3123509    0.2479202 -62.12 0.0009154301    1.288    0.223
        46 -13.6740     42.3198     47.8637   9.6024886715e+01   6.3234939408e+01    0.7237315     0.696876  39.57  0.001268837    1.205    0.170
        47 -11.2727    188.8297     94.5773   6.8745142522e+01   2.4532607744e+01    0.4111314    0.3057023  80.42  0.001712803    1.792    0.442
        48 -13.2714      5.6510     82.3846   1.1665076509e+02   5.8482457125e+01     1.001675     0.406657 -60.89  0.005157412    2.173    0.540
        49 -12.3831      8.3387     65.8056   1.1382406823e+02   6.2117421556e+01    0.4623172    0.2547042 -68.95  0.002151576    1.454    0.312
        50 -10.9799    136.7761     84.5894   7.6823423603e+01   3.8284696524e+01    0.2156201    0.1402075  62.48 0.0009546645    1.682    0.405
        51 -11.9396    128.2483     81.9299   7.8149300656e+01   4.0700255176e+01    0.3789284     0.323685 -62.41  0.001209173    1.212    0.175
        52 -12.7696    117.3109     67.2207   7.6570507440e+01   4.5972284341e+01    0.8112686    0.4920296 -20.43  0.003134374    2.631    0.620
        53 -13.0196    125.5394     72.5609   7.6080655776e+01   4.3102212456e+01    0.9442889    0.3820942  63.14  0.002680453    4.406    0.773
        54 -10.9822    112.4362     81.9923   8.2271366577e+01   4.4081299076e+01    0.2733541    0.2607509  71.66 0.0004287061    1.036    0.035
        55 -11.5167    120.0315     73.0104   7.7640535280e+01   4.4246405084e+01    0.3243762    0.2973245  51.32 0.0003592238    1.103    0.094
        56 -12.5113    121.5804     81.0224   7.9583127932e+01   4.2338716966e+01    0.4711482    0.4073125  49.77  0.001218147    1.157    0.136
        57 -13.2202    115.7065     77.3981   8.0087907880e+01   4.4319784347e+01    0.8256679    0.4154183 -46.97   0.00339502    1.980    0.495
        58  -9.8144    148.4944     80.9152   7.3089513118e+01   3.6245420816e+01    0.2119881    0.1482328 -37.20 0.0009885402    1.462    0.316
        59 -12.5684    144.0268     75.7147   7.2578805290e+01   3.8226912469e+01    0.5265672    0.3741448 -29.56  0.001595892    1.522    0.343
        60 -13.0763      2.7708     70.3116   1.1645827532e+02   6.1409752754e+01     1.102662    0.2718474 -79.29  0.004305962    3.321    0.699
        61 -11.0319    152.6412     73.3955   6.9978420413e+01   3.6562913141e+01    0.3228728    0.2287189  36.64   0.00148873    1.548    0.354
        62  -9.4076    182.9152     72.0193   6.3648470303e+01   2.9319391377e+01    0.1767789    0.1626516  52.24 0.0005730135    1.089    0.082
        63 -10.5260    146.4476     66.4356   6.9196953488e+01   3.9269751198e+01    0.3057073    0.2148245   8.76  0.001287225    2.103    0.524
        64 -10.1124    249.1444     86.1049   5.7522126438e+01   1.2392968826e+01    0.2818612    0.1811992  72.84  0.001425189    2.179    0.541
        65 -10.6039    169.4674     63.0443   6.3423517196e+01   3.4051687483e+01    0.4106773    0.2010091  56.23  0.001606307    2.001    0.500
        66 -10.8359    214.5522     60.7760   5.5490380879e+01   2.3080326131e+01    0.3325463    0.2495468  -7.58  0.000997179    1.384    0.277
        67 -10.0630    132.7783     61.5541   7.0791631467e+01   4.3446894161e+01    0.2073869    0.1475403  68.99 0.0003728484    1.583    0.368
        68 -12.0190    124.7204     57.3163   7.1368275774e+01   4.6128227753e+01    0.4053845     0.311775  47.00 0.0006520149    1.325    0.245
        69 -10.0684    227.0291     56.9721   5.2818112160e+01   2.0568908726e+01     0.207393    0.1948923 -30.23 0.0003313554    1.059    0.055
        70 -11.2993    174.7094     56.5035   6.0428414587e+01   3.3686673116e+01    0.2621645    0.2520405 -33.32 0.0004234425    1.034    0.033
        71 -11.9923    133.7454     53.9950   6.8007082281e+01   4.4533776581e+01    0.5727923    0.3432665  65.57  0.001661216    1.889    0.470
        72 -13.6752     42.5597     42.3621   9.4193098564e+01   6.4427718971e+01     1.005522    0.6156546  10.82  0.003881164    2.612    0.617
        73 -11.5717    153.9981     52.7685   6.3140187305e+01   3.9613613801e+01    0.5237493     0.280619  37.70  0.001039405    2.289    0.563
        74 -11.8356    203.2029    172.4959   8.2627334950e+01   1.1044215937e+01    0.3506123    0.2459796 -12.79  0.002198348    1.621    0.383
        75 -11.3304    145.4077     50.4909   6.4158430737e+01   4.2182536272e+01    0.3617686    0.3129738 -35.28 0.0007937085    1.150    0.131
        76 -10.8326    138.0814     48.6913   6.5142943846e+01   4.4337799338e+01    0.5238006    0.3194079  85.56  0.001958905    2.600    0.615
        77 -12.1607     99.1862     50.0415   7.5900331138e+01   5.3233375387e+01    0.5369684    0.3236622  32.38  0.002270629    2.178    0.541
        78  -9.4672    126.9521     48.9827   6.7877551944e+01   4.7057960939e+01    0.1793928    0.1777894  88.44 0.0004886446    1.013    0.013
        79 -10.2569      2.2428    170.9802   1.2249587356e+02   4.0283787285e+01    0.1324643    0.0681392  88.70 0.0008893968    1.623    0.384
        80 -10.3134    176.1838     44.8025   5.6422934725e+01   3.4950355260e+01    0.3495829    0.2289649 -43.99  0.001560382    1.547    0.354
        81 -10.5414    181.6324     43.4735   5.5115610573e+01   3.3683499676e+01     0.413083    0.2255405  51.42  0.000612422    1.821    0.451
        82 -11.3901    157.3613     43.6517   5.9365308287e+01   4.0110400434e+01     0.388249    0.2784137  45.35 0.0008082702    1.429    0.300
        83 -11.3233    122.3682     43.8032   6.7109663608e+01   4.9054677841e+01    0.3118082    0.2628398 -36.20 0.0008069667    1.168    0.144
        84 -10.7315    139.9876     43.6873   6.2921019017e+01   4.4650118300e+01    0.4646007    0.2585467  71.88  0.001786637    2.237    0.553
        85 -12.1668    216.4832     39.0319   4.9027029212e+01   2.5198019701e+01    0.6367663    0.3119366  52.36  0.002680658    2.078    0.519
        86 -10.3594    197.0088     40.7657   5.2007612261e+01   2.9978432594e+01    0.2066293    0.1965115 -89.78 0.0007245248    1.091    0.084
        87 -10.1962    204.4839     37.4710   5.0015481430e+01   2.8430229249e+01      0.30808    0.1463557  67.53  0.001219216    2.202    0.546
        88 -10.2828    159.9556     36.3329   5.6318391899e+01   4.0447928482e+01    0.2123149    0.1858598  61.75 0.0003287186    1.141    0.124
        89 -12.2265     82.5128     33.5046   7.4771933883e+01   5.9776979271e+01    0.4373667    0.3476593  28.58   0.00116144    1.431    0.301
        90 -10.7352    197.3238    167.9952   8.2848797164e+01   1.2610145086e+01    0.1696937    0.1482668  18.90 0.0006066252    1.096    0.088
        91  -9.5410    240.5209     34.4533   4.5215694693e+01   1.9882439694e+01    0.1362852    0.1242729 -23.15  0.000148127    1.019    0.019
        92 -11.0341    176.7350     33.4217   5.2549070813e+01   3.6287971838e+01    0.2858476    0.2635824  86.99 0.0004810151    1.112    0.101
        93  -9.8729     97.2572     33.9681   7.0155643167e+01   5.6588781271e+01    0.2087442    0.1867148 -29.86 0.0007516881    1.086    0.080
        94 -10.6328    149.8151     32.3548   5.6734480547e+01   4.3720634318e+01    0.6173769    0.2135466  51.77  0.002039644    2.747    0.636
        95 -10.4463    185.7843    167.3445   8.4742036286e+01   1.4742724501e+01    0.1650605     0.147365  38.00 0.0006987089    1.122    0.109
        96 -12.2185    215.4964    162.6576   7.8881398656e+01   1.0040632256e+01    0.4049377    0.2261191  14.63  0.002008508    2.364    0.577
        97 -11.2408    239.7322    156.8180   7.4041885301e+01   6.4930452099e+00    0.4823889    0.2115923 -37.42  0.002373947    2.775    0.640
        98 -12.3445    233.6010    154.0131   7.4435800129e+01   7.8335402002e+00    0.4047387    0.2495517  30.64  0.002185381    1.424    0.298
        99 -12.3241    199.6482    154.0480   7.9941771154e+01   1.3934689931e+01     0.427989    0.3407561  15.13  0.002701845    1.217    0.178
       100 -11.6482     18.7730    153.7516   1.1822419088e+02   4.2128092806e+01    0.2591582    0.1686869  61.72  0.001824425    1.180    0.153
       101 -10.9570    189.9738    153.7803   8.1583886326e+01   1.5769982962e+01    0.2203336    0.1892038 -21.09  0.001423638    1.283    0.220
       102 -11.2710    241.9628     22.8951   4.1954458147e+01   2.0697002498e+01    0.3688721    0.2726161 -54.36  0.001115348    1.356    0.263
       103 -11.4778    149.5622     21.2532   5.2557738085e+01   4.5222784520e+01    0.5155652    0.2968477  52.26  0.001927186    1.698    0.411
       104 -10.0265    139.3079     21.0928   5.4367544720e+01   4.8032110517e+01    0.2684747    0.1982199  51.28 0.0006774263    1.339    0.253
       105 -10.1786    215.1754     20.1325   4.3575769440e+01   2.7554931174e+01    0.2052971    0.1894123  17.22 0.0003136777    1.158    0.137
       106 -10.3914    208.7392     18.8806   4.3836896602e+01   2.9349581876e+01    0.3438677    0.2286055 -39.11  0.001347699    1.410    0.291
       107 -10.5656     29.8455    153.5790   1.1571322456e+02   4.1097223011e+01    0.1883294    0.1132284  87.26  0.001213522    1.434    0.303
       108  -9.6801    143.3610     17.8699   5.2316577520e+01   4.7325695620e+01    0.2015968    0.1437957  -5.74 0.0001423532    1.570    0.363
       109 -12.8959    247.6431    144.1844   7.0461170181e+01   6.4314613527e+00     1.085739    0.5397516 -24.20  0.005842991    1.958    0.489
       110 -12.7077     58.6994    144.5448   1.0817217428e+02   3.9648966073e+01     1.196094    0.3121165  50.92  0.004504604    3.651    0.726
       111 -12.0688     51.5708    141.1889   1.0953620721e+02   4.1215867402e+01    0.5755513     0.269046 -74.29  0.002864736    2.059    0.514
       112 -12.8429     46.5747    142.2832   1.1085903328e+02   4.1577938959e+01    0.4599331    0.4090563   4.74  0.003216602    1.700    0.412
       113 -10.5007     90.1670    145.4272   1.0083792794e+02   3.5050156236e+01    0.2004958    0.1455039 -77.47  0.001030521    1.422    0.297
       114 -11.9063    213.7769    142.2689   7.5279852205e+01   1.2765085502e+01    0.6782405    0.3208732  51.06  0.003207603    2.100    0.524
       115 -11.7833     75.5956    140.7818   1.0365700115e+02   3.8142588107e+01    0.4183435    0.2312462  81.35  0.002021599    2.289    0.563
       116 -11.8627     76.4026    136.8157   1.0292685673e+02   3.8837116750e+01    0.3000303    0.2117393 -72.70  0.001787916    1.403    0.287
