#   1 NUMBER                 Running object number                                     
#   2 MAG_AUTO               Kron-like elliptical aperture magnitude                    [mag]
#   3 X_IMAGE                Object position along x                                    [pixel]
#   4 Y_IMAGE                Object position along y                                    [pixel]
#   5 X_WORLD                Barycenter position along world x axis                     [deg]
#   6 Y_WORLD                Barycenter position along world y axis                     [deg]
#   7 A_WORLD                Profile RMS along major axis (world units)                 [deg]
#   8 B_WORLD                Profile RMS along minor axis (world units)                 [deg]
#   9 THETA_WORLD            Position angle (CCW/world-x)                               [deg]
#  10 FWHM_WORLD             FWHM assuming a gaussian core                              [deg]
#  11 ELONGATION             A_IMAGE/B_IMAGE                                           
#  12 ELLIPTICITY            1 - B_IMAGE/A_IMAGE                                       
         1 -12.4665      2.2951     42.9451   1.0694255739e+02   6.7025441949e+01     1.074597          nan -58.15  0.003318484    5.344    0.813
         2 -13.1640    212.2564     40.6271   4.4437435435e+01   2.7547639330e+01     1.279391     1.095917 -50.98  0.007264058    1.103    0.094
         3 -13.4926    231.1654     23.9063   3.8419633577e+01   2.5327433405e+01    0.9511235    0.8310003  53.32  0.002326348    1.388    0.280
         4 -12.4417      2.7873     19.5238   9.8977761062e+01   7.1424691961e+01    0.5400251    0.2623369 -36.49  0.003227098    1.553    0.356
         5 -12.3031      3.8285      3.2163   9.1087355640e+01   7.4009883343e+01    0.6346534    0.5074676  57.34  0.004118334    2.926    0.658
         6  -9.9902     65.1735    243.0729   1.1749057547e+02   1.6007033939e+01    0.1649046    0.1468277  59.84 0.0007427845    1.222    0.181
         7 -11.7483    139.0173    248.0826   1.0380535917e+02   4.5556518671e+00    0.4765601    0.2789557 -66.83   0.00254689    2.516    0.603
         8 -12.1207     98.2186    249.4360   1.1182322681e+02   1.0380297662e+01    0.5728231    0.2136717  39.14  0.002724545    2.195    0.544
         9 -10.0663     87.0561    218.6663   1.1084280600e+02   1.7750122543e+01    0.2746878    0.1817613  83.79 0.0007956616    1.686    0.407
        10 -11.6869     52.5993    178.3296   1.1395022238e+02   3.1198773789e+01    0.2596836    0.2308933 -72.53 0.0003981758    1.173    0.147
        11 -10.9508     57.0826    211.4560   1.1636038729e+02   2.3284399029e+01      0.33007    0.1642646  55.74  0.001694772    1.852    0.460
        12 -10.5024     65.4254    167.3226   1.0944844124e+02   3.2185723922e+01    0.2374182    0.2178292 -75.27 0.0003535744    1.107    0.097
        13 -13.0200     50.6641    164.3156   1.1274600765e+02   3.4744591084e+01    0.5142931    0.2970881 -42.85  0.001838715    2.196    0.545
        14 -11.6470     74.2865    159.8448   1.0609069872e+02   3.2778988687e+01    0.6072482    0.5139765 -45.48  0.002326439    1.303    0.233
        15 -13.5142     29.6529    199.1479   1.2099920267e+02   2.9069522077e+01     1.281477     0.950612  46.06  0.008548251    1.353    0.261
        16  -9.8173     89.8192    146.3047   9.9617789381e+01   3.3748751501e+01    0.2949019    0.2716444  62.53 0.0008134756    1.099    0.090
        17 -11.8395     67.8032    143.3828   1.0514908945e+02   3.7706918656e+01    0.6697903     0.442566  67.05  0.002686305    1.802    0.445
        18 -11.7492     77.7439    144.2603   1.0255213531e+02   3.6094256868e+01    0.3232931    0.2447611 -57.81 0.0007685222    1.237    0.191
        19  -8.8721     93.9073    142.4971   9.7760200780e+01   3.4015775557e+01    0.2052865    0.1474326  36.04 0.0004012527    1.468    0.319
        20  -9.0748     79.0758    205.5792   1.1107048584e+02   2.1606577529e+01    0.3240773    0.1595378  89.00   0.00117673    3.260    0.693
        21  -9.9518    105.6138    132.2462   9.2349355594e+01   3.4483331759e+01     0.429009     0.310241 -11.17  0.001867721    2.026    0.506
        22 -10.1293     90.9814    129.8185   9.5957670679e+01   3.7589692143e+01    0.2352009    0.2043826 -56.42 0.0003626037    1.086    0.079
        23  -8.8572    194.7623    127.7677   6.9601828256e+01   1.6902599555e+01    0.1956036    0.1758152 -73.84 0.0004132315    1.300    0.231
        24  -8.7890    103.3161    120.9376   9.0374832313e+01   3.7602833298e+01    0.2030993    0.1810518 -47.95  0.000295224    1.075    0.070
        25 -10.4985    242.9931     91.5121   5.2721985704e+01   1.3132922782e+01    0.2777897    0.1704306   0.99  0.001045708    3.581    0.721
        26  -9.3604    164.3905     82.1676   6.3848951699e+01   3.2642655685e+01    0.2238237    0.1382858 -47.71 0.0009396496    1.674    0.403
        27 -13.5361     11.8203    214.3736   1.2551094369e+02   2.7631016875e+01    0.8938068    0.5949106 -42.96 0.0007526624    2.463    0.594
        28 -14.6979     17.2340    208.7084   1.2414893252e+02   2.8280759439e+01     1.615501     1.230156 -81.07  0.004253748    1.245    0.197
        29 -11.7002     87.2966    225.6789   1.1155359122e+02   1.6321860688e+01    0.8388856    0.1110773  46.63  0.002174777    6.820    0.853
        30 -11.5068    122.7110    248.9358   1.0706898535e+02   6.8842778708e+00    0.4153869    0.1647473  33.62  0.001865072    2.431    0.589
        31 -15.3382      6.8523    146.3476   1.2176508392e+02   4.3143450796e+01     16.15817     2.709816 -78.65   0.03899974    8.108    0.877
        32 -11.5555     44.7049    185.4515   1.1653308536e+02   3.0480946109e+01    0.2916666    0.2406388 -56.49 0.0005671732    1.390    0.281
