#   1 NUMBER                 Running object number                                     
#   2 MAG_AUTO               Kron-like elliptical aperture magnitude                    [mag]
#   3 X_IMAGE                Object position along x                                    [pixel]
#   4 Y_IMAGE                Object position along y                                    [pixel]
#   5 X_WORLD                Barycenter position along world x axis                     [deg]
#   6 Y_WORLD                Barycenter position along world y axis                     [deg]
#   7 A_WORLD                Profile RMS along major axis (world units)                 [deg]
#   8 B_WORLD                Profile RMS along minor axis (world units)                 [deg]
#   9 THETA_WORLD            Position angle (CCW/world-x)                               [deg]
#  10 FWHM_WORLD             FWHM assuming a gaussian core                              [deg]
#  11 ELONGATION             A_IMAGE/B_IMAGE                                           
#  12 ELLIPTICITY            1 - B_IMAGE/A_IMAGE                                       
         1 -14.7039    219.5167      8.8838   3.5990451395e+01   2.9639309749e+01     2.368598     1.529221  36.33   0.01252199    2.312    0.568
         2 -14.0104    178.1396     53.5242   5.2873688626e+01   3.4018861754e+01     1.932516     1.256024  27.74  0.004683099    2.162    0.537
         3 -14.1896    193.0819     40.3088   4.6854870740e+01   3.2190964177e+01     1.009227    0.9985839  -9.47   0.00418253    1.151    0.131
         4 -13.7171    198.2082     34.6095   4.4641493502e+01   3.1683983408e+01    0.7548481    0.7246625  85.19  0.001231681    1.102    0.093
         5 -11.3975    189.6319     14.7027   4.0393656827e+01   3.6083773218e+01    0.2527373    0.2092999 -71.68 0.0007401504    1.138    0.121
         6 -10.9202     80.5927     15.3183   6.1898576209e+01   6.1673636446e+01    0.3143502     0.169543  58.81  0.001489863    2.217    0.549
         7 -12.5923    195.5453      5.2821   3.7307103176e+01   3.5608411167e+01    0.5640899    0.3230375 -78.79  0.002839595    1.834    0.455
         8 -11.2566     59.6926    220.4566   1.1664411068e+02   2.1093628734e+01     0.310934    0.2304995  25.73  0.001925569    1.712    0.416
         9 -12.8680    248.9599    228.6341   8.0147875772e+01  -9.0537222108e+00    0.7469438    0.2219197 -32.22  0.003189335    3.331    0.700
        10 -12.8947    247.5150    246.2909   8.3348510945e+01  -1.0987649741e+01    0.6548083    0.4398037   1.32  0.004473648    1.228    0.186
        11 -16.6500     69.7970    144.5668   1.0479963945e+02   3.7143693246e+01     8.000222     4.167105  70.31   0.02841951    3.447    0.710
        12 -10.6795     96.4936    202.0158   1.0678496861e+02   1.9805973144e+01    0.2547334    0.2009854 -59.79 0.0009571874    1.351    0.260
        13 -12.2944    203.8957    200.1942   8.3327057694e+01   1.8513841105e+00    0.5570818    0.2397694  30.82  0.002282648    2.478    0.596
        14  -9.2976    186.6763    186.3143   8.4166484882e+01   7.2840573668e+00    0.1872866    0.1463386 -57.60 0.0009032583    1.619    0.383
        15  99.0000     52.3008    220.0959   1.1809141523e+02   2.2085872070e+01    0.3395498    0.1448459  57.75  0.001290392    2.250    0.556
        16 -12.0578     53.0175    200.5079   1.1618325226e+02   2.6135415402e+01    0.2310678    0.1764572  59.23 0.0005988727    1.158    0.136
        17 -13.2386     55.7121    196.0611   1.1515511881e+02   2.6783231621e+01    0.5153187    0.2638322 -48.78  0.002006393    2.498    0.600
        18  -9.9605     38.4507    199.3037   1.1917534887e+02   2.8092226889e+01    0.1192239   0.09331831  66.44 4.080206e-05    1.096    0.087
        19  -9.2928     70.1565    197.0968   1.1206620457e+02   2.4682245683e+01    0.2823175    0.1325954 -47.67   0.00122038    2.777    0.640
        20  99.0000     49.0370    217.2909   1.1850929519e+02   2.3054394476e+01    0.3126903    0.2390642 -42.97  0.001974207    1.902    0.474
        21 -12.0071    193.6565    196.3416   8.4650509333e+01   4.2572492828e+00     1.330131    0.6830267 -60.05  0.004465214    4.704    0.787
        22 -10.2713     81.6330    194.3008   1.0914096780e+02   2.3697850086e+01      0.29412    0.2008462  62.45  0.001584729    1.438    0.305
        23 -13.1333    149.4716    188.5923   9.2682881081e+01   1.3661077861e+01     0.955389     0.530777 -70.40  0.003448283    3.523    0.716
        24 -12.0897    143.2959    179.0902   9.2352538930e+01   1.6761753355e+01    0.3588133    0.2460874 -48.57  0.001090493    1.522    0.343
        25 -17.9866     31.6007    237.7614   1.2325971113e+02   2.1003981931e+01     8.312118     4.971751  36.11   0.04419647    1.741    0.425
        26 -19.1336      8.8563    101.8421   1.1612901805e+02   5.3606245928e+01     15.87331    0.8051386 -70.23    0.0273868   14.765    0.932
        27 -10.9282    238.6024    185.8117   7.4038634705e+01  -1.5636182700e+00    0.1823199    0.1128724 -41.49 0.0007841774    1.725    0.420
        28  -9.2628     32.2367    186.6918   1.1942435331e+02   3.1556282430e+01    0.1231205   0.07603938  74.15 0.0002639791    1.491    0.329
        29 -12.2181    241.9088    178.4121   7.1980811316e+01  -9.4608297789e-01    0.3867745    0.1871486  31.06  0.001776714    2.263    0.558
        30 -11.2649    187.4725    175.9250   8.1926615941e+01   9.0640974799e+00    0.3856496    0.3396028 -43.95  0.001103117    1.235    0.191
        31 -10.9234    185.3042    169.2701   8.1006982120e+01   1.0742904907e+01    0.3186478    0.2515056 -53.85   0.00111838    1.462    0.316
        32 -10.7193    149.0037    176.2848   9.0499358511e+01   1.6288185220e+01    0.2322991    0.1974971 -34.83 0.0004559754    1.237    0.191
        33 -11.4851    146.7355    172.3935   9.0271363972e+01   1.7540654267e+01    0.3588473     0.258469 -71.54 0.0009316001    1.824    0.452
        34 -10.2019     37.9727    176.5254   1.1717675271e+02   3.3278613766e+01    0.2799395    0.1353979  51.25  0.001192077    2.017    0.504
        35 -12.8886    233.3996    173.9192   7.2569009361e+01   1.1669826199e+00     0.513605    0.3086932  12.23  0.002382528    2.176    0.540
        36 -10.8751     56.1374    174.8752   1.1270337731e+02   3.1576882378e+01    0.3484473    0.1700526  50.57  0.001452354    2.050    0.512
        37 -11.9203     64.9069    203.4841   1.1391801479e+02   2.3984252046e+01    0.1922598    0.1650362  84.12 0.0003570054    1.069    0.065
        38 -10.4359     46.2407    173.0771   1.1486479413e+02   3.3172869009e+01    0.3350963     0.214296  23.55  0.001790722    1.980    0.495
        39 -11.7591    138.1075    169.9378   9.1831712414e+01   1.9700387893e+01    0.4023463     0.387858  57.08   0.00148228    1.037    0.035
        40 -12.3836    241.2138    169.7973   7.0344899673e+01   5.2577910801e-01     0.330739    0.2668827  68.40  0.001837325    2.018    0.504
        41  -9.9770    193.7929    171.1091   7.9616041780e+01   8.7735495175e+00    0.2081298     0.202301 -71.25 0.0007082965    1.251    0.201
        42 -10.8549    184.5612    212.4207   8.9391519543e+01   3.0817526278e+00    0.2561852    0.2368437 -84.95  0.001589319    1.492    0.330
        43 -11.4652    230.4380    167.0420   7.1673877759e+01   2.8042055480e+00     0.400438    0.1524131 -45.34  0.001485673    3.007    0.667
        44 -12.6297     95.0619    150.8062   9.9053461078e+01   3.1808417918e+01    0.6670442     0.608543 -18.62  0.003691765    1.275    0.216
        45 -11.7772    133.8906    145.5166   8.7799747557e+01   2.5996108305e+01     1.313157    0.3435805 -54.55  0.003109953    5.581    0.821
        46 -10.8597    112.9106    150.8830   9.4348546290e+01   2.8717817675e+01    0.3983128    0.2691218  77.30   0.00119923    2.155    0.536
        47 -10.8181    187.0827    151.3370   7.6724661567e+01   1.3890098179e+01    0.2133256    0.1933007  27.68 0.0008122447    1.103    0.093
        48 -10.3698    174.7104    148.9915   7.8874483385e+01   1.6898668079e+01    0.2692468    0.2394599 -81.98 0.0006195664    1.375    0.273
        49 -10.5328    143.8938    145.9836   8.5406359650e+01   2.3887415312e+01    0.4248073    0.2035224 -59.08  0.001438767    2.840    0.648
        50 -13.3134     31.8335    206.2974   1.2109847574e+02   2.7304895292e+01    0.3413369    0.1757514  56.09  0.001915926    1.704    0.413
        51 -11.6202    106.7850    137.1920   9.3117152500e+01   3.3085928706e+01    0.5340889    0.3432522 -34.75  0.002301326    1.843    0.458
        52 -11.5597    105.9219    130.8410   9.1946994664e+01   3.4764808929e+01    0.4260477    0.3443449 -67.80  0.001213777    1.293    0.226
        53 -12.5378     94.7416    137.0296   9.6417889468e+01   3.5209647640e+01    0.3037857    0.2672946 -41.04 0.0004988461    1.171    0.146
        54 -11.5070    135.9274    128.6523   8.3346758383e+01   2.9427480388e+01     1.032099     0.179619 -49.32   0.00214655    6.669    0.850
        55 -11.0784    114.3151    128.7677   8.9141101140e+01   3.3703559780e+01    0.3328827    0.2827966 -26.07 0.0006252521    1.290    0.225
        56 -10.0160    160.8133    128.0884   7.7074363998e+01   2.4238762305e+01    0.3408384    0.2127258 -54.40   0.00140365    1.790    0.441
        57 -11.1860    101.8382    124.5574   9.1657041902e+01   3.7003834856e+01    0.2988492    0.2550071 -12.30 0.0007210692    1.371    0.270
        58 -11.4691    120.5112    122.9109   8.6028160908e+01   3.3873584430e+01     0.502155      0.38005 -11.09  0.002244886    1.758    0.431
        59 -10.1516    109.8945    118.0573   8.7784765895e+01   3.7064209264e+01    0.2221559     0.214874 -36.99  0.000382227    1.021    0.021
        60 -10.9461    231.2877    113.8385   5.9660098265e+01   1.1785145469e+01    0.2913763    0.2542367 -38.64 0.0007651703    1.046    0.044
        61 -10.0616    167.7788    112.7399   7.1543695306e+01   2.5892932442e+01     0.318476    0.2287198 -78.71  0.001310811    2.098    0.523
        62 -10.6925    134.6153    105.4798   7.7663452416e+01   3.4857106971e+01    0.5609863    0.1502417 -43.92  0.001552414    3.656    0.726
        63 -12.0260    118.4051    110.2574   8.3366933188e+01   3.7200308805e+01    0.6249503    0.4785228  66.43  0.002417311    1.617    0.381
        64 -10.4565    205.4962    110.2664   6.3223770876e+01   1.7870985266e+01    0.3052043    0.2376881  41.01 0.0009043919    1.382    0.276
        65 -10.7391     65.0121    100.1275   9.7181565723e+01   4.8677660866e+01    0.4061897    0.2185162  25.59  0.001782206    2.196    0.545
        66  -9.2110     63.4663    213.7853   1.1525645127e+02   2.1983672431e+01    0.1118722    0.0916039  -2.29 0.0002427771    1.945    0.486
        67  -9.2625    155.5167     82.4967   6.5909025836e+01   3.4710001675e+01    0.1530445    0.1511367 -10.18 0.0001330242    1.012    0.012
        68  -9.6253    184.4834     77.0550   5.8385318738e+01   2.8691696331e+01      0.22973    0.1454201 -35.73 0.0004911333    1.550    0.355
        69 -10.6229     56.5721    209.5850   1.1629258109e+02   2.3743226048e+01    0.3292437    0.1617154  87.82  0.001106581    2.442    0.591
        70 -11.1186     71.9465    245.0537   1.1638663626e+02   1.4763732852e+01     0.210556    0.1516253 -69.44  0.001412552    1.540    0.351
        71 -11.6039     79.0215    236.8890   1.1431680112e+02   1.5325954262e+01    0.2288297    0.1912671 -71.68 0.0009830252    1.348    0.258
        72 -10.2358     93.2846    205.6259   1.0796197700e+02   1.9526707755e+01    0.2722925    0.2199177  25.24 0.0008305681    1.446    0.308
        73  -8.5596     42.4756    208.8285   1.1913683749e+02   2.5590761082e+01     0.223181    0.1218455  71.07  0.000807447    1.774    0.436
        74 -11.8606     66.1255    207.1012   1.1403157527e+02   2.3046760916e+01    0.2632083    0.1847647 -89.63 0.0003657875    1.372    0.271
        75 -10.2632     58.0728    227.8827   1.1760419531e+02   1.9810051051e+01    0.1637109    0.1285405  68.18 0.0003426288    1.025    0.024
        76 -11.1237     39.4780    223.3580   1.2085042904e+02   2.2935134967e+01    0.1953547    0.1438531  20.12  0.001054192    1.965    0.491
