#   1 NUMBER                 Running object number                                     
#   2 MAG_AUTO               Kron-like elliptical aperture magnitude                    [mag]
#   3 X_IMAGE                Object position along x                                    [pixel]
#   4 Y_IMAGE                Object position along y                                    [pixel]
#   5 X_WORLD                Barycenter position along world x axis                     [deg]
#   6 Y_WORLD                Barycenter position along world y axis                     [deg]
#   7 A_WORLD                Profile RMS along major axis (world units)                 [deg]
#   8 B_WORLD                Profile RMS along minor axis (world units)                 [deg]
#   9 THETA_WORLD            Position angle (CCW/world-x)                               [deg]
#  10 FWHM_WORLD             FWHM assuming a gaussian core                              [deg]
#  11 ELONGATION             A_IMAGE/B_IMAGE                                           
#  12 ELLIPTICITY            1 - B_IMAGE/A_IMAGE                                       
         1 -14.1582    179.7443     33.8816   6.8931115688e+01   3.6219723618e+01     1.184136    0.9842808  10.80  0.004392259    1.623    0.384
         2 -12.8267    184.0305     27.1670   6.6586341848e+01   3.6005698068e+01    0.5364336    0.4905866  88.75   0.00123523    1.078    0.073
         3 -11.7630    189.6128     14.7962   6.2795422439e+01   3.6071559224e+01      0.24568    0.2151617  76.19 0.0007946007    1.102    0.093
         4 -13.6740    139.4788      3.3698   6.6803016106e+01   4.8995456372e+01     1.620129    0.4344445  66.70  0.005729923    3.408    0.707
         5 -12.7171    200.0298      3.0778   5.8899035858e+01   3.4837635286e+01     0.783214    0.3267668  69.98  0.003755975    1.986    0.497
         6 -10.7104     62.2177      6.6316   8.6393438168e+01   6.4353675980e+01    0.1696231   0.08568536  36.22 0.0003984307    1.685    0.406
         7 -10.5888     71.7946    213.4295   1.3438385046e+02   2.0997465066e+01    0.3498483    0.2073149  76.70  0.001525143    1.822    0.451
         8 -16.7225    129.7334    242.2763   1.2611922207e+02   5.7993817203e+00     5.608294     2.451515  41.06   0.02542562    1.984    0.496
         9  -9.5281     82.6122    212.3769   1.3198513249e+02   1.9613212381e+01    0.3884976    0.2330649  50.49 0.0009603984    1.517    0.341
        10 -11.7004    108.3554    209.3105   1.2602102914e+02   1.6105429921e+01    0.4951302    0.4112677 -32.06  0.002748655    1.620    0.383
        11 -11.7699    107.5694    203.2482   1.2530088763e+02   1.7572672892e+01    0.4682915    0.3474562  29.30  0.002431104    1.594    0.373
        12 -10.8629    159.6173    208.3648   1.1467444842e+02   6.9775054520e+00    0.4695179    0.2893409 -78.44  0.001829425    3.078    0.675
        13 -10.2786     93.0746    207.0591   1.2904282456e+02   1.9141426852e+01    0.2886292    0.2062009 -75.83  0.001023316    1.392    0.282
        14 -10.9540     10.4179    206.2201   1.4591296985e+02   3.0010525475e+01    0.4698614    0.2015571  37.23  0.002568837    2.446    0.591
        15  -9.9970    164.2266    205.5790   1.1318969924e+02   6.6606734974e+00    0.2375503    0.1972795 -47.32 0.0003353017    1.292    0.226
        16  -9.0902     85.3554    205.2852   1.3048832708e+02   2.0762063214e+01    0.1242727    0.1093374 -17.14  0.000382112    1.669    0.401
        17 -11.8704     72.0825    203.2060   1.3310455510e+02   2.3232159138e+01    0.4243578    0.3027234 -53.96  0.001491456    1.576    0.365
        18 -11.8855    120.6743    200.6558   1.2196490137e+02   1.5839395337e+01    0.3563167    0.2742317 -17.21  0.001737314    1.997    0.499
        19  -9.6429     62.8149    203.4527   1.3512281638e+02   2.4490760240e+01    0.1746458    0.1178976  47.13 0.0007504081    1.438    0.305
        20 -11.8002    193.5108    193.6212   1.0473298602e+02   3.3982303276e+00    0.8326847    0.4859316 -57.31  0.003447738    2.260    0.558
        21  -9.0670     93.7186    199.3002   1.2781641856e+02   2.0779329125e+01    0.1416635    0.0975032  74.49 0.0002197789    1.546    0.353
        22 -11.3242    112.5429    196.4894   1.2313619913e+02   1.8218048677e+01    0.5487459    0.3612253   4.35  0.002064273    3.523    0.716
        23 -11.6817     81.4995    192.9759   1.2967538970e+02   2.4166138326e+01    0.6133626    0.3726686  57.06  0.002670577    1.632    0.387
        24 -12.1551     82.0272    188.2945   1.2889008624e+02   2.5175523401e+01     0.662601    0.5082999  56.37  0.002774314    1.245    0.196
        25 -10.0105    103.5767    194.7069   1.2490045382e+02   2.0180125845e+01    0.3312595    0.2368481  26.18  0.001509454    1.765    0.433
        26  -9.6580    180.1237    192.4459   1.0732000103e+02   6.2154978603e+00    0.2203243    0.2009066  86.29 0.0005548162    1.275    0.216
        27  -9.1512     91.9900    185.0358   1.2608248026e+02   2.4359212626e+01    0.2145266    0.1518254  72.63 0.0003306947    1.506    0.336
        28  -9.7103     87.1761    183.0103   1.2690179725e+02   2.5612327421e+01    0.2376689    0.1982675  47.57 0.0006516654    1.229    0.186
        29 -10.9716    206.1485    181.0883   9.9629583798e+01   3.3679441477e+00    0.4796423    0.2773364  34.82   0.00200043    1.819    0.450
        30 -10.4080    210.6038    178.7875   9.8265318083e+01   2.9482978682e+00    0.3344303    0.2631032  33.48  0.001769608    1.282    0.220
        31 -10.2017     99.0277    180.9439   1.2376123859e+02   2.4152300500e+01    0.3111278    0.2082548  33.19  0.001488682    1.682    0.405
        32 -16.2746     10.1960    106.1844   1.3505676610e+02   5.2666569827e+01     2.764704      1.05813 -64.36   0.01305546    1.996    0.499
        33 -11.5757    196.2924    172.1530   9.9778398061e+01   7.0636028982e+00    0.8847157    0.4634172 -56.60  0.003374029    2.533    0.605
        34  -9.7958     65.9560    208.7925   1.3507244208e+02   2.2856853166e+01    0.4088121    0.2722983   4.35  0.001761803    3.680    0.728
        35 -11.4228     88.8614    175.7850   1.2535715419e+02   2.7060698231e+01    0.6487141    0.2954879 -49.82  0.002616975    2.300    0.565
        36 -11.5356     91.6793    170.6937   1.2382238151e+02   2.7823472203e+01    0.3666549    0.3323503 -76.74   0.00114126    1.051    0.048
        37 -11.6001    128.7606    175.0120   1.1558256513e+02   2.0137596171e+01    0.3868859    0.2812101 -86.28  0.001769646    1.716    0.417
        38 -10.8003    118.8198    173.4806   1.1768420318e+02   2.2381878322e+01    0.2952861    0.2275385  81.79  0.000813191    1.473    0.321
        39 -11.1744    137.4974    171.1638   1.1274669549e+02   1.9312271005e+01    0.2787412    0.2173529  44.56 0.0004889598    1.263    0.208
        40 -10.4694    101.2929    169.4352   1.2123124373e+02   2.6502988209e+01    0.2548156    0.1759296 -85.72 0.0007290667    1.716    0.417
        41 -10.6794     97.4317    161.7923   1.2080525917e+02   2.9007910602e+01    0.2542941    0.2389881 -85.10  0.000425077    1.032    0.031
        42  -9.7291      6.3238    161.5196   1.4299613936e+02   4.0323027566e+01    0.1503834    0.1226295  17.05 0.0002685816    1.714    0.417
        43  -9.9279     62.6204    216.4231   1.3660077048e+02   2.1645329152e+01    0.2936822    0.1736712  66.33  0.001326459    1.615    0.381
        44 -11.2533    101.9005    155.0014   1.1836939016e+02   2.9875222714e+01    0.6080775    0.3755241 -38.30  0.002085702    1.967    0.491
        45  -8.9532    120.2248    156.3809   1.1397737928e+02   2.6161790973e+01    0.2200056    0.1388479  51.96 0.0009455647    1.650    0.394
        46 -11.6783    134.2743    147.2439   1.0848503996e+02   2.5516496850e+01     0.940833    0.2469726 -53.05  0.002442635    4.386    0.772
        47 -10.2582    174.9982    149.0070   9.9261151017e+01   1.6389560978e+01    0.2477063     0.193757 -87.74 0.0006835538    1.658    0.397
        48 -11.5590    145.2814    146.1812   1.0553245107e+02   2.3458941832e+01    0.4111316    0.3326188  62.01 0.0002329265    1.311    0.237
        49 -10.7322     78.8907    143.8378   1.2226301939e+02   3.6369065317e+01    0.2143549    0.1937084 -37.58 0.0005157446    1.218    0.179
        50 -13.0346    214.8972    131.4211   8.7056833975e+01   1.1297690329e+01     1.411695    0.6881808 -36.03  0.004942274    2.095    0.523
        51  -9.8664    214.8094    120.6579   8.4588676159e+01   1.3405629163e+01    0.2814041    0.2091919 -25.95 0.0007880071    1.519    0.342
        52 -10.8955    111.5571    139.7509   1.1265729190e+02   3.1780306081e+01    0.5024124    0.2962149 -32.21  0.001950352    2.336    0.572
        53 -11.4327    100.5102    139.9183   1.1563925763e+02   3.3761034012e+01    0.2757216    0.2552202 -46.11 0.0003904059    1.106    0.095
        54 -10.2943    106.1186    130.8866   1.1211563007e+02   3.4899889160e+01    0.3405367    0.3052949  87.67  0.001257488    1.183    0.154
        55 -10.2477    105.6772    126.5859   1.1123585730e+02   3.5993373962e+01    0.3324738    0.2435628 -43.41 0.0009831198    1.355    0.262
        56 -10.5665    117.6835    130.0698   1.0881213877e+02   3.2882433942e+01    0.3487886     0.263937 -33.68 0.0009676291    1.465    0.317
        57 -10.6189    194.1102    128.1409   9.0309887965e+01   1.6531788469e+01    0.2357524    0.2188827   4.98  0.001147587    1.208    0.172
        58 -10.5158    160.8883    127.7546   9.7434805309e+01   2.4159222407e+01    0.3183138    0.2096108 -70.96  0.001244858    2.142    0.533
        59 -10.6088    126.4787    127.9914   1.0599650707e+02   3.1591866093e+01    0.3165683    0.2213562  63.42  0.001377238    1.710    0.415
        60 -11.5374    135.1273    121.8920   1.0225811677e+02   3.1158063467e+01    0.6464279    0.2017628 -46.05  0.001944797    3.162    0.684
        61  -9.4815    112.0235    119.2699   1.0772358208e+02   3.6485103867e+01    0.2080883    0.1945094  48.26 0.0002997862    1.103    0.094
        62 -11.8825    184.0925    215.9570   1.1085662475e+02   9.8593678900e-01    0.3959779    0.3077933 -85.70  0.001871829    1.961    0.490
        63 -10.3020    168.4056    113.3783   9.2123133197e+01   2.5493530341e+01    0.3987931    0.2821865 -82.99  0.001058666    2.013    0.503
        64 -10.2049    204.9802    110.5517   8.3993352923e+01   1.7556669138e+01    0.3448668    0.2545575  26.38  0.001316192    1.821    0.451
        65  -8.9822    127.6472    123.3014   1.0454154701e+02   3.2421805370e+01    0.1611929    0.1234193  83.71 0.0007038517    1.701    0.412
        66  -9.7856    152.5327    102.9931   9.3053465930e+01   3.1327449942e+01    0.2888117    0.2164594  72.30  0.001111377    1.583    0.368
        67  -9.7262    127.6447     94.3185   9.6882576337e+01   3.8685366252e+01    0.1570906    0.1219042 -89.32 0.0007045942    1.751    0.429
        68 -10.3925     64.8439    213.4958   1.3583024851e+02   2.1974550640e+01    0.2696069    0.2004589  56.68 0.0009728558    1.217    0.178
        69  -9.8618      1.7016     70.9016   1.3131740080e+02   6.0647711651e+01    0.2779094    0.1123281 -57.72  0.001436468    1.816    0.449
        70 -13.0494    165.6972     48.9172   7.5315471029e+01   3.7626126645e+01    0.6385655    0.5649072  19.20  0.001367898    1.344    0.256
        71 -12.4294    198.4483    233.6484   1.1103190832e+02  -4.5562557739e+00    0.5671971    0.4663709 -35.67  0.002437078    1.342    0.255
        72 -19.3944     36.3187    144.2099   1.3365395265e+02   4.1676184680e+01      20.6281     2.359711 -66.09   0.04507452    8.509    0.882
        73  -8.8801    111.6641     21.3204   7.8058216442e+01   5.3535200990e+01    0.1236071   0.09994877 -78.38 0.0007049807    1.706    0.414
        74  -9.7258     87.0987    224.3218   1.3249802267e+02   1.6353867095e+01    0.2174479    0.1803655 -89.59  0.001213124    1.133    0.117
        75  -9.8184     78.4034    232.5034   1.3516086813e+02   1.5976638878e+01    0.1930377    0.1709408  36.39 0.0005700301    1.431    0.301
        76 -12.3563     80.2199    219.6589   1.3336169769e+02   1.8397228810e+01    0.3876606    0.2556714  59.66 0.0003812354    1.360    0.265
