#   1 NUMBER                 Running object number                                     
#   2 MAG_AUTO               Kron-like elliptical aperture magnitude                    [mag]
#   3 X_IMAGE                Object position along x                                    [pixel]
#   4 Y_IMAGE                Object position along y                                    [pixel]
#   5 X_WORLD                Barycenter position along world x axis                     [deg]
#   6 Y_WORLD                Barycenter position along world y axis                     [deg]
#   7 A_WORLD                Profile RMS along major axis (world units)                 [deg]
#   8 B_WORLD                Profile RMS along minor axis (world units)                 [deg]
#   9 THETA_WORLD            Position angle (CCW/world-x)                               [deg]
#  10 FWHM_WORLD             FWHM assuming a gaussian core                              [deg]
#  11 ELONGATION             A_IMAGE/B_IMAGE                                           
#  12 ELLIPTICITY            1 - B_IMAGE/A_IMAGE                                       
         1 -14.4293    240.1407     45.2744   5.3668406026e+01   1.9018688027e+01     2.606596     1.480446 -30.84   0.01193364    1.656    0.396
         2 -14.8820    202.2933     43.8686   5.8368786710e+01   2.8738614140e+01     3.012566     1.458054 -47.58   0.01062562    2.224    0.550
         3 -13.2245    197.9460     25.1878   5.3477338516e+01   3.2294472629e+01    0.8308528    0.5652212  14.53  0.001824287    1.982    0.495
         4 -10.8192    240.4537     18.4512   4.6761789637e+01   2.2288852398e+01    0.4795254    0.3148929  16.78  0.002245158    2.360    0.576
         5 -11.5017    232.2060      5.9931   4.4362493160e+01   2.5669884359e+01    0.4298688    0.3589307  65.19  0.001900375    1.235    0.190
         6 -10.8259    231.0036      2.0000   4.3451285986e+01   2.6376324194e+01    0.5955342    0.1983919  77.63  0.002169163    3.164    0.684
         7 -10.6879    141.0688      2.2079   5.4629957798e+01   4.9550883000e+01    0.4324914    0.2648872  79.17  0.002017003    1.870    0.465
         8  -9.9513    248.7859      2.0056   4.2015025485e+01   2.2106647569e+01    0.2365169    0.1792189  86.42  0.001401985    1.260    0.206
         9  -9.4868     84.0190    233.6797   1.2173719486e+02   1.7625910083e+01     0.153632    0.1074198  59.65 0.0005709458    1.076    0.071
        10 -12.4824     97.6923    226.7433   1.1878302885e+02   1.6825180669e+01     1.035764    0.4537592  50.71  0.003646029    1.816    0.449
        11 -14.5930    109.4299    244.5497   1.1847859879e+02   1.2287276659e+01     4.968482     1.550315  35.83   0.01754614    5.365    0.814
        12 -14.5924    125.9845    229.4682   1.1412577627e+02   1.2068230047e+01       2.4984      1.18488  56.62   0.01310881    1.991    0.498
        13 -11.2501     66.1829    193.8439   1.2131413781e+02   2.7180806036e+01    0.4565556    0.3777381  83.11  0.003285601    1.114    0.102
        14 -11.5199     55.6822    207.0142   1.2440966028e+02   2.6016567517e+01    0.2998136    0.2859244 -29.63  0.001420993    1.770    0.435
        15 -10.9722     31.4791    182.7140   1.2690333893e+02   3.3466945703e+01    0.5411186    0.1493013 -69.54  0.002509866    2.981    0.665
        16 -10.1652     99.6007    180.8386   1.1319823250e+02   2.4932909070e+01    0.2065311    0.1643953  44.65 0.0007466783    1.294    0.227
        17 -10.5254    206.3021    180.6605   9.1828944597e+01   5.3892384043e+00    0.2223913    0.1261377  45.59   0.00108374    1.624    0.384
        18 -11.2846     77.8201    178.1187   1.1732611632e+02   2.8734328898e+01    0.3490337    0.2215223 -47.61  0.001927745    2.078    0.519
        19 -11.7415     81.1850    173.3331   1.1604289367e+02   2.9239004141e+01    0.3067512    0.2456276 -52.02 0.0008863925    1.519    0.342
        20 -10.5219    233.1657    176.3951   8.6150790271e+01   9.5122852190e-01    0.1826079    0.1190029  51.42 0.0009503748    1.729    0.422
        21 -10.0957    195.8794    169.8301   9.1698705119e+01   9.1228699517e+00     0.246482    0.2139057  23.92  0.001105953    1.082    0.075
        22 -11.0417    229.1626    185.7134   8.8663046859e+01   4.1210896310e-01    0.2869172    0.2221115  72.21  0.001558594    2.160    0.537
        23 -12.6343     94.8055    156.3862   1.1069353574e+02   3.0764060250e+01    0.5697371    0.3820119 -35.41  0.002827975    2.229    0.551
        24  -9.7159    141.0800    158.0685   1.0068285709e+02   2.2215743427e+01    0.2243675    0.1652302  80.40 0.0008252224    1.692    0.409
        25 -10.4850    133.4486    142.6158   9.9361314145e+01   2.6863485862e+01    0.5090452    0.1390722 -55.28  0.001347279    5.197    0.808
        26 -12.1020    106.5651    141.1622   1.0536506664e+02   3.2130981333e+01    0.4856623    0.3128625 -30.81  0.002163335    2.413    0.586
        27 -11.9333     94.6193    141.3542   1.0824598971e+02   3.4076059700e+01    0.2989783    0.2584589 -51.44  0.000331118    1.257    0.204
        28 -11.0676    114.2522    131.2602   1.0156746333e+02   3.2939178932e+01    0.2424565    0.2197638 -30.88 0.0009831461    1.279    0.218
        29 -11.3105    106.0847    130.8224   1.0347938364e+02   3.4494334932e+01    0.3499392    0.2882161  85.12   0.00123524    1.267    0.211
        30 -10.6874    101.8090    127.4404   1.0385797938e+02   3.5985087336e+01    0.2638437    0.2337037 -52.19 0.0009105495    1.157    0.136
        31 -10.7018     60.0389    207.2329   1.2365271953e+02   2.5431863320e+01    0.2485521    0.1664273 -57.79 0.0008208735    1.877    0.467
        32 -10.9420     88.6434    123.9674   1.0649953058e+02   3.8920781634e+01    0.3544094    0.2418542 -53.30 0.0009539186    1.390    0.281
        33  -9.9761    109.8557    119.8249   1.0021074953e+02   3.6264762463e+01    0.2071195    0.1934766 -35.18 0.0003642406    1.178    0.151
        34  -9.0207    167.6729    112.3457   8.4536019178e+01   2.5723651611e+01    0.1606155    0.1234087 -79.92 0.0007050322    1.748    0.428
        35  -9.5827    103.6708    110.9358   9.9794093001e+01   3.9350968439e+01    0.2006451    0.1725291 -64.05 0.0003921365    1.107    0.097
        36  -9.5641    205.8186    110.1867   7.6186651974e+01   1.7186041642e+01    0.2114169    0.1765728  13.92 0.0005467038    1.302    0.232
        37  -9.5544     72.0300    211.4566   1.2187880692e+02   2.3095901169e+01    0.1552443   0.09098713  50.66 0.0003590493    1.426    0.299
        38 -10.3492    221.3605    197.0137   9.2127922713e+01   3.0040168184e-01    0.2233446    0.1793852  58.82  0.001348573    1.612    0.380
        39 -19.1469      6.4316    100.6268   1.2460528992e+02   5.3115394944e+01      16.2073    0.3143744 -71.63   0.02258949   26.793    0.963
        40 -12.6143    248.8422     88.5839   6.3551923627e+01   1.0800706780e+01     1.198967    0.6984652 -43.31  0.005540959    1.671    0.402
        41 -13.7353    237.4976     81.7047   6.3468862070e+01   1.4403570728e+01     1.030846     0.955229  49.11  0.004145971    1.149    0.130
        42 -14.0722    243.7203     71.8661   6.0059153393e+01   1.4432484100e+01     1.375896     1.062199  86.36  0.005179691    1.557    0.358
        43 -10.8777    100.2975     89.6615   9.5372545185e+01   4.4636440698e+01    0.4049595    0.2956901 -23.62  0.001966399    1.680    0.405
        44 -10.5516     71.4722     89.5591   1.0375319238e+02   4.9243220371e+01    0.2908561    0.1194909 -54.66  0.001199838    2.133    0.531
        45 -10.6426    193.6923    193.6374   9.6548581489e+01   5.8179142440e+00    0.4171714    0.2380271 -44.33  0.002122309    2.069    0.517
        46 -12.6048     40.7265     79.7346   1.1098059210e+02   5.5063616017e+01    0.3492274    0.2715569  81.43  0.001999121    1.541    0.351
        47 -10.6626    115.7335     79.5487   8.8166585863e+01   4.3818919577e+01    0.3622501     0.147787  48.35  0.001303554    2.639    0.621
        48 -10.0983    164.6140     65.1575   7.1708384439e+01   3.5236480183e+01    0.2490607    0.2168431  78.02 0.0005328488    1.267    0.211
        49 -12.8197    190.9060     52.7440   6.2842932682e+01   3.0434811230e+01     1.338568    0.7060867  81.46  0.004570789    3.057    0.673
        50 -10.9449     65.8576    243.0206   1.2539863974e+02   1.8525481627e+01    0.1614243    0.1104836  60.43 0.0003537278    1.075    0.070
        51  -9.6065     67.0672    238.8196   1.2491094905e+02   1.9046467943e+01    0.1709894   0.07496741  57.91 0.0005649329    1.810    0.448
        52 -18.4756     26.2354    242.5156   1.3141598263e+02   2.3245100281e+01     2.566747     1.098705  48.26   0.01640083    1.783    0.439
        53 -12.1857    179.7115     43.3764   6.1902178358e+01   3.4730414413e+01      0.48259      0.37602  48.35    0.0010719    1.274    0.215
        54 -11.3464     92.1870    234.5220   1.2044191130e+02   1.6345240647e+01    0.1990176    0.1503887  75.79 0.0002857306    1.167    0.143
        55 -16.6933     57.2213    145.7804   1.1774667687e+02   3.8360944332e+01     11.31882       5.2293 -83.52   0.04898544    2.684    0.627
        56  -9.7834     33.1378    228.3636   1.2962991134e+02   2.4843650668e+01    0.0865094   0.05572533 -75.28 0.0001804124    1.585    0.369
        57  -9.7032     39.7222    212.3615   1.2756969750e+02   2.6923144774e+01    0.1286255      0.10746 -79.60  0.001019676    1.431    0.301
