#   1 NUMBER                 Running object number                                     
#   2 MAG_AUTO               Kron-like elliptical aperture magnitude                    [mag]
#   3 X_IMAGE                Object position along x                                    [pixel]
#   4 Y_IMAGE                Object position along y                                    [pixel]
#   5 X_WORLD                Barycenter position along world x axis                     [deg]
#   6 Y_WORLD                Barycenter position along world y axis                     [deg]
#   7 A_WORLD                Profile RMS along major axis (world units)                 [deg]
#   8 B_WORLD                Profile RMS along minor axis (world units)                 [deg]
#   9 THETA_WORLD            Position angle (CCW/world-x)                               [deg]
#  10 FWHM_WORLD             FWHM assuming a gaussian core                              [deg]
#  11 ELONGATION             A_IMAGE/B_IMAGE                                           
#  12 ELLIPTICITY            1 - B_IMAGE/A_IMAGE                                       
         1 -12.5200      4.6331     48.9133   8.3226723837e+01   6.7394770672e+01     1.162794    0.5329108 -52.26  0.005678904    2.073    0.518
         2 -12.5312     38.8133     50.3355   6.4742621142e+01   6.3181002701e+01     1.146552    0.7092406 -16.08  0.005537021    2.059    0.514
         3 -12.1333     57.1288     34.6821   5.0797238580e+01   6.2435938460e+01    0.5010306    0.3531828  26.35  0.002839411    1.389    0.280
         4 -11.0001      2.6290     24.3843   7.6025493601e+01   7.2048087513e+01     0.444374     0.229741 -27.14  0.002372407    1.916    0.478
         5 -12.0064      3.0769     13.3337   7.0883455414e+01   7.3738765777e+01    0.3287123    0.2159568  -6.96 0.0007402102    1.361    0.265
         6 -10.7429    137.1042     14.9028   2.5478209111e+01   4.7228323438e+01     0.205797    0.1524553 -55.77 0.0003171892    1.399    0.285
         7 -12.4738    132.9550     18.9494   2.7074166694e+01   4.7735585844e+01    0.3079046    0.2030438  60.13 0.0003878878    1.375    0.272
         8 -10.9198     13.7764     13.8589   6.3743541225e+01   7.2399094317e+01     0.554755    0.2276076  19.44  0.002171892    3.026    0.670
         9 -12.2403     28.0737     19.6307   5.7952450954e+01   6.9558997329e+01    0.6254758    0.3881719   8.97  0.003429369    1.837    0.456
        10 -10.7463     19.9734     16.9982   6.1366767802e+01   7.1124059135e+01    0.3724607    0.2931147  40.13  0.002447571    1.468    0.319
        11 -12.1348    234.5312      9.7506   1.6315548323e+01   2.8938465576e+01    0.2687237     0.217745 -74.62  0.001918801    1.270    0.213
        12 -12.5624    238.1164     17.6231   1.7367426961e+01   2.7529026397e+01    0.2293698    0.1572035 -63.78 0.0003468579    1.060    0.057
        13 -10.7296    169.3106     16.7370   2.2279044427e+01   4.0197035130e+01    0.2029659    0.1549827 -79.24  0.000907377    1.056    0.053
        14  -9.8962     76.8925     15.2002   3.6948807201e+01   6.0615390974e+01    0.2601024    0.1901308  28.96 0.0008812244    1.535    0.349
        15 -10.4827     71.8036     11.8477   3.7115659704e+01   6.2038555553e+01    0.3487439    0.2058887  16.76   0.00169002    2.628    0.620
        16 -11.0285     77.3801      9.8722   3.4891119578e+01   6.1010846067e+01    0.4125851    0.1778005  47.12  0.001522605    1.977    0.494
        17 -10.0550     99.3159     12.9402   3.0998140268e+01   5.5857292022e+01    0.2587558    0.1495652 -43.33 0.0007679838    2.038    0.509
        18 -10.3031    102.2158      9.6903   2.9434913529e+01   5.5502666976e+01    0.3722475    0.2562484 -10.53  0.001731417    2.116    0.527
        19  -9.6637     64.9830      8.4903   3.7808519012e+01   6.3804643709e+01    0.1930021    0.1362539  72.05 0.0005332749    1.496    0.332
        20 -10.5687     60.1929     13.8232   4.1464287609e+01   6.4295317339e+01    0.2593496    0.2046283 -43.03  0.001415357    1.635    0.388
        21  -9.9109     64.2657     12.9716   3.9795810899e+01   6.3533159673e+01    0.2885977    0.1396944  34.16  0.001359789    2.377    0.579
        22 -10.1541    130.4612     13.4644   2.6001909385e+01   4.8832869271e+01    0.2027053    0.1167988 -33.98  0.001031015    2.050    0.512
        23 -10.8485     54.0255     14.0333   4.3726208561e+01   6.5525872328e+01    0.2192016    0.1419861  47.31 0.0004796922    1.215    0.177
        24 -12.5597    119.5544     11.6244   2.7091632289e+01   5.1435025680e+01    0.2414268    0.2311444  40.50 0.0001969649    1.343    0.255
        25  -9.6438    145.0113     10.9871   2.3547365787e+01   4.5888008448e+01    0.1637099    0.1286899  83.90 0.0004155019    1.035    0.034
        26 -10.6303    145.2463      6.4846   2.2446460890e+01   4.6259844017e+01    0.2661863    0.2119894 -53.52   0.00150826    1.353    0.261
        27  -9.9638    159.8651      8.8445   2.1483869320e+01   4.2939912807e+01    0.1888021    0.1235446  78.88 0.0004253155    1.243    0.196
        28 -10.5425    154.7433      8.3982   2.1891948092e+01   4.4057323499e+01     0.288619    0.1580206  73.27  0.001573871    1.495    0.331
        29 -10.7039      9.4235      8.5544   6.4025609930e+01   7.3671397011e+01    0.3238363    0.2130319  31.75  0.001753627    1.379    0.275
        30 -11.1422     11.5396      2.3299   5.9319439466e+01   7.4164400926e+01    0.2705355    0.2040041  -8.81  0.001368793    1.329    0.247
        31 -10.7343     36.1965      7.7692   4.8313481350e+01   6.9577380729e+01    0.4257599    0.1809465  48.15  0.002110661    1.931    0.482
        32 -10.4003    215.2250      7.4100   1.7007067924e+01   3.2434302551e+01    0.1455353   0.07360121 -85.50 0.0009552045    1.703    0.413
        33  -9.3645    116.6740      7.6839   2.6430472732e+01   5.2436864304e+01    0.1206627    0.0767508  47.76 0.0007044228    1.672    0.402
        34  -9.8520     42.9245      7.0379   4.5014559775e+01   6.8399438879e+01    0.1561561    0.1007487  45.98 0.0004966933    1.211    0.174
        35 -10.4055     16.9591      2.6766   5.6035065059e+01   7.3335916600e+01    0.2078613    0.1570755 -18.39  0.000961187    1.473    0.321
        36 -10.4670     20.1782      5.9089   5.5791755215e+01   7.2477962632e+01    0.2422449    0.1926549  -3.02  0.001699119    1.278    0.218
        37 -11.3853     25.5850      2.1563   5.0814506669e+01   7.2010130543e+01    0.5290847    0.1730216  46.95  0.001935235    2.611    0.617
        38  -9.8356     34.1509      1.3413   4.6146843678e+01   7.0583394189e+01    0.4742853    0.1035184  52.25  0.001577165    4.497    0.778
        39 -10.7683    223.0296      5.3436   1.6218239976e+01   3.1298208726e+01    0.1936697     0.125817 -43.77  0.001063959    1.568    0.362
        40 -11.2041    229.7244      3.0172   1.5491128348e+01   3.0409573319e+01    0.2738355    0.1667392 -37.57  0.002061412    1.878    0.468
        41 -10.9351    164.6899      4.9180   2.0182968570e+01   4.2313945470e+01    0.2009151    0.1426666 -77.10  0.000418983    1.146    0.127
        42 -11.9535    168.1405      1.9871   1.9267355136e+01   4.1881114632e+01    0.2220334    0.1398962  85.25 0.0002898451    1.256    0.204
        43 -10.7200    126.0932      3.0650   2.3857548918e+01   5.0742199007e+01     0.280143    0.2143493  13.76  0.001836245    2.046    0.511
        44 -11.2518     74.1909      2.5630   3.3012861847e+01   6.2330440030e+01    0.3567136     0.273189  85.33  0.001622059    1.423    0.297
        45 -12.3186    243.2013      2.9529   1.4836760989e+01   2.8246033096e+01    0.2679359     0.161968  89.59 0.0008726683    1.426    0.299
        46 -10.4386    178.9989      3.9220   1.8799996365e+01   3.9526179542e+01    0.1614086     0.119307 -80.52 0.0002863147    1.014    0.014
        47  -9.4199     97.8165      3.5609   2.8329521320e+01   5.7013253178e+01    0.1581926   0.09620161  76.69 0.0003961761    1.433    0.302
        48 -10.9388     90.9845      2.1534   2.9163853405e+01   5.8653622230e+01    0.1729601     0.149079  67.27 0.0002773184    1.114    0.103
        49 -12.0483    128.4916     24.0672   2.9080435151e+01   4.8188989129e+01    0.2222655    0.1826992  75.79 0.0002888035    1.034    0.033
        50 -11.7909    248.5926    247.7960   5.3033887346e+01  -7.1018893672e+00    0.5107904    0.2053489 -30.46  0.002993002    1.924    0.480
        51 -12.5473    228.4191    245.9957   5.6019035565e+01  -5.2760951670e+00    0.6005763    0.4123386  -7.52  0.004338635    1.189    0.159
        52  -9.5245    155.6711    250.3054   7.0790608918e+01   1.0200997717e+00    0.1176827   0.09580311  41.72 0.0007036614    1.654    0.395
        53  -9.9970    109.9629    250.3101   8.1469044472e+01   6.2219207247e+00    0.1996471    0.1511996  16.56 0.0005670929    1.120    0.107
        54 -10.9728     90.4790    249.3601   8.6199537823e+01   8.6888645263e+00    0.2765586    0.2262813   0.73 0.0006994206    1.159    0.137
        55 -11.9704     21.7521    248.6552   1.0346521494e+02   1.6133530184e+01    0.6503412    0.1982275  36.93  0.002676382    2.448    0.592
        56 -11.3083     14.4742    244.9609   1.0503060700e+02   1.7604797264e+01    0.2675309    0.1863216  56.49   0.00107274    1.327    0.246
        57 -10.3849     12.6905    250.2658   1.0575326246e+02   1.6587914820e+01    0.2396944    0.1657426   5.78   0.00105651    1.626    0.385
        58 -10.2082    187.6388    189.6908   5.4409846899e+01   8.4912171312e+00    0.1380415   0.08969749 -14.75 0.0007040597    1.742    0.426
        59 -10.2518    244.8565    188.1391   4.4626270877e+01   2.1383598718e+00    0.1621033    0.1291781 -41.01 0.0004527979    1.223    0.182
        60  -9.9027    226.4844    188.4798   4.7422663316e+01   4.0241600701e+00    0.1193195   0.09196331 -30.12 2.538276e-05    1.012    0.012
        61 -10.4145    184.5201    184.9676   5.4189418066e+01   9.8024364537e+00     0.202511    0.1705721  13.61  0.001248449    1.232    0.188
        62  -9.8660     61.7348    184.3028   8.5984827579e+01   2.7723981891e+01    0.2701765    0.1908136 -69.74   0.00125224    1.528    0.346
        63 -12.3088     16.9477    181.9088   9.9800165510e+01   3.3021330477e+01    0.5657783    0.3636189  30.16  0.002752354    1.509    0.337
        64 -10.1959    249.8113    180.8296   4.2789229333e+01   2.7828741744e+00    0.1446707      0.11222 -48.29 0.0006957193    1.331    0.248
        65 -10.3543      1.8146    179.9453   1.0431769419e+02   3.4651094455e+01    0.2180737    0.1752639 -47.53   0.00120847    1.277    0.217
        66 -10.1102    244.3766    178.4185   4.3153299763e+01   3.7269651931e+00     0.236207   0.06947555 -36.05 0.0009486017    3.437    0.709
        67 -10.9771     23.3263    180.4257   9.7652274146e+01   3.2880190758e+01    0.4638264    0.2388814  56.57   0.00175965    2.244    0.554
        68 -10.9464    171.8868    174.9463   5.4925602597e+01   1.3549941400e+01    0.4110635    0.2587013  63.25  0.001727757    3.110    0.678
        69 -11.0520     17.9706    172.7069   9.8593932872e+01   3.5414841048e+01    0.3682835    0.1813096  41.23  0.001531473    2.027    0.507
        70 -11.4034      5.3834    168.2344   1.0226567898e+02   3.7548746422e+01    0.2837071    0.2189244  84.01  0.001508126    1.306    0.234
        71  -9.3961    177.2752    168.6798   5.2672293275e+01   1.4000654563e+01    0.1253498    0.1056491 -76.70 0.0002363625    1.574    0.365
        72 -10.9675     34.0442    166.0591   9.2506115553e+01   3.5773223660e+01    0.5005041    0.2146323  18.95  0.001192519    2.366    0.577
        73 -10.3549    186.8482    165.3134   5.0198758368e+01   1.3244905179e+01    0.1937163    0.1716805  66.25  0.001190845    1.469    0.319
        74  -9.6480     67.5236    165.5083   8.1243208423e+01   3.1941596818e+01    0.1550817    0.1491665   3.92 4.878205e-05    1.001    0.001
        75 -10.9689     51.3614    161.7342   8.6020756654e+01   3.5039122669e+01    0.4747632    0.2943576 -65.47  0.001165858    1.655    0.396
        76 -10.4737      8.9118    163.1482   1.0064633679e+02   3.8686467050e+01    0.3825424    0.1794691  -8.41  0.001438035    2.821    0.646
        77  -9.5426    132.5561    161.2991   6.1344701499e+01   2.2716871112e+01    0.2096412    0.1348421 -39.04 0.0009423855    1.561    0.359
        78 -10.4510     67.0258    157.8154   8.0091989380e+01   3.4050228474e+01    0.2368968    0.2197554 -53.71 0.0002792153    1.106    0.095
        79 -11.2293     20.0285    157.0103   9.6204081648e+01   3.9522042893e+01    0.4102711    0.3539361 -75.98  0.001374986    1.152    0.132
        80 -10.7572    247.5407    156.7429   3.9252581689e+01   6.8172980434e+00    0.2263924   0.08328468 -41.21  0.001145508    2.101    0.524
        81  -9.9900      1.5038    157.5130   1.0261969597e+02   4.0685028129e+01    0.1401343    0.1303755 -60.64 2.136348e-05    1.028    0.027
        82 -10.2651    216.0885    154.4861   4.3276203568e+01   1.1108779255e+01    0.1553391     0.121857  37.96 0.0004996698    1.541    0.351
        83 -10.4265    158.7808    153.8127   5.3669693481e+01   1.9939246895e+01    0.3391488    0.2041577  30.01  0.001251553    1.873    0.466
        84  -9.6451     40.7785    153.0377   8.8361398096e+01   3.8621584978e+01    0.2127254    0.1806627 -62.20  0.000604507    1.179    0.151
        85 -10.6610     10.8249    152.9786   9.8970784106e+01   4.1319864964e+01    0.3643594    0.2167886  15.87 0.0009329299    1.734    0.423
        86  -9.4552    222.5198    151.5208   4.1797190241e+01   1.0758938261e+01    0.1199385   0.09725745 -46.37 8.310096e-05    1.089    0.081
        87  -9.6588    176.9835    150.2840   4.9240355327e+01   1.7669403731e+01    0.1787474    0.1759795 -22.58 0.0005828893    1.105    0.095
        88 -11.0214     13.8531    148.0216   9.7343100101e+01   4.2455327192e+01    0.2345982    0.2206118  39.83 0.0002614454    1.113    0.102
        89  -9.5333    143.8479    148.1921   5.5920581325e+01   2.3688646156e+01    0.2028041    0.1660413 -21.50 0.0009393811    1.310    0.236
        90 -11.0320      8.1485    146.7312   9.9251874120e+01   4.3199531325e+01    0.5344425    0.2159019  61.74  0.001697838    3.906    0.744
        91 -10.4230    216.7885    145.2399   4.1541064604e+01   1.2611700150e+01    0.1642288    0.1258564 -27.15 0.0006133744    1.330    0.248
        92 -10.2340    187.7394    144.0736   4.6049082597e+01   1.7145978584e+01    0.2023753    0.1883986  34.21  0.000523141    1.211    0.174
        93  -9.6710    155.7829    144.5849   5.2464897532e+01   2.2369757140e+01    0.1975125    0.1333146  52.08 0.0009521534    1.703    0.413
        94 -10.8942     24.9746    142.9243   9.2619159303e+01   4.2948242882e+01    0.2181396     0.207222 -40.59 0.0003423984    1.009    0.009
        95 -10.6854     65.3964    139.0459   7.7154763132e+01   3.9224680783e+01    0.2766349      0.24498   8.56 0.0005017815    1.112    0.101
        96  -9.8001     14.1376    140.1421   9.6288727018e+01   4.4578454589e+01    0.1977583    0.1662893  52.53 0.0003471362    1.289    0.224
        97 -10.2644    188.6726    139.3573   4.4980699729e+01   1.7879436773e+01    0.1980491    0.1522925 -78.38  0.001081869    1.694    0.410
        98 -10.3886    236.3539    138.0833   3.7607157729e+01   1.1165861703e+01    0.1648199     0.151521  -4.27 0.0006904582    1.340    0.254
        99  -9.7741    144.1343    136.8896   5.3485671981e+01   2.6062675900e+01     0.198371     0.169087 -12.80 0.0004283842    1.318    0.241
       100 -10.3077      2.6029    134.2343   9.9932851187e+01   4.6910559714e+01    0.2508426    0.1975481  87.96 0.0006652537    1.337    0.252
       101  -9.1568      9.4871    136.4704   9.7585750925e+01   4.5893769124e+01    0.1436491    0.1332733 -46.06 -2.604402e-05    1.009    0.009
       102 -10.9626    241.3972    134.2693   3.6338799594e+01   1.1121509176e+01    0.1867237    0.1469563 -45.13 0.0006361834    1.026    0.025
       103 -11.2283     53.5416    131.7547   8.0015757996e+01   4.2782823142e+01     0.552733    0.3099942  43.15  0.002244714    1.909    0.476
       104 -10.5863     59.0046    131.4840   7.7940052753e+01   4.2105578340e+01    0.2623821    0.2053811 -41.24  0.000325982    1.277    0.217
       105 -11.8253     37.4793    129.7872   8.5772428417e+01   4.5253905458e+01    0.5208418    0.3202753 -45.07  0.002310461    1.582    0.368
       106 -10.7486     73.5667    129.0351   7.2201752078e+01   4.0539462967e+01    0.3120622    0.2831599  43.69 0.0008864615    1.142    0.124
       107 -10.2879      4.2834    130.1866   9.8826632389e+01   4.7902430685e+01    0.2394973    0.1825504 -16.17 0.0005879807    1.339    0.253
       108  -9.4932    217.4273    129.4719   3.8640467665e+01   1.5204634662e+01    0.1205087   0.09819477 -47.71 9.429624e-05    1.009    0.009
       109 -11.0023     56.6852    126.5848   7.7796307187e+01   4.3696088317e+01    0.3570781    0.2605424 -32.33 0.0006954351    1.438    0.304
       110  -9.3939      4.3338    126.2902   9.8337464126e+01   4.8940370733e+01    0.1543325   0.09179982 -36.57 0.0003069708    1.632    0.387
       111 -11.0636     15.6980    125.1260   9.3646821137e+01   4.8506514765e+01    0.3934623    0.2199566  27.53  0.001756184    1.799    0.444
       112 -11.8459     10.2126    120.6579   9.5225943216e+01   5.0077355644e+01    0.5388781    0.3838292  83.87  0.002665816    1.656    0.396
       113 -10.0710     30.2777    124.6048   8.7702396984e+01   4.7379148692e+01    0.1998062    0.1394131   2.25 0.0005919178    1.497    0.332
       114  -9.8130     54.4405    123.5324   7.8007768952e+01   4.4790702726e+01    0.1553581    0.1430241 -13.75 2.482764e-05    1.050    0.048
       115 -10.0054     56.6639    121.3064   7.6687253828e+01   4.5047075918e+01    0.2115387     0.166546 -82.20 0.0006398946    1.574    0.365
       116 -10.5249    243.6277    122.2333   3.4076519696e+01   1.2711110636e+01    0.1595127   0.08384681 -39.20 0.0005769217    1.637    0.389
       117 -10.3934     19.9999    121.3870   9.1327301472e+01   4.9161502886e+01    0.3385135    0.1666217 -51.03   0.00124785    1.836    0.455
       118  -9.7829     71.4908    120.9970   7.1141407192e+01   4.2869745542e+01    0.2228309    0.1529809 -52.89 0.0004121833    1.495    0.331
       119 -10.5362     24.4203    119.0419   8.9119511566e+01   4.9398359892e+01    0.3541905    0.2217563 -74.65  0.001595708    1.768    0.434
       120 -10.3461      1.3851    118.5805   9.8563821586e+01   5.1139702740e+01    0.2521484    0.1257345 -70.54   0.00029046    1.879    0.468
       121 -11.4758    182.1733    114.6390   4.1218854531e+01   2.3507187941e+01    0.3825703    0.2710644  36.88  0.001075629    1.737    0.424
       122  -9.7576     86.1043    116.1044   6.4942570205e+01   4.1544386360e+01    0.2029702    0.1839416  79.59 0.0002760635    1.277    0.217
       123 -10.2373     52.6587    116.2040   7.7121382641e+01   4.6895504830e+01    0.2551032    0.2111645  11.19  0.000660279    1.182    0.154
       124 -11.8158     22.0014     98.7123   8.6345275485e+01   5.4804288067e+01    0.6980971    0.4926596  63.78  0.003348024    1.939    0.484
       125 -10.2851     15.5241     96.8538   8.8941951368e+01   5.5809863547e+01    0.3138025    0.1896416  -0.66 0.0008325566    1.698    0.411
       126 -10.4897      9.9061    111.2250   9.3951739441e+01   5.2566903367e+01    0.5237539    0.1952772 -23.57  0.001678114    3.697    0.730
       127 -12.5531     16.1451    113.8158   9.1701949927e+01   5.1452343181e+01    0.9990023    0.4792103 -74.71   0.00357264    2.339    0.572
       128 -11.4463     24.6970    106.8547   8.6769613039e+01   5.2518040687e+01      0.62811    0.2993892  -0.89  0.002334029    2.665    0.625
       129 -10.5297    105.6434    114.5201   5.8446927558e+01   3.8245465696e+01    0.2814744    0.2437526 -55.23  0.001016432    1.211    0.174
       130  -9.7598     71.9855    115.2179   6.9618520557e+01   4.4194632866e+01    0.2155473    0.1213271  32.02 0.0008770974    1.704    0.413
       131 -10.9367    249.8102    111.7359   3.1676090101e+01   1.3483895899e+01    0.1892213    0.1391545 -47.89  0.000538397    1.064    0.060
       132 -10.7147     92.8920    111.3541   6.1570555648e+01   4.1385421804e+01    0.4237804     0.241262  51.73  0.001042815    2.000    0.500
       133 -11.2469     55.1136    109.7415   7.4690540424e+01   4.8148965750e+01    0.2977252    0.2403719 -51.80 0.0006269693    1.277    0.217
       134 -10.2261    111.6225    105.9513   5.4631980198e+01   3.8906560166e+01    0.3162205     0.186993  42.92 0.0009444566    1.636    0.389
       135  -9.9698      2.4489    105.2391   9.6289929748e+01   5.4545949077e+01    0.2717537    0.1173247 -63.93  0.001135221    2.044    0.511
       136 -12.1347     37.6165    109.4766   8.1769872088e+01   5.0503159434e+01    0.7350187    0.3926706  25.80  0.002074827    1.794    0.443
       137 -11.2770     36.2509    100.9309   8.0481065039e+01   5.2780721288e+01     0.584814    0.3511207  62.54  0.001701813    2.748    0.636
       138  -9.9833     32.4177     96.4754   8.1157024076e+01   5.4299638073e+01    0.2165007    0.2000072  -1.34 3.602428e-05    1.048    0.046
       139 -11.7369     62.0265     98.9199   6.9312093253e+01   4.9653627373e+01    0.5446833    0.3513668 -36.94  0.001752395    1.663    0.399
       140  -9.9359     66.8078     97.6542   6.7144212011e+01   4.9152695589e+01    0.2654935    0.1957957  19.99 0.0002667221    1.365    0.267
       141 -10.5645    118.8428    102.6620   5.1865272525e+01   3.8120702107e+01    0.3649301    0.2046801 -30.04  0.001434895    2.513    0.602
       142 -11.0804     75.5204     99.0066   6.4287847123e+01   4.7337400348e+01    0.4135671    0.2590619 -27.13  0.001733339    2.062    0.515
       143  -9.7739      9.7310     99.0751   9.2018513270e+01   5.5675309028e+01    0.1886712    0.1604317 -45.29  0.000305265    1.089    0.081
       144  -9.6065    106.6851     98.3449   5.4096398949e+01   4.1471387064e+01    0.1513028    0.1168094  84.38 0.0007047719    1.715    0.417
       145  -9.2041     98.4550     98.5292   5.6569229212e+01   4.3087573223e+01     0.148288    0.1408926  34.38 0.0001198853    1.014    0.013
       146 -10.3809     57.1325     96.2691   7.0561810500e+01   5.1034386663e+01    0.2507381    0.2163137 -54.69 0.0002453235    1.270    0.212
       147 -10.2910      1.7183     93.4251   9.4773311009e+01   5.7553862355e+01    0.2353276    0.1737792 -61.14 0.0005535859    1.294    0.227
       148 -10.6469     55.6914     91.5410   6.9898265458e+01   5.2327793172e+01    0.4617876    0.2752716 -16.05  0.001811001    2.495    0.599
       149 -10.2430    231.5977     91.7296   3.0240692478e+01   1.9055194418e+01    0.1638749   0.08186255 -51.72  0.000947858    1.626    0.385
       150 -10.1430    249.6444     91.2202   2.8358915666e+01   1.6494890404e+01    0.1471068   0.08046257 -40.71 0.0004661297    1.608    0.378
       151 -11.5083    158.1798     90.3565   4.0244165018e+01   3.2355526791e+01    0.3779687    0.2585265  47.76 0.0009056443    1.556    0.357
       152  -9.8923    157.3699     85.1908   3.9221069626e+01   3.3399439514e+01    0.3881912    0.2946382 -73.55   0.00218479    1.391    0.281
       153 -10.4293     10.7166     90.6910   9.0002130277e+01   5.7677457355e+01    0.2410854    0.1774325 -23.48 0.0005518172    1.253    0.202
       154 -10.9131     21.5205     86.5122   8.3919951365e+01   5.7793629904e+01    0.4785868    0.2827277 -76.52  0.001770208    2.318    0.569
       155 -10.9275     21.6884     83.3528   8.3098157997e+01   5.8515506564e+01    0.4375713     0.233091 -38.85  0.001554562    1.807    0.446
       156 -10.8579     95.2458     88.7281   5.4931507212e+01   4.5721512589e+01    0.4766901    0.2176491  47.52  0.001858878    2.116    0.527
       157 -10.5015     84.0676     88.7951   5.8548041647e+01   4.7919910955e+01    0.3855893    0.2196689  33.37  0.001506481    1.758    0.431
       158 -12.1464    107.3817     84.7195   5.0304180216e+01   4.3989850470e+01    0.3945056    0.2783746  67.26 0.0002976111    1.659    0.397
       159 -10.6972     65.2657     86.2164   6.4617385306e+01   5.1911660213e+01    0.3375476    0.2057758 -46.60   0.00153825    1.738    0.425
       160 -11.1653     30.6434     81.8707   7.8411507936e+01   5.7912302086e+01    0.5041471    0.2633108 -49.33  0.001825553    1.859    0.462
       161  -9.7185      9.7659     86.1798   8.9565427140e+01   5.8831257767e+01    0.2372322     0.124771  52.03 0.0009596781    2.850    0.649
       162 -10.0551    167.2283     83.0545   3.7048135865e+01   3.1766512324e+01    0.3187791    0.2006172  81.91  0.001588364    2.005    0.501
       163  -9.8406    117.0131     83.9510   4.7556354316e+01   4.2095994790e+01    0.1743196    0.1616068  60.63 0.0006705244    1.010    0.010
       164  -9.6021     70.6325     84.4518   6.2078818255e+01   5.1329198184e+01    0.2848924    0.1672186  57.72  0.001137533    2.400    0.583
       165 -10.7644     42.8932     82.1684   7.2825649703e+01   5.6290307873e+01    0.4028901    0.2180941 -67.54  0.001595884    2.787    0.641
       166 -10.9383     76.5202     82.3161   5.9322919414e+01   5.0671439247e+01    0.3295691    0.2398219  50.15  0.001632213    1.406    0.289
       167  -9.1282     86.6407     82.7107   5.5983254577e+01   4.8628287159e+01     0.149934    0.1121127  10.99 0.0005689768    1.688    0.407
       168 -10.4336      7.1327     81.5412   8.9926950503e+01   6.0108705933e+01    0.3507773    0.1971935 -29.47  0.001680418    1.679    0.404
       169 -10.6918     15.9927     79.3026   8.4961272167e+01   5.9964453172e+01     0.450388    0.2301264   4.20  0.001636075    2.051    0.512
       170 -10.9238     21.7406     75.1766   8.1037879522e+01   6.0366529696e+01    0.3102349    0.2573029 -24.51  0.001098867    1.098    0.089
       171 -10.6126     84.2970     78.9862   5.5684989754e+01   4.9811704368e+01    0.2400008    0.1915659  40.14 0.0002928425    1.148    0.129
       172 -11.2747     88.0320     77.3386   5.3988021178e+01   4.9372980054e+01    0.2663654    0.2433951  50.29 0.0002096474    1.068    0.063
       173 -11.1501     99.7100     76.6939   5.0250612427e+01   4.7076835169e+01    0.3074914    0.2569669   4.39  0.001270346    1.480    0.324
       174 -10.4167     50.8666     78.1752   6.8182290426e+01   5.5971345960e+01    0.2034451     0.160576  -8.18  0.001062054    1.325    0.246
       175  -9.6935     73.6413     89.8994   6.2505500448e+01   4.9647283511e+01    0.3534553    0.1287911 -43.24 0.0009694351    3.015    0.668
       176  -9.6741     36.9996     76.5385   7.3956262286e+01   5.8307359997e+01    0.2115022     0.129189  24.37 0.0004395151    1.514    0.340
       177 -12.2781    167.7458     73.3399   3.4829487789e+01   3.3206076782e+01    0.2700891      0.20681 -54.22 0.0003861659    1.233    0.189
       178 -10.4264     56.3227     74.9350   6.4910401788e+01   5.5756867509e+01    0.2452616    0.1849068  39.35 0.0006589018    1.282    0.220
       179 -11.0872     44.6882     74.5353   6.9833856154e+01   5.7663533648e+01    0.2507312    0.2163763  15.34 0.0003731554    1.040    0.039
       180 -11.8305      2.6977     63.2218   8.8203308561e+01   6.4542430333e+01    0.6826479    0.4302112  73.01  0.003171434    2.869    0.652
       181 -14.2822     16.6578     67.4107   8.1618468658e+01   6.2553598913e+01    0.5763204    0.4225307 -22.19   0.00126403    1.246    0.197
       182 -13.0465     12.3227     47.2515   7.8068928272e+01   6.7062244691e+01    0.4122473    0.3817347  70.67 0.0008631774    1.580    0.367
       183 -10.5566     83.3835    248.1252   8.7855275359e+01   9.7691908206e+00    0.2810437     0.171674  31.81 0.0008787503    1.415    0.293
       184  -9.7473      7.5505     73.5568   8.7982141115e+01   6.1926855621e+01    0.1862295    0.1146452  -9.23 0.0001475207    1.562    0.360
       185 -10.4061      2.1734     73.0718   9.0721323481e+01   6.2375972788e+01    0.4013764    0.2247884  13.46  0.002008363    1.714    0.417
       186  -9.5924     61.5191     73.4583   6.2343845442e+01   5.5161500959e+01    0.1447427    0.1293842  23.92 7.412768e-05    1.015    0.015
       187  -9.9805     26.1069     72.1154   7.8014559127e+01   6.0577880037e+01    0.2271319    0.1698913 -12.26  0.001226676    1.272    0.214
       188  -9.2971     68.2744     71.7012   5.9179789292e+01   5.4280316128e+01    0.1339085    0.1118036  70.72 0.0003002524    1.531    0.347
       189 -10.5195     37.2177     69.9964   7.1947936778e+01   5.9656525039e+01    0.4462498     0.282416  73.17  0.001622454    4.128    0.758
       190 -11.6770    122.7959     67.4888   4.1811327804e+01   4.3662996749e+01     0.294613    0.2316009 -68.48 0.0004055207    1.400    0.285
       191 -11.5809     50.1706     68.3107   6.5495844091e+01   5.8074995907e+01    0.3247863    0.2545097  -4.96 0.0006675922    1.342    0.255
       192 -12.4960    146.9626     65.5881   3.6492611453e+01   3.8718530507e+01    0.2603402    0.2204636 -76.17 0.0003511216    1.127    0.113
       193 -10.1671    109.4072     60.4175   4.3018567929e+01   4.7713672450e+01    0.2165999     0.172112 -23.42 5.385267e-05    1.573    0.364
       194 -10.2550    110.3748     64.5732   4.3954683563e+01   4.6847164815e+01    0.3513135    0.2301195  78.70  0.001030225    2.037    0.509
       195 -11.0698    106.2860     63.9283   4.4811471943e+01   4.7842486081e+01    0.4583567    0.2540033 -26.07    0.0012388    2.701    0.630
       196 -11.2696      6.0445    244.9086   1.0707412438e+02   1.8332966328e+01    0.4111283    0.2215292  57.43  0.001974135    1.740    0.425
       197 -10.6607     32.8205     63.8220   7.2206406089e+01   6.1494812336e+01    0.3178195    0.1749173  35.85 0.0002958411    1.768    0.434
       198 -11.1165     28.4423     61.0667   7.3566133709e+01   6.2599777664e+01    0.5383647    0.3476548  25.49  0.001446649    1.402    0.287
       199 -11.1344     44.6140     43.6210   5.9538237012e+01   6.3375915548e+01    0.3448055    0.2937798  83.38  0.001142272    1.846    0.458
       200 -11.9120     45.2395     38.4434   5.7286314052e+01   6.4072979152e+01    0.3380937    0.2586138  55.82  0.001934617    1.622    0.384
       201  -9.8654    139.2453     66.3935   3.8114186945e+01   4.0253901105e+01    0.1961241    0.1182679  68.93 0.0009591935    1.709    0.415
       202  -9.8398     93.5396     66.5055   4.9099337770e+01   5.0157212712e+01    0.1413359    0.1274928  49.67 4.844145e-05    1.012    0.012
       203 -10.5132     80.9937     64.9203   5.2557483318e+01   5.3029336205e+01    0.2662249    0.1773809  48.83  0.001327974    1.382    0.276
       204  -9.0606    131.2478     64.6873   3.9264479287e+01   4.2255769452e+01     0.130603   0.09724033 -77.10  0.000171015    1.514    0.340
       205 -10.8965    230.3228     61.3375   2.5135816130e+01   2.3531171606e+01    0.1673681    0.1419582 -45.11  0.000982098    1.393    0.282
       206 -10.6945    202.0139     62.4880   2.8117658601e+01   2.8218766626e+01    0.2019368      0.14362 -50.90  0.001340567    1.253    0.202
       207 -10.6705    155.4999     62.3477   3.4278563467e+01   3.7391357827e+01    0.3134345    0.2681572 -30.84  0.001966303    1.445    0.308
       208 -11.8529     56.6718     58.6750   5.9587906990e+01   5.8765383925e+01    0.6371213    0.3751409  16.06  0.000621953    2.276    0.561
       209 -11.6667     46.7210     60.3729   6.4471163788e+01   6.0137679379e+01    0.4508428     0.312099 -28.01 0.0009927981    1.580    0.367
       210 -10.7808    120.3296     59.7006   4.0263982299e+01   4.5416891572e+01    0.3333287    0.2574188 -59.49  0.001173907    1.405    0.288
       211  -9.6116    113.9717     61.1713   4.2125742561e+01   4.6593602412e+01     0.222293    0.1484279  81.80  0.001060593    1.929    0.482
       212 -10.3488     90.4783     61.0380   4.8361707553e+01   5.1710161195e+01    0.3486812    0.1718068  47.20  0.001132117    1.798    0.444
       213 -11.4371     89.0982     52.0262   4.5969698906e+01   5.3409612494e+01    0.4861845    0.2452948 -39.07  0.002227114    2.268    0.559
       214 -10.1388    169.0817     59.6556   3.1622875362e+01   3.4965846248e+01    0.1709856    0.1421249  79.70 0.0004002365    1.115    0.103
       215 -10.1073     83.4256     61.5296   5.0704793868e+01   5.3104920675e+01    0.3489485      0.16819  53.43  0.001453802    2.082    0.520
       216 -10.8395    135.7284     58.5989   3.6821497173e+01   4.2192664594e+01    0.3925735    0.2284534  81.39  0.001800116    2.219    0.549
       217 -10.1253     98.1586     59.9740   4.5829952174e+01   5.0236284345e+01    0.2416321    0.1766745  52.62 0.0006832686    1.219    0.179
       218 -10.1956    127.7253     57.6874   3.8155379697e+01   4.4084750175e+01    0.2442479    0.1914884 -37.85  0.001413734    1.452    0.311
       219 -11.4025     80.3489     56.4649   5.0097635933e+01   5.4564851149e+01    0.4271483     0.289616   6.64  0.001526728    2.307    0.566
       220  -9.3124    163.8055     57.3969   3.1875202695e+01   3.6369079541e+01    0.1567167    0.1075072  57.42 0.0001496779    1.480    0.324
       221  -9.3647     38.6633     57.7318   6.7364763407e+01   6.1864358962e+01    0.1400482    0.0963002  -0.28 0.0002934872    1.594    0.373
       222  -9.6539    151.0317     54.2264   3.3084307999e+01   3.9503583996e+01    0.1717211    0.1416125  81.57 0.0002618937    1.072    0.067
       223  -9.8257    140.0918     54.1594   3.4903081760e+01   4.1877441042e+01    0.1827489    0.1668089  50.86  0.000580236    1.253    0.202
       224 -12.5312    105.0239     52.5450   4.1824965340e+01   4.9861648275e+01    0.2848038    0.2473027  51.31 0.0003346537    1.080    0.074
       225 -10.1966     27.5699     53.6591   7.1622804310e+01   6.4146213703e+01    0.2639439    0.1786623  12.22  0.001039951    1.352    0.260
       226 -11.0435    128.3107     50.4881   3.6134636702e+01   4.4982701336e+01    0.2733175    0.2420169  52.30 0.0008669996    1.202    0.168
       227 -10.4782    134.5079     50.8988   3.5077934044e+01   4.3556415724e+01    0.3683373    0.1751872  76.10  0.001474855    2.883    0.653
       228 -10.3474     74.6855     49.9474   4.9843380024e+01   5.6743976918e+01    0.3587947    0.2492758  38.60  0.001925414    1.289    0.224
       229 -10.4891     77.9700     46.6340   4.7642052797e+01   5.6559941337e+01    0.3456776    0.1827448 -47.69  0.001597041    2.359    0.576
       230 -11.5258     52.1839     47.8666   5.7727561838e+01   6.1386300127e+01    0.4562199    0.4099493  83.42  0.002757059    1.552    0.356
       231  -9.6376    164.3696     48.2514   2.9746549956e+01   3.7501240515e+01    0.1647155    0.1006875 -52.73 0.0004237147    1.569    0.362
       232 -10.1354     82.3031     47.2945   4.6490940201e+01   5.5553821450e+01    0.2078514    0.1963534 -26.59 0.0007169953    1.223    0.182
       233 -10.0190    171.8152     47.0909   2.8522711304e+01   3.6122729944e+01    0.1777418    0.1343436 -73.77 0.0002872475    1.172    0.147
       234 -11.2412    112.3509     45.4428   3.8039032031e+01   4.9227183043e+01    0.2346219    0.2024412  58.76 0.0003021278    1.071    0.066
       235  -9.9797    104.7956     46.2003   4.0001182656e+01   5.0808108511e+01    0.2462378    0.1547204  51.74  0.001287897    1.395    0.283
       236  -8.8013     59.3268     46.3109   5.4221869025e+01   6.0324073806e+01    0.1388883   0.09669232  15.55 0.0007040657    1.662    0.398
       237  -9.8004    142.8748     45.3577   3.2242081770e+01   4.2466604339e+01    0.1983829    0.1377538  83.18 0.0005357442    1.386    0.278
       238 -10.9314     23.8703     41.8618   6.9482017033e+01   6.6754454788e+01     0.365209    0.2398933 -41.85  0.001187793    1.639    0.390
       239 -12.9106     27.5758     37.7425   6.5861896876e+01   6.6953710489e+01    0.2842396    0.2515314  12.30 0.0004323189    1.157    0.136
       240 -11.2897     24.2662     34.9837   6.6618991447e+01   6.7856489781e+01    0.2560483    0.1844985 -16.06 0.0005195995    1.394    0.283
       241 -11.0633     97.4469     41.5580   4.0402031730e+01   5.3061867824e+01    0.3679677     0.233419  31.02 0.0007692058    2.024    0.506
       242 -10.8461     72.9084     43.1260   4.8118494746e+01   5.8113077509e+01    0.2252022    0.2104364 -76.64   0.00142045    1.307    0.235
       243 -10.5758     67.2902     41.9791   4.9669713927e+01   5.9417611912e+01    0.3287424    0.1241412 -35.17   0.00129653    3.229    0.690
       244 -10.2313     55.6313     43.5503   5.4713435052e+01   6.1438304562e+01     0.340541    0.1689206  49.01 0.0009052661    1.981    0.495
       245 -11.2454     73.0107    244.7011   9.0141273008e+01   1.1694134290e+01    0.3159565    0.2640636  24.69  0.001176218    1.039    0.037
       246  -8.9839    163.2735     42.2792   2.8554639213e+01   3.8503150758e+01    0.1060813   0.09063828  47.49 0.0006900341    1.495    0.331
       247  -9.2940    158.0265     42.0181   2.9194408567e+01   3.9638861996e+01    0.1432935    0.1203708 -85.97            0    1.019    0.019
       248 -10.8860     89.0141     40.7761   4.2390370463e+01   5.5017423300e+01    0.3487802    0.2649073  84.91  0.001555104    1.614    0.381
       249 -11.5393     12.6318     58.9369   8.1467313847e+01   6.4706424873e+01    0.6449298    0.4538629 -13.85  0.003064865    1.287    0.223
       250  -9.5156    130.5205     41.5270   3.3357915280e+01   4.5683627831e+01    0.1284393    0.1098955  73.68 0.0002575975    1.036    0.035
       251 -10.0765     79.4337     41.1700   4.5334538539e+01   5.7023790308e+01    0.3512653     0.178309  56.07  0.001624686    1.826    0.452
       252  -9.9376    235.7737     40.1479   2.1149520411e+01   2.5336689794e+01    0.1238468    0.1070623 -64.91 0.0004510097    1.322    0.244
       253  -9.9222    226.4088     40.2273   2.1851270749e+01   2.6858358247e+01    0.1514371   0.07287322 -52.37 0.0007935146    1.628    0.386
       254 -10.6021    109.5398     38.4159   3.6613461492e+01   5.0770499457e+01    0.2538009    0.1765127 -34.53 0.0005556035    1.704    0.413
       255 -11.6072    111.3457     34.8405   3.5184792863e+01   5.0806052701e+01    0.2664162    0.1996131  63.07  0.000420988    1.127    0.112
       256  -9.0467     62.3182     47.3018   5.3405165951e+01   5.9601856043e+01    0.1377146   0.09711318  17.02 0.0002582799    1.622    0.384
       257  -9.7464    187.2651     38.0024   2.4883946359e+01   3.4197990327e+01    0.1547869    0.1208897 -68.42 0.0002903599    1.081    0.075
       258  -8.9632    155.3052     38.3168   2.8709004967e+01   4.0679210438e+01     0.113323   0.09070574  42.91 0.0007027085    1.627    0.385
       259 -10.7178     83.6055     36.2761   4.2432595832e+01   5.6778133335e+01    0.3466533    0.2409476  -9.29   0.00145435    2.065    0.516
       260 -10.1145      1.3790     37.4276   8.1673184335e+01   6.9852277137e+01    0.2006954    0.1024045 -47.52 0.0005070505    1.860    0.462
       261 -11.3843    248.1929     36.3194   1.9706297616e+01   2.3851071900e+01    0.1781971    0.1281232 -62.60 0.0002887713    1.063    0.059
       262  -9.9220    202.1020     37.1730   2.3308910667e+01   3.1493172437e+01    0.1517753    0.1289952 -78.89 0.0003670864    1.170    0.146
       263 -10.8105     97.1610     36.1975   3.8798709330e+01   5.3813046187e+01    0.1904238    0.1809849  73.76 0.0005346238    1.135    0.119
       264 -11.2129     65.5631     36.7205   4.8393168596e+01   6.0497181151e+01    0.3111694    0.1934873  44.47 0.0002005715    1.342    0.255
       265  -9.6140    128.9803     36.0189   3.2172517140e+01   4.6711866569e+01    0.1819409    0.1360882  44.37 0.0003213129    1.521    0.343
       266 -11.6209     75.0180     35.4357   4.4741458940e+01   5.8719007443e+01    0.3617621    0.2800209  21.66  0.001032246    1.453    0.312
       267 -11.1517     73.4916     31.4671   4.3817491181e+01   5.9542862821e+01    0.3006222     0.234567 -75.32  0.001726611    1.799    0.444
       268 -11.4228    241.5906     34.0681   1.9771344820e+01   2.5134073055e+01    0.2342477    0.1452612  67.52 0.0007385971    1.850    0.460
       269  -9.6560    134.5023     34.9041   3.0956709131e+01   4.5619790591e+01    0.1685302    0.1213053 -42.90  0.001013544    1.535    0.348
       270  -9.8666     16.0769     26.5473   6.8017333201e+01   7.0253798372e+01    0.2012448    0.1513422  19.11 0.0006664097    1.120    0.107
       271 -11.0101     17.6977     31.2692   6.8977303862e+01   6.9304225444e+01    0.5131652    0.2632123  17.60  0.002570787    1.835    0.455
       272 -10.5396      9.6609     24.8258   7.1408790360e+01   7.1272403376e+01    0.4497164    0.2002335  16.09  0.001321984    2.183    0.542
       273 -12.6985     75.7254    239.3293   8.8860036178e+01   1.2561648833e+01    0.6551909    0.5925702 -27.49  0.003795101    1.185    0.156
       274 -10.6205      9.5298     34.6563   7.5391232020e+01   6.9641402689e+01    0.3313279    0.1919331  24.02  0.001840805    1.524    0.344
       275 -11.1787      6.9830     29.9352   7.5253088053e+01   7.0706218123e+01    0.2856683    0.2689656  48.75 0.0008289926    1.583    0.368
       276 -10.7657      4.0390     18.0093   7.2324883336e+01   7.2933897064e+01     0.282682    0.1814683  -2.30   0.00172526    1.376    0.273
       277 -10.6815     28.1528    245.2232   1.0165785755e+02   1.6299659207e+01    0.3126451    0.1779989 -65.89  0.001607365    1.904    0.475
       278  -9.2027    146.3464     33.8366   2.8890553099e+01   4.3148804454e+01      0.14079    0.1173508 -25.63 0.0003981481    1.595    0.373
       279 -11.3501    121.7714     33.6162   3.2805760574e+01   4.8611650505e+01    0.5239319    0.1890474  60.51  0.002253759    2.298    0.565
       280  -9.1877    140.7642     33.6619   2.9664494453e+01   4.4387832544e+01    0.1089114    0.0926392  36.55 0.0002005398    1.544    0.352
       281  -9.5704     34.2466     33.4523   6.0621227929e+01   6.6638285741e+01    0.2114345    0.1412816  43.80  0.001176766    1.552    0.356
       282  -9.2587     30.6474     32.3055   6.2032128904e+01   6.7365281143e+01    0.2011807    0.1611591  31.70  0.001023895    1.202    0.168
       283 -11.0892      1.6863     31.5020   7.9404470393e+01   7.0906063228e+01    0.2237421    0.1693191 -50.81   0.00142727    1.558    0.358
       284  -9.7732    221.7572     31.7971   2.0755181030e+01   2.8645960650e+01    0.1468233   0.08852571 -65.93 0.0003120775    1.317    0.240
       285  -9.3179    129.2347     31.9613   3.1053426216e+01   4.7137931300e+01    0.1398899    0.1034432 -42.82 0.0003058939    1.516    0.340
       286  -9.9119    178.1286     30.8198   2.4355782309e+01   3.6857040017e+01    0.1403079    0.1305926  81.55 0.0006030932    1.337    0.252
       287  -9.3492    167.2538     31.3069   2.5639469943e+01   3.9011669356e+01    0.1004401   0.08822559  49.01 0.0001798698    1.513    0.339
       288 -11.3643    100.3496     28.8609   3.5757185841e+01   5.3976507461e+01    0.5072511    0.2275162  50.15 0.0008209796    1.945    0.486
       289 -11.6807    248.6850     27.5349   1.8314221114e+01   2.4784122098e+01    0.2493258    0.1468576 -53.04  0.001303498    1.275    0.216
       290 -10.0105    234.4781     29.0129   1.9415500694e+01   2.6851392271e+01    0.1523535    0.0755306 -48.18  0.001022397    1.596    0.373
       291 -11.5493    156.6546     28.2234   2.6202825981e+01   4.1586673720e+01    0.2673654     0.169081  79.06  0.000264909    1.372    0.271
       292 -10.1097     80.0537     28.0197   4.0624372257e+01   5.8554794434e+01    0.2933606    0.2226823  74.15  0.001730463    1.424    0.298
       293 -11.1959    196.8843     27.4189   2.1923078522e+01   3.3610742389e+01    0.4023953    0.1748728 -80.76  0.001949865    2.888    0.654
       294 -11.1476    112.3699     27.0624   3.2716355149e+01   5.1477225442e+01    0.2714529    0.2357269   4.84  0.001535336    1.559    0.359
       295  -9.9716     34.3689     43.1476   6.4337956940e+01   6.5079963820e+01    0.2013161    0.1484164 -14.33 0.0008443903    1.418    0.295
       296 -10.9620    238.9023     27.2613   1.8853799047e+01   2.6339859661e+01    0.1357788    0.1082358  53.76  0.001085335    2.014    0.503
       297 -10.6060    146.4338     27.0208   2.7228754534e+01   4.3915542709e+01    0.2621036    0.1490583  69.53 0.0008248512    1.498    0.332
       298 -11.8332    216.4108     25.4026   2.0034146100e+01   3.0301766174e+01    0.2492726    0.1571732  76.48 0.0008660934    1.518    0.341
       299 -10.0203    123.2689     26.1182   3.0483355841e+01   4.9132762009e+01    0.2330233    0.1401795 -84.65  0.001205612    1.955    0.489
       300 -10.1339     49.8348     27.9752   5.1129821398e+01   6.4712516806e+01    0.3318349    0.1904144   8.23  0.001427945    3.087    0.676
       301 -10.7811    140.2664     18.2651   2.5903720178e+01   4.6197404508e+01     0.419874    0.1659154  54.94  0.002006176    2.413    0.586
       302 -10.2148     45.5782    244.3178   9.7170917442e+01   1.4772696558e+01    0.2514227    0.1305513  33.90 0.0005238153    1.615    0.381
       303  -9.9792    102.1907    243.3938   8.2536812570e+01   8.5508641765e+00    0.2026584    0.1087928  32.83 0.0009457219    1.657    0.397
       304 -10.2511    118.5051     27.8305   3.1790885214e+01   5.0011762654e+01    0.2497391    0.1462078  58.63  0.001004486    1.448    0.310
       305  -9.9820    160.2260     24.2963   2.4888956287e+01   4.1271453582e+01    0.2333167    0.1490216 -55.37  0.001458255    1.496    0.332
       306 -10.4915    161.5177     20.4793   2.3892440002e+01   4.1414321798e+01    0.2214341    0.1510402  -2.28  0.001207626    3.080    0.675
       307 -10.1157     54.1097     23.2042   4.7470083800e+01   6.4488230812e+01    0.2027656    0.1631635 -75.22  0.001001657    1.952    0.488
       308 -10.9825     22.5567     24.0265   6.3025295046e+01   6.9773908165e+01    0.2570232    0.1956614   8.03 0.0002783012    1.132    0.117
       309 -10.1512    156.5055    241.4486   6.9328834022e+01   2.5299347240e+00    0.1324477    0.1069886  -4.03 0.0001331345    1.006    0.006
       310 -10.8012     88.7215    240.9740   8.5674455713e+01   1.0671941101e+01     0.187893     0.177002  -8.79  0.001147497    1.120    0.107
       311  -9.7732    115.3024    240.2399   7.8851819070e+01   7.6242094573e+00    0.2229475   0.08681642  34.61 0.0008876747    2.331    0.571
       312 -11.6551     63.7654     21.9713   4.3472245337e+01   6.2691281049e+01    0.2945127    0.2395712  -6.07  0.001015856    1.478    0.323
       313 -10.3702     59.0278     21.1204   4.4793396883e+01   6.3753303901e+01    0.2371514    0.1545085  52.95  0.000409027    1.322    0.243
       314 -10.4079     82.8782     22.0230   3.7765332239e+01   5.8609137954e+01    0.2783703    0.2095312  67.55  0.001345499    1.228    0.185
       315 -10.3778     87.0466     20.0917   3.6042196062e+01   5.7894253763e+01    0.1878539    0.1501486  56.52 0.0002784293    1.033    0.032
       316  -9.1174     34.6268     22.0471   5.5610945069e+01   6.8179944205e+01    0.2739391    0.2168689  33.46  0.001584962    1.121    0.108
       317 -10.8612    249.0473     20.8719   1.7272618429e+01   2.5466990184e+01    0.1620238    0.1024036 -56.93 0.0003346597    1.164    0.141
       318  -9.1411    193.3067     21.2841   2.1053173425e+01   3.4972776179e+01   0.09455216   0.07900492  60.63 0.0002338732    1.564    0.361
       319  -9.3695    155.7345     21.6744   2.4810794853e+01   4.2504886215e+01    0.1047182   0.08542903  48.19 0.0002957414    1.567    0.362
       320  -9.2677    120.5874     21.4903   2.9660381818e+01   5.0229590616e+01    0.1233473     0.101533  76.88 0.0002883101    1.016    0.016
       321  -9.2442     74.6448     21.2422   3.9773156394e+01   6.0479953803e+01    0.1228178   0.08960067  77.48  0.000692623    1.587    0.370
       322  -9.1499     68.2957     21.3129   4.1733308188e+01   6.1821521887e+01    0.1286104   0.08400692  31.87 0.0006612802    1.599    0.374
       323  -9.9118     99.0421     20.0544   3.3289508270e+01   5.5222793727e+01    0.1784942    0.1328315 -81.00 0.0002926907    1.524    0.344
       324 -10.5293     41.6056     19.1763   5.1023205339e+01   6.7323540710e+01    0.3627149    0.1604554  43.83 0.0008013049    1.824    0.452
       325 -10.3348    195.7112    238.3262   6.0750609072e+01  -1.1051539808e+00    0.2356474      0.16375 -26.00  0.001051087    1.176    0.149
       326 -10.9101     35.1469    237.9095   9.9344393884e+01   1.7282700469e+01    0.2208452    0.1620494  52.09  0.001142038    1.302    0.232
       327 -11.2573    233.2093     15.5897   1.7319828898e+01   2.8540398496e+01    0.1921862    0.1425662 -59.01  0.001612044    1.207    0.172
       328 -10.5905     17.9862    236.5390   1.0365322791e+02   1.9208716171e+01     0.434266    0.1720281  42.33  0.001893751    2.143    0.533
       329  -9.3998      8.3103    237.3085   1.0612784947e+02   1.9861969112e+01     0.124002   0.09391905 -33.57 0.0003335625    1.620    0.383
       330 -10.7445     72.0041     16.4660   3.8785391831e+01   6.1544757973e+01    0.3631023    0.1767239  58.22  0.001824773    1.696    0.410
       331 -10.3964     67.4266    236.1600   9.0700202282e+01   1.4230025556e+01    0.3323755    0.1961683  12.51  0.001424022    1.722    0.419
       332 -11.0318    183.2703    234.1232   6.2556346965e+01   8.9367491869e-01    0.3327943    0.2271076  14.85  0.001409952    1.370    0.270
       333  -9.7215     49.9162     16.7368   4.6440673133e+01   6.6045636736e+01    0.2293054    0.1774678 -59.12  0.001389435    1.964    0.491
       334 -11.1896    249.4701     15.1942   1.6388979913e+01   2.6013490542e+01    0.1808508    0.1206696 -68.00 0.0004413933    1.032    0.031
       335 -10.1570    215.5603     16.2860   1.8510255502e+01   3.1451468691e+01    0.2531435   0.06219639  67.26  0.001214724    3.621    0.724
       336  -9.8915    193.0593     16.2854   2.0118866743e+01   3.5558157688e+01      0.15128    0.1071391 -88.30 0.0003374202    1.142    0.124
       337 -11.5547    184.9785    228.3557   6.1320206211e+01   1.7193743180e+00    0.5591518    0.2454242 -26.22  0.002411157    2.671    0.626
       338 -11.5920     30.2741    234.0549   1.0031773490e+02   1.8650900861e+01    0.4464773    0.2859602  42.42  0.002352512    1.396    0.284
       339  -9.4091     88.2762    233.6840   8.4912344675e+01   1.2321802862e+01    0.1382175    0.1019094  52.92 0.0003530208    1.567    0.362
       340 -10.5110    127.3813    231.6183   7.4675065182e+01   7.9115422468e+00    0.2510242    0.1368861 -57.98  0.001142099    2.197    0.545
       341 -10.6116     39.6025    229.2638   9.7463498706e+01   1.8857072919e+01    0.2658291    0.1877749  44.09  0.001414211    1.310    0.237
       342  -9.3117     59.4560    229.4553   9.2129643314e+01   1.6681291481e+01    0.1403407     0.126838  22.23 0.0001579897    1.020    0.019
       343  -9.5579    151.5454    228.4822   6.8495284037e+01   5.5616354991e+00    0.1351765    0.1148176  -4.68 0.0001526654    1.030    0.029
       344 -10.5007    108.0574     18.0265   3.0875983922e+01   5.3400465902e+01    0.1918458    0.1535412  60.13  0.001251845    1.122    0.109
       345 -10.4343    160.0135    235.4787   6.7665877331e+01   3.2326256182e+00    0.1923352    0.1154304  19.87  0.000493857    1.537    0.349
       346  -9.9274    176.7691     11.4598   2.0500298222e+01   3.9230607453e+01    0.2224976   0.09062462  81.89  0.001145478    2.284    0.562
       347 -10.2829      3.8156    225.9002   1.0664560628e+02   2.2888121714e+01    0.1915702    0.1738273 -44.40  0.001051021    1.261    0.207
       348  -9.5107    126.3231    220.6481   7.3308307503e+01   1.0344985162e+01    0.1394295    0.1087512  57.52  0.000704788    1.754    0.430
       349  -8.9677     27.3072     10.3331   5.3994599636e+01   7.0833017710e+01    0.1256039   0.07794278  16.36  0.000431868    1.668    0.400
       350  -9.9065    211.8899    219.1070   5.4791489531e+01   4.5860605824e-01    0.1707374    0.1468357 -31.06 0.0006520545    1.287    0.223
       351 -10.7767     46.2503    218.9861   9.4697251739e+01   2.0644716845e+01    0.2834891    0.1562387  39.24 0.0009150587    1.659    0.397
       352  -9.5940    176.4892    218.5619   6.1495472394e+01   4.4554661166e+00    0.1302312    0.1088517 -12.68  0.000128678    1.032    0.031
       353  -9.6256    135.8207    216.5758   7.0339453609e+01   9.9623881280e+00    0.1945743    0.1213892  35.09 0.0006433195    1.621    0.383
       354 -10.5298     29.3809    215.5178   9.9086232849e+01   2.3208183528e+01    0.2730422    0.2255597  -5.59  0.001299222    1.331    0.249
       355 -10.0046     24.1220    216.1230   1.0059344099e+02   2.3548358244e+01    0.1921951    0.1458697  56.33 0.0004132143    1.280    0.219
       356 -11.0496      8.5462    216.1231   1.0483634928e+02   2.4879701009e+01     0.330735     0.166725  34.11  0.001564311    1.754    0.430
       357 -10.3059     14.7337    215.4088   1.0311583599e+02   2.4549247675e+01    0.2240633    0.1650575  11.69 0.0007673316    1.422    0.297
       358 -11.9797     12.0406    210.1535   1.0349200488e+02   2.6081469087e+01    0.5641531    0.2788289  85.08  0.002065805    2.290    0.563
       359  -9.5392    110.4405    212.0165   7.6071247097e+01   1.4363600057e+01    0.2104078    0.1412627 -51.35 0.0007819431    1.556    0.357
       360 -12.3360      4.9141    207.6169   1.0529102918e+02   2.7275217130e+01    0.6510029    0.3536391  82.12  0.002978958    1.951    0.488
       361 -10.5191    236.9942    208.9846   4.9052908913e+01  -3.7607422095e-01    0.1820688    0.1038825 -22.22 0.0005454362    1.633    0.388
       362  -9.8743    217.0000    209.0111   5.2301012913e+01   1.6131570022e+00    0.1962909   0.05615851 -45.12 0.0008017634    2.938    0.660
       363 -10.9845    175.3116    202.2698   5.9045229882e+01   7.6850497563e+00    0.2455714    0.2107075   6.04 0.0004630809    1.140    0.123
       364  -9.5379     67.1538    202.8535   8.6866981075e+01   2.2263044485e+01    0.2051054    0.1678829 -21.47  0.000392741    1.304    0.233
       365 -10.8890     20.1501    200.5690   1.0046328195e+02   2.7841602608e+01     0.536639    0.1476203 -61.21  0.001850018    3.171    0.685
       366  -9.5325    196.4968    201.5019   5.4736090153e+01   5.2073862007e+00    0.1286987    0.1033276 -22.14 0.0008105578    1.025    0.024
       367  -9.4519     56.7551    196.9956   8.9200803563e+01   2.5016014499e+01    0.2742521    0.1362185 -20.73 0.0008819897    3.495    0.714
       368  -9.1974    134.7473    196.6393   6.7320752652e+01   1.4413331498e+01    0.1510504    0.1013656 -23.24 0.0002705626    1.615    0.381
       369 -11.9799     15.8031    192.2357   1.0105151921e+02   3.0377707837e+01    0.4732617    0.3979967 -11.23  0.001763463    1.306    0.234
       370  -9.8209    186.5475    193.4890   5.5278959070e+01   7.9161624485e+00    0.1317193    0.1099105 -23.28 8.107567e-05    1.008    0.008
       371  -9.5890    144.8707    190.2304   6.3734611731e+01   1.4341602188e+01    0.2000321    0.1548458 -12.81 0.0007915631    1.313    0.238
