#   1 NUMBER                 Running object number                                     
#   2 MAG_AUTO               Kron-like elliptical aperture magnitude                    [mag]
#   3 X_IMAGE                Object position along x                                    [pixel]
#   4 Y_IMAGE                Object position along y                                    [pixel]
#   5 X_WORLD                Barycenter position along world x axis                     [deg]
#   6 Y_WORLD                Barycenter position along world y axis                     [deg]
#   7 A_WORLD                Profile RMS along major axis (world units)                 [deg]
#   8 B_WORLD                Profile RMS along minor axis (world units)                 [deg]
#   9 THETA_WORLD            Position angle (CCW/world-x)                               [deg]
#  10 FWHM_WORLD             FWHM assuming a gaussian core                              [deg]
#  11 ELONGATION             A_IMAGE/B_IMAGE                                           
#  12 ELLIPTICITY            1 - B_IMAGE/A_IMAGE                                       
         1 -12.9899    183.3324     38.6810   5.8256850192e+01   3.4134857839e+01     1.425737     1.061707  14.52  0.004668769    1.648    0.393
         2 -12.5626    206.2141      8.1219   4.6064220530e+01   3.1631703565e+01    0.9685013     0.795323  49.24  0.004248313    1.296    0.229
         3 -11.2202    202.8937      3.7567   4.5133132005e+01   3.2915487020e+01    0.6813024    0.3426692  39.38   0.00281254    2.528    0.604
         4  -9.8805    189.3119     14.9651   4.9994244742e+01   3.5367299240e+01    0.1996663    0.1897993 -29.64 0.0007243124    1.101    0.091
         5 -12.1724    247.3151    235.1327   9.1732207900e+01  -5.9795047468e+00     1.114711    0.4437305 -18.43  0.005685355    3.374    0.704
         6  -9.3575    192.7190    194.2925   9.4453082827e+01   7.2609451306e+00     0.556577    0.2908007 -61.81  0.001735275    7.350    0.864
         7 -10.7597     67.3242    196.4266   1.1919723470e+02   2.7157158111e+01    0.3271646    0.2624626 -85.60  0.001486802    1.240    0.193
         8  -9.5774    151.7938    196.8721   1.0257662068e+02   1.4046575450e+01    0.1889389    0.1618899  23.94  0.001184921    1.243    0.195
         9  -8.8010     81.9787    195.5205   1.1621970745e+02   2.5353911189e+01    0.2135262    0.1555954 -53.42  0.001369186    1.740    0.425
        10 -10.7545     96.2375    188.6852   1.1259088393e+02   2.4558251497e+01    0.3761341    0.2331283  69.54  0.001446761    1.717    0.418
        11  -8.8781    153.6559    213.3035   1.0452635821e+02   1.1220364541e+01    0.1217647   0.08305694  62.94 0.0006299533    1.685    0.406
        12 -11.6907     77.2054    183.1111   1.1588543146e+02   2.8370867870e+01    0.6478103    0.5705445  74.42  0.003007948    1.124    0.110
        13 -10.5686     72.3250    210.9949   1.1951558015e+02   2.3873870371e+01    0.2980257    0.2249549  20.86 0.0005734657    2.026    0.506
        14  -7.9696     76.3446    205.7038   1.1829582600e+02   2.4275699123e+01     0.168569    0.1062047 -81.20 0.0006633704    1.652    0.395
        15 -10.3047     99.1939    180.6888   1.1099191813e+02   2.5620611830e+01    0.2375888    0.1949164  43.05 0.0006389615    1.229    0.186
        16  -8.3478    196.9743    176.6923   9.0587729651e+01   8.9972739014e+00    0.1959724    0.1525439  34.30  0.001159164    1.116    0.104
        17  -9.0872    204.0553    175.7659   8.9112222871e+01   7.8236273340e+00      0.21627    0.1826652 -14.65 0.0006623649    1.234    0.189
        18  -8.5302    140.6735    175.3331   1.0148579693e+02   1.9648337291e+01    0.1360315   0.09769175  72.72 0.0007051413    1.714    0.417
        19 -10.5956    123.4982    171.5145   1.0451094254e+02   2.3387995639e+01    0.4890156    0.3271879  -1.99  0.002008397    3.630    0.725
        20 -10.8642    113.1300    172.1404   1.0683940425e+02   2.5029740748e+01    0.3302426    0.2649239  34.23  0.001912655    1.342    0.255
        21 -10.0693    110.9548    168.5041   1.0677283791e+02   2.6099347835e+01    0.3052917    0.2135507  57.53 0.0008593936    1.332    0.249
        22 -11.3012    103.6806    172.3108   1.0891055250e+02   2.6539616962e+01     0.439599    0.3910847  36.90  0.002605598    1.264    0.209
        23 -10.2457     98.0950    168.8295   1.0964606183e+02   2.8114022040e+01    0.3176501     0.154102  53.70  0.001479641    2.019    0.505
        24  -9.1127    153.9757    185.6079   1.0042852277e+02   1.5490925859e+01    0.2263184    0.1782311  83.53  0.001307441    1.656    0.396
        25  -9.6529    133.9789    172.0093   1.0235350785e+02   2.1451931500e+01    0.1692261    0.1457038  51.16  0.001024219    1.026    0.025
        26 -19.4675     32.4833    145.4159   1.2188876595e+02   4.1563693733e+01     17.95147     3.281161 -73.43   0.05651134    5.403    0.815
        27 -10.3746     95.0150    158.5583   1.0886473669e+02   3.0688239640e+01    0.2667665    0.2436335  89.12 0.0004219854    1.093    0.085
        28 -11.3768    100.1068    151.7251   1.0662968551e+02   3.1296317820e+01    0.5482732    0.4070558 -33.19  0.002928609    1.875    0.467
        29  -9.7996    134.4314    148.8098   9.8185943737e+01   2.5800338416e+01     0.448639    0.1639102 -56.09  0.001537249    3.530    0.717
        30  -9.6458     64.7113    208.1371   1.2069729090e+02   2.5359368591e+01    0.2131074    0.1647672  34.94 0.0006534836    1.549    0.354
        31 -10.4852     12.3353    206.0090   1.3003822561e+02   3.1501741971e+01    0.2595956    0.1135038  73.56  0.001608223    1.903    0.475
        32  -8.0483     90.6398    146.2957   1.0801119025e+02   3.3960423390e+01      0.14194   0.09298182  69.95 0.0007032384    1.705    0.414
        33 -10.4215    109.9448    138.2225   1.0192902677e+02   3.2477222556e+01    0.3635582    0.2775625 -36.70   0.00127248    1.592    0.372
        34 -10.9140     99.0466    137.5393   1.0447754697e+02   3.4492979815e+01    0.2622212    0.2525466  50.43 0.0005339729    1.151    0.131
        35 -10.1345    105.9807    130.7217   1.0147246090e+02   3.4782536539e+01    0.3655356    0.2897534 -75.54  0.001322105    1.312    0.238
        36  -9.5474    104.5816    124.8178   1.0064900179e+02   3.6310947621e+01    0.2674305    0.2317667 -18.70 0.0006044196    1.468    0.319
        37  -9.5357    116.4210    129.1787   9.8559942571e+01   3.3226478785e+01    0.2560585    0.2243267   2.01 0.0008893788    1.449    0.310
        38  -8.8295    120.3749    123.7848   9.6435856454e+01   3.3624530614e+01     0.202733    0.1330362 -41.11 0.0009434426    1.668    0.400
        39  -8.8718    111.4751    118.2706   9.7485010797e+01   3.6486818741e+01    0.2565831    0.1902892  44.67 0.0003473601    1.348    0.258
        40  -9.1831    168.1021    112.9323   8.2698477398e+01   2.5693061085e+01    0.3405617    0.2531326 -81.33  0.001108813    1.970    0.492
        41  99.0000      7.4482    205.9263   1.3087998124e+02   3.1966006627e+01    0.3245819    0.1138699  43.15 0.0005635627    2.180    0.541
        42  -8.8991    205.8675    109.9036   7.4455501994e+01   1.7626773690e+01     0.230491     0.192684  13.70  0.000717207    1.250    0.200
        43 -10.9577     57.4821    213.0806   1.2240870342e+02   2.5384255603e+01    0.1926027    0.1326876  48.99 0.0003131801    1.252    0.201
        44  -8.4985     87.6617    201.5526   1.1571785477e+02   2.3455531364e+01    0.1706774    0.0879871  50.95 0.0009442063    1.601    0.375
        45  -8.5574    127.6757     95.3181   8.7633873732e+01   3.8123178741e+01    0.1538236    0.1196533 -87.58 0.0004782544    1.672    0.402
        46 -10.6999    167.6992     67.6716   7.0158070041e+01   3.3863489744e+01    0.4838768     0.337476 -81.65  0.001500784    2.089    0.521
        47 -11.9251    168.7210     53.5778   6.5546575981e+01   3.5847181562e+01    0.5981227     0.567986  79.61   0.00109425    1.082    0.076
        48  -8.8512     83.9849    245.7147   1.2020287144e+02   1.6736327747e+01    0.1678744    0.1033502  65.16 0.0002081061    1.396    0.284
        49 -11.5862    187.8427     32.3430   5.5589809295e+01   3.3756308879e+01    0.5445124    0.4822464  31.58  0.001372158    1.209    0.173
        50  -8.1731    161.3869    199.5349   1.0113131008e+02   1.1975684258e+01    0.1236101    0.1048949  40.20 6.311748e-05    1.025    0.024
        51  -8.9583    167.6961    232.0453   1.0444248608e+02   6.3870805185e+00    0.2130095     0.133217  34.78 0.0008908052    1.323    0.244
        52  -9.8377     71.9573    231.2198   1.2117414868e+02   2.0529437914e+01    0.1710781    0.1252391  78.93 0.0004988249    1.256    0.204
