#   1 NUMBER                 Running object number                                     
#   2 MAG_AUTO               Kron-like elliptical aperture magnitude                    [mag]
#   3 X_IMAGE                Object position along x                                    [pixel]
#   4 Y_IMAGE                Object position along y                                    [pixel]
#   5 X_WORLD                Barycenter position along world x axis                     [deg]
#   6 Y_WORLD                Barycenter position along world y axis                     [deg]
#   7 A_WORLD                Profile RMS along major axis (world units)                 [deg]
#   8 B_WORLD                Profile RMS along minor axis (world units)                 [deg]
#   9 THETA_WORLD            Position angle (CCW/world-x)                               [deg]
#  10 FWHM_WORLD             FWHM assuming a gaussian core                              [deg]
#  11 ELONGATION             A_IMAGE/B_IMAGE                                           
#  12 ELLIPTICITY            1 - B_IMAGE/A_IMAGE                                       
         1 -15.5479    133.5599     78.7139   7.4739674806e+01   4.0383589068e+01     2.946983     2.020801  16.60   0.01219239    2.067    0.516
         2 -15.9885     68.3870     50.6039   8.5343424159e+01   5.8554518217e+01     2.968832     1.960372  35.95   0.01570041    1.623    0.384
         3 -12.8308    249.7340     49.1792   4.6104278836e+01   1.7084983459e+01     1.185636    0.4971218 -27.45  0.004800786    2.613    0.617
         4 -16.3798    136.8449    100.8230   8.0444074470e+01   3.5096536952e+01     4.707851     3.607995 -49.96   0.02209897    1.308    0.235
         5 -14.3214      8.1375     52.5496   1.1032271509e+02   6.4420812219e+01     1.515917    0.7475111 -49.93  0.007213797    1.487    0.327
         6 -16.7585     32.3709     87.8169   1.0923051145e+02   5.4876870309e+01      3.82698     2.769387 -77.74   0.02241059    1.401    0.286
         7 -14.2850     17.8814     11.0982   9.1037783610e+01   7.1470832540e+01     1.465969    0.9880641 -10.73  0.007740278    1.299    0.230
         8 -14.3458    188.9542      9.0390   4.2530259680e+01   3.6583664631e+01     2.472845    0.9384122  59.63   0.01015595    2.322    0.569
         9 -13.4920    164.3473      5.3905   4.4495574544e+01   4.3189001865e+01     1.417794    0.8245053  74.51  0.006900208    1.612    0.380
        10 -11.0076     64.8463      8.6820   6.8579258833e+01   6.5465902660e+01    0.3621703     0.323516  39.12  0.002273646    1.350    0.259
        11 -11.6197     55.7903     11.8574   7.3621629218e+01   6.6598524094e+01    0.4715457    0.3619229   9.78  0.002609709    1.119    0.106
        12 -12.0931     56.7400      4.3196   6.9439060649e+01   6.7329382743e+01    0.7186371    0.4259646  32.19  0.003234666    1.536    0.349
        13 -10.4354     12.9803    187.6807   1.2631253710e+02   3.3475083571e+01    0.2421923    0.1249625  64.50  0.001230299    1.675    0.403
        14  -9.9345    240.9806    250.0132   8.9703622073e+01  -1.0627643139e+01    0.1390919    0.1040872  11.34  0.000920775    1.050    0.047
        15 -12.5890    186.0973    248.3553   9.9081992096e+01  -2.3674406590e+00    0.4874527      0.29161  37.49  0.002946539    1.327    0.247
        16 -11.5498    108.2893    147.9960   9.9195676057e+01   3.0051902533e+01    0.3552264    0.3211468 -72.28   0.00195214    1.066    0.062
        17 -11.7738    104.2100    144.0677   9.9469002498e+01   3.1695232165e+01    0.5862931    0.3840308 -65.57  0.002725109    1.577    0.366
        18 -11.7120    108.1013    141.2116   9.7886126641e+01   3.1677485880e+01    0.5296117    0.3952272  84.15    0.0025253    1.628    0.386
        19 -14.9991    147.2628    129.9090   8.5423593992e+01   2.6467002526e+01     2.375429     1.686913  59.43   0.01063976    1.585    0.369
        20 -11.0024      8.6107    186.7569   1.2710889581e+02   3.4063831199e+01    0.3722436    0.1549848 -66.49   0.00203627    2.141    0.533
        21 -11.1070    103.3709    108.0710   9.1572821636e+01   4.0343556589e+01    0.3283956     0.200993  46.19 0.0009903652    1.740    0.425
        22 -14.4678     68.1870    196.3761   1.1577955968e+02   2.5340710858e+01     3.120716     1.172807  54.77   0.01305696    2.759    0.638
        23 -10.7419    182.7446    129.6619   7.7266651630e+01   1.8676954286e+01    0.2664003    0.2166875 -43.13 0.0006838911    1.221    0.181
        24 -10.6247    184.8001     87.5828   6.5760437103e+01   2.6321312081e+01    0.2747797    0.2240535  62.00  0.001337164    1.286    0.222
        25 -12.5049    176.7645     90.1795   6.8112383477e+01   2.7806340394e+01     0.628652    0.3762766 -19.52  0.002386336    2.271    0.560
        26 -11.9698    180.5686     87.2361   6.6505363692e+01   2.7422158318e+01    0.4127433    0.3117421 -68.30  0.001871199    1.603    0.376
        27 -12.1581    161.5034     89.9961   7.1366315445e+01   3.1555129326e+01    0.4657974    0.3221403  51.14  0.002066523    1.467    0.318
        28 -11.5218     89.9423     84.0007   8.8996077656e+01   4.8207454857e+01    0.5364343    0.2993123 -34.49  0.002056003    1.952    0.488
        29 -11.8020     97.5163     76.9779   8.4471748255e+01   4.8331345618e+01    0.5980508    0.4593937  -4.51  0.002918379    1.587    0.370
        30 -12.2836     93.3275     74.5788   8.5026779216e+01   4.9608745045e+01    0.6534545    0.4776596  -5.55  0.003092473    1.754    0.430
        31 -13.6620    104.4070     76.6242   8.2250650622e+01   4.7072258208e+01     1.105495    0.8815988   7.11  0.005497681    1.473    0.321
        32 -13.4569     99.4482     69.3830   8.1414316694e+01   4.9505952463e+01      1.28057    0.6035198  38.38  0.005052541    2.284    0.562
        33 -11.9268    168.3901     83.9152   6.8084676565e+01   3.1032696716e+01    0.5302201    0.3326067 -65.26  0.002027184    2.307    0.567
        34 -12.8766    176.6400     71.6244   6.2791673241e+01   3.1182523634e+01    0.8489481    0.5519151  77.60  0.003295051    2.002    0.501
        35 -13.3328    177.3573     65.2537   6.0773376943e+01   3.2076161371e+01     1.195522    0.7094692  76.02  0.004708529    2.232    0.552
        36 -14.1539    185.5203    110.1452   7.1727312220e+01   2.1886104701e+01     1.741071     1.070031  21.33  0.006413219    2.630    0.620
        37 -10.5659    221.6998     71.0203   5.4989638691e+01   2.0215123812e+01    0.2181099    0.1826496 -42.75  0.001172881    1.104    0.094
        38 -10.4773    250.3681     57.7954   4.8051068107e+01   1.5729896547e+01    0.3499981    0.1493963 -31.75  0.001093142    2.200    0.545
        39 -10.9657    238.8153    244.0836   8.9138973338e+01  -9.6821973947e+00    0.3658662    0.1361056  33.99   0.00183018    2.241    0.554
        40 -11.8941    213.5033     61.5108   5.3697220548e+01   2.3656153581e+01    0.4355491    0.2766382  22.19   0.00176408    2.648    0.622
        41 -10.8824    250.5659     63.2231   4.9302939785e+01   1.4899494623e+01    0.4108703    0.1756699 -35.27  0.001756356    2.032    0.508
        42 -11.3131      1.8718    122.2172   1.2353000763e+02   4.9024876927e+01    0.4231519    0.1407363 -70.38  0.001986334    2.160    0.537
        43 -10.9280    166.6267     72.8617   6.5187668882e+01   3.3477489159e+01    0.2966142    0.2171854  54.95  0.001052815    1.372    0.271
        44 -10.1811     72.9215     84.3649   9.4625871524e+01   5.0886241607e+01    0.1934744    0.1806056  -4.43 0.0007015861    1.137    0.121
        45 -10.6201    236.7042     57.0656   4.9470270176e+01   1.8864330564e+01    0.3128892    0.2151391 -39.28  0.001633162    1.310    0.237
        46 -11.0531    194.5843     55.5293   5.4945726051e+01   2.9254901548e+01    0.4175775    0.2513317  85.44  0.001497686    2.220    0.550
        47 -10.8623    201.9190     54.7754   5.3594107757e+01   2.7528724632e+01    0.3808977    0.2022958  43.03  0.001536583    2.274    0.560
        48 -10.4105      7.0231    241.5063   1.3017715506e+02   2.3562910662e+01    0.1616359    0.1036291  79.60  0.001249498    1.156    0.135
        49 -13.4910    188.2306    116.8337   7.2901216088e+01   1.9958943144e+01     1.633721    0.7422852  31.76  0.004844763    3.887    0.743
        50 -12.5934     19.5807    154.1257   1.2225674474e+02   4.0317287741e+01      0.61989    0.5663074  84.18  0.004379679    1.227    0.185
        51 -11.4798    169.6378     47.7640   5.6910243170e+01   3.6778864651e+01    0.4778289    0.2030454  51.28  0.001784046    2.269    0.559
        52 -12.2187    126.4895     43.5079   6.4698030766e+01   4.8150679412e+01    0.5652868    0.4476191  43.02  0.002405958    1.216    0.178
        53 -11.0269    123.1792     40.6030   6.4472276304e+01   4.9356095093e+01    0.4693496    0.2405549  43.28  0.001962922    1.924    0.480
        54 -11.3916    182.2605    239.4211   9.8515753882e+01  -5.4997152318e-01    0.2780177    0.1849123  49.50  0.001655591    1.531    0.347
        55 -10.8203    169.1359     39.8629   5.4544496925e+01   3.8027083188e+01    0.2343894    0.1994319 -71.59   0.00123553    1.245    0.197
        56  -9.6991    219.3286     31.3070   4.5050838062e+01   2.6485269628e+01    0.1342985    0.1040059  35.00 0.0004184152    1.657    0.396
        57 -12.0283    173.3002     97.5783   7.0912915194e+01   2.7232405514e+01    0.3862722    0.3445382 -50.41  0.001948547    1.123    0.110
        58  -9.7256    235.1810     27.7895   4.2523666856e+01   2.3183666891e+01    0.2474541    0.1063401 -61.69 0.0009543725    2.865    0.651
        59 -11.8562     14.5401    236.9778   1.2877673245e+02   2.3621777401e+01    0.2899048    0.1862389  36.18  0.002087537    1.844    0.458
        60 -11.7177     10.6543    228.3263   1.2900541672e+02   2.5596904330e+01    0.2836086    0.1224759 -69.41  0.001718684    2.251    0.556
        61 -13.4915     90.5271    188.8386   1.1005672462e+02   2.3731244276e+01     2.024897     1.210369  74.74  0.009694058    2.028    0.507
        62 -13.4551     70.2491    185.0487   1.1405899597e+02   2.7514855768e+01     0.896723    0.8728813  17.73   0.00602988    1.379    0.275
        63 -10.6011    147.5053    209.9697   1.0092048706e+02   9.9971339965e+00     0.188043    0.1333559 -52.10 0.0008709804    1.613    0.380
