#   1 NUMBER                 Running object number                                     
#   2 MAG_AUTO               Kron-like elliptical aperture magnitude                    [mag]
#   3 X_IMAGE                Object position along x                                    [pixel]
#   4 Y_IMAGE                Object position along y                                    [pixel]
#   5 X_WORLD                Barycenter position along world x axis                     [deg]
#   6 Y_WORLD                Barycenter position along world y axis                     [deg]
#   7 A_WORLD                Profile RMS along major axis (world units)                 [deg]
#   8 B_WORLD                Profile RMS along minor axis (world units)                 [deg]
#   9 THETA_WORLD            Position angle (CCW/world-x)                               [deg]
#  10 FWHM_WORLD             FWHM assuming a gaussian core                              [deg]
#  11 ELONGATION             A_IMAGE/B_IMAGE                                           
#  12 ELLIPTICITY            1 - B_IMAGE/A_IMAGE                                       
         1 -13.2269    217.6282      3.3440   5.0591417285e+01   2.9337377203e+01     1.135081    0.7306476  59.80  0.003158355    1.521    0.343
         2 -14.0478    192.8947     28.3151   6.1288932630e+01   3.3286089303e+01     2.054282     1.341783  -0.80  0.006102892    1.808    0.447
         3 -13.9266    200.8163     22.2121   5.8249247280e+01   3.1876126555e+01     1.652022     1.181364 -32.94  0.005720002    1.374    0.272
         4 -12.7505      2.4884      6.1953   1.1198172672e+02   7.2784611565e+01    0.9318728    0.3803386 -50.16  0.005366337    1.689    0.408
         5 -12.8346    206.6457     15.0874   5.5305235185e+01   3.1085800453e+01    0.7510297     0.565215  20.29  0.001356199    1.489    0.328
         6 -12.3950      2.0724     22.0966   1.1731193566e+02   6.9705669301e+01     1.044574    0.1179679 -63.96  0.003261972    5.720    0.825
         7 -11.8675    106.9916    244.9973   1.2158508414e+02   1.6005259563e+01    0.2151691    0.1607829  68.48  0.001812759    1.230    0.187
         8 -11.2723    177.4736    249.5378   1.1120182165e+02   5.5495015200e+00    0.2950455    0.1232453  36.21  0.001713757    2.018    0.505
         9 -13.0601    140.7283    248.6793   1.1672507055e+02   1.0929379538e+01     0.571937    0.3372455  49.70  0.004204358    1.231    0.188
        10 -10.2025     86.9859    250.0397   1.2497371771e+02   1.7913473954e+01    0.1315885    0.1068685  33.94 0.0009349399    1.675    0.403
        11 -10.8091     63.2274    250.1824   1.2847786393e+02   2.0720159353e+01    0.2165631   0.08986139  45.98 0.0006468786    1.712    0.416
        12 -13.4561     53.3945    235.2154   1.2911616828e+02   2.3911425743e+01    0.9066661    0.5065579 -89.09  0.005302428    1.762    0.432
        13 -13.5095     26.4853    234.1065   1.3306710699e+02   2.6891890205e+01    0.7135985    0.5111493  68.86  0.003335644    1.123    0.110
        14 -14.0024     35.1123    245.4230   1.3229438778e+02   2.4412674838e+01    0.9980901    0.6143361  49.33  0.008695828    1.321    0.243
        15 -12.3586     21.9949    244.4693   1.3410944354e+02   2.5847092530e+01    0.3838464    0.2137282  73.44  0.001141498    1.338    0.253
        16 -13.8220      6.3101    246.1834   1.3632649528e+02   2.7063894362e+01      1.00649    0.4601703  56.19  0.008426124    1.392    0.282
        17 -13.1777     11.2887    237.4879   1.3537275473e+02   2.7842685127e+01    0.6760163    0.3158195  85.42  0.003311859    1.803    0.446
        18 -16.1362      7.4728    208.1202   1.3490971526e+02   3.2642098819e+01     6.209402     1.118219 -76.04   0.01752024    4.533    0.779
        19 -15.7329     53.1161    208.3809   1.2754804776e+02   2.8036871141e+01     6.541616    0.4017538  46.90   0.02491464    5.078    0.803
        20 -10.4322     60.1497    226.9052   1.2759093835e+02   2.4363953474e+01     0.179946    0.1088852  89.16  0.001379746    1.602    0.376
        21 -10.7349     67.4420    225.6724   1.2635968048e+02   2.3693114401e+01    0.2083513    0.1272922  70.49 0.0006478462    1.377    0.274
        22 -11.6902     70.8579    245.5492   1.2709024812e+02   2.0460955279e+01    0.2635542    0.1712274  52.46  0.002199616    1.142    0.125
        23 -11.4139    105.9556    240.7767   1.2141016466e+02   1.6692026715e+01     0.231882    0.1224274  54.26  0.001192081    1.430    0.301
        24 -11.4747     82.8872    243.6158   1.2516093986e+02   1.9272013334e+01    0.2040018    0.1318644 -76.35  0.001652034    1.786    0.440
        25 -10.7134    193.0521    194.9576   1.0157735785e+02   9.2328437435e+00     0.676365    0.3531626 -61.60   0.00230787    7.205    0.861
        26  -9.8874     65.8412    196.8921   1.2452405108e+02   2.8437704907e+01    0.1457175    0.1235383  71.06 0.0002683168    1.186    0.157
        27 -11.8105     68.5842    188.9901   1.2336876629e+02   2.9446837826e+01    0.3055253    0.2209356 -43.30  0.002053627    2.235    0.552
        28 -11.7963     73.2843    182.7072   1.2192401315e+02   2.9953280929e+01    0.2287371    0.1989886 -66.81 0.0006012945    1.419    0.295
        29 -13.1961     58.2027    131.5564   1.1941622709e+02   4.1673407617e+01     2.718863    0.8815906 -78.10  0.007769383    6.913    0.855
        30 -12.9297     87.1728    163.5164   1.1711723391e+02   3.1584113259e+01     2.397267     0.600261  52.39  0.001305045    5.234    0.809
        31 -13.4976     67.8448    144.5460   1.1887781401e+02   3.7847856425e+01     1.170471    0.5964177  82.95  0.003942357    2.752    0.637
        32 -10.0320    228.3914    171.2087   9.1567726391e+01   5.8638356463e+00    0.1590704    0.1134421 -35.14 0.0009532744    1.669    0.401
        33 -11.8206     33.4038    148.2322   1.2670698713e+02   4.0952429215e+01    0.3174118     0.156228 -83.50  0.001865472    1.816    0.449
        34  -9.9426    101.0836    147.6893   1.1201781998e+02   3.2542521824e+01     0.233126    0.1938889  50.11 0.0007915862    1.168    0.144
        35  -9.4018    103.8375    143.7834   1.1080969274e+02   3.2867806690e+01    0.3132783     0.192451 -31.84  0.001452096    2.864    0.651
        36 -12.2387     89.8124    146.8993   1.1436021144e+02   3.4390755041e+01     0.228006    0.2164518 -76.96 0.0004528649    1.210    0.174
        37 -10.6144     41.2663    147.5763   1.2498346130e+02   4.0293727376e+01    0.2002203   0.08914647  42.51 0.0009465532    2.109    0.526
        38  -9.6836    134.0000    144.5048   1.0439575221e+02   2.7600105251e+01    0.3492703   0.07529538 -49.06  0.001058853    5.003    0.800
        39  -9.9406    111.3792    134.3276   1.0753568740e+02   3.3487071233e+01    0.2524991    0.2103679  -3.89   0.00105662    1.736    0.424
        40 -10.8637     99.0222    131.0252   1.0979129154e+02   3.6157037269e+01    0.2542038    0.2188241 -28.09 0.0007076503    1.520    0.342
        41 -13.2260     43.9081    220.5819   1.2977604818e+02   2.7129210270e+01    0.3893023    0.3276846  35.34  0.001242435    1.717    0.418
        42 -11.3806     82.0329    171.4668   1.1907886683e+02   3.0823084695e+01    0.2102696    0.1891463  80.57 0.0003903527    1.171    0.146
        43 -13.4294     69.6052    168.4847   1.2122582159e+02   3.2997762913e+01    0.3900932    0.2435107 -50.34  0.001590412    2.087    0.521
        44  -9.6901    108.0191    121.9620   1.0602178741e+02   3.6519459327e+01    0.1873865    0.1760544  78.34            0    1.026    0.025
        45 -11.8689    167.8539    112.6217   9.0469230383e+01   2.6575633833e+01    0.3579197    0.3130053 -87.01 0.0007096715    1.381    0.276
        46  -9.6287    204.8111    110.6380   8.2776739918e+01   1.8723892813e+01     0.378371    0.1870118  34.48  0.001491227    2.330    0.571
        47 -11.7295     43.9867    109.2700   1.1989901380e+02   4.7951412063e+01    0.3417971    0.2530396  71.21  0.001654747    1.328    0.247
        48 -11.7822      1.8281     87.1961   1.2852510879e+02   5.6032272182e+01    0.5988114   0.09471306 -74.34  0.002110283    4.600    0.783
        49 -10.9976    183.9973    248.9943   1.1015322449e+02   4.6523500800e+00    0.2382844   0.09487008  39.15  0.001388792    1.864    0.463
        50 -11.4225    170.8455    247.4796   1.1199042777e+02   6.7291713624e+00    0.2218425    0.1848282  76.59  0.001842887    1.612    0.380
        51 -11.2292    161.6198    249.0766   1.1356733971e+02   7.8992964992e+00      0.21674    0.1153978  40.26  0.001477553    1.394    0.283
        52 -11.7733     95.4272    246.4399   1.2345695934e+02   1.7322096519e+01    0.2570222    0.1919431 -86.18  0.002218758    1.516    0.340
        53 -11.8140     90.4914    245.7746   1.2415722439e+02   1.8035648725e+01    0.2724119    0.1737563  74.59  0.001486278    1.517    0.341
