#   1 NUMBER                 Running object number                                     
#   2 MAG_AUTO               Kron-like elliptical aperture magnitude                    [mag]
#   3 X_IMAGE                Object position along x                                    [pixel]
#   4 Y_IMAGE                Object position along y                                    [pixel]
#   5 X_WORLD                Barycenter position along world x axis                     [deg]
#   6 Y_WORLD                Barycenter position along world y axis                     [deg]
#   7 A_WORLD                Profile RMS along major axis (world units)                 [deg]
#   8 B_WORLD                Profile RMS along minor axis (world units)                 [deg]
#   9 THETA_WORLD            Position angle (CCW/world-x)                               [deg]
#  10 FWHM_WORLD             FWHM assuming a gaussian core                              [deg]
#  11 ELONGATION             A_IMAGE/B_IMAGE                                           
#  12 ELLIPTICITY            1 - B_IMAGE/A_IMAGE                                       
         1 -14.2688    187.7909     32.4146   6.1742001617e+01   3.3972268209e+01     1.362304     1.075717 -13.71  0.003080243    1.341    0.254
         2 -15.0366    195.6134     21.5130   5.7389119777e+01   3.3171290843e+01     2.446402     1.581102  17.50  0.001542088    2.016    0.504
         3 -11.8576     50.4734      7.1779   8.8200595983e+01   6.9056055081e+01    0.2402664    0.2158165 -78.33  0.001460393    1.980    0.495
         4 -11.7344     56.6285      2.6875   8.2767932092e+01   6.8642322771e+01    0.2895913    0.1908325  54.15  0.001533258    2.051    0.512
         5 -11.6872    181.9015    233.5857   1.0917596320e+02   4.4397879402e+00    0.2837897    0.1633391  45.22  0.001355822    1.683    0.406
         6 -15.8831    119.7861    236.1524   1.2109103913e+02   1.3159914057e+01     6.806291     2.641455  36.87    0.0348263    2.021    0.505
         7 -10.3485     43.8126    209.8951   1.3347188298e+02   2.7021940914e+01    0.3101181     0.105071  52.07  0.001561842    2.446    0.591
         8 -11.8978    116.0530    211.8198   1.1916971521e+02   1.7503849249e+01    0.3170219    0.2091454  71.26 0.0007644302    1.990    0.497
         9 -19.3725     12.6231    131.0137   1.3482367574e+02   4.5942272917e+01     17.29217     1.669436 -76.98   0.03786063   10.999    0.909
        10 -16.0239     69.8447    147.2949   1.2156792189e+02   3.6680488169e+01     5.009475     2.625191  73.83   0.02053965    3.018    0.669
        11 -11.8666    105.6370    201.5006   1.2011839087e+02   2.0795755080e+01    0.4016392     0.207773  38.44  0.001929499    1.628    0.386
        12 -12.9438    195.3119    194.8988   1.0068845671e+02   7.4024535960e+00    0.7559206     0.629168  69.06  0.003882154    1.985    0.496
        13  -9.4507     36.4301    230.3288   1.3599520288e+02   2.4252829477e+01    0.2763669    0.1199823 -66.63    0.0017111    2.551    0.608
        14 -13.2134     68.5446    195.1523   1.2731204308e+02   2.6944539347e+01    0.6096287    0.5232868  88.85  0.002790347    1.177    0.151
        15 -10.7495     86.0229    238.0211   1.2754122004e+02   1.7364066938e+01    0.1735767    0.1389141  77.42 0.0004674522    1.311    0.237
        16 -10.0359     81.7006    194.9063   1.2448194742e+02   2.5319583560e+01     0.278494    0.1531533  26.62  0.001449827    2.082    0.520
        17 -10.0702    180.0090    192.7989   1.0333947001e+02   1.0280179376e+01    0.2051219    0.1418241  57.69  0.001074287    2.013    0.503
        18 -11.4324    207.7391    183.8549   9.6331109838e+01   6.8374487216e+00    0.2846862    0.2538002  -9.82  0.001032041    1.256    0.204
        19 -11.6751    211.0330    180.9962   9.5174887791e+01   6.6694112568e+00    0.3651075    0.2536896  -0.16  0.001411016    1.438    0.305
        20 -12.1450     79.7153    180.0732   1.2330120979e+02   2.8461422899e+01    0.3925123      0.24326 -40.09  0.002068454    2.270    0.559
        21 -12.1554     83.2981    174.6142   1.2182868197e+02   2.9078768650e+01    0.4031308    0.2540862 -61.85 0.0009350138    1.672    0.402
        22 -10.5843     99.4811    180.5699   1.1886231826e+02   2.5594681064e+01    0.2210022    0.1905473  46.55  0.000615469    1.039    0.038
        23 -11.7228    197.6506    174.6864   9.6551838189e+01   9.9043096446e+00    0.4624262    0.3086002 -40.36  0.001781709    1.758    0.431
        24 -10.7503     46.4591    218.1709   1.3348815176e+02   2.5275326462e+01    0.3787645    0.2574565   8.20  0.002231882    2.595    0.615
        25 -11.9700    120.0098    200.3970   1.1694680382e+02   1.8853243294e+01    0.4347164    0.2704286  11.76  0.002083203    2.628    0.619
        26 -11.2143    145.6807    168.1062   1.0634279244e+02   2.0395013117e+01    0.2613228    0.2138983  47.42 0.0006366053    1.199    0.166
        27 -10.5626    202.8892    167.2589   9.4071715659e+01   1.0065146217e+01    0.2790313    0.2189478 -56.77  0.001315032    1.974    0.494
        28  -9.8938     37.9620    226.3724   1.3551882195e+02   2.4757713008e+01    0.1462067   0.09532974  59.01 0.0002487049    1.164    0.141
        29 -10.7960    141.1765    157.8609   1.0549483883e+02   2.3125124864e+01     0.239957    0.2128886  59.77 0.0002879459    1.233    0.189
        30 -11.5360    133.6634    144.3441   1.0465637718e+02   2.7163316380e+01    0.9460818    0.2703477 -54.00  0.002608425    5.200    0.808
        31 -10.8095    174.5270    149.0050   9.6142334874e+01   1.8387586534e+01    0.2669904    0.2346994  35.03 0.0008220028    1.118    0.105
        32 -10.5857    143.5102    144.4979   1.0229202495e+02   2.5274397014e+01    0.1456891    0.1342355  24.89 0.0002279634    1.013    0.013
        33 -11.6882    107.6140    141.4102   1.1069951196e+02   3.2391545231e+01    0.5429092    0.3241892 -31.30  0.002338876    2.362    0.577
        34 -12.3893     95.6709    142.2917   1.1399439156e+02   3.4127047962e+01    0.2681778    0.2604132  12.80 0.0003400536    1.112    0.101
        35 -11.2521    114.8720    131.4900   1.0682560804e+02   3.3274256762e+01    0.3595517    0.2649368  24.04 0.0009142608    1.491    0.329
        36 -11.9291    119.1034    126.9043   1.0471775707e+02   3.3491257885e+01    0.6106188     0.319364 -46.72  0.002579513    1.960    0.490
        37 -11.1642    102.5509    127.9686   1.0943730785e+02   3.6174932365e+01    0.2825704    0.2567807 -22.54 0.0007321665    1.198    0.165
        38 -11.3533    136.1452    122.9810   9.9360130827e+01   3.1033050333e+01    0.4337992    0.2897393 -43.71  0.001506746    1.547    0.354
        39 -10.7052    160.1806    128.0170   9.4663770170e+01   2.5111987531e+01    0.3360658    0.2897487 -40.18  0.001269363    1.237    0.191
        40 -10.7667    105.8294    130.8425   1.0912278447e+02   3.4988716869e+01    0.3262284    0.2957465  70.14   0.00116089    1.160    0.138
        41 -10.3232    110.1735    120.0419   1.0563191605e+02   3.6601378026e+01    0.2330839    0.2022496  37.15 0.0003057819    1.139    0.122
        42 -10.1901    167.7760    112.7339   8.9137451601e+01   2.6329290929e+01    0.2893192    0.2238341 -81.20  0.001290318    2.042    0.510
        43 -10.0828    205.4031    110.0980   8.0660675980e+01   1.8476990466e+01    0.2477476    0.1908563  31.14 0.0006159059    1.271    0.213
        44  -9.7628    134.5083    102.9406   9.4746448646e+01   3.5470008439e+01    0.2343488    0.1509479 -41.71  0.001027115    1.573    0.364
        45  -9.4965     70.1984     72.1959   1.0617686613e+02   5.3867145131e+01    0.1766649     0.163333 -86.89 0.0002638497    1.277    0.217
        46 -11.3396    168.5172     68.3920   7.6392408694e+01   3.3897170081e+01    0.4950735    0.3420678 -84.51  0.001599362    2.392    0.582
        47  -9.7062     66.6695    232.9913   1.3071404088e+02   2.0513943041e+01    0.1295846    0.1061495  65.80 0.0001311518    1.133    0.117
        48  -9.2256     51.9828     61.0000   1.0990602274e+02   5.8744898028e+01    0.1976579   0.07717665  28.66 0.0004575616    2.833    0.647
        49 -13.8254    177.2969     41.5234   6.6256925411e+01   3.5567106055e+01    0.9545799    0.7752514  -8.04  0.000835361    1.310    0.237
        50 -13.9129     60.3157    210.2950   1.3027239077e+02   2.5126684317e+01    0.8988761    0.4921271  45.24  0.004213703    1.467    0.318
        51 -14.7558     53.1664    231.6501   1.3308105216e+02   2.2267330245e+01     1.053477     0.726517 -79.99  0.007961608    1.566    0.362
        52 -12.6326     40.3012    213.3768   1.3435865265e+02   2.6765035178e+01     0.244316    0.1359213  52.44  0.001294786    1.410    0.291
        53  -9.3808    196.2549    246.3428   1.0831847006e+02   8.8068282243e-01    0.1098143   0.06943929  11.51 0.0005263738    1.583    0.368
