#   1 NUMBER                 Running object number                                     
#   2 MAG_AUTO               Kron-like elliptical aperture magnitude                    [mag]
#   3 X_IMAGE                Object position along x                                    [pixel]
#   4 Y_IMAGE                Object position along y                                    [pixel]
#   5 X_WORLD                Barycenter position along world x axis                     [deg]
#   6 Y_WORLD                Barycenter position along world y axis                     [deg]
#   7 A_WORLD                Profile RMS along major axis (world units)                 [deg]
#   8 B_WORLD                Profile RMS along minor axis (world units)                 [deg]
#   9 THETA_WORLD            Position angle (CCW/world-x)                               [deg]
#  10 FWHM_WORLD             FWHM assuming a gaussian core                              [deg]
#  11 ELONGATION             A_IMAGE/B_IMAGE                                           
#  12 ELLIPTICITY            1 - B_IMAGE/A_IMAGE                                       
         1 -14.5454     68.8976    144.2181   1.0007764954e+02   3.7384418187e+01     4.607473     2.299933  62.19  0.007654809    3.421    0.708
         2 -13.1295    198.5271     42.3527   4.2350867555e+01   3.0589262523e+01     1.085459    0.9117574 -54.82  0.003223571    1.121    0.108
         3 -13.7776    208.0272     33.1622   3.8999036992e+01   2.9602015866e+01     1.466858     1.011089  -9.57  0.001417242    2.205    0.546
         4 -12.4601    235.6485      9.0045   3.1248441348e+01   2.6437546484e+01    0.9108579    0.4283794  72.73  0.004997789    2.005    0.501
         5 -12.1513    234.1688      2.8098   3.0099275378e+01   2.7395703905e+01    0.8371793    0.2805093  68.91  0.004011669    2.713    0.631
         6 -10.0424     60.7406      7.9885   5.9723804168e+01   6.5684189140e+01    0.1697757    0.1399183  12.77 0.0003105986    1.065    0.061
         7 -10.3709     43.4032      7.7973   6.6444971837e+01   6.8639661838e+01     0.167848   0.09862328 -11.73 0.0009533979    1.703    0.413
         8  -9.9196     39.4923      6.5151   6.7511247549e+01   6.9381492286e+01    0.1204255     0.093122   9.51 0.0008104487    1.004    0.004
         9 -10.9143    110.8684    203.1497   9.8883765606e+01   1.6756975241e+01    0.2967196    0.2307841 -79.29 0.0007203154    1.460    0.315
        10 -11.3306    139.8027    248.7852   9.8961518516e+01   3.3825997085e+00    0.4061396    0.3640037 -26.64   0.00275673    1.290    0.225
        11 -15.2822     45.8714    198.6511   1.1351574055e+02   2.6968765207e+01      10.9146     4.117343  70.60   0.02866395    6.894    0.855
        12 -11.5561    110.8738    197.6772   9.8045596310e+01   1.7959347165e+01    0.7550523    0.4561005  -3.48  0.002550855    4.241    0.764
        13 -11.0657    107.5883    203.8107   9.9749403061e+01   1.7139360308e+01    0.3344497     0.243603  70.55  0.001396671    1.596    0.373
        14 -10.1480     66.7182    180.3666   1.0635722786e+02   2.8673987682e+01    0.8267209    0.3745564  64.04  0.002829318    3.652    0.726
        15 -12.8228     56.0934    185.3980   1.0964158794e+02   2.8844454359e+01     0.869876    0.6856665  65.75  0.005059152    1.199    0.166
        16 -10.4570    147.5650    187.6276   8.7649123264e+01   1.3812096083e+01    0.4472153    0.3137728 -77.16  0.001995644    2.165    0.538
        17 -10.7058     43.7245    178.5752   1.1188861670e+02   3.1968007619e+01    0.5033758    0.3119149 -34.24  0.001840127    2.383    0.580
        18 -17.4196     13.1954    242.8605   1.2340463439e+02   2.1092341330e+01     9.381147     5.580376 -84.62   0.02629822    1.505    0.335
        19  -8.1986     77.2749    185.6741   1.0444702672e+02   2.5926747213e+01    0.1434157    0.0999386  72.80 0.0004285829    1.585    0.369
        20 -11.4452    121.8240    197.9251   9.5491560715e+01   1.6088631186e+01    0.4835024    0.3095772 -72.32  0.002205889    2.036    0.509
        21  -9.0593     79.8083    183.2674   1.0347112367e+02   2.6134294182e+01    0.2407667    0.1829108 -85.83  0.000718408    1.362    0.266
        22 -10.0436     99.3597    180.8462   9.8172660875e+01   2.3696753691e+01    0.2762834    0.2430368 -43.68 0.0006619614    1.222    0.182
        23 -16.0521      6.3984    206.1667   1.2266143230e+02   2.9327095055e+01     8.770937    0.9435746 -73.03   0.01141275    5.736    0.826
        24  -8.2966     89.5568    180.5180   1.0059774729e+02   2.5326428032e+01    0.1441254    0.1317251  77.25  0.000222954    1.050    0.048
        25 -10.7537    240.9659    176.9899   6.6524825591e+01  -3.1807621504e-01    0.2369175    0.1904604  48.39  0.001421305    1.643    0.391
        26 -10.4062    186.9615    175.4789   7.6485279625e+01   9.0905275398e+00    0.3794109    0.3050795 -40.38  0.001218117    1.240    0.193
        27 -13.2686     48.3964    107.9608   9.9333688562e+01   4.9089061488e+01     1.491248     1.197461 -84.22  0.006107152    1.407    0.289
        28 -13.0308     71.1964    153.6747   1.0109034574e+02   3.4673035039e+01    0.6896511      0.58782 -54.40  0.001162569    1.146    0.128
        29  -9.0670     96.3763    202.1725   1.0214480483e+02   1.9260663950e+01    0.1877971    0.1291073 -76.80 0.0006296759    1.633    0.388
        30 -11.3723     74.3542    167.0442   1.0242595006e+02   3.0880070573e+01    0.4142401    0.3718702  83.65  0.001068046    1.068    0.064
        31  -8.2867     84.2776    173.6461   1.0086502811e+02   2.7793529163e+01    0.1497763    0.1063416  76.29 0.0004228088    1.650    0.394
        32  -9.2284    147.9608    174.3092   8.4983698539e+01   1.6605146142e+01    0.2076743    0.1863654  31.05 0.0002885301    1.094    0.086
        33 -10.5448    240.4669    169.0283   6.5010717728e+01   1.0722341505e+00    0.1981693    0.1722241  12.87 0.0005205497    1.199    0.166
        34  -9.0251    110.7730    167.8759   9.2968718460e+01   2.4862917330e+01    0.2742001    0.2073682 -81.51 0.0006770279    1.580    0.367
        35  -8.9473    184.5078    167.0472   7.5237955401e+01   1.1207349807e+01    0.2280888    0.1399329 -43.05  0.001030011    1.592    0.372
        36 -10.3561     33.8189    165.9208   1.1294641592e+02   3.6132344751e+01     0.469223      0.23536  51.53  0.002206532    2.094    0.522
        37  -8.2736    120.2579    164.6829   8.9906526991e+01   2.3932028331e+01    0.1481178    0.1183838  84.14  0.000136838    1.538    0.350
        38  -8.4611     45.5284    158.5089   1.0892437306e+02   3.6717177768e+01    0.1384548    0.1203047 -86.89 0.0001116621    1.037    0.036
        39 -11.5135     89.9092    151.8999   9.5534049146e+01   3.2283096588e+01    0.7103324    0.5095834 -20.35  0.003210806    1.923    0.480
        40 -10.6587    133.8594    145.3605   8.2292884337e+01   2.5878064057e+01     1.253662    0.3266297 -54.20  0.002909293    5.603    0.822
        41  -9.5007    174.7993    148.8875   7.3338524954e+01   1.6813646516e+01    0.2802474    0.2115326 -60.40  0.000750216    1.557    0.358
        42  -8.5804    110.7989    149.2110   8.9238330959e+01   2.9355920733e+01    0.2616919    0.1646282  74.84 0.0009456495    2.778    0.640
        43 -10.3437     38.5520    146.2181   1.0915447491e+02   4.0566091453e+01     0.314126    0.2388174  58.51  0.000709982    1.395    0.283
        44 -10.1425    103.2287    138.1740   8.8944093211e+01   3.3410055350e+01    0.6178114    0.3517185 -26.19  0.002159353    2.935    0.659
        45 -10.1386    105.8825    130.8938   8.6528852708e+01   3.4698570789e+01    0.3715594    0.3333601 -71.41  0.001230014    1.167    0.143
        46 -11.6377     90.6758    137.6745   9.2436688360e+01   3.5699693218e+01    0.2939657    0.2577529 -41.13 0.0004940883    1.144    0.126
        47 -11.6552     43.9218    130.4367   1.0511146494e+02   4.3984634706e+01    0.5854233    0.3277532 -89.08  0.002448872    2.418    0.587
        48 -10.6950    117.6507    123.9141   8.1516083876e+01   3.4109748376e+01     0.670236    0.4110198  -3.21  0.002077091    3.905    0.744
        49  -9.1605    160.7332    127.7233   7.1485721406e+01   2.4235386190e+01    0.2567541    0.1256992 -53.72 0.0009001051    2.410    0.585
        50 -10.3161     99.2252    124.9566   8.7054038063e+01   3.7345385502e+01    0.3231485    0.2606927 -13.07 0.0006111578    1.487    0.327
        51  -9.9481    112.2171    129.1622   8.4322253654e+01   3.3926158217e+01    0.4336633    0.3021173 -12.61  0.001058296    2.124    0.529
        52  -9.0596     91.7983    124.3860   8.9129163448e+01   3.8786847034e+01    0.2276411    0.1813825  54.67  0.001110856    1.394    0.282
        53 -10.2316    135.0000    121.4302   7.6215058007e+01   3.1125249335e+01    0.5513691   0.08845328 -45.75  0.001172086    6.093    0.836
        54 -11.5139     70.2935    171.6070   1.0419568573e+02   3.0325071822e+01    0.4723588    0.3203431 -30.04  0.002217093    2.058    0.514
        55  -9.9347    231.2640    113.7105   5.4664365262e+01   1.2224326478e+01    0.2591838    0.2461986 -50.46 0.0007395537    1.101    0.092
        56  -9.1780    108.1358    118.3148   8.2807051500e+01   3.7276026115e+01    0.2409041    0.2014578 -35.87 0.0003150294    1.194    0.162
        57  -9.3581    205.3224    110.1128   5.8072697485e+01   1.8109302906e+01    0.2931861    0.2050526  33.72  0.001226531    1.739    0.425
        58 -10.8105    114.9049    109.1640   7.8458196293e+01   3.8052358778e+01    0.4150519    0.3047773 -46.83  0.001510302    1.330    0.248
        59  -8.5713     66.6669    104.3268   9.2283156359e+01   4.7610754975e+01     0.146043    0.1141667  77.20 0.0003794663    1.715    0.417
        60  -8.2739    139.5007    106.4493   7.1095836577e+01   3.3428433206e+01    0.1548172    0.1523719 -53.26 8.625767e-05    1.030    0.029
        61  -9.3876    240.3433    102.3097   5.0818738911e+01   1.2419997294e+01    0.1301262    0.1031711   0.80 0.0005154714    1.698    0.411
        62 -11.0695     32.5374     99.4364   1.0304132540e+02   5.2803190046e+01    0.3575849    0.3485524  -7.34  0.002328539    1.169    0.145
        63  -9.0371    127.8451     95.1313   7.0951528487e+01   3.8365100948e+01    0.2337819    0.2127704 -88.84 0.0007541748    1.252    0.202
        64 -12.0013     82.5828    158.8162   9.8830597602e+01   3.1709735891e+01    0.9644569    0.6832399  77.97  0.004525876    1.730    0.422
        65  -9.4395    155.5961     87.5655   6.2006850443e+01   3.3546098617e+01    0.3643141      0.23261 -65.47  0.001154315    2.193    0.544
        66  -8.4693    116.4801     85.5037   7.1222600082e+01   4.2787409061e+01     0.151131    0.1471551  -8.13 0.0002885035    1.011    0.011
        67  -8.3740     74.5058     84.5461   8.4189898823e+01   5.0945017276e+01    0.1444055    0.1343066 -25.53 0.0002075942    1.030    0.029
        68  -8.7041    158.2481     82.9919   6.0137832607e+01   3.3770585624e+01    0.2140095    0.1976502 -43.55 0.0004871341    1.072    0.067
        69  -8.4980    184.5276     77.0069   5.3392909866e+01   2.8635518418e+01    0.2200028    0.1387964 -38.21 0.0005597161    1.537    0.350
        70  -8.9749     58.1530     67.1580   8.4756490610e+01   5.7074016075e+01     0.206709    0.1672021 -15.12 0.0002842864    1.176    0.149
        71 -12.8088    187.4616     50.9159   4.6049460666e+01   3.2000589274e+01    0.9058614    0.7897801  38.53 0.0007346644    1.344    0.256
        72 -10.7018    164.0799    212.1329   8.8330480979e+01   6.0627528284e+00    0.2902429    0.2001828 -49.70  0.001518117    1.628    0.386
        73 -11.1685    184.7249    211.5117   8.3866914818e+01   2.7727606486e+00    0.3543474    0.2192191  -0.42   0.00160449    2.270    0.559
        74 -10.1108     31.1203     35.8602   8.5003369629e+01   6.6334198375e+01    0.1765095     0.163016  -6.09 0.0007488863    1.297    0.229
        75 -11.7558     23.3787     34.2242   8.8108799244e+01   6.7431206994e+01    0.3754869    0.2761613  25.42  0.001537209    1.510    0.338
        76  -8.5262     70.0831     53.0000   7.5285482229e+01   5.7880240570e+01    0.2132036   0.07507794  40.01 0.0005073921    2.849    0.649
        77  -9.2230    198.0249     23.5656   3.7781846418e+01   3.3034384824e+01    0.2160046     0.182685  -5.56 0.0007045081    1.588    0.370
        78 -10.1299     16.5078     17.9524   8.4736523679e+01   7.0757133790e+01    0.1751006   0.09654173 -37.95  0.001035128    1.597    0.374
        79  -9.5796     31.2264    202.8896   1.1718115883e+02   2.7638973696e+01    0.3456293    0.2037061  70.69   0.00189901    1.608    0.378
        80  -9.1540    189.6765     14.9705   3.6560995037e+01   3.5912876558e+01    0.1753602    0.1524737 -59.53 0.0006816057    1.138    0.122
        81  -9.4914     89.1756    211.0786   1.0500489689e+02   1.8382299558e+01    0.2165475    0.1819655  85.57 0.0004664078    1.193    0.162
        82 -10.3079     60.3490    197.9279   1.1008749280e+02   2.5351851469e+01    0.2330444    0.1934306  43.52 0.0002845417    1.218    0.179
        83  -9.8939    142.5753    208.7681   9.2493895045e+01   1.0322080088e+01    0.1843983    0.1368852 -65.75 0.0009489473    1.660    0.398
        84 -11.1567    192.9701    194.9103   7.9102430559e+01   4.3740583505e+00     1.251088    0.5411197 -54.96  0.004167893    4.198    0.762
