#   1 NUMBER                 Running object number                                     
#   2 MAG_AUTO               Kron-like elliptical aperture magnitude                    [mag]
#   3 X_IMAGE                Object position along x                                    [pixel]
#   4 Y_IMAGE                Object position along y                                    [pixel]
#   5 X_WORLD                Barycenter position along world x axis                     [deg]
#   6 Y_WORLD                Barycenter position along world y axis                     [deg]
#   7 A_WORLD                Profile RMS along major axis (world units)                 [deg]
#   8 B_WORLD                Profile RMS along minor axis (world units)                 [deg]
#   9 THETA_WORLD            Position angle (CCW/world-x)                               [deg]
#  10 FWHM_WORLD             FWHM assuming a gaussian core                              [deg]
#  11 ELONGATION             A_IMAGE/B_IMAGE                                           
#  12 ELLIPTICITY            1 - B_IMAGE/A_IMAGE                                       
         1 -14.3979    161.6342     48.9714   8.0077584971e+01   3.8987761323e+01     1.769234     1.434221  18.91  0.005988279    1.463    0.316
         2 -14.3258    174.5213     33.1381   7.2817449422e+01   3.7805421419e+01      1.09104    0.9501173 -32.18  0.003578173    1.215    0.177
         3 -13.5548    178.5471     26.1827   7.0076797795e+01   3.7605946283e+01    0.5884289    0.5501899  47.10  0.001159954    1.141    0.123
         4 -14.0937    192.0208      4.1183   6.1962210494e+01   3.6463342042e+01     1.293031      1.09965  75.54  0.005020982    1.087    0.080
         5 -12.9777    189.5183     14.3403   6.5133789316e+01   3.6075954044e+01    0.5917724    0.3325315 -51.30  0.002445014    1.830    0.454
         6  -9.6647      1.9778     19.4995   1.2461547836e+02   7.1741111375e+01    0.1321637   0.09897719  -0.90 0.0009773469    1.430    0.301
         7 -19.8013     54.0865    167.4701   1.3620577356e+02   3.4600706079e+01     18.71946     5.380691 -71.32   0.06776547    3.565    0.719
         8 -12.3172    204.7959    197.9896   1.0835257849e+02   2.6559151294e+00    0.4525771    0.3106204  -7.13  0.001348787    1.795    0.443
         9  -9.6040    170.3728    205.2476   1.1628439987e+02   7.7471130606e+00     0.161309    0.1275338 -60.48 0.0004025827    1.577    0.366
        10  -9.6455     22.4828    205.1623   1.4603895561e+02   3.0148690455e+01     0.163276    0.1187321  52.15 0.0007342239    1.317    0.241
        11 -10.0130    211.0896    202.1695   1.0792884576e+02   9.1702285340e-01    0.1911173    0.1516632  16.75 0.0002982221    1.159    0.137
        12 -11.7649    137.8338    197.8755   1.2176114060e+02   1.4968441046e+01    0.6237679    0.2795009  56.46    0.0024461    2.720    0.632
        13 -10.4044    177.7103    189.3440   1.1207995776e+02   9.0884948205e+00    0.2422597    0.1772354  50.29 0.0006628323    1.331    0.248
        14 -10.5472    177.9877    196.8215   1.1334900481e+02   7.7588732767e+00    0.3022059    0.2353643  71.44  0.001269138    1.686    0.407
        15 -11.1590    182.0074    233.9719   1.1846890459e+02   1.3287822761e+00    0.1993088    0.1576358  33.51   0.00131457    1.032    0.031
        16 -11.0283    180.1615    193.2511   1.1228719853e+02   7.9554216123e+00     0.408345    0.2754382 -60.21  0.001784754    2.031    0.508
        17 -11.2765    157.7614    192.8650   1.1679000976e+02   1.2235706140e+01    0.2540405    0.2179846  76.49 0.0003961947    1.318    0.241
        18  -9.7141    182.1952    189.1919   1.1114919374e+02   8.2618649114e+00     0.180692    0.1609234  75.02 0.0008127193    1.359    0.264
        19 -12.1312    207.5907    183.7553   1.0516452184e+02   4.3589113662e+00    0.3459516    0.3331694   5.73  0.001137513    1.147    0.128
        20 -12.1082    210.7913    181.2380   1.0407047335e+02   4.1599567909e+00    0.4317503    0.2999653 -18.53  0.001705507    1.589    0.371
        21 -11.3472    157.1215    218.8554   1.2099200351e+02   7.8555228934e+00    0.2004509    0.1593223  58.84 0.0006604812    1.266    0.210
        22 -10.7766     21.0318    215.3575   1.4690574250e+02   2.8305908160e+01    0.2079678     0.116104  81.41  0.001014039    1.440    0.305
        23 -10.3535    145.1101    178.7415   1.1704503811e+02   1.7323792667e+01     0.228302    0.1628232  18.00  0.001080344    1.924    0.480
        24 -11.4365    197.8573    175.9106   1.0550751839e+02   7.5055589829e+00    0.3879389    0.3106291 -56.93  0.001181212    1.557    0.358
        25 -10.5735      1.7103    177.1355   1.4836324503e+02   3.7814569576e+01    0.1338998    0.1003777  88.22            0    1.096    0.087
        26 -10.7325    178.1146    171.8412   1.0868695838e+02   1.2136597700e+01    0.5104955    0.1793676 -51.97  0.001600021    4.141    0.758
        27  -9.8441    168.4588    175.9290   1.1150285608e+02   1.3305172348e+01    0.1984921     0.141947 -42.89 0.0003031357    1.517    0.341
        28 -12.3650    136.9462    170.9499   1.1746459953e+02   2.0468062555e+01    0.6239918    0.3547402  42.40  0.002090135    1.655    0.396
        29 -12.1525    228.3817    170.7990   9.8750027596e+01   2.5142894014e+00    0.3891426    0.2200144  25.24  0.001781371    2.077    0.519
        30 -11.4754    145.1623    168.4793   1.1515938912e+02   1.9379570637e+01    0.3574775    0.2717053  67.21   0.00142124    1.450    0.310
        31 -11.4872    203.9889    168.1793   1.0274961191e+02   7.6117421768e+00    0.6050949    0.5265012  69.88  0.003403291    1.437    0.304
        32 -11.0952    120.2736    216.3816   1.2793813356e+02   1.4567934086e+01    0.3167564    0.2022853  77.15  0.001659262    1.978    0.495
        33 -11.7818    100.7734    162.1531   1.2437688674e+02   2.8952114771e+01    0.2532109    0.2225381 -82.99 0.0002700616    1.085    0.079
        34 -13.0030    104.9686    154.7072   1.2207589607e+02   2.9911660325e+01    0.7389624    0.4680156 -41.77  0.003430855    1.918    0.479
        35 -12.0431    112.2933    150.1845   1.1943389663e+02   2.9625779160e+01    0.4746533    0.3872153 -64.82   0.00253731    1.218    0.179
        36 -10.6117     14.2779    160.1076   1.4454981355e+02   4.0427174571e+01    0.1990039    0.1616982 -73.39 0.0006409671    1.260    0.206
        37 -12.1168    163.6034    156.1093   1.0858208521e+02   1.8133862956e+01    0.4059923    0.3495501 -61.31  0.001072038    1.267    0.211
        38 -10.1761    110.6387    158.0372   1.2128839633e+02   2.8157569067e+01    0.1987059    0.1760642 -74.63 0.0005007241    1.111    0.100
        39 -10.1353    140.0754    156.5206   1.1399959272e+02   2.2882726583e+01      0.21769    0.1396255  46.02 0.0003934593    1.485    0.327
        40 -12.4217    133.9770    145.0630   1.1308845200e+02   2.6584514849e+01     1.113459     0.320053 -55.15  0.003009983    4.647    0.785
        41 -10.8518      1.3754    249.9388   1.5166613754e+02   2.4057783456e+01    0.1305868   0.07155868 -87.14 0.0009779881    1.561    0.359
        42 -10.3911    133.0143    213.4812   1.2500808032e+02   1.2946495971e+01    0.1999604    0.1106241  43.02 0.0005017424    1.538    0.350
        43 -11.7575    174.2056    148.4014   1.0460663154e+02   1.7408848354e+01    0.3752379    0.3409686 -42.45    0.0012526    1.139    0.122
        44 -12.2451    144.6907    145.8032   1.1069178103e+02   2.4224087732e+01    0.5271007     0.363978 -87.82  0.002214151    2.191    0.543
        45 -12.1168     10.7553    142.8626   1.4391483706e+02   4.4567539651e+01    0.3094018    0.2609172  24.62 0.0007793372    1.584    0.369
        46  -9.6314    176.3324    241.6520   1.2058362200e+02   1.1960955367e+00     0.118239   0.08567024  63.68 0.0007048774    1.769    0.435
        47 -12.5435    103.1461    140.3025   1.1983201947e+02   3.3537104423e+01    0.4140328    0.2928704  61.02 0.0004909814    1.495    0.331
        48 -12.1753    113.1756    140.0591   1.1720898684e+02   3.1766079115e+01    0.4828238     0.347488 -33.52  0.002043797    1.752    0.429
        49 -12.1048     23.1604    135.6812   1.4011910460e+02   4.5185965680e+01    0.2329902    0.1985043 -75.51 0.0004243022    1.140    0.123
        50 -11.4147    150.4426    134.5868   1.0682395239e+02   2.5391191457e+01    0.4253941    0.2893458  79.47  0.000813427    2.223    0.550
        51 -11.5276    105.8284    130.8463   1.1718773391e+02   3.5246058372e+01    0.3679882    0.3077094  86.83   0.00114125    1.260    0.207
        52 -11.5028    106.9275    126.8113   1.1601751866e+02   3.5978130152e+01    0.3274301    0.2712658 -39.53 0.0007021896    1.316    0.240
        53 -12.3259      3.8816    130.8005   1.4452574158e+02   4.7788622362e+01    0.3028152    0.1938439  79.62  0.001212297    1.381    0.276
        54  -9.9999    166.2788    207.6349   1.1748193778e+02   8.0893009026e+00    0.2090048    0.1602406  50.61 0.0005895928    1.217    0.179
        55 -11.6320    118.7470    129.9718   1.1360939746e+02   3.2998957619e+01    0.4058424    0.3612598 -69.20  0.001413831    1.109    0.098
        56 -11.6322    160.1634    128.3059   1.0307369849e+02   2.4561213838e+01    0.4686897    0.3258302 -35.59   0.00211428    1.537    0.349
        57  -9.8125    239.3188    126.6812   8.7256238614e+01   7.3869871426e+00    0.1387085    0.1079152 -64.29 0.0003326532    1.661    0.398
        58 -12.3567    124.0140    126.1958   1.1138397495e+02   3.2802781695e+01    0.6544262    0.4692868 -80.35  0.002919487    1.803    0.445
        59 -10.8008    113.0518    119.2697   1.1264071802e+02   3.6550078183e+01    0.2652297    0.2149424 -59.83 0.0003485045    1.215    0.177
        60 -10.8774    164.6915    204.3492   1.1727198359e+02   8.9310191692e+00    0.3510265    0.2315291 -72.33  0.001387779    2.441    0.590
        61 -11.4705    167.5226    113.2308   9.7621170522e+01   2.5945656271e+01    0.4407015    0.3374335  68.52  0.001373963    1.487    0.328
        62 -11.3974    134.5323    104.5696   1.0321121934e+02   3.5332748201e+01    0.6394562    0.2001761 -45.24  0.001940241    3.172    0.685
        63 -11.5993      4.0260    112.4602   1.4267108713e+02   5.1939212608e+01    0.2965623     0.224906  17.00   0.00174992    1.759    0.432
        64 -10.8408    205.2727    110.3729   8.9210972280e+01   1.7594906429e+01    0.3523194    0.2730255  32.89  0.001065437    1.422    0.297
        65 -12.3287    135.4389    122.1493   1.0750746269e+02   3.1320449337e+01    0.7884182    0.2297811 -50.89  0.002223314    3.839    0.739
        66 -11.5904     90.3162    108.7310   1.1650668512e+02   4.3126686978e+01     0.270619    0.2406436 -41.79  0.000676418    1.153    0.133
        67 -13.1785     12.3546    205.6657   1.4793259665e+02   3.1059699006e+01    0.4405132    0.2990527  37.85  0.003152953    1.696    0.410
        68 -10.9347    124.8523     94.8653   1.0306203624e+02   3.9521755437e+01    0.3208939    0.2029047  42.66 0.0007656218    1.627    0.385
        69 -10.1781    148.0766     78.6689   9.2359909221e+01   3.7398671298e+01    0.2196395    0.2004043  52.65  0.000482446    1.091    0.083
        70  -9.3235    117.3669     78.2808   1.0017261535e+02   4.4560384735e+01    0.1551928    0.1188647  10.83 0.0007014071    1.686    0.407
        71 -10.7167     88.6086     77.9606   1.0870952928e+02   5.0280984305e+01    0.2264607    0.1986644  13.66 0.0004341129    1.244    0.196
        72  -9.5647    168.2889    248.6314   1.2295761614e+02   1.5392640126e+00    0.1135398   0.08302946  65.16 0.0007023186    1.709    0.415
        73 -10.3898    160.3615    247.9471   1.2429770255e+02   2.9025509259e+00    0.1961298     0.114156 -59.43  0.001109136    2.496    0.599
        74 -10.3133    200.4110    246.7604   1.1699603214e+02  -3.3046550509e+00    0.1445958    0.1051279 -13.86 0.0009512671    1.631    0.387
        75 -10.2030     13.4056     59.8872   1.3109093567e+02   6.3116676948e+01    0.1632054     0.153309 -64.35 0.0004211995    1.208    0.172
        76 -10.9488    155.8455     38.8109   7.7894347005e+01   4.1933950976e+01    0.2265323    0.1978195  39.59 0.0007225371    1.168    0.144
        77 -13.5439    194.1333    194.0263   1.0967380941e+02   5.2205969094e+00     1.089362    0.7815733 -69.09    0.0047098    2.313    0.568
        78  -9.6579    203.3161    245.2964   1.1627735883e+02  -3.5781016644e+00    0.1182206   0.07615437  17.43 0.0003748959    1.607    0.378
        79 -11.2106    158.2507    242.3497   1.2397589650e+02   4.0416101614e+00    0.2293915    0.1630658  19.00  0.001390807    1.708    0.415
