#   1 NUMBER                 Running object number                                     
#   2 MAG_AUTO               Kron-like elliptical aperture magnitude                    [mag]
#   3 X_IMAGE                Object position along x                                    [pixel]
#   4 Y_IMAGE                Object position along y                                    [pixel]
#   5 X_WORLD                Barycenter position along world x axis                     [deg]
#   6 Y_WORLD                Barycenter position along world y axis                     [deg]
#   7 A_WORLD                Profile RMS along major axis (world units)                 [deg]
#   8 B_WORLD                Profile RMS along minor axis (world units)                 [deg]
#   9 THETA_WORLD            Position angle (CCW/world-x)                               [deg]
#  10 FWHM_WORLD             FWHM assuming a gaussian core                              [deg]
#  11 ELONGATION             A_IMAGE/B_IMAGE                                           
#  12 ELLIPTICITY            1 - B_IMAGE/A_IMAGE                                       
         1 -13.6245    157.1146     54.0266   8.2062518096e+01   3.9289698915e+01     1.471173     1.289658  13.55  0.004884969    1.282    0.220
         2 -13.8422    169.0982     38.7464   7.4956103129e+01   3.8385609941e+01     1.153274     1.022908   3.15  0.004307547    1.294    0.227
         3 -13.6406    184.8074      6.7926   6.3084217462e+01   3.7940595297e+01     1.029807    0.8764237  87.48  0.004466984    1.048    0.046
         4  -9.8988    167.3680    238.2207   1.2122286018e+02   3.1411523534e+00     0.138722    0.1178213 -66.58 0.0002731673    1.575    0.365
         5  -9.4473    150.8623    250.5804   1.2583040084e+02   4.0358204360e+00    0.1803525   0.09165956  40.85  0.000703148    1.525    0.344
         6 -19.8750     62.0825    167.5025   1.3396580571e+02   3.3579802512e+01     18.75602     4.464563 -67.73     0.060814    4.304    0.768
         7 -12.4457    192.9129    193.8317   1.0926886449e+02   5.4901410456e+00     1.066335    0.5612506 -57.85  0.004247512    3.433    0.709
         8 -10.9134    163.4572    203.2673   1.1678721745e+02   9.3471829970e+00    0.2593461    0.2197735 -44.41 0.0008765084    1.360    0.265
         9 -11.5360    139.1480    200.5377   1.2137452453e+02   1.4240919542e+01    0.3709847    0.2992703 -79.97  0.001516673    1.454    0.312
        10 -11.1592    135.4948    196.5027   1.2152727867e+02   1.5656250220e+01    0.2885298    0.2515814 -44.20  0.001609547    1.346    0.257
        11 -11.0579    161.1658    197.3362   1.1627848063e+02   1.0804673168e+01    0.2825228    0.1956474 -47.53  0.001373232    1.645    0.392
        12 -11.3059    154.4297    196.2556   1.1749668119e+02   1.2246243424e+01    0.3100193    0.2460346 -83.89  0.001598367    1.624    0.384
        13 -10.5887    207.8209    195.1856   1.0664994921e+02   2.5546146947e+00    0.1879839    0.1434106  10.83 0.0006491375    1.330    0.248
        14 -10.1812    175.0464    193.5015   1.1277585896e+02   8.8828541364e+00    0.2374288    0.1931517 -67.64 0.0007406896    1.594    0.373
        15  -9.5711    180.1378    192.4475   1.1155778421e+02   8.1059595425e+00    0.2363672    0.1764941  83.04  0.001053734    2.157    0.536
        16 -11.9403    166.8409    189.0735   1.1367938457e+02   1.1215175453e+01    0.4920604    0.2915475  37.55  0.001732647    1.568    0.362
        17 -11.0115    176.4997    188.0671   1.1150538190e+02   9.5513009383e+00    0.2891521     0.246271  75.56  0.001633958    1.458    0.314
        18 -11.3026    153.4489    184.8631   1.1576583951e+02   1.4549008431e+01    0.3114595     0.237788  88.82  0.001592796    1.755    0.430
        19 -10.2914     22.2020    232.9048   1.4735763498e+02   2.4895889870e+01    0.1212431   0.09168532 -89.80  0.000402596    1.291    0.226
        20  -9.2094    227.8101    231.9790   1.0936021289e+02  -5.7500743189e+00    0.1393108   0.08689296 -28.28 0.0004581969    1.757    0.431
        21  -9.8581    205.5167    179.5342   1.0411094123e+02   5.4461473960e+00    0.2222191    0.1334776 -38.18 0.0008211951    1.756    0.431
        22 -10.1809    209.3526    176.9575   1.0286668400e+02   5.1357287630e+00    0.5402067    0.3125367  -9.85  0.002198814    2.821    0.645
        23 -11.0576    144.1942    179.3897   1.1681479378e+02   1.7379009975e+01    0.2701437    0.2282205   3.57     0.001143    1.500    0.333
        24 -11.7233    195.8249    171.1787   1.0433976027e+02   8.7286441184e+00    0.6312217    0.3928177 -46.58  0.002246253    1.802    0.445
        25 -10.2408    194.0036    165.4896   1.0353757485e+02   1.0087941254e+01    0.2924428    0.2069969  50.50 0.0007556196    1.447    0.309
        26 -11.0882    142.1106    166.1296   1.1485148470e+02   2.0470633333e+01    0.3119803    0.2093632 -56.06 0.0009429528    1.617    0.382
        27  -9.9133     25.8692    230.6212   1.4661333742e+02   2.4917964442e+01     0.275282    0.1189143 -78.91  0.001418828    2.125    0.529
        28  -9.1294    201.3343    165.6533   1.0211593175e+02   8.5860822734e+00    0.1398313    0.1152238 -87.47 0.0007048961    1.770    0.435
        29  -9.3992    222.5558    162.0694   9.7345062029e+01   5.0121108195e+00    0.1974793    0.1144297 -55.72 0.0008070953    2.757    0.637
        30 -11.8211    114.5938    161.1130   1.2038192286e+02   2.6770832584e+01     0.486868    0.2611714  56.97  0.000912359    2.086    0.521
        31 -10.9679    121.1469    157.0833   1.1806122202e+02   2.6449979051e+01    0.2193643    0.2052219 -10.77 0.0007486813    1.290    0.225
        32 -13.5433    133.1319    145.7806   1.1289274240e+02   2.6600820184e+01     1.170245    0.6334031 -61.06  0.004649006    2.231    0.552
        33 -10.4805     14.0506    151.3292   1.4357980022e+02   4.2392780754e+01    0.2429128    0.1840858  -6.54  0.001567391    2.120    0.528
        34  -9.6462    174.9807    149.0045   1.0396662102e+02   1.7127021679e+01    0.2340717    0.1869974  89.14 0.0006217591    1.674    0.402
        35 -11.9216    143.6928    144.5659   1.1009060130e+02   2.4697631676e+01    0.7083408    0.3649599 -60.58  0.002622104    2.571    0.611
        36  -8.9220    171.3051    137.6627   1.0219402328e+02   2.0165589195e+01    0.1545229     0.122204 -84.96 0.0007040109    1.672    0.402
        37  -9.5329    198.9904    222.3500   1.1298012220e+02   1.2110294406e-01     0.178471    0.1334497  32.97  0.000408799    1.105    0.095
        38 -11.2394    135.8288    127.5969   1.0815500489e+02   3.0033558514e+01    0.5665672    0.1972193 -52.01  0.001760581    3.216    0.689
        39 -10.5432    160.5220    127.7529   1.0226117101e+02   2.4584196709e+01    0.3832952    0.2780316  81.84  0.001639357    1.949    0.487
        40 -10.0686     20.7997    219.2001   1.4687433064e+02   2.7584181171e+01    0.1196882   0.09283557  72.79 0.0002177268    1.131    0.116
        41  -9.9606     28.6821    238.1866   1.4654139550e+02   2.3245887493e+01    0.1253396   0.08026265 -80.54  0.000433678    1.514    0.339
        42 -10.7988    114.0341    118.3443   1.1161936657e+02   3.6561509627e+01    0.2708424     0.218932 -63.29 0.0004174581    1.258    0.205
        43 -10.8858    135.2353    120.1926   1.0650943607e+02   3.1779943142e+01    0.4449226    0.1504953 -46.58  0.001407389    2.972    0.663
        44  -9.7239    168.3538    113.3429   9.6863857955e+01   2.5704772430e+01    0.3274115    0.2318665 -82.07  0.001333933    2.131    0.531
        45  -9.9413    205.6196    110.0962   8.8463484195e+01   1.7550501795e+01    0.2871539     0.219317  43.05 0.0007540945    1.354    0.261
        46 -10.6282     96.8592     80.1878   1.0627949134e+02   4.8276118268e+01    0.4902941    0.2007606  47.42  0.001791275    2.685    0.628
        47  99.0000     13.1834    245.1294   1.4939962485e+02   2.3677453249e+01    0.2944223   0.08935391 -65.34  0.001540845    3.658    0.727
        48 -12.0405    172.9886     31.1514   7.1956566199e+01   3.8345927675e+01    0.3957492    0.3810237  34.57 0.0008819767    1.128    0.114
        49  -9.6316     13.4137     59.8579   1.3075514211e+02   6.3097409370e+01     0.163836     0.155095 -64.73 0.0004286286    1.214    0.176
        50  -9.9669    135.0021     30.3277   7.8707607940e+01   4.8232346883e+01    0.2838251    0.2051298  82.51  0.001372542    1.659    0.397
        51 -10.0545    196.6366    244.2958   1.1673456914e+02  -2.4103166023e+00    0.1692105    0.1325999  61.02  0.001096558    1.743    0.426
        52  -9.7755    136.4095    211.2610   1.2351360725e+02   1.2763135702e+01    0.2197344    0.1268779 -49.21  0.001124288    2.040    0.510
