#   1 NUMBER                 Running object number                                     
#   2 MAG_AUTO               Kron-like elliptical aperture magnitude                    [mag]
#   3 X_IMAGE                Object position along x                                    [pixel]
#   4 Y_IMAGE                Object position along y                                    [pixel]
#   5 X_WORLD                Barycenter position along world x axis                     [deg]
#   6 Y_WORLD                Barycenter position along world y axis                     [deg]
#   7 A_WORLD                Profile RMS along major axis (world units)                 [deg]
#   8 B_WORLD                Profile RMS along minor axis (world units)                 [deg]
#   9 THETA_WORLD            Position angle (CCW/world-x)                               [deg]
#  10 FWHM_WORLD             FWHM assuming a gaussian core                              [deg]
#  11 ELONGATION             A_IMAGE/B_IMAGE                                           
#  12 ELLIPTICITY            1 - B_IMAGE/A_IMAGE                                       
         1 -14.0470     21.2398     25.3495   8.3572623787e+01   6.9183530280e+01    0.9849698    0.5359333 -30.19  0.005634261    1.610    0.379
         2 -13.4861      3.7915     36.8981   9.7296903182e+01   6.8570853752e+01    0.9476717    0.5255145 -46.55  0.004515216    1.442    0.306
         3 -13.2904     14.3348     38.6887   9.2388865893e+01   6.7512282753e+01    0.8097873    0.5203283 -53.86  0.004546938    1.631    0.387
         4 -13.3713    233.1005     29.5209   3.3569273143e+01   2.5088626010e+01    0.7760772    0.6349682 -56.08  0.002441306    1.134    0.118
         5 -13.5247     37.3410     20.6525   7.3338139029e+01   6.7949180226e+01    0.7205589    0.6250256 -22.88  0.005014169    1.357    0.263
         6 -12.1420    111.0252     20.0172   4.8129887436e+01   5.4025243230e+01    0.6037867    0.3034041  61.37  0.002856236    1.827    0.453
         7 -12.7706    110.2704     14.5830   4.6375292669e+01   5.4729242717e+01    0.7002553    0.4377214  52.20  0.003840234    1.348    0.258
         8 -12.7107    132.1815      6.4204   3.9549985091e+01   5.0377031162e+01    0.7477913    0.5438532 -87.99   0.00439697    1.464    0.317
         9 -12.0630    138.3304      3.7673   3.7794420855e+01   4.9153938290e+01    0.5547945    0.3992626 -77.91  0.003278924    1.511    0.338
        10 -12.3766    192.4759     16.6936   3.4586014154e+01   3.5312572213e+01    0.7714175     0.295041  62.97  0.003541032    2.307    0.567
        11 -12.5189      3.2870      6.1352   8.5126563526e+01   7.3741181078e+01    0.8171351    0.2408372 -40.23  0.003936979    2.804    0.643
        12 -12.7162    192.8945      4.1485   3.1618115222e+01   3.6487092343e+01      0.55788    0.4399378  84.79   0.00333991    1.083    0.077
        13 -12.4643    186.5547     10.0711   3.3615578266e+01   3.7338838745e+01    0.4423731     0.323752  56.11  0.002230392    1.445    0.308
        14 -13.0608    176.7667      7.1030   3.3906968054e+01   3.9867924819e+01    0.7468836    0.5911031 -68.07  0.004858591    1.196    0.164
        15 -11.5100    220.3097      7.6712   3.0120756340e+01   3.0199923555e+01    0.4556931    0.2444786 -69.23  0.002581242    1.739    0.425
        16 -12.3045    208.5916      9.1699   3.1373685337e+01   3.2536311500e+01    0.4445173    0.2851224 -49.98  0.002753347    1.431    0.301
        17 -13.2844    114.7567      4.0226   4.1782727339e+01   5.4616431638e+01     1.508287    0.6684803  64.34  0.007178453    1.913    0.477
        18 -10.7936    244.7841      6.3301   2.8170841978e+01   2.5422419744e+01    0.4390039    0.1890876 -68.20  0.002311706    2.259    0.557
        19 -10.9320    157.7470      2.4140   3.4835553508e+01   4.4709228104e+01    0.2487428    0.1072518  75.70  0.001142813    2.109    0.526
        20 -11.6176     50.4677    173.8566   1.0739876882e+02   3.2316882039e+01    0.2752118    0.2475107 -48.34 0.0004676378    1.217    0.178
        21  -9.9116     61.3969    250.2026   1.1268158421e+02   1.3814795948e+01    0.1589004    0.1034771  85.89 0.0005347379    1.632    0.387
        22 -13.1682     31.9488    247.0716   1.1828345362e+02   1.7880061456e+01    0.9782308    0.4370647  47.17  0.005389879    1.785    0.440
        23 -14.8773     21.1593    225.0065   1.1901782372e+02   2.3554302993e+01     2.855767     2.169597 -55.30   0.01884869    1.613    0.380
        24 -14.9302      9.9843    154.2844   1.1605382106e+02   4.1077244725e+01     6.759575      2.16665  86.62    0.0173634    7.085    0.859
        25 -15.4722      6.6076    126.1184   1.1399544881e+02   4.8295251830e+01     11.41562     3.830538 -85.42   0.03752149    4.202    0.762
        26 -14.8831     15.0770    201.7274   1.1873596349e+02   2.9289701498e+01     1.147718     0.838921  60.32  0.003892529    1.216    0.178
        27 -10.5679     63.4775    163.6672   1.0242280598e+02   3.3266938403e+01    0.2429855    0.2253989 -50.73 0.0004298786    1.124    0.110
        28 -12.8974     48.5858    160.2146   1.0609185078e+02   3.5975256189e+01    0.5379734    0.3079688 -36.56  0.001442806    2.248    0.555
        29  -9.3725    133.3879    160.1846   8.2662039122e+01   2.2686487355e+01    0.2067034    0.1475369 -61.93 0.0004067678    1.580    0.367
        30 -11.6315     72.4498    157.0171   9.8805766894e+01   3.3735589468e+01    0.5009207    0.4156488 -18.01  0.002618854    1.443    0.307
        31 -12.0750     67.8830    143.5206   9.7758215552e+01   3.7815711529e+01    0.7303968    0.4304155  61.05  0.002845596    2.297    0.565
        32 -12.5114     33.5736    143.8008   1.0813287060e+02   4.1741171448e+01     0.771387    0.4560431 -75.21  0.003602158    1.581    0.367
        33 -14.0657      3.1405    182.9469   1.2011839129e+02   3.4652846662e+01     2.737789    0.7287511 -79.88   0.01022808    3.417    0.707
        34  -9.7633     89.0017    143.9803   9.1535486849e+01   3.4532348761e+01    0.2358758    0.2247511 -47.42 0.0007422287    1.029    0.028
        35 -11.5446     76.5014    141.7964   9.4828187408e+01   3.7023704765e+01    0.3087213    0.2505093 -54.26 0.0003928501    1.167    0.143
        36 -10.4907    105.1495    131.3226   8.3999265758e+01   3.4880157783e+01    0.4021263    0.3162347   6.90  0.001880081    1.536    0.349
        37 -12.0920     23.7124    130.8233   1.0930820844e+02   4.5908011932e+01    0.5642659    0.2134445 -66.94  0.002328341    2.195    0.545
        38 -11.5169     27.4117    128.2592   1.0777055330e+02   4.6246361020e+01     0.472606    0.2724703  72.69   0.00211763    2.347    0.574
        39 -11.3625     89.2153    128.9386   8.8229993271e+01   3.8252684202e+01     0.519438    0.3764976  -2.93  0.001508808    1.853    0.460
        40 -12.1564     81.5712    119.4316   8.8427817997e+01   4.1841941829e+01    0.5265653    0.4569235   4.51  0.002291186    1.252    0.201
        41  -9.4786    102.8014    119.8202   8.1916080048e+01   3.8074629210e+01    0.2003177     0.181261  83.78 0.0002667723    1.270    0.213
        42 -11.6558     32.9681    110.2211   1.0286974918e+02   5.0271773655e+01    0.4651046    0.4282475  17.55   0.00288329    1.226    0.184
        43 -12.5886     26.2146    114.2735   1.0592489683e+02   4.9854441779e+01    0.9135253    0.5505422 -85.41  0.004384589    1.931    0.482
        44 -10.5811     17.4894    109.4763   1.0811620479e+02   5.1704688145e+01    0.3165907    0.2484885  46.45  0.001887148    1.501    0.334
        45 -11.8476     43.8965     92.8180   9.5143472395e+01   5.3373877575e+01     0.873641    0.4604946 -67.10   0.00376397    2.201    0.546
        46 -11.5524     44.5507    105.7123   9.7864135129e+01   5.0217671543e+01    0.5224004    0.4168257 -67.21   0.00180897    1.253    0.202
        47 -11.4417     43.5994    100.9828   9.7163040468e+01   5.1467107985e+01    0.4860327    0.2526868  26.25  0.002212954    2.089    0.521
        48 -11.6224     82.4864    107.6109   8.5213730514e+01   4.4537751244e+01    0.4573772    0.2680111  52.43  0.001868532    2.191    0.544
        49 -13.6624     63.2505    100.9205   9.0077290600e+01   4.9050434312e+01    0.9761959    0.9576075 -70.86  0.005756423    1.137    0.120
        50 -11.9381     20.0281    103.8665   1.0627615236e+02   5.2895526505e+01    0.6102712    0.2992777   7.83  0.002788886    2.596    0.615
        51 -11.9701     30.9328    100.7572   1.0174259624e+02   5.2769610392e+01     0.427927    0.3669185 -59.94  0.002353134    1.091    0.083
        52 -11.0691     24.3226     92.0074   1.0240918694e+02   5.5416842753e+01    0.4363531    0.2752115 -45.45   0.00201317    1.349    0.259
        53 -10.3093     28.7877     89.6064   1.0017373318e+02   5.5611818022e+01    0.2854108    0.2421927   1.15   0.00123244    1.267    0.211
        54 -12.6911     62.0442     86.0619   8.6540387289e+01   5.2628840303e+01    0.6561255    0.5370508 -54.70  0.003541196    1.271    0.213
        55 -12.3231     63.1898     77.2329   8.3514618320e+01   5.4373531033e+01      1.15424    0.5253068  18.30  0.004010746    3.490    0.713
        56 -12.5414     78.0918     83.8539   8.0093613520e+01   5.0617636101e+01    0.8205956    0.7405719 -52.11   0.00458377    1.206    0.171
        57 -11.4549     47.9370     85.0979   9.1627355852e+01   5.4686894827e+01    0.4004877    0.3313126  13.72  0.001919866    1.262    0.208
        58 -12.2080     24.0409     76.0995   9.8906900779e+01   5.9098088472e+01    0.6531411     0.553256  20.43  0.003084546    1.342    0.255
        59 -10.7038      2.9784     75.0171   1.0741916459e+02   6.0687847667e+01    0.3691561    0.1693599 -41.25  0.001881602    1.809    0.447
        60 -12.1557      3.2585     68.2468   1.0590228697e+02   6.2179753950e+01     0.674549    0.2782043 -52.56  0.002589564    1.775    0.437
        61 -11.1620     20.3472     63.0907   9.7102165189e+01   6.2216457300e+01    0.3753856    0.2427825 -20.42  0.002128551    1.502    0.334
        62  -9.7975     13.6910     58.8998   9.8969002510e+01   6.3581835777e+01    0.2190022    0.1181797 -40.97  0.001184225    1.497    0.332
        63 -11.5822    244.3873    248.4723   7.5547522282e+01  -1.0872069523e+01    0.2624101    0.1575734  -7.97  0.001636721    1.490    0.329
        64 -11.9548    160.6748    246.4733   9.1408765975e+01   5.0188542043e-01    0.3614155     0.308543   3.08  0.002045294    1.124    0.110
        65 -13.4111      6.1612     48.4439   9.9621954763e+01   6.6192577452e+01     1.016922    0.6191975 -14.34  0.005240241    1.589    0.371
        66 -12.3783     81.5474    247.8976   1.0833170764e+02   1.1649261133e+01    0.4599382    0.3111359  22.00  0.002374078    1.701    0.412
        67 -11.7442     89.8878     45.0605   6.2994899341e+01   5.5485959073e+01    0.5605109    0.4143897   4.03  0.002793391    1.518    0.341
        68 -11.8068     33.0572     41.7342   8.4225318397e+01   6.5169324682e+01    0.6149191    0.3511761  23.66  0.003219927    1.735    0.424
        69 -10.4341    132.4780    247.4826   9.7491513418e+01   4.4813524500e+00    0.1289777    0.1094558  32.25 9.057506e-05    1.010    0.010
        70 -10.4046     86.9906     31.4915   5.8782669423e+01   5.7938989922e+01    0.2121664     0.119583  48.48  0.001042251    1.618    0.382
        71 -12.5523    204.9011     25.0879   3.5256599122e+01   3.1597225414e+01    0.4346419    0.2722468 -63.58  0.002458816    1.518    0.341
        72 -11.1008     59.7375    245.9152   1.1266379233e+02   1.4861714553e+01     0.224941    0.1460245  76.51  0.000791887    1.575    0.365
        73 -13.2757     85.8254    230.5714   1.0559768721e+02   1.4532725543e+01    0.6259418    0.4766145  67.66  0.002587403    1.326    0.246
        74 -15.2626     99.2761    226.5944   1.0210960409e+02   1.3429920596e+01     3.735156    0.9443097  39.67   0.01299329    3.222    0.690
        75 -12.8493     64.1669    227.5173   1.1006572400e+02   1.8085240624e+01    0.7959539    0.4257817  55.25  0.002622407    1.798    0.444
        76 -13.1197     66.7330    219.1966   1.0865042752e+02   1.9555536195e+01    0.9548262    0.5019821 -76.01  0.004589234    2.086    0.521
        77 -13.0615     75.4814    221.5113   1.0691285279e+02   1.7883281318e+01    0.9029225    0.4735932  33.88   0.00390162    1.796    0.443
        78 -11.8607     50.6946    216.1001   1.1196695993e+02   2.2253646743e+01     0.436778    0.3007888  82.62  0.002429838    1.422    0.297
        79 -10.6707     85.3478    210.8228   1.0335337344e+02   1.8863281241e+01    0.3333109    0.2569358 -32.39  0.001300627    1.654    0.395
        80 -10.4990     89.2463    206.6717   1.0188094152e+02   1.9232023664e+01    0.3964974    0.2751752  50.03   0.00190507    1.376    0.273
        81 -10.8753     72.3012    209.4155   1.0627380926e+02   2.1002329632e+01    0.3882986    0.2288802  38.94  0.001280067    1.571    0.363
        82 -11.5992     57.0359    201.6999   1.0903340360e+02   2.4769558958e+01     0.530766    0.2979136  45.58  0.002647449    1.661    0.398
        83 -11.2410     53.1025    199.1702   1.0970269113e+02   2.5846972610e+01    0.4071608    0.3104204  14.13  0.002013047    1.661    0.398
        84 -11.4561     42.6402    180.3689   1.1022253828e+02   3.1596613657e+01    0.2762893    0.2462027 -34.99 0.0005207577    1.347    0.258
        85 -13.5084      8.9224    207.2670   1.2043939673e+02   2.8591308894e+01    0.5659683    0.4384635  -9.64  0.001034924    1.995    0.499
