#   1 NUMBER                 Running object number                                     
#   2 MAG_AUTO               Kron-like elliptical aperture magnitude                    [mag]
#   3 X_IMAGE                Object position along x                                    [pixel]
#   4 Y_IMAGE                Object position along y                                    [pixel]
#   5 X_WORLD                Barycenter position along world x axis                     [deg]
#   6 Y_WORLD                Barycenter position along world y axis                     [deg]
#   7 A_WORLD                Profile RMS along major axis (world units)                 [deg]
#   8 B_WORLD                Profile RMS along minor axis (world units)                 [deg]
#   9 THETA_WORLD            Position angle (CCW/world-x)                               [deg]
#  10 FWHM_WORLD             FWHM assuming a gaussian core                              [deg]
#  11 ELONGATION             A_IMAGE/B_IMAGE                                           
#  12 ELLIPTICITY            1 - B_IMAGE/A_IMAGE                                       
         1 -14.4833    106.3658    105.9849   6.5852025954e+01   3.9666791840e+01     2.230121     1.135406 -39.02   0.00915646    2.142    0.533
         2 -13.3143     65.3601     51.9822   6.2860307627e+01   5.7218092526e+01     1.300676    0.5948837 -36.40  0.005889386    2.087    0.521
         3 -15.0811      6.3310     70.9983   8.7883780621e+01   5.9042924767e+01     1.258116    0.5930139 -60.41  0.006676266    1.546    0.353
         4 -14.0808    188.5583     23.8403   2.3458000355e+01   3.4612953232e+01     2.938353     1.287166 -58.68  0.009697106    3.795    0.736
         5 -13.9964    120.1968     26.1522   3.7145232147e+01   5.1134924940e+01     1.480319     0.829461   9.37   0.00592712    2.761    0.638
         6 -14.3642    122.0711     36.5554   4.0443224273e+01   4.9331182587e+01     1.175763    0.5778245  35.89  0.004142364    2.285    0.562
         7 -13.4386    132.2673     32.6361   3.6621103897e+01   4.7544074030e+01    0.6584644    0.5553575 -12.70  0.002448185    1.207    0.171
         8 -14.8011    146.7362     29.9324   3.2567665585e+01   4.4435785177e+01     1.754813    0.7820712  55.63  0.007125644    2.054    0.513
         9 -14.7615    166.0857     28.0793   2.8311794057e+01   3.9841111055e+01     1.339083    0.9742675  65.51  0.005964786    1.334    0.250
        10 -13.5853      2.8284     10.1912   7.3052778272e+01   7.0727180825e+01    0.6764534    0.3683559 -49.55  0.004073681    1.553    0.356
        11 -13.4150      9.0369      3.0710   6.7116826876e+01   7.1407712939e+01    0.6309788    0.4212462  43.29  0.004147683    2.647    0.622
        12 -16.0333     12.2768     22.1884   7.3138772164e+01   6.8089841005e+01     1.783615    0.8507496 -31.98  0.008424152    1.832    0.454
        13 -14.0417     24.8747     13.5964   6.4274807686e+01   6.8446548119e+01    0.6731891    0.2802316  22.84  0.003512751    2.795    0.642
        14 -12.9678     45.9039     33.1929   6.3324880480e+01   6.3043237919e+01    0.6331466    0.4951694  28.09  0.004198684    1.453    0.312
        15 -13.7679    215.6406     24.9917   2.0202752572e+01   2.7640003772e+01     1.363095     0.342478 -31.61  0.004572541    3.520    0.716
        16 -13.6896    222.8995     10.1004   1.5586197974e+01   2.7531793647e+01    0.8932276     0.418097 -14.65  0.003626083    3.075    0.675
        17 -13.3144    219.0185     15.5074   1.7359600942e+01   2.7893233676e+01    0.4070742    0.2936133  80.66  0.001727672    1.330    0.248
        18 -13.5537    215.0927     10.0879   1.6392234146e+01   2.9445452356e+01    0.6295217    0.3971732 -59.52  0.001982423    1.642    0.391
        19 -13.2528     86.3541     14.6319   4.1770659008e+01   5.9516002930e+01    0.6335109    0.4409786 -53.22   0.00311124    2.205    0.547
        20 -15.3113     98.8784     11.0691   3.6747717838e+01   5.7460585763e+01     1.556422    0.8473967  53.66  0.007240404    1.820    0.451
        21 -12.4737     70.1270     15.8618   4.7483060758e+01   6.2223471712e+01    0.3264888     0.321396 -35.97  0.001922298    1.440    0.306
        22 -12.2967     59.1391     16.0473   5.1442460778e+01   6.3915708669e+01    0.3287239    0.2864661  13.16  0.002269182    1.199    0.166
        23 -12.0231     46.7565     12.6758   5.4686643938e+01   6.6104582824e+01    0.2557283    0.2095331  19.75  0.001496052    1.285    0.222
        24 -14.2157     40.6043      4.2364   5.3320172142e+01   6.8022972736e+01    0.7042049    0.4724645  22.63  0.004252593    1.440    0.305
        25 -10.8573     59.7386      7.3755   4.7371907995e+01   6.4939572574e+01     0.173549   0.09719806  29.75 0.0009532121    1.739    0.425
        26 -12.5859    119.6174      3.0954   2.8635864737e+01   5.3748948429e+01    0.5221126    0.3088348  82.97   0.00231674    2.623    0.619
        27 -10.8743     66.9963      3.7482   4.3172075266e+01   6.4192322880e+01    0.1695966    0.1368437  18.80 0.0004623919    1.098    0.089
        28 -11.3324     74.8833      8.4227   4.2672472040e+01   6.2320150430e+01    0.3601782    0.1636674 -17.68  0.001257901    2.427    0.588
        29 -13.4902    187.5907     11.2173   1.9951599003e+01   3.6241605848e+01    0.7213504    0.5437781 -25.42  0.003570101    1.442    0.307
        30 -11.3758     81.3205      1.3668   3.7560929288e+01   6.1900498317e+01    0.4568996   0.06510596  48.62  0.001439564    4.822    0.793
        31 -11.3596     61.3118      1.4503   4.4064953771e+01   6.5373783474e+01    0.2978479    0.1080257  45.65  0.001359813    2.742    0.635
        32 -12.5279    153.0436      8.4653   2.4227371121e+01   4.5254844406e+01    0.3063594    0.2359981  59.15 0.0008034923    1.173    0.148
        33 -12.5234    245.4805    148.9643   4.6188893281e+01   2.4912228655e+00    0.3426922    0.2588306 -37.18  0.001913711    1.369    0.270
        34 -12.9675    107.5610    246.3881   8.7623651813e+01   1.1849094902e+01    0.5635331    0.3664826  84.55  0.003680914    1.771    0.435
        35 -13.4754     98.2800    239.2739   8.8512201876e+01   1.4327365821e+01    0.6629672    0.3524548  45.99  0.004032261    1.528    0.345
        36 -14.0907     91.3793    231.4702   8.8954258264e+01   1.6607342789e+01     0.506573    0.3791985  88.19  0.003597045    1.307    0.235
        37 -12.5808     60.1415    246.3446   9.5351784339e+01   1.8337792422e+01    0.2568512    0.1645498  33.80  0.001731432    2.063    0.515
        38 -12.5428     51.0134    248.7652   9.6934368290e+01   1.9066437456e+01    0.3213314    0.2530264  75.33  0.002692619    1.185    0.156
        39 -12.7243      2.9463    249.1200   1.0399483146e+02   2.4186398457e+01    0.3640898    0.2144544  71.85  0.002525077    1.140    0.122
        40 -13.7258      9.5874    245.5997   1.0291254020e+02   2.4106113757e+01    0.6629893    0.2812538  63.53  0.003777636    1.737    0.424
        41 -12.1480     60.6828    147.1648   8.5328820886e+01   3.7446782648e+01    0.3007712    0.2708367  10.37  0.001944081    1.503    0.335
        42 -12.0692    247.1256    136.7495   4.3233377141e+01   4.0025653649e+00    0.2697502    0.1697869  41.77  0.001356041    1.619    0.382
        43 -12.1846     45.0933    132.7377   8.6991019206e+01   4.2442790691e+01    0.4923031    0.2733441 -84.58  0.002521599    1.954    0.488
        44 -11.8702    134.7967    125.4835   6.3315375306e+01   3.0041021029e+01    0.3125374    0.2490691 -26.68   0.00149229    1.448    0.309
        45 -12.7223     82.5860    112.7469   7.3775521163e+01   4.2113087912e+01     1.225501    0.7300734  54.06   0.00584899    1.986    0.496
        46 -13.0465     95.4999    110.4656   6.9808448871e+01   4.0574950656e+01    0.8599333     0.506433 -64.18  0.003869245    1.915    0.478
        47 -13.4507     28.2576    246.1398   1.0022005868e+02   2.2089356043e+01    0.3772432    0.2379871  72.96  0.003006129    1.142    0.124
        48 -12.0603      4.0577    119.4123   9.5293933988e+01   4.8887537511e+01    0.3859003     0.123324  26.74  0.001908274    3.716    0.731
        49 -12.4046     49.0111     93.4203   7.9148268617e+01   5.0736439281e+01    0.3790798    0.3163294 -65.80  0.002443789    1.093    0.085
        50 -12.6736     42.6142     90.8206   8.0507160172e+01   5.1973799350e+01    0.4029267    0.2502501 -74.45  0.002187401    1.717    0.418
        51 -11.6450     35.3736     86.5008   8.1806603710e+01   5.3606787385e+01    0.2537425     0.196556 -27.75 0.0006561654    1.444    0.307
        52 -14.6554     24.5302     93.0544   8.6249903391e+01   5.3115474972e+01     1.101161    0.9586474 -44.96  0.007985474    1.202    0.168
        53 -11.9331     19.1494     86.1087   8.6623819431e+01   5.5022953987e+01    0.2525275    0.1765541 -37.22 0.0004236393    1.494    0.331
        54 -15.0700     15.4117    107.1661   9.0944749942e+01   5.0742597621e+01     1.266046    0.8392721  78.00   0.00801532    1.641    0.391
        55 -13.5594      2.3212     97.2478   9.3118182569e+01   5.3731718719e+01     0.735687    0.2089955 -71.83   0.00323561    2.817    0.645
        56 -11.1682    121.9464    112.0946   6.3304746599e+01   3.5429640468e+01    0.2216274    0.2156608 -27.67 0.0005274808    1.057    0.054
        57 -11.5891     62.9154    110.6485   7.8680381966e+01   4.5295203861e+01    0.2977963    0.1997804  54.21  0.001617526    1.721    0.419
        58 -11.6390    176.9954    110.0003   4.9917514304e+01   2.3892023916e+01    0.2560692    0.1919943  11.04  0.001149877    1.727    0.421
        59 -10.5892     46.3210    110.3193   8.3140046506e+01   4.7294670511e+01     0.127031   0.08547361 -38.95 0.0007043537    1.667    0.400
        60 -11.3407     42.6133    106.8703   8.3548922366e+01   4.8445605179e+01    0.1969649    0.1691037   0.52  0.001299818    1.496    0.332
        61 -12.1179    136.1787    102.8136   5.7391376736e+01   3.4457672075e+01    0.5606678    0.2422711  48.86  0.001824506    2.389    0.581
        62 -13.3604    108.6495    123.3088   6.9263254147e+01   3.5495518600e+01    0.7253444    0.6536546  45.26  0.004146829    1.151    0.131
        63 -12.2820     52.5849     97.7261   7.8995929295e+01   4.9395377751e+01    0.3860023    0.2418435 -12.07  0.001767189    2.721    0.632
        64 -11.8272     46.4882     98.5172   8.0911516277e+01   4.9889086059e+01    0.2856755    0.1946173 -52.18  0.001415696    1.268    0.211
        65 -11.9471     60.7816     97.4608   7.6570357839e+01   4.8482185187e+01    0.3512328    0.2520944  69.90  0.001910579    1.826    0.452
        66 -11.0804     90.0196     97.7410   6.8285755462e+01   4.4244270133e+01    0.2583724    0.1765088 -65.28  0.001024827    1.625    0.385
        67 -12.8489    136.3043     94.7783   5.5203621428e+01   3.6050369516e+01    0.5060859    0.3785984  55.96   0.00243679    1.429    0.300
        68 -10.6813     81.3351     93.3294   6.9663714571e+01   4.6556273731e+01    0.1415571    0.1026513 -21.35  0.000705204    1.726    0.421
        69 -12.4633    188.1347     84.2911   4.0810271489e+01   2.5874394113e+01    0.6046916    0.2318421  41.96  0.001935215    3.100    0.677
        70 -11.9721    158.7320     64.8821   4.1228786084e+01   3.6369074286e+01    0.8605957    0.3164451 -45.83  0.002754045    3.208    0.688
        71 -13.3695    163.7119     71.6242   4.2176580223e+01   3.4022291633e+01      1.18695    0.4868172  44.03  0.004128056    2.570    0.611
        72 -13.5540    160.9080     80.8174   4.5469690403e+01   3.3087003755e+01     2.175082     1.097226  22.80  0.005209798    6.475    0.846
        73 -14.3712    169.5392     76.9840   4.2505493334e+01   3.1680428923e+01     1.406276    0.4916813  50.93  0.004656904    2.754    0.637
        74 -12.8250    135.3605     79.9944   5.1232907467e+01   3.9129362409e+01    0.6372697    0.4482385  41.35   0.00268619    1.443    0.307
        75 -13.1811    170.7257    241.9274   7.6248107266e+01   2.5523380211e+00    0.2492028     0.215733  81.46  0.001783487    1.477    0.323
        76 -13.6087     54.3412     67.5971   7.1277560003e+01   5.5603819513e+01     1.572457    0.6353906  31.14  0.006995167    2.868    0.651
        77 -13.5157     91.7669     57.6404   5.6241263195e+01   5.2005541982e+01    0.4974473    0.4656724  14.40  0.002800748    1.102    0.093
        78 -12.9871     54.3295     81.4218   7.4841845631e+01   5.2727977962e+01    0.5736025    0.3900079 -69.28   0.00316876    1.601    0.375
        79 -14.0497     61.3691     75.5550   7.1149464074e+01   5.3104945019e+01    0.6541339    0.4584881 -28.59  0.001284205    1.516    0.341
        80 -13.2377     70.9539     75.0524   6.8000642558e+01   5.1924473962e+01    0.6269051    0.4364061  -1.26   0.00209209    1.969    0.492
        81 -12.3070     77.1737     73.0864   6.5513946485e+01   5.1419609358e+01    0.4477559    0.2734462 -27.88  0.001501334    1.905    0.475
        82 -11.7838    114.1292     79.7181   5.6686742349e+01   4.3635446430e+01    0.3917795     0.314216 -47.61  0.001522883    1.246    0.198
        83 -11.2933     42.6658     79.3179   7.8002276945e+01   5.4443596684e+01    0.2500456    0.1474589 -51.45  0.001067157    1.392    0.282
        84 -11.2221     41.6300     76.1825   7.7605151501e+01   5.5211177012e+01    0.2237934    0.1562869 -54.04 0.0006235521    1.188    0.158
        85 -12.7271     24.5435    217.0212   9.9133783753e+01   2.7467173934e+01    0.5288616    0.2251073  57.88  0.003237309    1.913    0.477
        86 -13.8949      4.5416     63.6026   8.7078593608e+01   6.0666246553e+01    0.4823554    0.4004864 -88.18  0.003638209    1.371    0.271
        87 -12.7151    211.6747     77.7599   3.4806833345e+01   2.1217690067e+01    0.5382468    0.3575292  83.46   0.00231874    2.084    0.520
        88 -13.3013    111.5254    116.5286   6.7010461441e+01   3.6450947911e+01    0.5287337    0.3445253  45.13  0.002235372    1.581    0.367
        89 -12.3285     36.6361     92.8693   8.2681991153e+01   5.2108375852e+01    0.3592472    0.2548973   7.89  0.001603831    1.890    0.471
        90 -13.5807    199.3876     69.6705   3.4722248237e+01   2.5511836881e+01    0.7951431    0.4333878  47.73  0.003051168    1.862    0.463
        91 -11.5839    117.7487     72.2759   5.3472914660e+01   4.4336727206e+01    0.2526211    0.2321254  24.96 0.0004902211    1.096    0.088
        92 -12.9168    134.3222     66.3414   4.7340632011e+01   4.1850773461e+01    0.9007223    0.5916408  15.30  0.003743399    2.205    0.546
        93 -10.4477    130.3166     61.6738   4.6862394860e+01   4.3556733387e+01    0.2476535    0.1485484 -39.31  0.000881444    1.663    0.399
        94 -11.4846     99.9966     65.0268   5.6183437954e+01   4.9159921527e+01    0.3600114    0.2096309 -43.01  0.001670478    1.651    0.394
        95 -12.3862     31.3359     62.4017   7.7676804467e+01   5.9027175978e+01     0.501783    0.2483428 -65.71  0.002492906    2.189    0.543
        96 -11.8684     25.0340     58.8389   7.8975866544e+01   6.0272922170e+01    0.4718382    0.2157829 -53.00  0.002328356    1.675    0.403
        97 -12.3976    200.1913     61.4353   3.2314126962e+01   2.6585857112e+01    0.2953218     0.236449  19.48 0.0009629466    1.484    0.326
        98 -12.7374     78.9918     60.3726   6.1100609313e+01   5.3629905831e+01    0.4941188    0.3907678 -38.25  0.002595923    1.151    0.131
        99 -13.0213     82.2810     54.2124   5.8045806942e+01   5.4240501345e+01    0.5333718    0.4163507   2.78  0.001928956    1.389    0.280
       100 -13.6457    177.7253     56.7506   3.4952007808e+01   3.2949196936e+01    0.9821064    0.6102972 -45.91  0.003775883    1.706    0.414
       101 -11.2076     39.0824     60.1026   7.4394715071e+01   5.8770995636e+01    0.2236282      0.16192  68.77  0.001263962    2.247    0.555
       102 -11.2199    111.5278     58.9523   5.0938912076e+01   4.8024992207e+01    0.2430712    0.2012133 -20.67 0.0006077958    1.187    0.158
       103 -14.6601    120.4571     54.4239   4.7026424684e+01   4.6936536836e+01    0.9763385    0.6566055  42.43  0.002150144    1.476    0.323
       104 -11.4797     17.5227     55.5272   8.0820460026e+01   6.1497775343e+01     0.307992    0.1451831 -57.81  0.001704679    1.671    0.401
       105 -13.7323    103.0528     50.2402   5.0394315647e+01   5.1199186047e+01     1.041577     0.596608 -53.66  0.002560394    2.409    0.585
       106 -13.1485     98.0070     50.0244   5.1791568948e+01   5.2201281981e+01    0.5593089    0.3730651 -51.37  0.002110843    1.792    0.442
       107 -13.5273     87.3690     65.1536   5.9995192596e+01   5.1362219706e+01    0.9816791    0.6080102   5.64  0.004121273    2.735    0.634
       108 -11.6260     38.2013     50.5744   7.1993670905e+01   6.0726352363e+01    0.2257484    0.1676637  -2.45 0.0008968075    1.500    0.334
       109 -11.8286    136.2971     49.4770   4.1418591251e+01   4.4188009070e+01    0.2803221     0.259588  15.53 0.0006510653    1.047    0.044
       110 -10.6505     23.5353     49.9980   7.7210201453e+01   6.2142634654e+01    0.1727129   0.09178142 -52.20 0.0004548726    1.477    0.323
       111 -12.4174    154.7641     47.5258   3.6668539301e+01   4.0062142898e+01    0.3805904    0.3562737 -82.89  0.002104887    1.175    0.149
       112 -13.2331    158.9545     43.1714   3.4425908084e+01   3.9653579252e+01     0.835958    0.4561968  45.58  0.003564054    1.799    0.444
       113 -12.8481      4.0161     43.1192   8.2758333625e+01   6.4768781833e+01     0.441854    0.2969964 -25.37  0.003115261    1.486    0.327
       114 -12.2441     11.5883     43.4578   7.9943553034e+01   6.4257753607e+01    0.3660614    0.2025935 -13.51  0.002032157    2.247    0.555
       115 -11.3635     13.6366    222.4488   1.0118998638e+02   2.7605320461e+01    0.2793364    0.1259123  76.70  0.001369762    1.907    0.475
       116 -13.3381    213.0615     42.8597   2.5275789876e+01   2.6022270498e+01     0.785327    0.3087555  62.00  0.002955328    2.451    0.592
       117 -13.5720    219.4131     41.5016   2.4053698661e+01   2.4632502130e+01    0.6963938    0.4546006  88.48  0.002459399    1.801    0.445
       118 -14.0044     26.3517    226.3557   9.9405711488e+01   2.5624431842e+01     0.618494    0.3345965 -59.32  0.004097816    2.354    0.575
       119 -12.4988    109.9635     41.8928   4.5516768459e+01   5.1147026959e+01    0.5555291    0.1868866  46.40  0.001652417    2.878    0.652
       120 -13.9176     20.4656    223.9739   1.0019992687e+02   2.6653662375e+01    0.4685138    0.3586561  84.63  0.002403846    1.190    0.160
       121 -13.9418     64.1997    214.1794   9.2136796794e+01   2.3368256483e+01    0.5212262    0.3184208  60.60  0.003372179    1.362    0.266
       122 -12.9647     59.3975    212.7724   9.2867619375e+01   2.4239733949e+01    0.3349757    0.2331208 -53.85  0.001448296    1.907    0.476
       123 -13.7917    140.7915     21.6444   3.0953818145e+01   4.6876969370e+01     1.271784    0.3833253  61.83  0.002465504    3.401    0.706
       124 -12.3577     75.9787     37.0066   5.3998137759e+01   5.8202080971e+01    0.3691972    0.2468114  34.86  0.001095825    1.542    0.351
       125 -11.5071     70.6721     35.9860   5.5400291478e+01   5.9206541747e+01    0.2364788    0.2151182 -26.16 0.0006252832    1.192    0.161
       126 -12.2732     94.2127    217.9906   8.7093784768e+01   1.8523413257e+01    0.2180727    0.1468962  50.85  0.001231825    1.252    0.201
       127 -11.9808    249.0487    216.0308   5.8689045973e+01  -7.0243993253e+00    0.1928828    0.1523743  17.06  0.001322107    1.030    0.029
       128 -12.1544      4.5099    213.4925   1.0216061815e+02   3.0057124397e+01    0.2122168    0.1287436  72.31  0.001624537    1.201    0.167
       129 -13.8256     65.2060    223.0579   9.2728098206e+01   2.1637975704e+01    0.9121975    0.5075448  56.96  0.005791287    1.465    0.317
       130 -12.1814     72.3378    207.1103   8.9997773120e+01   2.3604976630e+01    0.3557967     0.213267 -78.45  0.002160511    1.651    0.394
       131 -12.3561    241.9472     35.8663   1.9906740772e+01   1.9964314041e+01    0.4965352    0.2426923  69.48  0.001869422    2.121    0.528
       132 -11.4380     34.9886     34.7167   6.8102657898e+01   6.3968614345e+01    0.2939751    0.1765008   7.37   0.00124024    2.023    0.506
       133 -12.4264     41.2081    206.2688   9.5554901277e+01   2.7632865579e+01    0.2252082    0.1263539  88.67  0.001417675    1.606    0.377
       134 -12.3181     57.4245    202.8567   9.2345310368e+01   2.6347241353e+01    0.4633982    0.2012144 -84.27  0.002227936    2.764    0.638
       135 -12.4730     16.9231    195.5995   9.9054048571e+01   3.2202428997e+01    0.3334307    0.1536834 -69.44  0.001847749    1.915    0.478
       136 -13.3588     40.6321    195.0907   9.4758138589e+01   2.9835943677e+01     0.410722    0.2007719  83.16   0.00223599    2.141    0.533
       137 -13.5053     30.0846    169.2475   9.4520465376e+01   3.6152678915e+01    0.7427112    0.4697448 -40.75  0.004346459    2.495    0.599
       138 -13.1600     55.5232     26.9666   5.7308313575e+01   6.2835136718e+01    0.5667517    0.3381291  37.33  0.002636454    1.847    0.459
       139 -12.1353     63.4726     24.9673   5.3608461856e+01   6.2004076294e+01     0.421352    0.2747225  -2.31  0.002030432    1.701    0.412
       140 -11.3722     88.7036     26.1586   4.5745533733e+01   5.7600773580e+01     0.300944    0.1509559 -27.33  0.001401967    1.962    0.490
       141 -11.8772     30.7442     25.3874   6.6442097885e+01   6.5988275081e+01    0.3368112    0.1889578   6.70  0.001712252    2.225    0.551
       142 -11.5701     36.4450     23.2750   6.3288306053e+01   6.5747129611e+01    0.3146344      0.16002 -37.97  0.001766172    1.623    0.384
       143 -11.2494     51.2587     20.4182   5.6255134994e+01   6.4402323557e+01    0.2545666    0.1449264  39.95  0.001407648    2.019    0.505
       144 -12.1860     46.4725     20.2759   5.8053878454e+01   6.5042730593e+01    0.3223345    0.2270397  -1.07  0.002036496    1.380    0.275
       145 -13.8289     22.0456    180.9518   9.7074386633e+01   3.4567743032e+01    0.7589536     0.307743 -62.49  0.004191338    2.288    0.563
       146 -15.2502      7.9427    183.2673   9.9834427856e+01   3.5405973263e+01     1.070819    0.8295484 -64.79  0.008421355    1.510    0.338
       147 -15.5022     10.8105    175.2175   9.8754277096e+01   3.6744442871e+01     1.436212    0.8882124  80.17  0.009998566    1.304    0.233
       148 -12.3755    248.7603    197.1389   5.5339626385e+01  -4.7149861770e+00    0.4691394     0.251794 -41.87  0.002400016    2.369    0.578
       149 -11.7883     49.0130    181.5305   9.1923015736e+01   3.1571635409e+01    0.2437927    0.1569267 -75.59  0.001542408    1.374    0.272
       150 -11.5271    198.9708    181.5026   6.1338580963e+01   6.4536150067e+00    0.2164158    0.1229493  43.24  0.001036887    1.601    0.376
       151 -12.2713    124.3239    166.8835   7.4029597462e+01   2.3412321256e+01    0.5372409    0.3374256 -72.09  0.002539099    2.005    0.501
       152 -12.6720     22.5134    165.7068   9.5723475471e+01   3.7618541174e+01    0.2634254    0.1552112 -80.14 0.0004899814    1.376    0.273
       153 -11.8732     76.9693    156.6947   8.2967147023e+01   3.3203067452e+01    0.3041534    0.2439132  39.51  0.001171728    1.382    0.276
       154 -12.9697     73.3670    153.2927   8.3287880898e+01   3.4442600186e+01    0.5646133    0.4539712  33.46  0.002866656    1.468    0.319
       155 -11.0017    200.8283    191.8345   6.2912227330e+01   4.4923589084e+00    0.1738495    0.1576004  63.03 0.0008865519    1.335    0.251
       156 -11.4138    103.2429    149.9923   7.5834895771e+01   3.0614068300e+01    0.2920974    0.2060622 -31.27  0.001446505    1.971    0.493
       157 -12.5283      7.0613    146.5100   9.7230015652e+01   4.2931568062e+01    0.5667643    0.2542713 -64.51  0.003312443    1.817    0.450
