#   1 NUMBER                 Running object number                                     
#   2 MAG_AUTO               Kron-like elliptical aperture magnitude                    [mag]
#   3 X_IMAGE                Object position along x                                    [pixel]
#   4 Y_IMAGE                Object position along y                                    [pixel]
#   5 X_WORLD                Barycenter position along world x axis                     [deg]
#   6 Y_WORLD                Barycenter position along world y axis                     [deg]
#   7 A_WORLD                Profile RMS along major axis (world units)                 [deg]
#   8 B_WORLD                Profile RMS along minor axis (world units)                 [deg]
#   9 THETA_WORLD            Position angle (CCW/world-x)                               [deg]
#  10 FWHM_WORLD             FWHM assuming a gaussian core                              [deg]
#  11 ELONGATION             A_IMAGE/B_IMAGE                                           
#  12 ELLIPTICITY            1 - B_IMAGE/A_IMAGE                                       
         1 -14.6002     11.2331     19.7593   1.1232236504e+02   6.9648016576e+01     1.578398    0.7895655 -20.38  0.008459017    2.716    0.632
         2 -12.3956     28.2913      8.8236   9.9811287890e+01   7.0305687275e+01    0.3751283    0.2541992   2.90  0.000504599    1.734    0.423
         3 -11.5543     81.9281     13.8791   8.0341850668e+01   6.1789555881e+01    0.2771517    0.2130716  17.12 0.0005465985    1.321    0.243
         4 -12.3672     87.0464     11.6632   7.7650133483e+01   6.1124093157e+01    0.4673235    0.3312118  66.54  0.001640248    1.978    0.494
         5 -11.6880     75.4279     13.5474   8.2393241898e+01   6.3013086782e+01    0.2502996    0.2163242 -38.19 0.0007710715    1.269    0.212
         6 -10.8248    123.9795     10.2742   6.7140988780e+01   5.3203134192e+01    0.2046057    0.1774792  29.52 0.0004651242    1.083    0.076
         7 -10.1942    138.3245      6.3055   6.2514362727e+01   5.0074887125e+01     0.156978   0.09933337  31.08 0.0004846728    1.644    0.392
         8 -12.6723     88.9226      1.9424   7.2370331709e+01   6.1967539879e+01    0.3403518    0.2145366  40.43  0.001779183    1.542    0.351
         9 -12.1691     73.3150      1.6599   7.7227885070e+01   6.5011771372e+01     0.229432    0.1973663  53.47 0.0005606778    1.452    0.311
        10 -12.1441    212.0829    189.5988   9.7502242278e+01   6.5967064033e+00    0.2684699    0.2292209  45.33  0.001154198    1.273    0.215
        11 -11.5531     33.7702    177.4103   1.2886892097e+02   3.5405607782e+01    0.1278737   0.09479558  34.29  0.000960389    1.690    0.408
        12 -11.0042    241.8101    172.6194   8.9657824702e+01   3.3384091811e+00    0.1689614    0.1056693  50.28 0.0009507231    1.736    0.424
        13 -12.5766    202.7717    170.9063   9.5872731956e+01   1.0568439962e+01    0.5231491    0.3337654  63.18  0.002655638    2.232    0.552
        14 -11.5402      2.3921    171.1903   1.3422480317e+02   3.9338190149e+01    0.1440975   0.06694657  83.64 0.0009515074    1.714    0.417
        15 -12.5367    209.2090    167.1729   9.4067294131e+01   9.8614298519e+00    0.2582038    0.2139407 -84.20  0.001513767    1.974    0.493
        16 -12.2039    213.8589    164.2403   9.2714266069e+01   9.3710702039e+00    0.3436798    0.2334684  26.99  0.001671663    1.368    0.269
        17 -14.3891    195.3763    159.5117   9.5090106548e+01   1.3506473655e+01     1.250446     0.529039  49.67    0.0054272    2.236    0.553
        18 -14.4798    195.1172    150.1441   9.3317967832e+01   1.4895752045e+01     1.109997     0.818016  35.76  0.006053418    1.217    0.179
        19 -13.5214    196.9418    136.6797   9.0196072364e+01   1.6508754821e+01     0.945824    0.5601788 -20.20  0.004402136    2.071    0.517
        20 -14.6656    203.6596    125.5179   8.6491098247e+01   1.6760126825e+01     1.372982    0.7782047 -36.47   0.00643061    1.847    0.459
        21 -10.5131    138.5404    152.4798   1.0485182227e+02   2.5349678155e+01    0.1294532    0.1169124  53.74 0.0001889802    1.016    0.015
        22 -12.5397     58.3698    145.0959   1.2102685558e+02   3.8895773106e+01    0.5524156    0.2431177  50.19  0.002893083    2.142    0.533
        23 -13.3527     47.4081    142.2964   1.2312392252e+02   4.0698666057e+01    0.4293848    0.2949253  52.58  0.002890695    1.378    0.274
        24 -12.6740    213.6401    140.5200   8.7998859073e+01   1.2556141492e+01    0.6070567    0.4233485  45.38  0.003303644    1.348    0.258
        25 -11.3180     33.8226    135.6186   1.2545743658e+02   4.3437948101e+01    0.1544435   0.08555538  50.01 0.0009496236    1.718    0.418
        26 -14.2820    152.3454    130.5540   9.7773853560e+01   2.6639211584e+01    0.6441285    0.4960641  35.26  0.003506783    1.311    0.237
        27 -11.3941    121.7978    127.2349   1.0383953849e+02   3.3067730497e+01     0.297801    0.2171046  41.23  0.001622721    1.376    0.274
        28 -12.7013    143.6399    125.4551   9.8579215361e+01   2.9290383694e+01    0.2537753    0.2336341 -68.59  0.001501572    1.147    0.129
        29 -13.6475    172.2141    158.4348   9.9213034624e+01   1.8097551630e+01      0.73222    0.3479045  53.96  0.003226174    2.228    0.551
        30 -15.2169    159.0517    113.2420   9.2481611376e+01   2.8358085717e+01     1.276667    0.5837299  52.19   0.00506346    2.226    0.551
        31 -11.6636    132.0764    103.3346   9.6208062951e+01   3.5796689014e+01    0.2553021    0.2050428 -11.03  0.001106304    1.598    0.374
        32 -12.1218     44.2647     98.2392   1.1816986956e+02   5.0304565410e+01    0.2990322    0.2435103  -9.42  0.001952013    1.768    0.434
        33 -12.1419    188.3997     94.7480   8.1814439927e+01   2.4922647291e+01    0.2782858    0.1904625  64.31 0.0009597918    1.702    0.412
        34 -10.9989     55.1288     95.1225   1.1461963257e+02   4.9801769205e+01    0.1917665    0.1557315 -51.16  0.001233227    1.254    0.203
        35 -13.8060    152.7815    100.9421   9.0838832324e+01   3.1929106352e+01    0.5777376    0.3559983  29.01  0.002465781    2.076    0.518
        36 -10.2879    128.6626     83.2519   9.1820317022e+01   4.0388786639e+01    0.1416455    0.1141399  85.89 0.0006940855    1.567    0.362
        37 -11.5376     22.1771     78.8755   1.2150003376e+02   5.6480874669e+01    0.1568052    0.1129186 -54.17 0.0003737822    1.299    0.230
        38 -12.4944      2.1219     73.2574   1.2684351144e+02   5.8980503974e+01    0.7110476    0.1325721 -75.16  0.002469281    4.661    0.785
        39 -10.9017    144.5238     73.8904   8.5263801573e+01   3.8684912434e+01    0.2177449    0.1975729  44.42 0.0004018511    1.107    0.097
        40 -12.5038     96.5638     71.7561   9.7170768370e+01   4.8822938717e+01    0.4421003    0.3042502  26.17  0.001280269    1.817    0.450
        41 -10.1490    182.4940     72.4163   7.6742596563e+01   2.9876562802e+01    0.1505703    0.1443214  20.68 0.0002814451    1.014    0.014
        42 -11.1732     18.7109     72.1680   1.2150612804e+02   5.8187118357e+01    0.1673266    0.1422567  74.05 0.0004138931    1.271    0.213
        43 -12.9194     59.5015     70.5273   1.0810809880e+02   5.4611756733e+01    0.3308647    0.2325253  51.58  0.001324171    1.667    0.400
        44 -13.0381     61.5981     67.0106   1.0655109661e+02   5.5099083853e+01    0.4561644    0.2942588 -76.36  0.000190777    1.925    0.481
        45 -12.7422     34.0343     69.9829   1.1618669564e+02   5.7434690092e+01    0.4065436    0.2356126  58.37  0.002215503    2.249    0.555
        46 -10.0899     75.2944     66.2718   1.0200025781e+02   5.3375904643e+01     0.126999   0.09856735 -22.59  0.000180964    1.519    0.342
        47 -11.4154    125.2917     57.4561   8.4807902965e+01   4.5905980059e+01     0.280431     0.246442  53.26  0.000906051    1.202    0.168
        48 -11.9718     67.5737     54.4431   1.0103043384e+02   5.6919475692e+01    0.2659199    0.2206909 -70.23 0.0008162509    1.330    0.248
        49 -11.1855    210.9043     54.1897   6.6496979007e+01   2.5377675146e+01    0.2119996    0.1982618  10.88 0.0003747872    1.048    0.046
        50 -10.9102    133.1430     53.9795   8.1660560022e+01   4.4760213941e+01    0.2665066     0.206545  46.43  0.001234066    1.307    0.235
        51 -13.1025     42.2016     47.6530   1.0796206894e+02   6.1407867156e+01    0.4764765    0.3066432 -29.36   0.00126851    1.773    0.436
        52 -12.3008     41.8816     42.4880   1.0654862951e+02   6.2502613239e+01    0.3896138    0.2764836  -7.06  0.001532235    1.835    0.455
        53 -11.5930    145.4669     50.9775   7.7723819142e+01   4.2367104463e+01    0.2820222    0.2257025  49.20 0.0005103891    1.253    0.202
        54 -12.0592      2.5508     46.5894   1.2264063145e+02   6.4628020366e+01    0.2407956    0.1864136 -79.73 0.0009411355    1.180    0.153
        55 -10.1363    176.5153     45.5489   6.9567017440e+01   3.5382552209e+01    0.1506668    0.1471154  13.01  9.73294e-05    1.016    0.016
        56 -11.0043    157.0103     43.9708   7.2827762789e+01   4.0596959774e+01       0.2302    0.2134446   9.67 0.0005317221    1.063    0.059
        57 -10.9255    176.5323     33.4847   6.5582349638e+01   3.6986337156e+01    0.2472405    0.2211445  -9.79  0.001301083    1.120    0.107
        58 -10.3564    141.0083     31.6549   7.1843238557e+01   4.6349984501e+01    0.1639044    0.1385432  51.96 0.0008419867    1.189    0.159
        59 -12.1165    193.7784    248.8847   1.0866340027e+02   3.2340781402e+00    0.1652174    0.1435468  68.57  0.001396816    1.622    0.383
        60 -11.2074    244.6701    247.3233   1.0096572883e+02  -3.9337797231e+00   0.08886457   0.07061099  48.18            0    1.698    0.411
        61 -10.5461     79.3632     29.7031   8.8144496391e+01   5.9759216351e+01    0.1281975    0.1068614 -75.70 0.0007032496    1.715    0.417
        62 -10.5204     37.0119     27.2945   1.0341167668e+02   6.6021863453e+01    0.1594931    0.1333692 -35.42 0.0002675717    1.062    0.058
        63 -11.9368     83.8101     22.9066   8.3787669329e+01   6.0087556463e+01    0.2906393    0.2495318 -13.31  0.000732009    1.045    0.043
        64 -11.2727     64.5940     18.2496   8.8512466925e+01   6.4078659529e+01    0.3081676    0.1481794  28.88  0.001355177    2.734    0.634
        65 -12.0471    184.5049    247.0007   1.0985324106e+02   4.7763643085e+00     0.120991    0.1045898 -30.55  0.001038073    1.606    0.377
        66 -11.4973    187.3207    232.6748   1.0773139947e+02   5.8291785537e+00    0.1023446   0.07345366  60.63 0.0004519484    1.680    0.405
        67 -11.1686    195.0000    229.9928   1.0618569445e+02   4.9308349339e+00    0.1406411   0.06300884 -37.68 0.0008059697    2.967    0.663
        68 -12.0992    200.9678    210.8486   1.0262727646e+02   6.0441851772e+00    0.2757168    0.2162038  76.17  0.001802734    2.080    0.519
        69 -12.8907    214.7330    196.3138   9.8156623131e+01   5.3794465608e+00    0.3764069    0.2941335  34.35  0.002325089    1.068    0.064
        70 -12.2175    186.6443    195.2676   1.0272450025e+02   1.0292265846e+01    0.3447371    0.2509731 -60.90  0.002125796    2.085    0.520
