#   1 NUMBER                 Running object number                                     
#   2 MAG_AUTO               Kron-like elliptical aperture magnitude                    [mag]
#   3 X_IMAGE                Object position along x                                    [pixel]
#   4 Y_IMAGE                Object position along y                                    [pixel]
#   5 X_WORLD                Barycenter position along world x axis                     [deg]
#   6 Y_WORLD                Barycenter position along world y axis                     [deg]
#   7 A_WORLD                Profile RMS along major axis (world units)                 [deg]
#   8 B_WORLD                Profile RMS along minor axis (world units)                 [deg]
#   9 THETA_WORLD            Position angle (CCW/world-x)                               [deg]
#  10 FWHM_WORLD             FWHM assuming a gaussian core                              [deg]
#  11 ELONGATION             A_IMAGE/B_IMAGE                                           
#  12 ELLIPTICITY            1 - B_IMAGE/A_IMAGE                                       
         1 -11.6775    205.5074     30.1210   4.8428856763e+01   2.9823452179e+01    0.8408641    0.8023592 -38.76  0.004180258    1.134    0.118
         2 -10.8020    212.4436     22.7411   4.5616700658e+01   2.8965983157e+01    0.5388183    0.3536042  42.84  0.001391977    1.842    0.457
         3 -11.8590    221.3197     12.7842   4.2128160450e+01   2.7901581315e+01    0.7634261    0.6309792 -62.43  0.002732885    1.088    0.081
         4  -9.1356     33.0000      9.0228   8.4125322685e+01   7.0255617147e+01    0.3167801   0.05648503 -38.78  0.001050239    4.924    0.797
         5  -8.6371     13.2866      8.3607   9.3875282526e+01   7.2376497534e+01    0.1202368   0.06434299 -23.42 0.0007022629    1.685    0.406
         6  -9.8540      8.5396      1.9930   9.3325202418e+01   7.3742274031e+01    0.1672871    0.1230115  -3.29  0.001248103    1.242    0.195
         7 -10.9052    128.0192    238.9359   1.1046539810e+02   8.9573144040e+00    0.4102209    0.1820729 -47.34  0.002038678    3.002    0.667
         8 -10.8215    128.4807    248.0587   1.1139967226e+02   7.4604912725e+00    0.3325509    0.2362783 -44.53  0.002182486    1.931    0.482
         9 -11.1266     98.3755    248.2147   1.1673014642e+02   1.1994187221e+01    0.4966961    0.2527115  33.89  0.002666463    2.264    0.558
        10 -10.3930     83.1184    249.6705   1.1949005263e+02   1.3932564332e+01    0.2970476    0.1746704  63.20  0.001895138    1.422    0.297
        11 -10.0124     73.9685    249.4595   1.2102700110e+02   1.5220671046e+01    0.2296099    0.1248041 -80.63  0.001432455    1.998    0.499
        12  -9.5649     52.0375    249.9244   1.2469865580e+02   1.7978436413e+01     0.284244    0.1004038  60.63  0.001450718    2.536    0.606
        13 -12.1456     37.8187    211.5994   1.2457822151e+02   2.6669914189e+01    0.7620386    0.5555863 -36.97  0.003460616    2.660    0.624
        14 -13.5803     47.2935    200.5874   1.2192867427e+02   2.7756270150e+01     2.291147    0.9808358  64.66   0.01052628    2.410    0.585
        15 -10.8250    126.1091    230.3368   1.0981376885e+02   1.0670965628e+01    0.3967767    0.2264398  65.43  0.002052807    2.084    0.520
        16 -10.0989     72.9418    218.4258   1.1859895667e+02   2.0889783059e+01    0.3055123    0.1703188  65.64  0.001730265    1.655    0.396
        17 -10.4289     47.9352    217.1181   1.2313461260e+02   2.4399027959e+01    0.2385125    0.1588166  52.79  0.001257642    1.287    0.223
        18  -9.7481    164.4941    237.9702   1.0364609605e+02   3.1606510159e+00    0.2746066    0.1233233 -47.47  0.001378092    2.790    0.642
        19  -8.4119     73.5135    187.9978   1.1532397904e+02   2.6953794339e+01    0.1855664    0.1146448 -73.89 0.0006677868    1.554    0.356
        20 -10.0981     64.1659    182.6376   1.1670898796e+02   2.9393600202e+01    0.3575826    0.2438266 -41.64  0.001747106    2.183    0.542
        21  -9.9138     69.2648    176.7689   1.1490690605e+02   2.9984064908e+01    0.2617961    0.2351198 -39.92 0.0008556681    1.520    0.342
        22 -11.5029     49.1305    233.5514   1.2410751536e+02   2.1189442944e+01     0.423921    0.2515261  59.25  0.002850562    1.281    0.219
        23  -8.8973    107.0421    172.7711   1.0581894028e+02   2.5009218530e+01    0.1878214    0.1078786  43.67 0.0008798285    1.658    0.397
        24  -8.5165     94.3344    168.6738   1.0809801020e+02   2.8026759008e+01    0.1471142   0.09654859  73.59 0.0003619151    1.716    0.417
        25  -9.6278     78.6675    166.5971   1.1142965157e+02   3.0914649858e+01    0.2439884    0.2194861 -84.10 0.0003815403    1.111    0.100
        26 -11.4567     66.0137    163.0383   1.1389277111e+02   3.3513122410e+01    0.4407684    0.2702069 -48.07  0.001348714    1.950    0.487
        27 -10.9710     84.8692    159.9566   1.0898029689e+02   3.1491378660e+01    0.6139985    0.5835104 -44.69  0.002478118    1.294    0.227
        28 -10.3737     73.6653    155.6778   1.1102881242e+02   3.4142242874e+01    0.6559688    0.3543835  88.19  0.002740639    2.585    0.613
        29  -9.1893     83.7822    234.0896   1.1803514906e+02   1.6492135965e+01    0.1902857    0.1253469  66.61  0.001223649    1.292    0.226
        30 -11.2670     68.1051    143.7750   1.1057792480e+02   3.7707659158e+01    0.7262058    0.4560159  67.92  0.002618828    1.802    0.445
        31 -13.8203      8.6196    207.3048   1.2954360109e+02   3.0567608638e+01     2.579483     1.168024 -71.76   0.01208514    1.977    0.494
        32 -10.4505     87.5713    143.3335   1.0553137172e+02   3.4927995195e+01     0.286257    0.2356398 -57.67 0.0004347946    1.201    0.167
        33  -8.7760     32.7322    143.8500   1.1945879274e+02   4.1863273969e+01     0.296438   0.09538417 -73.10  0.001187624    2.769    0.639
        34  -8.6198    100.6817    142.7756   1.0208725851e+02   3.2881481285e+01    0.4789667    0.2676193 -24.25  0.001331574    5.974    0.833
        35  -8.6458    109.7073    132.8436   9.7742837582e+01   3.3571590387e+01    0.2500083    0.2096166  28.96 0.0007038199    1.366    0.268
        36  -9.9443     58.7089    132.3439   1.1118507646e+02   4.1658646240e+01    0.2970771    0.1966955  76.97  0.001522951    1.710    0.415
        37 -10.4190    114.4966    229.6483   1.1191759508e+02   1.2646430275e+01    0.3442847    0.1808363 -51.48  0.001849606    2.360    0.576
        38  -9.1003     97.2658    128.8641   1.0016767065e+02   3.6727361335e+01    0.2495029    0.2332891  -3.12 0.0004288079    1.286    0.223
        39 -10.1665     32.7196    119.3776   1.1624545142e+02   4.7599614453e+01    0.5998943   0.08205999 -66.30  0.001688572    5.280    0.811
        40  -7.9318    107.1620    120.6071   9.5671699433e+01   3.6880994590e+01    0.1876375    0.1453346  29.96  0.000415882    1.483    0.326
        41  -9.7729    109.7345    228.9350   1.1273246050e+02   1.3518145494e+01    0.2341077    0.1262711  53.96  0.000803064    1.587    0.370
        42  -7.7346    168.4414    113.5053   7.8643641780e+01   2.5248264604e+01    0.1567232    0.1522142 -65.77 0.0001779006    1.049    0.046
        43  -8.1981     41.5012    103.5201   1.1104121684e+02   5.0480477446e+01    0.1317599    0.1098772 -66.58 0.0008103432    1.006    0.006
        44  -8.9810     33.0000     95.5192   1.1217444636e+02   5.3172991907e+01    0.2928085   0.06081893 -64.12 0.0009337222    3.927    0.745
        45 -10.1803     97.3271    226.9051   1.1484414826e+02   1.5783625049e+01    0.2868265     0.220803  79.59  0.001301996    1.229    0.186
        46  -8.8703      9.3128     77.3142   1.1661103888e+02   5.9087597533e+01    0.1250008   0.06811377 -45.18 0.0003085953    1.637    0.389
        47  -9.8529     13.2741     61.2752   1.1189358721e+02   6.2359085409e+01    0.2443907   0.09992491 -53.81  0.001250888    1.764    0.433
        48 -15.0707      8.9584    241.3446   1.3108415398e+02   2.4275916492e+01     13.69005     1.725796 -78.98   0.04558003    7.951    0.874
        49 -11.0784    196.7495     36.7495   5.1445699778e+01   3.1221434171e+01    0.6004478    0.4707086  75.19  0.002025392    1.245    0.197
        50 -10.4886    119.5172    249.0060   1.1309104900e+02   8.7010568513e+00    0.3851382      0.23487  25.94  0.002117153    2.346    0.574
        51  -9.7625     59.5772    244.7532   1.2310734128e+02   1.7907573579e+01    0.2602537   0.09678737 -73.15  0.001371874    2.852    0.649
        52  -8.8261     33.0000     38.0014   9.6819487071e+01   6.5487053829e+01    0.2049072   0.05868933 -50.07 0.0008025349    2.943    0.660
        53 -10.0620    114.8626    244.2730   1.1343099732e+02   1.0160271049e+01    0.1948649    0.1405787 -48.33  0.001275296    1.884    0.469
        54 -10.4721     65.8837    243.3851   1.2194136954e+02   1.7323832520e+01    0.2560949    0.1756537  67.32 0.0004286508    1.119    0.106
        55  -9.5249     82.6053    244.2074   1.1912628782e+02   1.4913237649e+01    0.1378848    0.1000685 -63.41 0.0007285601    1.693    0.409
