#   1 NUMBER                 Running object number                                     
#   2 MAG_AUTO               Kron-like elliptical aperture magnitude                    [mag]
#   3 X_IMAGE                Object position along x                                    [pixel]
#   4 Y_IMAGE                Object position along y                                    [pixel]
#   5 X_WORLD                Barycenter position along world x axis                     [deg]
#   6 Y_WORLD                Barycenter position along world y axis                     [deg]
#   7 A_WORLD                Profile RMS along major axis (world units)                 [deg]
#   8 B_WORLD                Profile RMS along minor axis (world units)                 [deg]
#   9 THETA_WORLD            Position angle (CCW/world-x)                               [deg]
#  10 FWHM_WORLD             FWHM assuming a gaussian core                              [deg]
#  11 ELONGATION             A_IMAGE/B_IMAGE                                           
#  12 ELLIPTICITY            1 - B_IMAGE/A_IMAGE                                       
         1 -13.9527    209.0150     28.5187   1.5314891633e+01   2.9632097256e+01    0.9788527    0.8918681 -74.33  0.003709648    1.056    0.053
         2 -10.2980     60.8557     21.1734   4.5648016968e+01   6.4322325429e+01    0.1786719    0.1621671   7.79 0.0007011392    1.213    0.176
         3 -14.3404    249.1829    240.2281   5.5707315843e+01  -1.1335254719e+01     2.612063    0.5158333 -37.39  0.009367479    5.562    0.820
         4  -9.5252    163.5401    200.8848   6.5322401489e+01   8.5168963339e+00    0.1909122    0.1385681 -47.87 0.0005026769    1.527    0.345
         5  -9.8733    211.1350    198.8330   5.5310618094e+01   2.6753646932e-01     0.187402    0.1730685  27.79 0.0004460478    1.176    0.149
         6 -10.6880     69.2533    194.8903   8.5033212898e+01   2.5530783939e+01    0.3278147    0.1525006 -75.08  0.001486606    2.270    0.559
         7 -10.0385     63.0491    197.6938   8.6676287060e+01   2.5758745297e+01    0.1521537    0.1254368  81.01 0.0002690875    1.031    0.030
         8 -10.6336     61.0800    219.9717   8.9248718843e+01   2.1347220847e+01    0.1681006    0.1296593  79.81 0.0004211977    1.097    0.088
         9 -14.9972    120.4318    234.7209   7.9126595270e+01   9.7553838058e+00     5.636577     3.948581 -65.74   0.03401956    1.660    0.398
        10 -10.2539     56.5866    194.2826   8.7699315836e+01   2.7348386388e+01    0.2358206    0.1538386  46.34  0.001364092    1.452    0.311
        11  -8.8476     52.8119    189.3596   8.8003527326e+01   2.8913900267e+01    0.3335724     0.166603 -63.03  0.001697029    1.895    0.472
        12 -10.4439     11.6386    189.0229   9.6564351262e+01   3.3406053275e+01    0.1457475   0.09747147 -57.31 0.0009326911    1.753    0.430
        13 -10.1625     58.7463    174.9792   8.5055333092e+01   3.1432743078e+01    0.3164304    0.1671622  64.71   0.00147003    2.116    0.527
        14  -9.7970     58.5644    184.4954   8.6210648347e+01   2.9277790289e+01     0.193547    0.1251686  78.09 0.0002049516    1.512    0.339
        15 -12.4443     64.3768    179.2200   8.4271909509e+01   2.9716388631e+01    0.5508523    0.4251884  -9.19   0.00254378    2.196    0.545
        16  -9.7174     91.0535    185.0581   7.8905809592e+01   2.4505956320e+01    0.2160746    0.1468529  76.30 0.0004010441    1.603    0.376
        17 -11.8681    173.5866    176.8470   5.8718265883e+01   1.1203454599e+01    0.7227778     0.441067 -48.05  0.002393163    1.755    0.430
        18 -11.8625    179.5388    169.1634   5.5877988529e+01   1.1525922940e+01    0.6449202    0.5189142 -40.96  0.002992109    1.279    0.218
        19  -9.8037     52.8785    181.1007   8.7105291145e+01   3.0766175270e+01    0.1456454    0.1359923  89.04 0.0002637549    1.219    0.180
        20 -11.7327     67.8129    213.7103   8.7325630837e+01   2.1721409580e+01    0.1817891    0.1490994  79.95 0.0003807518    1.068    0.064
        21 -10.2504      3.6490    176.2578   9.7317835219e+01   3.6866172761e+01     0.122818   0.09874111 -80.79 0.0002702989    1.202    0.168
        22 -12.4393    140.4028    173.1980   6.5448696944e+01   1.8456955715e+01    0.4944215    0.3664807  78.19 0.0008932966    1.731    0.422
        23 -12.8037    233.5470    168.3898   4.5055584718e+01   1.2677572710e+00    0.5296898    0.3826448 -53.72  0.001902914    1.793    0.442
        24 -10.6508      9.1255    166.4493   9.5442077581e+01   3.8595648612e+01     0.163477     0.122921 -80.63 0.0003845817    1.115    0.104
        25 -10.1951      1.6209    166.6656   9.7079581686e+01   3.9141116807e+01    0.1096918   0.08545184 -85.72 0.0001591563    1.094    0.086
        26 -10.5803     98.9968    156.9898   7.2507739252e+01   2.9709162534e+01    0.2459403    0.1683899  72.33   0.00113734    1.746    0.427
        27 -12.1534    111.8371    150.1482   6.7940020514e+01   2.9071707667e+01     0.601438    0.3900126 -89.74  0.001393049    2.302    0.566
        28 -11.9994    108.8190    145.4757   6.7781204463e+01   3.0724089477e+01    0.3698997    0.3322853 -72.93 0.0009357061    1.080    0.074
        29 -11.1098     71.0814    230.8051   8.8294512123e+01   1.7869835841e+01    0.1669199    0.1301481  87.64 0.0007269962    1.198    0.165
        30 -12.2272    133.8918    146.4616   6.1599582203e+01   2.5688113806e+01     1.159583    0.3223644 -54.74  0.003007426    4.701    0.787
        31  -9.9474    148.9600    146.0411   5.7829148884e+01   2.2684980929e+01    0.2416744    0.1883382 -89.04 0.0005533922    1.664    0.399
        32 -18.8289     31.4743    132.1434   8.6386457901e+01   4.4658132626e+01     16.82361     3.949852 -71.03   0.05323678    4.223    0.763
        33 -10.4492    116.4424    137.1208   6.4019166606e+01   3.1280857777e+01     0.276737    0.2028472  59.60 0.0005515546    1.494    0.331
        34 -12.5868    106.8292    131.4459   6.5335840967e+01   3.4420996867e+01    0.6835917    0.5332429  87.79  0.002913884    1.530    0.347
        35  -9.4065    224.5889    134.3705   3.9205906455e+01   8.8631295483e+00    0.3047345    0.1097093 -48.89 0.0009481657    3.599    0.722
        36 -12.1335     97.9803    130.8478   6.7628392947e+01   3.6140231266e+01    0.3529517    0.3355139 -24.22 0.0005696541    1.166    0.143
        37 -11.4794    134.1081    128.1761   5.7359429073e+01   2.9812468603e+01    0.5117425    0.4330274  48.85  0.002328441    1.193    0.162
        38 -10.5577    135.0000    120.9029   5.5340941359e+01   3.1267898831e+01    0.5465971   0.08843887 -46.43  0.001172724    6.099    0.836
        39 -10.4300    116.0478    125.3539   6.1438931759e+01   3.4117248176e+01     0.255074    0.2119909 -35.47 0.0008406985    1.278    0.218
        40  -8.9654    218.4960    124.5396   3.8005845657e+01   1.1910655931e+01    0.1469803    0.1376967 -35.60 0.0002960344    1.029    0.028
        41 -10.6843    103.9233    120.3150   6.3588303140e+01   3.7590427664e+01    0.2993438    0.2543533   8.64 0.0006938096    1.424    0.298
        42 -11.3561     85.3354    118.4873   6.8500096479e+01   4.1216586113e+01    0.3053924    0.2374952  89.03 0.0007654728    1.527    0.345
        43 -10.8695    121.3568    114.9053   5.7429291109e+01   3.5472708353e+01    0.3577716    0.2649477  87.92 0.0007672946    1.890    0.471
        44 -12.6124    117.8026    107.5754   5.6498299384e+01   3.7854891294e+01    0.7295039    0.4877877 -42.82  0.002053948    1.472    0.321
        45 -11.6096    113.2055    100.1948   5.5796328234e+01   4.0429266664e+01    0.5711189    0.3487932  70.66  0.001926358    2.977    0.664
        46 -10.7050    107.1536     95.7567   5.6309263654e+01   4.2603536327e+01    0.3467856     0.268197  80.64 0.0008366479    1.770    0.435
        47 -10.7951    134.5107    105.5615   5.1458544168e+01   3.4768333439e+01    0.4542396    0.1497092 -48.01  0.001366171    3.142    0.682
        48 -10.1539    110.9213    115.2253   6.0385920693e+01   3.7467225262e+01    0.2273191     0.203647  87.47 0.0005274859    1.216    0.178
        49 -12.2406     54.5624    229.5672   9.1298818956e+01   2.0291459027e+01    0.2427139    0.1292622 -70.84  0.001412064    1.862    0.463
        50 -11.0091    135.8564     96.6741   4.8641760025e+01   3.6367499882e+01    0.2735769    0.2548402 -46.79 0.0002189933    1.064    0.061
        51 -10.4404     95.0160     86.3344   5.7266427031e+01   4.6938263989e+01    0.5051103    0.2781151  61.46  0.001198124    3.222    0.690
        52 -10.6427     64.2154     87.7644   6.7666330576e+01   5.1512925656e+01    0.4010503    0.2160072  44.09  0.001821792    2.183    0.542
        53  -9.2893    154.2859     86.6756   4.1225185277e+01   3.4100054931e+01    0.1582184    0.1228609 -74.14  0.000598413    1.603    0.376
        54  -9.5600    117.3127     90.6488   5.1924779775e+01   4.1657097880e+01    0.1569257    0.1229184 -83.09 0.0007045777    1.725    0.420
        55 -11.2058     82.3655     83.7232   6.0527462803e+01   4.9689277905e+01    0.5672091    0.2876081  55.10  0.002106932    3.125    0.680
        56  -8.9755    111.5118     83.5063   5.1463461451e+01   4.4346372685e+01     0.149773    0.1452274 -27.01 0.0008104708    1.019    0.019
        57 -10.2078     49.4552     77.5353   7.0081411576e+01   5.5625967777e+01    0.2141984    0.2021973 -29.80 0.0005995056    1.112    0.100
        58 -10.4165     58.2310    228.3378   9.0513020169e+01   2.0060443726e+01    0.1503128    0.1326811 -79.76 0.0006332346    1.348    0.258
        59 -13.1604    169.9373     67.7454   3.2301354460e+01   3.3689582156e+01    0.6589166    0.6037557 -58.78 0.0008885241    1.098    0.090
        60  -9.8600    111.7023     72.0174   4.7823021043e+01   4.6596489942e+01    0.2094792    0.1859461 -33.19 0.0003807476    1.104    0.094
        61 -10.0665    150.1490     66.9045   3.6265523966e+01   3.8732147200e+01    0.2260323    0.2045564 -76.56 0.0003529679    1.199    0.166
        62 -13.8661    185.7799     54.4936   2.5585744541e+01   3.1831275146e+01     1.330265     1.009699  33.21  0.003928345    1.590    0.371
        63 -12.0308    191.6350     48.4914   2.2970661274e+01   3.1250125941e+01    0.4012805    0.3567496  56.07 0.0008607825    1.162    0.139
        64 -12.2032     90.2556    221.9097   8.3656616822e+01   1.6852567846e+01    0.5171288    0.2547686 -63.25  0.002623269    2.164    0.538
        65 -12.2779     89.3363    213.7258   8.2928144587e+01   1.8628155952e+01    0.3735934    0.2348326 -51.87  0.001366048    1.908    0.476
        66 -11.0651     56.4335    236.3442   9.1484345560e+01   1.8754948151e+01    0.1099433   0.09004339  63.30 0.0007814559    1.154    0.134
