#   1 NUMBER                 Running object number                                     
#   2 MAG_AUTO               Kron-like elliptical aperture magnitude                    [mag]
#   3 X_IMAGE                Object position along x                                    [pixel]
#   4 Y_IMAGE                Object position along y                                    [pixel]
#   5 X_WORLD                Barycenter position along world x axis                     [deg]
#   6 Y_WORLD                Barycenter position along world y axis                     [deg]
#   7 A_WORLD                Profile RMS along major axis (world units)                 [deg]
#   8 B_WORLD                Profile RMS along minor axis (world units)                 [deg]
#   9 THETA_WORLD            Position angle (CCW/world-x)                               [deg]
#  10 FWHM_WORLD             FWHM assuming a gaussian core                              [deg]
#  11 ELONGATION             A_IMAGE/B_IMAGE                                           
#  12 ELLIPTICITY            1 - B_IMAGE/A_IMAGE                                       
         1 -11.9915     42.3208     20.5072   8.9272945334e+01   6.8028521750e+01    0.4552808    0.2898388  36.26  0.002090542    1.823    0.452
         2 -11.7822    216.8202     13.9630   4.4981072401e+01   2.8834101668e+01    0.3775822     0.331057  18.09   0.00116427    1.341    0.254
         3 -13.5150    185.4240      6.0382   4.5919685785e+01   3.7733844090e+01    0.8450388    0.5353479 -66.27  0.003980866    1.742    0.426
         4 -11.8748     43.6831      8.5822   8.2548875771e+01   6.9793231761e+01    0.3105549    0.2615042  33.79   0.00152327    1.433    0.302
         5 -11.7370     58.4927      7.1712   7.5169803017e+01   6.7710320256e+01    0.2711392    0.2613915  49.61  0.001826491    1.428    0.300
         6 -11.8772    226.6234    221.6264   9.1990398989e+01  -1.9775161942e+00    0.1911908    0.1643126  65.89  0.001313988    2.009    0.502
         7 -10.5166    174.0000    222.4916   1.0120444597e+02   6.1095798698e+00    0.2168762    0.0686913 -44.10 0.0009336607    3.926    0.745
         8 -11.2538    149.1177    222.6878   1.0573076099e+02   1.0023888872e+01    0.1862423    0.1624749 -86.21  0.001331853    1.433    0.302
         9 -11.5281    240.1071    216.1401   8.8910540031e+01  -3.3874526581e+00    0.2879996    0.1103621 -40.00  0.001346321    3.648    0.726
        10 -11.1407    224.9750    212.8011   9.0860260047e+01  -7.3906496849e-01    0.1749421    0.1321269  56.90   0.00108888    1.988    0.497
        11 -11.2380    233.1856    211.4087   8.9265665913e+01  -1.8386610072e+00    0.1605242   0.09704854  44.09 0.0008587986    1.702    0.413
        12 -10.8257    115.7468    209.4739   1.1038868134e+02   1.7312027308e+01    0.2345011     0.142853 -79.54  0.001290625    2.208    0.547
        13 -11.0851     49.2978    201.7129   1.2243442026e+02   2.7735880227e+01    0.3201038    0.1503043  78.91  0.001703524    2.289    0.563
        14 -10.8798     41.6562    201.1538   1.2383854234e+02   2.8706363473e+01    0.2191152    0.1386324 -68.25 0.0009403037    1.677    0.404
        15 -10.9510    149.0094    198.2931   1.0244806588e+02   1.3824993284e+01    0.2460402    0.1611888 -85.75   0.00118667    2.767    0.639
        16 -10.0054    185.6606    204.3442   9.6412526597e+01   6.6998335486e+00     0.119238    0.0942263  68.26 0.0007048419    1.778    0.437
        17 -12.3734    159.8535    192.1497   9.9388861142e+01   1.2970955522e+01    0.5783283    0.4208695  77.99  0.003123753    2.038    0.509
        18 -10.2650    215.3738    194.1796   8.9368730998e+01   3.0831576548e+00    0.1631983    0.1131681 -41.82 0.0009532104    1.801    0.445
        19  -9.9707    217.6717    188.3348   8.7925298589e+01   3.4633065388e+00    0.1129455    0.1020623  78.65 0.0007051893    1.723    0.420
        20 -11.1817    224.1758    184.1225   8.6019529933e+01   2.9144632196e+00    0.1580114    0.1521552  21.37 0.0009013135    1.348    0.258
        21 -10.6821    183.4119    183.1569   9.3301120709e+01   1.0223685529e+01    0.3391032    0.1262937 -37.21  0.001360071    3.132    0.681
        22 -10.1855    105.6714    175.3397   1.0809591075e+02   2.5190009557e+01    0.1384011   0.09035689  70.97 0.0007051687    1.736    0.424
        23 -11.1447     38.0181    174.7693   1.2261648317e+02   3.4319755781e+01    0.1461127   0.08645157  40.35 0.0008865348    1.670    0.401
        24 -11.8532    120.9307    167.7973   1.0361818086e+02   2.4173034136e+01    0.3938376     0.174153 -63.07  0.001577213    2.909    0.656
        25 -10.5900     54.9224    167.1134   1.1827796907e+02   3.4016369606e+01      0.20354    0.1352122  69.77  0.001223282    1.358    0.264
        26 -10.3477    138.3297    164.0028   9.9155172304e+01   2.1834954950e+01    0.2150792    0.1129903 -72.90 0.0007050941    4.331    0.769
        27 -11.9372    106.6418    158.0342   1.0527994670e+02   2.8580052468e+01    0.5833619    0.3213029  65.28  0.002506773    2.423    0.587
        28 -10.4432     92.3270    159.9898   1.0889300338e+02   3.0442924740e+01    0.2153986    0.1030081 -84.69 0.0007051717    4.366    0.771
        29 -11.2021    167.6738    157.4438   9.1640796504e+01   1.7492945279e+01    0.3299479    0.2385995  62.45  0.001491537    1.653    0.395
        30 -10.9130    218.3703    156.4002   8.1588052534e+01   7.8206647395e+00    0.3277429     0.115692 -39.39  0.001249826    2.967    0.663
        31 -10.8411    118.4244    156.7721   1.0235423074e+02   2.6842521291e+01    0.2344555    0.2036482 -81.47  0.001037684    1.177    0.150
        32  -9.7049     23.4880    153.5071   1.2406592605e+02   4.0271356557e+01    0.1189464   0.09014678  81.32 2.551494e-05    1.034    0.033
        33  -9.8604     40.4440    152.5140   1.2008597437e+02   3.8819694833e+01    0.1242863   0.09621345  80.57 0.0002545627    1.066    0.062
        34 -10.7576    189.8014    150.3492   8.5681905523e+01   1.4343301285e+01    0.3257621    0.1904135 -53.63   0.00141315    2.319    0.569
        35 -11.3962    107.0096    145.1745   1.0301582592e+02   3.1270008307e+01    0.5262203    0.2963896  78.29  0.001918592    3.432    0.709
        36 -10.8201    148.4314    144.5981   9.3202213289e+01   2.3711581644e+01    0.3443754     0.208606 -77.45  0.001228449    3.490    0.713
        37 -10.3080    181.7920    141.9611   8.5474820598e+01   1.7422913348e+01    0.2323424    0.1707322 -69.82  0.001079421    2.028    0.507
        38 -10.6146    131.8685    131.1709   9.4210230118e+01   2.9729594991e+01    0.3667992     0.202724 -73.33  0.001206706    3.742    0.733
        39 -10.9698     82.9947    131.7518   1.0667871301e+02   3.8127422863e+01    0.2609593    0.1699911 -79.18  0.001290012    1.658    0.397
        40 -12.3007     99.7250    129.0149   1.0181808654e+02   3.6088013172e+01    0.6990583    0.4037649  77.88  0.002611131    3.153    0.683
        41 -10.6171    117.6487    125.3338   9.6457215293e+01   3.3717949881e+01     0.154442    0.1123207  81.34 0.0007046555    1.782    0.439
        42 -11.0122     43.7862    124.1869   1.1593633584e+02   4.4910432540e+01    0.2904525    0.1166305  54.67  0.001198353    3.008    0.668
        43 -11.5438     26.9021    120.6159   1.2004217600e+02   4.7371114898e+01     0.593022     0.219892  80.22  0.001762621    6.067    0.835
        44 -11.7563    193.5707    118.9761   7.7736936027e+01   1.8958211189e+01    0.4803501    0.3990276 -89.44   0.00140078    1.623    0.384
        45 -10.1422     70.3331    119.6521   1.0793901329e+02   4.2754145330e+01    0.1450974   0.09670831  76.35 0.0007048676    1.771    0.435
        46 -11.6714    141.2557    115.6942   8.8351240944e+01   3.1070609456e+01    0.7531669     0.238851 -43.01  0.002368432    3.204    0.688
        47 -10.7480      2.1356    115.6377   1.2616371446e+02   5.0344900370e+01    0.1717007    0.1152305  89.27  0.001132811    1.171    0.146
        48 -10.9215    108.4154    112.8618   9.6063143908e+01   3.8206364372e+01    0.5595931    0.2437596 -66.10   0.00162604    4.394    0.772
        49 -11.2867     78.3546    111.5477   1.0412678526e+02   4.3510439213e+01    0.5011381     0.234009 -70.02  0.001923713    2.647    0.622
        50 -10.6897    174.2210    110.9218   7.9645801410e+01   2.4748609371e+01    0.3290656    0.2021372 -48.43  0.001405316    1.751    0.429
        51 -12.1284    159.7262    110.8185   8.2795319421e+01   2.8035438115e+01    0.5464604    0.3489738 -52.04  0.002372291    1.720    0.418
        52 -11.5301    121.8852    111.3783   9.2147697885e+01   3.5963236010e+01    0.3710738    0.1968304 -56.36  0.001485251    2.049    0.512
        53 -11.6448     14.0671    109.6613   1.2234002132e+02   5.0923616962e+01    0.4900018    0.1965763 -83.70  0.002270009    2.307    0.567
        54 -10.7374     91.5640    110.2688   1.0010843168e+02   4.1738515978e+01    0.2812632    0.1346881 -59.77  0.001136792    2.097    0.523
        55 -10.8807    133.5193    108.4062   8.8429592888e+01   3.4229706715e+01    0.4322316    0.1915189 -52.58  0.001537633    2.508    0.601
        56 -12.7067    140.8792    103.5102   8.5322310512e+01   3.3679622963e+01    0.6656954    0.4521225 -54.57  0.002987832    1.581    0.368
        57 -12.1191    150.8555    103.6338   8.2955116090e+01   3.1447678667e+01    0.3802771    0.2482753  81.17  0.001413408    2.733    0.634
        58 -12.1328     44.2757    100.7118   1.1216551220e+02   5.0393065072e+01    0.6138476    0.3215597  89.65  0.002650584    2.600    0.615
        59 -12.0564    128.0666    101.4726   8.8013912030e+01   3.6845675560e+01    0.4678252    0.2433889 -59.18  0.001710587    2.509    0.601
        60 -13.0833    110.1219     99.7928   9.2384743429e+01   4.0808580207e+01     1.091902    0.5707694  64.46  0.003623188    3.568    0.720
        61 -11.0463     82.0303    100.6828   1.0069155463e+02   4.5489470293e+01    0.1963399    0.1874055  77.16  0.001162853    1.093    0.085
        62 -11.0806     95.8297     97.2443   9.5792811580e+01   4.4000058988e+01    0.4192322    0.2848949  83.89  0.001808055    2.248    0.555
        63  -9.8144     50.8577     98.5983   1.0974883138e+02   5.0175348959e+01    0.1630549    0.1188601  51.08 0.0004069673    1.515    0.340
        64 -11.2487     62.8920     95.6620   1.0540113568e+02   4.9403171333e+01    0.4304127     0.187541 -77.24  0.001262477    4.971    0.799
        65 -12.5046    170.3152     90.9456   7.5072232028e+01   2.9373908024e+01    0.4032885    0.3095532  62.35  0.001096275    1.429    0.300
        66 -11.8245     42.4743     87.9098   1.1034455073e+02   5.3606683805e+01    0.3472238    0.2213164 -16.03  0.001210307    2.456    0.593
        67 -10.6459    151.2104     87.7837   7.8434648886e+01   3.4498050409e+01    0.2246711    0.1888929   3.28  0.001083449    1.381    0.276
        68 -11.5629     87.2124     87.2534   9.5768569531e+01   4.7740300350e+01    0.4206935    0.2581654  70.52  0.001662625    2.812    0.644
        69 -10.7848    140.6870     82.8820   7.9516903728e+01   3.7898350872e+01    0.3929828    0.1804364 -45.61  0.001427894    2.204    0.546
        70 -11.6228    104.2450     82.6298   8.9323540023e+01   4.5703876766e+01    0.5283726    0.2506114 -56.93  0.001926495    2.535    0.606
        71 -10.8494     46.0259     82.4150   1.0800506232e+02   5.4524220833e+01    0.3713534    0.1931429  89.01  0.001353701    3.795    0.736
        72 -10.2250    119.3009     80.6565   8.4437242660e+01   4.3080939632e+01     0.155258    0.1206397 -78.01 0.0003584525    1.677    0.404
        73 -11.7569     82.3865     73.2522   9.3322310534e+01   5.1664907201e+01    0.4677498    0.2694195 -74.19  0.001677772    3.367    0.703
        74 -11.6857    223.5242     71.1014   6.0005782450e+01   1.9830817148e+01    0.3033949    0.2409761 -37.85 0.0006453053    1.173    0.147
        75 -10.7832    115.8275     72.9904   8.3012686367e+01   4.5385875334e+01      0.25845    0.1756085 -67.61  0.001084601    2.053    0.513
        76 -10.9521     62.4070     70.7702   9.9395082691e+01   5.5220807782e+01    0.2083714    0.1105336 -46.03 0.0009570413    1.689    0.408
        77 -10.6602     51.5894     70.7894   1.0325443028e+02   5.6584666876e+01    0.1922626    0.1169038 -67.48 0.0008219779    1.669    0.401
        78 -13.0129    234.8966     63.0861   5.6308016558e+01   1.8335014721e+01    0.7998594    0.4576123 -89.31  0.003178318    2.919    0.657
        79 -10.6407    194.5148     67.5158   6.3590284768e+01   2.7426163765e+01    0.1519573    0.1460189 -34.75  0.000810264    1.012    0.012
        80 -13.5383     30.6410     60.1291   1.0839030377e+02   6.1145991268e+01     1.025928    0.5773054  34.31  0.003950293    2.109    0.526
        81 -11.7186     19.4897     59.3847   1.1261648435e+02   6.2187741733e+01    0.2769411    0.1709887 -50.00 0.0008991458    1.340    0.254
        82 -11.5326      7.9711     56.1333   1.1652492265e+02   6.3629726806e+01    0.4359827    0.1574271 -73.85  0.001920605    2.569    0.611
        83 -10.5253    119.3381     56.6718   7.6510632285e+01   4.7767271048e+01    0.1549185    0.1204231 -73.76 0.0003644574    1.731    0.422
        84 -12.4709    149.2087     52.2275   6.7559415784e+01   4.1378001738e+01    0.3485167    0.2980884  51.88 0.0004390201    1.176    0.150
        85 -10.4214     39.4532     53.0002   1.0289544393e+02   6.1892369160e+01    0.1980701    0.1058462 -53.43 -5.704984e-05    1.531    0.347
        86 -11.9119     20.8559     51.4335   1.1016143897e+02   6.3868540690e+01    0.5688958     0.199835 -62.33  0.002535286    2.256    0.557
        87 -10.5020    156.9937     45.0026   6.3430210263e+01   4.0517198282e+01    0.2245393    0.2226481  63.21 0.0003783731    1.028    0.027
        88 -11.2467      7.3317     43.1657   1.1395969725e+02   6.6532764855e+01    0.5086786    0.2212528  42.44  0.002501767    3.240    0.691
        89 -11.5922     70.2590     42.2219   8.6887444980e+01   6.0039084420e+01    0.4019982    0.2869469  70.81  0.001905246    2.461    0.594
        90 -11.5278     41.6016     37.6924   9.6841895744e+01   6.4874206518e+01    0.3589171    0.2031056 -29.75  0.001403719    1.866    0.464
        91 -11.3097    120.2815     34.4413   6.7868061521e+01   5.1238048758e+01    0.2685606    0.2584303 -14.41 0.0005864965    1.054    0.051
        92 -11.6947     28.5205     32.3233   1.0082656755e+02   6.7300605098e+01    0.2950051    0.2170474  29.08  0.001016017    1.633    0.388
        93  -9.7831    106.5920     30.1599   6.9808972097e+01   5.5022438279e+01    0.2016748    0.1336956 -14.75 0.0009342766    1.633    0.388
        94 -10.5505    101.5108     28.7142   7.0661944074e+01   5.6356713022e+01    0.3689701    0.1276421 -34.50  0.001317559    2.720    0.632
        95 -10.9600     68.3457     24.1222   7.9822734834e+01   6.3541257544e+01     0.215624    0.1955132 -12.16 0.0002236195    1.091    0.083
        96 -10.1326    248.4459     23.5150   4.4623390875e+01   2.0225297094e+01    0.1338386    0.1154216 -48.36 0.0001262047    1.010    0.010
        97 -12.1360    221.7916    248.6645   9.6718215762e+01  -4.0652039563e+00    0.4010513    0.1677702  41.39  0.002300605    1.945    0.486
        98 -10.6518    239.9276     20.8486   4.4688168548e+01   2.2484501354e+01    0.2059728    0.1808092 -53.15 0.0006893123    1.014    0.014
        99 -10.3535     89.0588     18.2055   6.9738373500e+01   6.0486292040e+01    0.2132362    0.1675389 -83.76  0.001084558    2.023    0.506
       100 -10.9775     12.9445    227.5305   1.3021816701e+02   2.6937398128e+01    0.1824412   0.09369002  72.18 0.0005354602    1.467    0.319
       101 -10.0001    104.0000    224.9902   1.1424120430e+02   1.6473308377e+01    0.1579641   0.06409256 -61.86  0.000800822    2.931    0.659
       102 -11.1822     95.6655    224.6921   1.1572797233e+02   1.7696255184e+01    0.2455152    0.1272521  64.83  0.001353923    2.088    0.521
