#   1 NUMBER                 Running object number                                     
#   2 MAG_AUTO               Kron-like elliptical aperture magnitude                    [mag]
#   3 X_IMAGE                Object position along x                                    [pixel]
#   4 Y_IMAGE                Object position along y                                    [pixel]
#   5 X_WORLD                Barycenter position along world x axis                     [deg]
#   6 Y_WORLD                Barycenter position along world y axis                     [deg]
#   7 A_WORLD                Profile RMS along major axis (world units)                 [deg]
#   8 B_WORLD                Profile RMS along minor axis (world units)                 [deg]
#   9 THETA_WORLD            Position angle (CCW/world-x)                               [deg]
#  10 FWHM_WORLD             FWHM assuming a gaussian core                              [deg]
#  11 ELONGATION             A_IMAGE/B_IMAGE                                           
#  12 ELLIPTICITY            1 - B_IMAGE/A_IMAGE                                       
         1 -12.8067    125.9799     28.3443   4.0812313522e+01   5.0325826907e+01    0.8626495    0.8200665  53.96  0.003896842    1.134    0.118
         2 -13.0527    119.8431     38.4669   4.6122892023e+01   5.0240517051e+01    0.8599951    0.6267252 -53.85  0.003519382    1.677    0.404
         3 -12.1189    164.1940     28.4911   3.2721950244e+01   4.0867876342e+01    0.6595848    0.3532673 -28.57  0.002789035    1.920    0.479
         4 -12.8342    160.0125     29.7983   3.3948239407e+01   4.1780571276e+01    0.6698021    0.5582762  -4.08 0.0004071739    1.308    0.235
         5 -12.5352    105.8843     22.9450   4.3936219509e+01   5.5456252973e+01    0.5285655    0.4028267  13.53  0.001539603    1.335    0.251
         6 -13.2579    163.8780     19.0345   2.9618998434e+01   4.2109101416e+01    0.4551212    0.3017597  40.14 0.0009232026    1.546    0.353
         7 -12.3850    104.6848     13.1101   4.0243851087e+01   5.6940819217e+01    0.5633132    0.3311048 -18.70  0.002237639    1.722    0.419
         8 -12.6490    106.8555      2.6638   3.5291689407e+01   5.7602107505e+01     1.321072    0.4454133  60.98  0.004848583    3.318    0.699
         9 -12.1384    152.6093     23.4364   3.3203630946e+01   4.4485263853e+01     1.189968    0.6750965 -63.27  0.004538876    2.830    0.647
        10 -11.6818    155.6647     19.7181   3.1331542621e+01   4.4152490762e+01    0.7509654    0.3768557  81.50  0.002431454    3.163    0.684
        11 -13.6750    140.9462     23.1728   3.5489056493e+01   4.7434097068e+01     1.415604     0.882368 -47.86  0.006462181    1.890    0.471
        12 -13.0199    128.0789     13.6199   3.4726480218e+01   5.1659108817e+01     1.043252    0.4015767 -33.80  0.004095282    2.605    0.616
        13 -13.2663    121.4804      8.8957   3.4368556312e+01   5.3707502533e+01    0.9606646    0.5515302 -24.18  0.004530191    1.773    0.436
        14 -12.0738     26.6292     27.8757   7.3930118008e+01   6.6381774791e+01    0.4916407    0.3129323 -33.27  0.002058488    1.302    0.232
        15 -12.2732     35.7723     18.7361   6.6652229639e+01   6.7096404179e+01    0.9135838    0.2931853 -39.62   0.00413423    2.542    0.607
        16 -11.8961     29.0683      3.0163   6.2640667508e+01   7.0207100447e+01    0.2599601    0.2527032  71.54  0.001378508    1.814    0.449
        17 -12.7875     48.0982     12.7349   5.8993138697e+01   6.6611799654e+01    0.5871309      0.29546  41.90  0.003059674    2.450    0.592
        18 -12.5721     35.3210      8.8108   6.2560052949e+01   6.8697431395e+01    0.5929633    0.2666947  44.99   0.00203616    3.769    0.735
        19 -11.5097    232.8769      6.6122   1.6987207852e+01   2.5458163003e+01    0.5357172    0.2841553 -55.20   0.00246865    1.886    0.470
        20 -12.2416    233.3425     19.7434   2.0313636820e+01   2.3836853442e+01    0.6688733    0.5825527 -20.90  0.003521979    1.282    0.220
        21 -13.0848    246.7830      5.5192   1.5464187483e+01   2.2164749322e+01     1.138807    0.6894812  46.38   0.00190129    2.038    0.509
        22 -12.4343    236.6154      4.2914   1.6056145200e+01   2.4780377930e+01    0.9180455    0.3655602 -50.40  0.003728756    2.480    0.597
        23 -12.6984    223.6705     11.4962   1.9179305433e+01   2.7245897647e+01    0.5493096    0.3383155 -60.18  0.001300072    1.671    0.402
        24 -12.6089    246.7643     16.6877   1.8187891546e+01   2.0893194527e+01    0.6817039    0.4305685  46.18  0.003087708    1.912    0.477
        25 -12.6508     20.0258     22.1126   7.4665928036e+01   6.7940216118e+01    0.5525642    0.2038027 -47.42  0.002884918    1.996    0.499
        26 -12.4832     15.6202     14.6017   7.3813649618e+01   6.9567879905e+01     0.645575     0.290372 -30.40  0.003585357    2.099    0.524
        27 -12.1946     22.6096     11.6147   6.9439974028e+01   6.9501896356e+01    0.4555396    0.2575715 -24.32  0.002019771    1.625    0.384
        28 -11.2625     13.7003      8.8949   7.2426029324e+01   7.0656998027e+01    0.2240749    0.1622768 -13.64  0.001671612    1.285    0.222
        29 -12.4464     89.7322     19.6910   4.7310195986e+01   5.9082216432e+01    0.7689475    0.5151561 -39.38  0.003499441    1.599    0.375
        30 -11.4456     85.9002     13.4487   4.5822433401e+01   6.0608302595e+01    0.3209417    0.2392624  -4.08  0.001281877    1.263    0.208
        31 -11.3126     90.7863     11.3935   4.3439211158e+01   5.9940094108e+01    0.3483063    0.2246705  58.91  0.001198337    1.911    0.477
        32 -11.5533     87.5081      8.0408   4.2944700156e+01   6.0959686388e+01    0.5173538    0.3046396  29.88  0.002615528    1.698    0.411
        33 -12.6396     68.6861     17.9196   5.3508768743e+01   6.2944584512e+01    0.5632449    0.4122807   3.43  0.002694288    1.347    0.258
        34 -11.2015     46.7109     19.2859   6.2397395960e+01   6.5783399514e+01    0.3012657    0.1955442 -30.13  0.001459958    1.272    0.214
        35 -11.1690    176.6248      5.7182   2.3261033530e+01   4.0193722614e+01    0.3799295    0.2206191  88.32 0.0008883068    2.028    0.507
        36 -11.4248    201.7925      2.6703   1.9150393027e+01   3.3860709910e+01    0.2896751    0.2564088  56.74 0.0006724385    1.149    0.130
        37 -13.4609    185.2273      8.1959   2.2842341946e+01   3.7669840304e+01    0.9767812    0.5041109 -59.35   0.00266501    2.485    0.598
        38 -12.2664    195.2633      5.2438   2.0664014175e+01   3.5318872614e+01    0.7106752    0.3807016  43.43  0.002523803    2.075    0.518
        39 -11.7765    211.6063     11.1294   2.0409208706e+01   3.0403356649e+01    0.5673647    0.3817964  10.57  0.002653787    2.118    0.528
        40 -10.4895    140.5243     12.4839   3.1675528170e+01   4.8779452529e+01     0.268381    0.1706527 -19.48  0.001023209    1.666    0.400
        41 -10.7016    139.6276      9.2926   3.0677971547e+01   4.9337069768e+01    0.2715323    0.2036179  87.54 0.0009586392    1.628    0.386
        42 -10.9162    157.5707     11.4437   2.8137837570e+01   4.4585097368e+01    0.2650509     0.234273   6.31 0.0009977991    1.203    0.169
        43 -10.1222      5.3030      9.3480   7.6592292853e+01   7.1146784959e+01    0.1768322    0.0709151 -46.99 0.0005725818    1.753    0.430
        44 -10.9212    176.8795     10.7388   2.4818225107e+01   3.9612286045e+01    0.2418834    0.2168513  45.79 0.0006072043    1.112    0.100
        45 -10.3294    162.1064     10.9483   2.7200998542e+01   4.3463883348e+01    0.3039289    0.1707739  23.97 0.0009217718    2.400    0.583
        46 -10.3264    145.4804      9.3729   2.9584204542e+01   4.7874677991e+01    0.2315688    0.1762095  20.57 0.0006695582    1.398    0.285
        47 -10.6856     65.1099     10.1908   5.1334337330e+01   6.4563640265e+01    0.2538547    0.1691396  49.79 0.0008183267    1.922    0.480
        48 -10.7657     62.4821      6.5349   5.0586481695e+01   6.5441642251e+01     0.286873    0.1813245   2.05  0.001614814    1.682    0.406
        49 -10.7082    153.6278      7.0623   2.7300774330e+01   4.6045611665e+01    0.2375898    0.1890784  76.86 0.0007462188    1.292    0.226
        50 -12.3949     75.2222      4.5759   4.5236238266e+01   6.3590579749e+01    0.4800594    0.3958664 -40.79  0.002543452    1.536    0.349
        51 -10.9732     68.7176      3.4834   4.6917493922e+01   6.4819550035e+01    0.3559497    0.1810945 -22.49  0.001663754    1.836    0.455
        52 -12.3916    157.8047      3.7053   2.5443755106e+01   4.5299534451e+01    0.4278643    0.3415141 -50.58  0.001379317    1.393    0.282
        53 -11.1385    142.1150      4.8863   2.8582325132e+01   4.9160403188e+01    0.3598903    0.2835385 -42.00  0.001274847    1.417    0.294
        54 -11.1065    137.7632      4.4185   2.9231973959e+01   5.0279303845e+01    0.2650273    0.2172321  43.39 0.0005673695    1.107    0.097
        55 -11.5676    133.5581      2.4400   2.9303704535e+01   5.1490114591e+01    0.4360368    0.2372694  54.25  0.002062146    1.618    0.382
        56 -10.6064     55.5473      5.4881   5.2690370349e+01   6.6606180314e+01    0.2084986    0.1761988 -68.12 0.0008960154    2.195    0.544
        57 -10.3063     22.2274      4.3213   6.6416839809e+01   7.0675273029e+01    0.1787076    0.1279828 -55.59  0.001176794    1.991    0.498
        58 -11.8121    225.1044      2.2278   1.6600117811e+01   2.7882621210e+01    0.5632943     0.256809  79.01  0.001710488    2.195    0.544
        59 -10.4783     41.9626      3.5203   5.7218843295e+01   6.8679595013e+01    0.2731283    0.1223069 -29.24  0.001435652    1.949    0.487
        60  -9.9668    207.2406      3.2159   1.8696318696e+01   3.2380722524e+01    0.1933413    0.1485015 -67.77 0.0007291596    1.291    0.225
        61 -11.7265      3.1038      1.8362   7.4648419501e+01   7.2513539273e+01    0.3368663    0.1642586   5.62  0.002080516    2.513    0.602
        62 -10.6304    218.8435      2.7924   1.7362525275e+01   2.9420775880e+01    0.2327802    0.1926564  -3.74   0.00131042    1.483    0.326
        63 -10.1934     13.7353      1.6062   6.9248871986e+01   7.1805834129e+01    0.1796272   0.09561809  14.89    0.0011371    2.140    0.533
        64 -10.1889     48.8178    112.3030   8.6893034662e+01   4.6642665188e+01    0.1880438     0.143848  67.20 0.0009950473    1.393    0.282
        65 -11.1751    212.2825    110.6354   4.7624506653e+01   1.5275306871e+01     0.543835    0.3141426  52.35  0.002312816    1.748    0.428
        66 -10.8851    101.2762    110.1632   7.2674752473e+01   3.9754595366e+01    0.2672273    0.2109027 -30.82  0.001035151    1.519    0.342
        67  -9.8978    129.7080    109.6926   6.5333962931e+01   3.4465680372e+01     0.145225     0.120447  -6.79 0.0001731553    1.580    0.367
        68 -11.4202     80.0751    107.9571   7.7794311300e+01   4.3639760420e+01    0.3637356    0.2550612  29.08 0.0007634769    1.767    0.434
        69 -10.1224     15.2687    108.9946   9.5024538661e+01   5.0418605275e+01    0.2299849    0.1049836  57.76  0.001181693    2.712    0.631
        70 -10.9627    228.3446    107.4073   4.3948273245e+01   1.2070438424e+01    0.3216442      0.23198  49.17  0.001212047    1.415    0.293
        71 -12.5268    180.9075    102.9350   5.1821270142e+01   2.4214246294e+01    0.7693996    0.6055892  78.43  0.003589528    1.529    0.346
        72 -11.5047    143.6354    106.1893   6.1060474906e+01   3.2243113431e+01    0.3745401    0.2954787  84.11  0.001108353    1.552    0.356
        73 -11.9776    145.5108    100.6391   5.9157730031e+01   3.2975142377e+01    0.5705633    0.3091567 -31.21  0.001959027    2.291    0.564
        74 -11.4607    236.4965    100.4687   4.0854089601e+01   1.1324311488e+01    0.3848467    0.3304423 -14.67  0.002065511    1.166    0.142
        75 -10.7324    118.8451    106.0816   6.7172246103e+01   3.7420629993e+01    0.2253791    0.1924647 -86.53 0.0004735589    1.271    0.213
        76 -10.6199    189.8054    103.9500   5.0256874084e+01   2.1867985761e+01    0.3929835    0.2094249 -25.79  0.001161167    2.351    0.575
        77 -11.8737    241.0416    103.2546   4.0810840332e+01   9.8473935319e+00    0.4928907     0.184806 -37.57  0.001797009    2.462    0.594
        78 -10.3831     35.1362    103.5983   8.9097962724e+01   4.9965640031e+01    0.1465698    0.1173287  -4.08 0.0009494529    1.795    0.443
        79 -10.6739    194.6340    101.9070   4.8754381502e+01   2.1068662140e+01    0.2869206    0.2339392  62.99 0.0007825957    1.293    0.227
        80 -10.8279     51.3782     99.6917   8.3978892081e+01   4.9191642495e+01    0.6142158   0.09761878 -51.49  0.001830097    4.950    0.798
        81 -11.5610     17.3209    100.6868   9.3412811393e+01   5.2079243481e+01    0.2325739    0.1618898 -65.12 0.0005904697    1.142    0.125
        82 -11.7992    225.9189     99.2668   4.2312619103e+01   1.3982626023e+01    0.7528285    0.4616993  86.62  0.002724644    3.143    0.682
        83 -10.5011    220.7056    101.0913   4.3680293529e+01   1.4912932675e+01      0.21711    0.1884349 -31.57 0.0009993865    1.122    0.109
        84 -11.8900      9.6313     97.5198   9.5023328400e+01   5.3297998292e+01    0.3702347     0.253105  70.86 0.0004946372    1.577    0.366
        85 -11.3621    210.8366     97.2216   4.4443559688e+01   1.7947590194e+01    0.5676205    0.3188796  35.60  0.002217134    2.176    0.540
        86 -10.1933     80.7733     98.2520   7.5478162396e+01   4.5712657700e+01    0.1806573    0.1512575 -32.68 0.0005241063    1.337    0.252
        87 -10.4666    190.6759     96.5803   4.8123086772e+01   2.3009663503e+01    0.3093906    0.1916267 -39.73   0.00111996    1.603    0.376
        88 -10.1063    183.7097     96.0186   4.9384477558e+01   2.4828249196e+01    0.2228979    0.1996944 -35.34 0.0004953524    1.120    0.107
        89 -11.6069     69.0438     95.5745   7.8170024649e+01   4.7961706549e+01    0.2394021    0.2358062 -68.44 0.0005146514    1.152    0.132
        90 -11.0745     19.7111     82.7579   8.9995812821e+01   5.5805710257e+01    0.2942024    0.1491689 -74.12 0.0008378063    1.745    0.427
        91 -11.5969     22.4500     94.8627   9.1178625473e+01   5.2967430913e+01    0.2809373    0.2083747 -38.28  0.001549856    1.560    0.359
        92 -12.3583     18.1797     90.7049   9.1725746329e+01   5.4192242281e+01    0.3456905    0.2078165 -74.82 0.0004894615    1.363    0.266
        93 -10.9711    199.4647     94.7425   4.5910490181e+01   2.1171560033e+01    0.4830941     0.217908  45.62  0.001744403    2.289    0.563
        94 -10.6406    115.0276     93.9336   6.5056269990e+01   4.0783938519e+01    0.5801115    0.2255589  35.78  0.001886505    3.519    0.716
        95 -11.3498    121.6027     94.1788   6.3395848520e+01   3.9429680351e+01    0.2923832    0.2499197 -13.61   0.00131171    1.383    0.277
        96 -11.2652     35.4445     93.1639   8.7257385928e+01   5.2250517540e+01    0.2939933    0.1795679 -61.33   0.00115161    1.297    0.229
        97 -12.5335    236.1723     92.1968   3.8825283038e+01   1.2723973314e+01    0.5401374    0.3852472  66.03  0.002209232    1.593    0.372
        98 -11.9989    236.3093     87.6819   3.7655426885e+01   1.3410283825e+01    0.2880886    0.2437868 -88.99   0.00150428    1.382    0.277
        99 -11.1610     82.5381     93.4738   7.3863559890e+01   4.6508576478e+01    0.3067533    0.1418469  34.08  0.001209507    2.600    0.615
       100 -11.6604    217.3730     90.7639   4.1582004437e+01   1.7453516591e+01    0.4516608    0.3206761 -42.38  0.001847136    1.389    0.280
       101 -10.5824    151.9594     92.4781   5.5402226077e+01   3.3154768547e+01    0.2420235    0.1530412  50.12  0.001032404    1.591    0.371
       102 -11.6702     98.4626     91.0925   6.8802647900e+01   4.4442929929e+01    0.2366983    0.2314077  70.60 0.0001107673    1.094    0.086
       103 -12.9143     89.0219     89.9830   7.1165518852e+01   4.6262861122e+01    0.3314997    0.2717643 -48.38  0.000606091    1.120    0.107
       104 -12.2996      7.2487     89.1141   9.4539903535e+01   5.5257649041e+01    0.4029188    0.3248183  33.29  0.001825076    1.618    0.382
       105 -10.4812     49.5090     91.2723   8.2861523951e+01   5.1272126568e+01    0.2491859    0.1388752  48.88  0.001292285    2.177    0.541
       106 -10.2575    155.4960     90.0504   5.3896593651e+01   3.2805413175e+01    0.2441127    0.1530094 -39.85  0.001032465    1.588    0.370
       107 -11.3698    184.1233     87.2719   4.6889998739e+01   2.6333290255e+01    0.6046827    0.3179615 -43.62  0.002348537    1.924    0.480
       108 -11.3105    125.7962     94.3064   6.2346523364e+01   3.8545968513e+01    0.3512543    0.3183381  18.28 0.0008162974    1.238    0.192
       109 -10.8334     24.8546     85.6280   8.8981167204e+01   5.4798112024e+01    0.4761032    0.1907621 -75.07  0.002114057    2.669    0.625
       110 -10.8537     28.8932     84.1678   8.7531178658e+01   5.4792617210e+01    0.4291689    0.1704961 -58.39  0.002045958    1.878    0.467
       111 -12.3330    246.9681     85.7952   3.5561252762e+01   1.1232089090e+01    0.4942439    0.3409001  53.56   0.00192301    1.535    0.348
       112 -10.6251    212.4986     87.5456   4.1582243653e+01   1.9193388530e+01    0.3519147    0.2265045  17.64  0.001368379    2.395    0.582
       113 -10.9736     42.9150     94.2495   8.5333413820e+01   5.1296559948e+01    0.2441653    0.2246534  87.62  0.001429669    1.178    0.151
       114 -11.2146     44.2153     85.3598   8.3207104040e+01   5.3129677743e+01    0.3170231    0.2454012  10.96  0.001333718    1.709    0.415
       115 -10.4420     37.3463     85.7759   8.5331546075e+01   5.3702543824e+01    0.1968858    0.1398725  46.74 0.0009586252    1.689    0.408
       116 -11.1076    142.8109     84.6137   5.5355903194e+01   3.6823950813e+01    0.4536817    0.2790375  38.18 0.0007345523    1.798    0.444
       117 -10.8439    113.6035     83.0413   6.2437856309e+01   4.3357364108e+01     0.385259    0.2461299 -62.02  0.001689132    1.894    0.472
       118 -11.1184     80.3586     84.1213   7.2163905754e+01   4.8884182529e+01     0.342877    0.2331125 -46.93  0.001807159    1.325    0.245
       119 -10.9610    218.1718     83.3679   3.9483808728e+01   1.8488226363e+01    0.2821319    0.2281189 -50.89 0.0005303047    1.267    0.211
       120 -10.7750    165.6091     83.6968   4.9794257743e+01   3.1589174361e+01    0.3069557     0.273857 -62.16  0.001020281    1.184    0.155
       121 -12.3218    234.7805     60.6822   3.0876816031e+01   1.7943694646e+01    0.5704138    0.4353247 -54.51  0.002018077    1.318    0.241
       122 -11.0081    250.0731     76.2883   3.2739660825e+01   1.1966119414e+01     0.282664    0.2239255  83.38 0.0009096049    1.477    0.323
       123 -11.9433    234.6588     77.9459   3.5405215538e+01   1.5337111029e+01    0.4827287    0.3995453  82.27     0.001147    1.363    0.266
       124 -13.5733    242.9417     77.2542   3.3996328575e+01   1.3476300707e+01    0.7521387    0.6591614 -39.61  0.001817471    1.071    0.066
       125 -12.2511    237.7993     68.9773   3.2613241882e+01   1.5962831028e+01    0.7798697    0.5775561  27.37  0.003783229    1.671    0.402
       126 -10.4524     66.7947     82.2219   7.5716318789e+01   5.1202558449e+01    0.2518151    0.1960547 -39.54  0.001476537    1.256    0.204
       127 -11.2675     76.2633     78.9990   7.2041792750e+01   5.0591443453e+01    0.3122378    0.2289023 -50.27  0.001733583    1.201    0.167
       128 -11.5580     53.3011     76.6268   7.8484844484e+01   5.4061186919e+01      0.48818    0.2533917 -61.37  0.002430189    1.751    0.429
       129 -11.0317     58.3558     77.7362   7.7186240394e+01   5.3233479785e+01    0.2368735    0.1929738 -40.71 0.0007658574    1.172    0.147
       130 -10.0524    140.5510     77.5114   5.3813965672e+01   3.8729423447e+01    0.1520292    0.1482714 -50.30 8.098769e-05    1.027    0.026
       131 -10.6812     94.6008     76.5023   6.5910329001e+01   4.8213984889e+01    0.4403065     0.234164  46.54  0.001953451    2.094    0.522
       132 -12.1639     87.2286     73.4462   6.7206762342e+01   5.0080296846e+01    0.5699707    0.4206325  30.03  0.002517713    1.546    0.353
       133 -11.1932    199.1955     64.3510   3.7492883334e+01   2.6416766908e+01    0.4200221    0.3453138 -57.85  0.001684282    1.278    0.218
       134 -13.5064    185.2608     68.3339   4.1222696748e+01   2.9368507361e+01     1.549075    0.6776907 -45.59  0.005418917    2.456    0.593
       135 -11.8501    192.7132     66.1441   3.9177313297e+01   2.7805791771e+01     0.518246    0.3521529 -85.89  0.001820861    2.063    0.515
       136 -13.5879    217.2712     67.0356   3.5212220692e+01   2.1348576931e+01     1.943078    0.4857781  50.20  0.005535682    3.964    0.748
       137 -11.3141    200.6426     69.8979   3.8821896519e+01   2.5140613139e+01    0.4034803    0.2930346  68.75 0.0003147016    1.477    0.323
       138 -11.6675     13.6830     74.5066   9.0379945875e+01   5.7984507838e+01    0.4514282    0.1867422 -71.97  0.002186109    2.120    0.528
       139 -10.6571     13.9782     67.6755   8.9035678422e+01   5.9411505566e+01    0.2084346    0.1624971  32.05  0.001437538    1.656    0.396
       140 -10.4466    197.6601     74.4787   4.0660557123e+01   2.5143408511e+01    0.2591521    0.1912822  -5.04 0.0007832486    1.724    0.420
       141 -10.2033    112.1192     75.2066   6.0551139612e+01   4.5251420212e+01    0.1964812    0.1726163  82.70 0.0009315264    1.345    0.256
       142 -10.1922    103.9128     74.8893   6.2757016495e+01   4.6882759819e+01    0.2229079    0.1945434  -8.47  0.001220739    1.267    0.211
       143 -10.2880     24.5314     74.0962   8.6940168950e+01   5.7313597092e+01    0.1837455   0.09350717 -64.16  0.001015373    1.549    0.354
       144 -11.9401    162.2471     71.2952   4.6864847293e+01   3.4698199332e+01    0.4810361    0.3887558  88.58  0.001695021    1.500    0.333
       145 -11.4025     41.1924     72.6724   8.1368240375e+01   5.6180730817e+01    0.3874073    0.2037393 -60.57  0.001695772    1.589    0.371
       146 -11.2488     35.0785     71.6394   8.3086158663e+01   5.6969490819e+01    0.3425727    0.1711934  35.18  0.001847543    2.405    0.584
       147 -11.1918      2.0362     71.6041   9.3461770265e+01   5.9267920639e+01    0.2967539    0.1335395 -66.81  0.001005928    1.591    0.372
       148 -11.1768    130.5311     72.0309   5.4664336514e+01   4.2035791183e+01    0.6433947     0.249441 -47.90  0.001547803    2.839    0.648
       149 -10.7570    132.6867     69.3829   5.3288219855e+01   4.2061406711e+01     0.448035    0.2851636 -70.64  0.001047445    2.698    0.629
       150 -12.0099    122.7498     68.8423   5.5705940021e+01   4.4330737114e+01    0.4632668    0.3401523  41.69  0.001265028    1.412    0.292
       151 -11.5026    171.0401     68.2432   4.4052785825e+01   3.3027536329e+01    0.4974006    0.3656541 -36.42  0.001689416    1.359    0.264
       152 -10.3741    110.7621     69.0767   5.9052877353e+01   4.6737790715e+01    0.2097976    0.1939424 -71.06  0.001168302    1.197    0.164
       153 -11.2666     79.2292     68.2349   6.8125643423e+01   5.2411056038e+01     0.388945    0.3039087  61.08  0.002159168    1.633    0.388
       154 -11.4949     59.1645     63.6723   7.3220988505e+01   5.6104868278e+01    0.3195046    0.2056705 -56.20  0.001189044    1.420    0.296
       155 -12.3672      4.6786     62.2221   9.1025706720e+01   6.1087952678e+01    0.4530235    0.3004305 -44.77  0.002057235    1.366    0.268
       156 -11.3059     10.0479     62.5122   8.9317894805e+01   6.0730403296e+01    0.2775759    0.1660424 -50.28  0.001255476    1.335    0.251
       157  -9.8909     21.0246     64.9954   8.6205056265e+01   5.9500905843e+01    0.1444591    0.1005391 -59.54 0.0004148726    1.103    0.094
       158 -11.3817    104.7882     62.8936   5.8787273795e+01   4.9094729816e+01    0.3400913    0.2620188  71.45  0.001279834    1.760    0.432
       159 -11.5079     91.0234     62.5118   6.2743716151e+01   5.1658310957e+01    0.5022576    0.3208596  62.77  0.002270993    2.389    0.581
       160 -11.3851     89.8854     57.8744   6.1593850477e+01   5.2751126750e+01    0.4731056    0.3271636  40.83  0.002477762    1.573    0.364
       161 -12.2566    154.7296     41.3636   3.8910561053e+01   4.1515897608e+01     1.164316    0.4068192 -41.40  0.003849031    3.006    0.667
       162 -11.8778    159.0358     62.3652   4.4814336045e+01   3.7066761194e+01    0.8099087    0.6314213  21.41  0.003064234    1.507    0.336
       163 -12.3312    160.6265     56.2192   4.2521624364e+01   3.7701597187e+01    0.5856914    0.3500739  88.54  0.001984576    3.246    0.692
       164 -12.4218    154.2494     52.8918   4.2834552470e+01   3.9845714688e+01     0.837222    0.4935724  74.60  0.002577806    2.436    0.589
       165  -8.9543     51.0724     56.8795   7.3989201467e+01   5.8442299810e+01    0.3253014    0.2451026  39.59   0.00166973    1.611    0.379
       166 -10.9716     51.8098     61.5243   7.5059412794e+01   5.7413333146e+01    0.3610661    0.2067092  41.29  0.001563534    2.130    0.530
       167 -11.3477     40.5637     57.0508   7.7660070918e+01   5.9509561911e+01    0.3739054    0.2030423  46.30  0.001956554    2.547    0.607
       168 -11.8734     43.5638     62.4162   7.8069062465e+01   5.8109093685e+01     0.266389    0.1815897 -54.87 0.0004355151    1.215    0.177
       169 -11.3662     46.1870     59.1626   7.6306264434e+01   5.8509521391e+01    0.3126445    0.2063076 -56.42  0.001038584    1.321    0.243
       170 -10.4209     81.5211     50.5118   6.1758648290e+01   5.5525677263e+01     0.192994    0.1282398  26.28 0.0009882571    1.732    0.423
       171 -12.3431     75.2949     53.1245   6.4662955270e+01   5.6002259803e+01    0.8430722    0.3545203 -46.10  0.001723602    2.135    0.532
       172 -10.9060     72.9707     47.6459   6.3582124513e+01   5.7380355815e+01    0.4042331    0.2379633 -56.30   0.00116415    2.051    0.512
       173  -9.3919     65.3134     62.2650   7.0798777322e+01   5.5607653349e+01    0.1273671   0.09292638 -21.44 0.0003902177    1.543    0.352
       174 -10.4811    174.9910    246.7043   8.0081345131e+01   1.2938594199e+00    0.1752825    0.1187596  45.30 0.0006714435    1.108    0.098
       175 -11.6635     92.5834     41.2707   5.4958715979e+01   5.5271221935e+01     0.700381    0.2847622  42.52    0.0028497    2.587    0.613
       176 -10.9692    127.2309     47.7513   4.7524346272e+01   4.7119587646e+01    0.6121124    0.2992602 -48.02  0.002349463    2.432    0.589
       177 -11.9992    120.2077     58.2022   5.2939859870e+01   4.6853972372e+01    0.7974819    0.5330635 -80.02  0.003108624    2.929    0.659
       178 -11.9829    114.5262     49.3112   5.1448035861e+01   4.9617739930e+01    0.6032127    0.4611214  -1.22  0.002123414    1.514    0.340
       179 -12.6651    106.1396     42.4545   5.1353256913e+01   5.2485997022e+01    0.9439636    0.4543492  38.80  0.002388343    2.243    0.554
       180 -11.2616    113.8447     38.2416   4.7644774815e+01   5.1570689857e+01    0.2577781    0.2312748 -36.53 0.0002646285    1.165    0.142
       181 -11.9749    117.9040     44.1709   4.8705630080e+01   4.9759791571e+01    0.5747687    0.3869452  71.25  0.002008187    2.155    0.536
       182 -12.0183    127.5949    241.5927   8.7373871209e+01   9.6959703456e+00    0.4210342    0.1552872  42.12  0.002053033    2.334    0.571
       183 -10.1480    113.8452     61.3426   5.5718619016e+01   4.7602444608e+01    0.2128476     0.181923 -45.50  0.001141384    1.169    0.145
       184 -10.9652    249.5237     59.2473   2.8531980706e+01   1.4605633310e+01     0.296196    0.2553991 -15.84  0.001647371    1.242    0.195
       185 -10.6626     29.7423     59.9908   8.2142349658e+01   5.9875985132e+01    0.2387045    0.1951723 -63.11  0.000912699    1.146    0.127
       186 -11.7215     25.0443     57.8530   8.3240000957e+01   6.0689744062e+01    0.4801743    0.2354888 -57.14  0.002689165    1.553    0.356
       187 -11.2750    136.3934     55.7972   4.7963006901e+01   4.3668196247e+01    0.5135533    0.2812776 -21.29  0.001969172    2.352    0.575
       188 -10.4777    139.3279     54.6780   4.6873859471e+01   4.3172178956e+01    0.2795116     0.248322 -82.76 0.0007810984    1.318    0.241
       189 -12.3711    218.8129     57.1818   3.2264339002e+01   2.2471678986e+01      0.69879    0.3860016  79.06  0.002185713    2.422    0.587
       190 -11.6792    215.3263     52.9249   3.1613092725e+01   2.4001561792e+01    0.4733956    0.3470975 -34.85  0.001750512    1.336    0.251
       191 -10.6651    126.9491     55.9472   5.0402309257e+01   4.5789044035e+01    0.3739942    0.2557516  68.95  0.001668842    1.932    0.482
       192 -10.3392     66.8751     55.1801   6.8116307306e+01   5.6812668374e+01    0.1904911    0.1680773 -58.63 0.0006011613    1.238    0.192
       193 -12.2197    204.9837     52.5200   3.3113072305e+01   2.6747720773e+01    0.8213141     0.520224 -83.83  0.002518108    2.209    0.547
       194 -11.2723    204.1936     43.4699   3.0625963680e+01   2.8275200195e+01    0.4925107    0.3504367  31.38   0.00226684    1.706    0.414
       195 -11.3553    194.2765     46.4000   3.3077001758e+01   3.0467791183e+01     0.638923    0.3413225 -89.50  0.002068928    3.460    0.711
       196 -11.8411    197.7188     43.4113   3.1626605832e+01   2.9990424051e+01    0.4745511     0.435374  28.68  0.001537292    1.179    0.152
       197 -12.0372    205.0842     37.3856   2.8730586713e+01   2.8886033350e+01    0.4639018    0.3207052  76.99  0.001102176    1.513    0.339
       198 -12.1121    198.6409     36.2032   2.9351636480e+01   3.0748667883e+01    0.5056291    0.4554258  -9.87  0.001574533    1.221    0.181
       199 -12.0156     60.7338     46.7981   6.7482161025e+01   5.9244196067e+01    0.7819754    0.2536418 -43.28  0.003130726    2.637    0.621
       200 -10.6683     59.0130     41.4903   6.6269943736e+01   6.0454041912e+01    0.2138031    0.1892337 -35.26 0.0007273772    1.119    0.106
       201 -11.6872    245.6593     51.3775   2.7026735354e+01   1.6646361803e+01    0.4928806    0.2687355  87.17  0.001957524    2.648    0.622
       202 -10.2974    144.5927     52.2551   4.4815577335e+01   4.2320386439e+01    0.3180303    0.2448933  18.55   0.00151404    1.513    0.339
       203 -10.9555    146.0154     47.1440   4.2772403663e+01   4.2799006023e+01     0.361199    0.2294129 -28.17  0.001123225    1.621    0.383
       204 -10.9624     39.0409     44.0067   7.4404048276e+01   6.2246340546e+01    0.2313179    0.1631696  -4.01  0.001210581    1.689    0.408
       205 -11.8704     45.3100     48.0210   7.3358988234e+01   6.0829170487e+01    0.4535098     0.279889 -48.78  0.002641615    1.336    0.251
       206 -11.3388     44.1008     43.9311   7.2510396918e+01   6.1746404200e+01    0.2672539    0.2238752  72.44 0.0009488112    1.783    0.439
       207 -10.6798     33.6645     52.5917   7.8867935935e+01   6.1053313280e+01    0.1877884    0.1174663  14.07 0.0008059783    2.049    0.512
       208 -10.1335    230.0459     51.2286   2.9029741307e+01   2.0502269478e+01    0.2530879    0.1588019 -72.09  0.001073042    2.054    0.513
       209 -11.1443    176.7552     43.5806   3.5286036969e+01   3.5501211442e+01    0.4503666    0.3247057  41.91  0.002109809    1.436    0.304
       210 -11.8475    175.5142     48.4990   3.7063456180e+01   3.5092904525e+01    0.4056269    0.3203471  47.16    0.0013785    1.257    0.204
       211 -12.3192    171.9864     47.7151   3.7493459100e+01   3.6131917134e+01    0.6181018    0.4321046  55.44  0.002191592    1.388    0.279
       212 -10.1973     87.5536     49.7513   5.9574593374e+01   5.4666820910e+01    0.1882574    0.1227127 -47.91 0.0004461723    1.546    0.353
       213 -10.4850     51.7941     48.4351   7.1168975978e+01   6.0029555518e+01     0.186766    0.1733685 -31.11 0.0006601393    1.145    0.127
       214 -10.0585      2.0240     49.0029   8.9333808710e+01   6.3919557831e+01    0.1344857    0.1006625 -55.75 0.0009617261    1.038    0.036
       215 -11.6094     20.5382     46.4402   8.1981832340e+01   6.3330223647e+01    0.2474738    0.1755441 -64.23 0.0002387686    1.319    0.242
       216 -10.3736     12.9042     48.0087   8.5183193684e+01   6.3523347239e+01    0.2678898   0.07697718 -44.83  0.001216588    2.751    0.636
       217 -11.1166    133.3315     45.9231   4.5357281770e+01   4.6019639697e+01    0.3884052    0.2318961  49.00  0.001013301    1.650    0.394
       218 -10.4225    138.5620     44.3113   4.3535857267e+01   4.5042671132e+01    0.3550991    0.1992523  25.97  0.001322978    2.624    0.619
       219  -9.7407     82.3210     47.3221   6.0393169579e+01   5.5980985969e+01    0.1390565    0.0989436  -8.52 0.0007045295    1.674    0.403
       220  -9.4861    184.2840     45.2705   3.4452069785e+01   3.3271574787e+01     0.150222    0.1149752  29.25 0.0002175294    1.498    0.333
       221 -10.3783    161.7570     43.7939   3.8260763390e+01   3.9366381352e+01    0.3128034     0.211455  68.20  0.001400259    1.600    0.375
       222 -10.9160     26.3326     42.9646   7.8852446658e+01   6.3576294135e+01    0.2147244    0.1502614 -49.60 0.0008633881    1.116    0.104
       223 -11.3077     21.8992     36.9973   7.8798238303e+01   6.5068358363e+01    0.3750117    0.2026632  43.98  0.002101271    2.794    0.642
       224 -10.9324    248.5615     45.5664   2.5202345135e+01   1.6759534853e+01    0.3306463    0.2173678 -47.17   0.00087257    1.418    0.295
       225 -12.7704    227.0505     37.4378   2.5729319763e+01   2.3179213460e+01    0.8186727    0.4122306  83.79  0.003094276    2.674    0.626
       226 -11.2612    133.5843     37.7566   4.2416791037e+01   4.7218969349e+01    0.4088049    0.3277059 -83.71  0.001838084    1.658    0.397
       227 -11.7736     78.5335     37.8487   5.8187627001e+01   5.8258652777e+01    0.5955789    0.4223186  86.82   0.00258346    3.475    0.712
       228 -11.6461     79.0129     33.8094   5.6484685661e+01   5.8853538816e+01    0.4739281     0.299617  -3.19  0.002279764    2.131    0.531
       229 -10.5518    217.9471     39.2262   2.7422941223e+01   2.5273762468e+01    0.2326097    0.1912643 -74.64 0.0007700311    1.247    0.198
       230 -10.7348    142.5212     39.1152   4.0812648432e+01   4.4877913566e+01    0.3738341    0.2228293  61.69  0.001620056    1.788    0.441
       231 -11.1155    176.6675     36.9609   3.3210032056e+01   3.6466303587e+01    0.4163708    0.3106942   6.73  0.001947352    1.667    0.400
       232 -11.7915    181.2482     32.2513   3.0932452975e+01   3.5892637973e+01    0.6063154    0.4406274 -54.84  0.002447867    1.502    0.334
       233 -11.1905     60.8005     36.6000   6.3868388547e+01   6.1096509894e+01    0.3511847    0.2258011 -25.91  0.001450157    1.501    0.334
       234 -10.6115    170.4105     30.2482   3.2169681930e+01   3.9015668264e+01    0.4104697    0.2759873  71.16  0.001327708    1.547    0.354
       235 -10.8632    169.0201     33.4875   3.3477475340e+01   3.8949613011e+01    0.3443579      0.25495 -88.77    0.0012052    1.623    0.384
       236 -11.4277     68.1676    240.6055   9.6879592780e+01   1.8505256449e+01    0.1751662    0.1548001  45.76  0.001420417    1.676    0.403
       237 -11.7544    146.6031    237.5291   8.3739422064e+01   7.2161975776e+00    0.4924264    0.2220304  57.45  0.002457184    2.244    0.554
       238 -12.1909    107.4735     31.1732   4.6731902743e+01   5.3972864604e+01    0.8594887    0.4508703  11.40  0.002694618    4.597    0.782
       239 -12.4469    113.7530     24.9999   4.2628658879e+01   5.3510507094e+01    0.6215149    0.2966592  48.91    0.0016522    2.009    0.502
       240 -11.3483    197.5817    232.2129   7.4350078548e+01  -6.8504777529e-01    0.1989017     0.143684  51.69  0.001143777    1.321    0.243
       241 -10.5863     94.2149     35.7763   5.2389271793e+01   5.5873041910e+01    0.2176909    0.1876973  56.41 0.0009573544    1.407    0.290
       242 -10.9190      5.1123     36.0360   8.5137795596e+01   6.6318949225e+01    0.2127679    0.1528327  28.41  0.001354727    1.844    0.458
       243 -10.7328    248.5396     33.6320   2.2210394358e+01   1.8359643540e+01    0.4040909    0.1735703 -51.80   0.00158468    2.461    0.594
       244 -10.3975    108.9338    229.3251   8.9256961348e+01   1.4515504519e+01    0.1948406    0.1089436  58.26   0.00116478    1.464    0.317
       245 -10.6734     58.4788    226.4588   9.7397328424e+01   2.2114104263e+01    0.1083768   0.07853566  70.68 0.0008085871    1.036    0.035
       246  -9.7438    153.0074    219.4870   8.0383914787e+01   8.8146001559e+00    0.1656432   0.09604599  28.62 0.0005453941    2.370    0.578
       247 -10.0246    164.5057    212.0106   7.7269452803e+01   7.9330554702e+00    0.1597752    0.1271717 -50.97 0.0006178223    1.521    0.343
       248 -10.4652    172.5290    211.5419   7.5739258231e+01   6.5572025243e+00    0.1276661    0.1048547  46.35 0.0001370955    1.002    0.002
       249  -9.4940     61.3224    206.6729   9.5369356856e+01   2.5282157832e+01    0.1221533   0.06514183  70.26 0.0007048423    1.689    0.408
       250 -10.2446    233.6135    196.7815   6.2352807513e+01  -2.5113940594e+00    0.1612656    0.1169612 -38.01 0.0009532436    1.643    0.391
       251  -9.8066     83.6237    195.8283   9.0289426335e+01   2.4270104977e+01    0.1608677   0.09905374 -84.24 0.0007626115    1.611    0.379
       252 -10.4329    210.5790     29.1931   2.5610537150e+01   2.8521666844e+01    0.3355608    0.2621316 -69.64  0.001717224    1.327    0.246
       253 -11.4463    214.0049     25.2086   2.4041739521e+01   2.8127177406e+01    0.4502415    0.3443316 -89.85  0.001928231    1.328    0.247
       254 -11.8906    133.2939     24.0423   3.7488668658e+01   4.9177589539e+01    0.4428236    0.3348998 -74.94  0.002003743    1.832    0.454
       255 -11.1386    184.2736     38.2850   3.2299930310e+01   3.4272501893e+01    0.2957334    0.2586453 -39.29 0.0008455419    1.164    0.141
       256 -10.3014     67.8487     32.0870   5.9641420001e+01   6.0876634429e+01    0.1862353    0.1646733 -34.53 0.0006356186    1.196    0.164
       257 -10.0837     54.2127     26.5643   6.2454956450e+01   6.3672916940e+01    0.1655962    0.1185319  26.97 0.0004270863    1.524    0.344
       258 -11.8004     57.6783     30.1713   6.2574805487e+01   6.2619596877e+01    0.3832985    0.2739715  -6.74  0.001660522    1.481    0.325
       259 -12.5901     48.2306     29.9934   6.6077703120e+01   6.3828894099e+01     0.539696    0.2999147  32.97    0.0030262    2.058    0.514
       260  -9.7466     16.4579    191.5037   1.0200206800e+02   3.3215643621e+01     0.106907   0.07465161  80.84  5.22617e-05    1.013    0.013
       261 -10.8391    170.6384    191.1182   7.2879590854e+01   1.0142646506e+01    0.4177531    0.1655132  35.96  0.001551559    3.028    0.670
       262 -11.5140      4.6312    185.7608   1.0367032116e+02   3.5398422025e+01    0.2323316    0.1649974  68.68  0.001866864    1.182    0.154
       263 -10.5331    240.2307    184.9613   5.9005569121e+01  -2.1666695331e+00    0.2224268    0.1655019  36.51 0.0005761635    1.214    0.176
       264 -10.1751    170.5071    171.9880   6.9547604246e+01   1.3467024501e+01    0.1933256    0.1400768 -45.62 0.0006349845    1.528    0.346
       265 -10.9029      7.0215     30.3189   8.2806298312e+01   6.7304008457e+01    0.2585947    0.1309829 -26.27  0.001415698    2.126    0.530
       266 -10.8260    197.1884     29.1943   2.7492962890e+01   3.2056952171e+01    0.3256111    0.2479895  75.44  0.000954481    1.301    0.232
       267 -10.9737    198.2004     25.0409   2.6116290721e+01   3.2310997037e+01    0.4113221    0.2792048 -49.88  0.001611662    1.522    0.343
       268 -10.7021    189.0154     28.0523   2.8381211895e+01   3.4374179815e+01    0.4326102    0.2844287  -4.04  0.001902681    2.001    0.500
       269  -9.8632     99.5128     30.5038   4.8755455504e+01   5.5674209843e+01    0.1366578    0.1245197  -5.37 1.910937e-05    1.037    0.036
       270 -11.7100    223.8475     22.1731   2.2012860283e+01   2.5952722810e+01    0.4632072    0.2735918 -87.55  0.001780181    1.959    0.489
       271  -9.8295    198.0565    167.9979   6.3359655568e+01   8.5370858700e+00    0.1707131    0.1533692  35.05 0.0005157539    1.009    0.009
       272 -11.3939    229.7373     26.7194   2.2541806911e+01   2.3889501685e+01    0.6118916    0.4269506  48.11  0.002378817    1.580    0.367
       273 -10.2352    187.7542    167.9942   6.5361057161e+01   1.0652880809e+01    0.1773106    0.1212499 -40.20 0.0008875223    1.602    0.376
       274 -11.3002      9.3493    167.1069   1.0167644344e+02   3.8633960700e+01     0.190099    0.1538441 -88.95 0.0009655764    1.228    0.186
       275 -10.4962    205.0215    163.1690   6.1051684741e+01   7.8972445950e+00      0.22964    0.2050256 -22.15 0.0006830557    1.178    0.151
       276 -11.7043    228.7442     15.7839   1.9771836292e+01   2.5464480272e+01    0.3933617    0.2269557  62.30 0.0005526739    1.677    0.404
       277 -10.1984     19.1982    164.5970   9.9632779987e+01   3.8262627567e+01    0.1228268    0.1070589  31.16 0.0009516737    1.688    0.407
       278 -10.6323    239.7743     28.0008   2.1743324501e+01   2.1217318114e+01    0.2140125    0.1919354  20.73  0.001227037    1.355    0.262
       279 -11.1582    250.4863     25.4505   1.9979306937e+01   1.8933863841e+01    0.3906449    0.2086081 -29.65  0.001816353    1.832    0.454
       280 -12.1352    246.2203     22.4576   1.9668028900e+01   2.0330232379e+01    0.4381976    0.2755335 -54.97  0.001243973    1.522    0.343
       281 -11.1766    105.1029    153.7827   8.0216113683e+01   2.9476002078e+01    0.2450425    0.2024755  25.02  0.001383141    1.603    0.376
       282 -10.8527    182.4493     25.8132   2.8719370109e+01   3.6400538269e+01    0.2908329    0.2633183  37.31  0.001117753    1.145    0.127
       283 -10.3290     97.0060     26.1792   4.7779508077e+01   5.6794183922e+01    0.2433836    0.1649868 -42.20  0.001263724    1.611    0.379
       284  -9.7374     46.4881    154.5206   9.3164653698e+01   3.7575704055e+01     0.121613   0.09437391  87.80 6.401002e-05    1.021    0.021
       285 -10.1293     30.5091    151.9762   9.6260134695e+01   3.9809691480e+01    0.1556225   0.07180194 -54.46  0.000807901    2.379    0.580
       286 -11.2168    224.7530    150.9497   5.4789042175e+01   5.7652274318e+00    0.2951733    0.1945584  40.65 0.0004777906    1.445    0.308
       287 -11.4255     23.7046    148.6192   9.7357957400e+01   4.1169847675e+01      0.28393    0.1610297 -62.42  0.001093909    1.631    0.387
       288 -10.8509    203.5491     24.1913   2.5125971640e+01   3.0999565229e+01    0.3086494    0.2073169 -64.78 0.0008109644    1.657    0.397
       289 -10.4815    177.6859     24.6931   2.9135326429e+01   3.7802162888e+01    0.2546855    0.1867606 -23.30 0.0005625433    1.455    0.313
       290 -10.7088    177.9868     21.4981   2.8070482404e+01   3.8109773463e+01     0.435114    0.2032664  36.58  0.001551798    2.858    0.650
       291 -11.1801     20.6919    150.7064   9.8173255705e+01   4.1003986191e+01    0.1889815    0.1521974 -80.31 0.0004404281    1.189    0.159
       292  -9.4604    185.2895    150.3151   6.2236133140e+01   1.4293723547e+01    0.1450614    0.1133207  10.33 0.0007002254    1.591    0.371
       293 -10.6873     15.8361    147.9680   9.8930677864e+01   4.2005282164e+01    0.1760253    0.1422322  68.02 0.0008740651    1.251    0.201
       294 -11.6635    249.9335    143.9673   4.8875435854e+01   1.7100417902e+00    0.6735073    0.2325757 -32.90  0.002534789    2.790    0.642
       295  -9.9886     59.6310     23.7223   5.9263825398e+01   6.3407432752e+01    0.1641857    0.1034093 -41.49 0.0003340588    1.518    0.341
       296 -11.0365     13.8953     23.4638   7.7775523652e+01   6.8142722706e+01    0.1995039    0.1164231 -44.60 0.0003416355    1.256    0.204
       297 -10.4919    170.0781     23.2000   2.9927194644e+01   3.9991818458e+01    0.3243431    0.1768454  51.37  0.001390537    1.720    0.419
       298 -10.8337    238.4345     33.1078   2.3206550864e+01   2.0893136722e+01    0.4240243    0.1973266  67.77  0.001767699    2.172    0.539
       299 -11.1849     49.7075    146.0110   9.1472278660e+01   3.9048219046e+01    0.2044823    0.1629819  55.39 0.0003164091    1.313    0.238
       300  -9.6282     74.2553    146.0184   8.5952759952e+01   3.5930191207e+01    0.1662529   0.09890335 -66.04  0.000803366    1.516    0.340
       301  -9.5746    199.6687     20.3287   2.4525679647e+01   3.2492301579e+01    0.1572629    0.1032603 -64.32 0.0005869009    1.715    0.417
       302 -10.7911    206.8610     17.5685   2.2790367558e+01   3.0917581596e+01     0.330704    0.2043163 -51.25  0.001418257    1.669    0.401
       303 -10.1722     79.6717     19.0492   5.0241902347e+01   6.0978665315e+01    0.1901751    0.1513419 -15.51 0.0008833862    1.112    0.101
       304 -11.2364     33.1128    144.5097   9.4941617364e+01   4.1148665507e+01     0.239624    0.1796476  79.05 0.0007383402    1.151    0.131
       305 -11.7674      2.2143    141.1235   1.0116994856e+02   4.4512247200e+01    0.3193547    0.1767465 -88.05 0.0009295948    1.372    0.271
       306 -10.8450    216.9717    138.3741   5.3413815786e+01   9.4639520797e+00    0.2981342    0.2567704  75.58  0.001110204    1.428    0.300
       307 -10.9844     11.1740    137.5001   9.8985023050e+01   4.4594368202e+01    0.2327372    0.1316368 -52.90  0.001410292    1.972    0.493
       308 -10.2121    211.4889     33.0085   2.6567342550e+01   2.7788665600e+01    0.3055829    0.1248654 -35.62  0.001153136    2.294    0.564
       309 -10.5655     73.9927     19.5016   5.2343707912e+01   6.1869476100e+01    0.2206373    0.1929415  18.56  0.001087328    1.170    0.145
       310 -10.6995    186.4836     15.2612   2.4836838104e+01   3.6575929453e+01    0.2670932    0.1855845  68.23 0.0006147456    1.351    0.260
       311  -9.9232    182.3604     15.1749   2.5407602197e+01   3.7679728491e+01    0.2060676     0.125089 -38.40 0.0004677515    1.689    0.408
       312 -10.3758     32.1133    137.5382   9.4396441386e+01   4.2755687086e+01    0.1550186    0.1101623  44.35  0.001025211    1.581    0.368
       313 -11.6060     22.7374    135.4186   9.6259079370e+01   4.4078711387e+01    0.4299549    0.2155324  46.18  0.002534406    2.085    0.520
       314 -11.3560     29.9557    133.1617   9.4386686784e+01   4.3914019515e+01    0.2750457     0.184106 -48.00 0.0007398055    1.784    0.439
       315 -11.2811    189.1246    135.3609   5.8139332935e+01   1.6187895881e+01    0.3874507    0.2420823  53.17  0.001032372    1.606    0.378
       316 -10.4199      5.5134     12.6870   7.7743817808e+01   7.0567128220e+01    0.1832065    0.1046448  15.13  0.001239125    2.088    0.521
       317 -11.5835    246.5440    134.8330   4.7393546409e+01   3.7492525141e+00    0.4005186    0.2065917  50.36  0.001417111    2.024    0.506
       318 -10.1525    138.3177    131.6686   6.8374328166e+01   2.8002890099e+01     0.153606    0.1142117  87.49 0.0007047491    1.688    0.408
       319 -12.0405    242.9653    127.9938   4.6420219131e+01   5.5389346644e+00     0.541629    0.3545203  80.19  0.002224907    2.922    0.658
       320 -12.8474    240.6471    122.4967   4.5521142694e+01   6.8906109841e+00    0.6380098    0.5052115 -33.84   0.00197026    1.226    0.185
       321 -11.2354    189.1324    126.2794   5.6003912518e+01   1.7869478457e+01    0.7137824    0.3352678 -25.70  0.002327757    3.318    0.699
       322 -11.5634    223.2338    123.3968   4.8759292515e+01   1.0578294316e+01     0.632052    0.3493586 -46.70  0.002650479    2.017    0.504
       323 -11.4325     22.8642    127.0391   9.5320984650e+01   4.5883240392e+01    0.1708369    0.1421048 -85.33 0.0003509099    1.114    0.102
       324 -13.0200    103.8003    122.5331   7.4716874810e+01   3.6559230830e+01    0.3092943    0.2946238 -70.18 0.0006670825    1.092    0.084
       325 -10.7078    201.9028    120.2047   5.1980288297e+01   1.6020255590e+01     0.382049    0.2560809  77.58  0.001558529    2.271    0.560
       326 -11.0807     44.3962    118.0876   8.8935006230e+01   4.5818604665e+01    0.4340111     0.213681 -89.50  0.001908117    2.763    0.638
       327 -11.4916     21.6164    114.4791   9.4125755116e+01   4.8730762437e+01     0.325798    0.2327939  -5.61  0.001415748    2.295    0.564
       328 -11.3144     28.0232    113.0657   9.2342163188e+01   4.8504168662e+01    0.2494938    0.1834619  55.57 0.0008677892    1.498    0.332
       329 -11.2081     23.8462    108.9896   9.2849629762e+01   4.9754475062e+01    0.6509212    0.2280653 -76.76  0.002766152    2.877    0.652
       330 -11.8546     26.9613    106.5051   9.1699271721e+01   5.0043328420e+01    0.4209671    0.2368515  76.91  0.002268332    2.153    0.535
       331 -10.5239      7.4109    114.8781   9.7624354380e+01   4.9702264287e+01    0.1719291    0.1318324  72.24 0.0005075043    1.302    0.232
       332 -12.2411      2.3972    111.8028   9.8502217657e+01   5.0689968221e+01    0.4150941    0.1581137 -75.13 0.0007945534    1.954    0.488
       333 -11.3647      4.0047    104.9914   9.7376144115e+01   5.2046939176e+01    0.2997519    0.2008553  56.80  0.002095344    1.664    0.399
       334 -12.3200    248.7854    108.1606   4.0778126102e+01   7.3671520507e+00    0.5906703    0.3941175 -53.03  0.002737565    1.776    0.437
       335 -11.3386    170.4042    110.5190   5.6049078300e+01   2.5255502097e+01    0.3782251    0.3210833 -31.66  0.001038587    1.227    0.185
       336 -10.3017     93.8622    112.2001   7.5056931256e+01   4.0546522191e+01    0.2184018    0.1805693 -89.22 0.0007274714    1.260    0.207
