#   1 NUMBER                 Running object number                                     
#   2 MAG_AUTO               Kron-like elliptical aperture magnitude                    [mag]
#   3 X_IMAGE                Object position along x                                    [pixel]
#   4 Y_IMAGE                Object position along y                                    [pixel]
#   5 X_WORLD                Barycenter position along world x axis                     [deg]
#   6 Y_WORLD                Barycenter position along world y axis                     [deg]
#   7 A_WORLD                Profile RMS along major axis (world units)                 [deg]
#   8 B_WORLD                Profile RMS along minor axis (world units)                 [deg]
#   9 THETA_WORLD            Position angle (CCW/world-x)                               [deg]
#  10 FWHM_WORLD             FWHM assuming a gaussian core                              [deg]
#  11 ELONGATION             A_IMAGE/B_IMAGE                                           
#  12 ELLIPTICITY            1 - B_IMAGE/A_IMAGE                                       
         1 -13.4818    222.0027      7.2678   3.5592956545e+01   2.9403038104e+01     1.283109     1.032324  50.24  0.005791884    1.494    0.331
         2 -14.3139    195.5582     38.0857   4.6205269321e+01   3.2061848098e+01     2.817148     1.716415  23.77   0.01182007    2.787    0.641
         3 -10.6513     76.4606     13.5450   6.2918416400e+01   6.2775913488e+01      0.40862    0.2148669  61.34   0.00182708    2.739    0.635
         4  -9.9721    189.6851     14.7728   4.0638334047e+01   3.6228749708e+01    0.2234317    0.1975119  45.84 0.0009065697    1.263    0.208
         5  -8.2442     76.2202    223.3168   1.1403883668e+02   1.8399103863e+01    0.1432167   0.08970354 -68.25 0.0002315613    1.661    0.398
         6 -19.4970     12.7067    145.6836   1.2069579400e+02   4.2755954073e+01     19.16466     4.457272 -76.83   0.06458779    4.041    0.753
         7  -8.1015     76.6817    220.2796   1.1364194980e+02   1.8942994001e+01     0.128936   0.07890117  63.31 0.0003708116    1.578    0.366
         8  -9.2919     39.6933    223.4090   1.2123371663e+02   2.2898047647e+01    0.1463214    0.1246138  17.45 0.0009477087    1.708    0.414
         9  -7.9818     58.9744    220.0935   1.1720710283e+02   2.1284559662e+01    0.3499064     0.180248  36.39  0.001891099    1.884    0.469
        10  -9.1515     53.4590    221.0095   1.1838005892e+02   2.1776178605e+01    0.3462571    0.1180357  53.83  0.001501859    2.807    0.644
        11  -4.8733     48.6661    217.4798   1.1903810798e+02   2.3064901660e+01      0.26549    0.2258487  10.36  0.001790796    1.746    0.427
        12 -11.1577     27.0379    214.8471   1.2306229365e+02   2.5990069375e+01    0.2645021    0.1741942  86.34   0.00121809    1.269    0.212
        13  -9.6824     28.9712    209.8269   1.2234596384e+02   2.6826776648e+01    0.1714311    0.1197461  68.26 0.0004805623    1.165    0.142
        14 -10.2016    184.8454    211.8217   8.9774534106e+01   3.3593587258e+00    0.3443151    0.2128002 -40.67  0.001797378    1.756    0.431
        15  -9.9763    169.4697    212.4875   9.3041990977e+01   5.8319801437e+00    0.2525515    0.1109883  47.22  0.001036619    2.425    0.588
        16  -9.9025     56.4474    209.2462   1.1674516104e+02   2.3839186683e+01    0.3686563    0.1751753  86.91  0.001454483    2.651    0.623
        17 -10.3826    150.6642    209.2180   9.6472152414e+01   9.6128212616e+00    0.2499403    0.1880229  33.51  0.001391633    1.211    0.175
        18  -9.9175     42.5578    208.7787   1.1955490209e+02   2.5575952123e+01    0.2424074    0.1353512  64.31 0.0004005535    1.645    0.392
        19 -10.8160     65.9920    206.9998   1.1452303539e+02   2.3109377752e+01    0.2256071    0.1789896 -79.50 0.0003310507    1.216    0.177
        20 -10.9992     64.8895    203.3412   1.1438259028e+02   2.4034614309e+01    0.2057177    0.1690927 -84.83 0.0003486377    1.144    0.126
        21  -9.3082     35.6076    208.6057   1.2094154695e+02   2.6380347369e+01    0.1351132   0.09021967  58.57 0.0002887315    1.278    0.218
        22  -8.8193     93.7299    205.4595   1.0835058896e+02   1.9570206649e+01    0.1752764    0.1234339  26.27 0.0009397257    1.651    0.394
        23 -10.8703    193.1533    195.2307   8.5085309385e+01   4.7617989379e+00      1.08999    0.5715581 -62.64  0.003162023    6.456    0.845
        24  -8.7917     96.5446    202.4548   1.0734487486e+02   1.9782563547e+01    0.1326029    0.1172318  64.32  0.000166427    1.011    0.011
        25 -12.6395     53.4822    197.9990   1.1630346110e+02   2.6619452621e+01    0.4979587    0.2659256 -51.43  0.002526496    2.233    0.552
        26  -9.4108     38.8164    199.4572   1.1955431886e+02   2.7985045684e+01    0.1612342    0.1275706  79.86  0.000335667    1.028    0.027
        27 -10.4101    203.6743    199.0008   8.3684706638e+01   2.3190310645e+00    0.2933988    0.1295182  29.71  0.001193609    2.463    0.594
        28 -11.7804    133.9861    195.9386   9.7981772335e+01   1.5064895792e+01    0.4177844    0.3073666 -83.12   0.00179232    1.818    0.450
        29  -9.3639     72.0749    250.0158   1.1721122813e+02   1.3939620989e+01    0.1549447    0.1213158  75.00 0.0003659749    1.160    0.138
        30 -10.0247     72.3720    245.2648   1.1676941888e+02   1.4749899774e+01     0.331661    0.1700283  64.04  0.001817351    1.968    0.492
        31  -9.2203     81.5780    194.3923   1.0967101175e+02   2.3725426714e+01    0.2920505    0.1959221  70.36   0.00154601    1.573    0.364
        32 -11.2798    127.0767    191.6800   9.8853933905e+01   1.7133978165e+01    0.3921427    0.2006836 -60.43  0.001672577    2.276    0.561
        33  -9.3153     93.4166    185.7212   1.0576804169e+02   2.3915118555e+01    0.2926989    0.1721417  44.57  0.001423071    1.610    0.379
        34 -10.7686     98.8674    181.1213   1.0379030935e+02   2.4108982946e+01     0.401642    0.3027286   6.82  0.001823815    1.893    0.472
        35 -10.8785    149.6051    188.0580   9.3109139363e+01   1.3911871284e+01    0.3824453    0.3121131  87.16  0.001888612    1.605    0.377
        36 -11.9902     49.3176    250.0327   1.2129594900e+02   1.6749766894e+01    0.1875231    0.1603961  57.92 0.0004995536    1.238    0.192
        37 -10.1234    188.8857    176.9708   8.2383925693e+01   8.8158972553e+00    0.4090246    0.3704385 -66.56  0.002302657    1.402    0.287
        38  -9.3589     84.0599    173.6795   1.0625957728e+02   2.8082893693e+01    0.1866711    0.1703589  62.54 0.0003714354    1.071    0.066
        39  -9.7943     54.8428    173.7584   1.1337597157e+02   3.1966908938e+01    0.2606739    0.1891887  69.28 0.0006673515    1.330    0.248
        40  -9.8981     46.0146    173.1422   1.1540965795e+02   3.3135184262e+01    0.3188109    0.2603703  54.17  0.001126015    1.222    0.182
        41 -10.7282    143.6807    178.4356   9.2696987157e+01   1.6980324517e+01      0.33802    0.2434458 -30.29 0.0009127397    1.617    0.382
        42  -9.0191    149.3067    177.0100   9.1125106522e+01   1.6239396472e+01    0.1969736    0.1837437 -47.40 0.0003924598    1.123    0.109
        43 -10.4014    138.4722    170.0745   9.2330752862e+01   1.9739600896e+01    0.4164845    0.2148908  40.04  0.001723633    1.883    0.469
        44  -9.8103    240.4632    169.4753   7.0895788447e+01   9.3533830958e-01    0.1357467    0.1140708 -11.83 4.651623e-05    1.007    0.007
        45  -9.8611     57.9189    165.9039   1.1164602466e+02   3.3455576370e+01    0.3933853    0.1715541 -55.06  0.001720054    2.191    0.544
        46  -9.2851    187.7133    162.4243   7.9573803081e+01   1.1802899775e+01    0.2754514    0.1733421 -50.32   0.00123135    1.787    0.440
        47 -11.6433     93.9876    151.5416   1.0003896635e+02   3.1841359828e+01    0.7009672    0.5865541 -30.04  0.003719854    1.390    0.281
        48  -9.7511    187.2051    151.6855   7.7304780952e+01   1.3999743386e+01    0.2265394    0.1933029  60.79 0.0008435528    1.396    0.283
        49 -10.7548    133.8015    145.3331   8.8348090827e+01   2.6176286057e+01     1.220449     0.320473 -54.58  0.002892556    5.586    0.821
        50  -8.7915    112.9423    150.9521   9.4922219738e+01   2.8773497757e+01    0.2393451    0.1816364  80.67  0.001001849    1.656    0.396
        51  -9.4422    174.7132    149.1489   7.9447749824e+01   1.7054557694e+01     0.262652    0.2125983  55.26 0.0007981757    1.384    0.278
        52  -8.8950    109.6670    148.0176   9.5189014735e+01   3.0049440837e+01    0.2115408    0.1807674 -56.94 0.0002846378    1.143    0.125
        53 -10.7854    105.8268    137.9187   9.4112029673e+01   3.3142311932e+01    0.5881473    0.3534085 -33.29  0.002399851    2.117    0.528
        54 -10.5266    105.9508    130.8961   9.2529933270e+01   3.4806452785e+01    0.3972243    0.3359074 -62.79   0.00107869    1.179    0.152
        55 -11.6535     93.9075    137.6055   9.7343486535e+01   3.5240556108e+01    0.2846766    0.2529966 -40.17 0.0004057261    1.160    0.138
        56 -10.1138    135.9248    129.8443   8.4201641540e+01   2.9282086139e+01     0.586298    0.1983483 -52.15  0.001729007    3.380    0.704
        57 -10.4668    113.8672    129.0546   8.9908727239e+01   3.3798579983e+01    0.3453731     0.308198 -14.96 0.0008926123    1.234    0.190
        58  -8.2161     98.6536    130.2232   9.4433781887e+01   3.6241926203e+01    0.1466229    0.1125032  65.61 0.0002631354    1.544    0.352
        59 -10.3931    101.3259    124.9091   9.2467623921e+01   3.7061068011e+01    0.3074373    0.2372778 -29.52 0.0006229533    1.450    0.310
        60 -10.8184    120.0006    122.8584   8.6729036303e+01   3.4079082838e+01    0.5240268    0.3559186  -7.45  0.002054734    2.401    0.584
        61  -9.2285    135.0000    120.0261   8.1988695808e+01   3.1689687352e+01    0.2638271   0.08814848 -45.79  0.000799505    2.922    0.658
        62  -9.3790    109.3376    118.2518   8.8572699843e+01   3.7194139091e+01    0.2457976    0.2165006 -26.54 0.0003770257    1.181    0.153
        63 -10.1845    231.4285    113.6885   6.0018140489e+01   1.1998978015e+01     0.301526    0.2786462  24.25 0.0008566704    1.183    0.155
        64  -9.0436    167.8942    112.7940   7.2041885355e+01   2.6033142240e+01    0.3536834    0.2487843  88.72  0.001392029    2.379    0.580
        65  -9.8721    135.0000    105.5220   7.8123456087e+01   3.4891923273e+01     1.064958    0.1809746 -44.24    0.0023575    5.744    0.826
        66 -11.4152    118.0299    109.9161   8.3954246657e+01   3.7445481519e+01    0.6776251     0.523402  76.01   0.00249412    1.749    0.428
        67  -9.5825    205.3786    110.2227   6.3682078553e+01   1.8113720927e+01    0.3495412    0.2298141  34.14  0.001186133    1.784    0.439
        68 -10.2306     66.5922    104.3551   9.8268777281e+01   4.7435983840e+01    0.2763592     0.241247 -29.43  0.001229084    1.165    0.142
        69  -9.7431     63.9426     99.8325   9.8064198013e+01   4.8869574694e+01    0.2696185    0.1957562  20.49 0.0008465913    1.588    0.370
        70  -9.7461     58.6449    229.0059   1.1802816020e+02   1.9553689682e+01     0.154277    0.1196273  86.00 0.0004002828    1.179    0.152
        71 -11.5708     52.4116     89.7235   9.9537833571e+01   5.2678224008e+01    0.4062176     0.224587 -51.14   0.00194712    1.535    0.349
        72  -8.5505    156.0048     82.4498   6.6261189334e+01   3.4769164879e+01    0.2333431    0.1524603  51.24 0.0004816213    1.549    0.354
        73  -9.1683     65.8904     70.7679   8.9341487097e+01   5.5167580697e+01     0.235596     0.190426  52.74 0.0009760084    1.593    0.372
        74  -9.9369    243.0142    249.0208   8.5088150638e+01  -1.0461399247e+01    0.1808574    0.1151925  48.23  0.001029805    2.636    0.621
        75 -12.6945    180.0303     52.0130   5.2473200174e+01   3.3957743114e+01    0.7713751    0.7149943  46.97 0.0008591269    1.121    0.108
        76 -10.4679    249.6870    241.4931   8.2718175217e+01  -1.0444002303e+01    0.1895159   0.09211732 -30.24  0.001004325    2.017    0.504
        77  -9.6772    168.0450    232.8411   9.6533710526e+01   2.6715252230e+00     0.250028    0.1694407  40.38 0.0007761965    1.304    0.233
