#   1 NUMBER                 Running object number                                     
#   2 MAG_AUTO               Kron-like elliptical aperture magnitude                    [mag]
#   3 X_IMAGE                Object position along x                                    [pixel]
#   4 Y_IMAGE                Object position along y                                    [pixel]
#   5 X_WORLD                Barycenter position along world x axis                     [deg]
#   6 Y_WORLD                Barycenter position along world y axis                     [deg]
#   7 A_WORLD                Profile RMS along major axis (world units)                 [deg]
#   8 B_WORLD                Profile RMS along minor axis (world units)                 [deg]
#   9 THETA_WORLD            Position angle (CCW/world-x)                               [deg]
#  10 FWHM_WORLD             FWHM assuming a gaussian core                              [deg]
#  11 ELONGATION             A_IMAGE/B_IMAGE                                           
#  12 ELLIPTICITY            1 - B_IMAGE/A_IMAGE                                       
         1 -13.6341     68.9494    144.7339   6.8289804542e+01   3.6993367664e+01     3.355999     1.580012  78.80  0.009216582    5.382    0.814
         2 -13.1793    231.0769     42.0463   8.5052116581e+00   2.3238849494e+01     1.102226    0.8386431  27.54  0.006693852    1.876    0.467
         3 -12.9963    216.3035     52.2282   1.2297440392e+01   2.4948466149e+01     1.008606    0.8176587 -20.64  0.004840354    1.300    0.231
         4 -11.9446      2.7580      8.6232   6.7610483728e+01   7.8555980967e+01    0.9319071    0.2772028 -64.48  0.003531602    3.466    0.711
         5  -9.6237    158.2527      8.9847   5.8067375208e+00   4.3673849807e+01    0.1953279    0.1686941 -51.16 0.0005323016    1.102    0.093
         6  -9.6360     60.4452     21.2613   3.3194555158e+01   6.7400136995e+01    0.2558947    0.1840717  47.38 0.0005573198    1.337    0.252
         7 -10.3166     44.1262    249.2408   8.3899351669e+01   1.7906357594e+01    0.3515869    0.2007653  39.66   0.00136284    1.243    0.196
         8 -10.5580     34.2635    249.2734   8.5915655511e+01   1.8884013446e+01    0.3974498    0.1524322  36.54   0.00223879    1.743    0.426
         9 -10.2926     28.3423    249.7497   8.7134149680e+01   1.9374031269e+01    0.2534493    0.1224141  33.54  0.001183288    1.512    0.339
        10 -15.7319      8.0192    145.9735   8.7698512414e+01   4.3223493235e+01     11.81757     3.472688  73.07    0.0385873    4.041    0.753
        11 -14.2614      9.8052    206.7981   8.9686219169e+01   2.9107648432e+01     1.227003     0.774399  31.25  0.004486766    1.408    0.290
        12 -10.5385     42.2604    232.8008   8.3474922620e+01   2.0968503051e+01     0.413518    0.1879282 -89.35  0.002183607    2.703    0.630
        13  -9.7534     62.1830    234.3094   7.9225477829e+01   1.8551339670e+01    0.2074733    0.1559641  57.23 0.0006489368    1.234    0.190
        14 -10.2348     58.6501    225.6093   7.9414712402e+01   2.0522726027e+01    0.2440641    0.1794299  59.18   0.00106673    1.260    0.206
        15  -9.6253     53.7931    229.3472   8.0744686814e+01   2.0372708643e+01    0.2567725    0.1581141  62.22  0.001573478    1.573    0.364
        16 -11.1837    125.8036    229.8441   6.5097516227e+01   1.1530825330e+01    0.3377793    0.2464148 -67.48  0.002162307    1.972    0.493
        17 -11.6195    131.6626    227.6065   6.3614246458e+01   1.1122295913e+01    0.3669765    0.2998253  -0.79  0.002531207    1.270    0.212
        18 -10.4083    144.1410    229.8752   6.1332578689e+01   9.1672857058e+00    0.1767888    0.1382082  36.85 0.0005923282    1.265    0.209
        19 -11.9258    111.4271    229.3452   6.8087326766e+01   1.3454207954e+01    0.6721306    0.2035549  36.67  0.002920548    2.470    0.595
        20  -9.5038     47.4884    230.8616   8.2226365274e+01   2.0774814239e+01    0.2487602    0.1134024 -77.81  0.001330285    2.607    0.616
        21  -9.7674     35.6217    228.4874   8.4710883332e+01   2.2439365820e+01    0.2667918    0.1775127  22.88  0.001379971    1.500    0.333
        22 -10.7230     56.9622    234.5266   8.0375864504e+01   1.9091279319e+01    0.3582496    0.2268511  57.51  0.001961765    1.448    0.309
        23  -8.7040    142.1399    216.0842   5.9975004632e+01   1.1539037375e+01    0.1477344    0.1365391  47.84 0.0004630392    1.336    0.252
        24  -8.3406    168.0000    207.0478   5.3423465619e+01   9.3956107735e+00    0.1752344   0.06754714 -43.55  0.000793173    2.879    0.653
        25  -8.8273    130.3104    206.0227   6.1161674683e+01   1.4842264339e+01    0.1673516    0.1548925  23.38 0.0005809468    1.128    0.113
        26 -13.8027      6.8698    244.3302   9.1299552621e+01   2.2244274086e+01    0.8253763    0.6022916  20.22  0.003642857    1.525    0.344
        27  -9.8402    127.0418    194.6003   6.0297549746e+01   1.7345089075e+01    0.2176927    0.1943347 -44.54 0.0004682308    1.287    0.223
        28  -8.9853     74.0000    195.0131   7.3166849488e+01   2.4713009250e+01    0.1942202    0.0752413 -66.94 0.0008029101    2.946    0.661
        29  -9.6358     76.1225    183.2238   7.1338854961e+01   2.6953327782e+01    0.4185944    0.2060495  62.56  0.001693423    2.751    0.637
        30  -9.8816     98.8571    181.2357   6.5204511513e+01   2.4163183390e+01     0.265178    0.2139694  23.69 0.0007838893    1.209    0.173
        31  -8.9994    124.2184    173.2251   5.7662752859e+01   2.1878951895e+01    0.1846881    0.1594707  62.58 0.0009224561    1.322    0.244
        32  -9.9541    180.8823    169.8734   4.4642506430e+01   1.3318039156e+01    0.2135705    0.1639685  -0.34  0.001258459    1.270    0.213
        33 -11.3738     82.0770    133.7306   6.2327921707e+01   3.7736867786e+01    0.3833926    0.2823562 -56.19 0.0004057997    1.390    0.280
        34 -10.2821     72.8658    168.7583   7.0472412383e+01   3.0653159775e+01    0.4831671     0.284754  87.45  0.001811337    2.236    0.553
        35 -11.7493     70.9857    160.1343   6.9882017152e+01   3.2942394603e+01    0.7928568    0.4939143  46.08  0.001736663    1.475    0.322
        36 -11.9498     78.8726    146.9356   6.5604026104e+01   3.4985797109e+01     1.311224    0.6310365 -45.39  0.002580598    2.473    0.596
        37 -12.5427     56.7207    147.5741   7.2501243841e+01   3.7942058060e+01     0.551447    0.4271336 -25.20 0.0008090666    1.682    0.405
        38 -10.9605     65.9766    153.9079   7.0516261187e+01   3.5139601048e+01    0.3264769    0.2999733  87.16 0.0005216621    1.089    0.082
        39 -11.2207     70.4985    152.4592   6.8959688863e+01   3.4865221067e+01    0.4183996    0.3097247  60.65 0.0006873003    1.351    0.260
        40 -10.0482     57.3044    245.5898   8.0976115452e+01   1.7141086225e+01    0.3576932        0.141 -56.24  0.001784896    3.329    0.700
        41  -9.7645    247.5313    165.9609   3.2841567493e+01   4.3697318576e+00    0.1736061   0.08997161 -29.32 0.0005864385    1.580    0.367
        42  -9.8387     57.2761    156.6650   7.3476162957e+01   3.5609872125e+01    0.2393616    0.1903478  86.57  0.000337006    1.260    0.207
        43 -11.3935     53.7610    164.3201   7.5385643347e+01   3.4185813180e+01    0.4657991    0.3183697 -19.92  0.002225629    2.201    0.546
        44 -11.2053     59.5670    159.7635   7.3170185141e+01   3.4560582388e+01    0.3501282    0.3165703  16.96 0.0009623931    1.236    0.191
        45  -8.6973    141.1960    159.2449   5.1121167346e+01   2.1814097812e+01    0.1774452     0.162516  68.83 0.0003763681    1.298    0.230
        46  -8.3741    244.3112    155.6706   3.1404328623e+01   6.0805517319e+00    0.1053273   0.08415163 -45.34 0.0007042253    1.668    0.401
        47  -9.7619    134.1674    145.6098   5.0124834269e+01   2.5816539494e+01    0.4601271    0.2053251 -52.73  0.001552272    2.521    0.603
        48 -10.2111     40.5960    145.7998   7.7380000609e+01   4.0319100454e+01    0.3118582    0.1656886 -72.11  0.001248258    1.835    0.455
        49 -15.1609      7.0065    222.0941   9.0750223536e+01   2.6303870776e+01     3.917974     1.944832  23.83   0.01320023    1.914    0.478
        50  -9.6794     95.8255    134.9344   5.8360493403e+01   3.5132892942e+01    0.4659579    0.3306012  -4.78  0.002004129    2.140    0.533
        51 -10.0494     88.8773    166.1880   6.5694824912e+01   2.8936713383e+01    0.4439806    0.3152825  -2.46  0.002108013    1.998    0.499
        52  -9.6071    106.4441    128.4535   5.3895561328e+01   3.4755976529e+01    0.4954998    0.2469596 -37.43  0.001795115    2.622    0.619
        53 -14.0224     35.3495    177.1768   8.1730947907e+01   3.3210624504e+01     1.562449     1.103219 -78.25  0.006323976    1.449    0.310
        54  -9.5077     94.3724    122.2499   5.6153213973e+01   3.8453843395e+01    0.3135043    0.2410407 -14.64  0.001216402    1.752    0.429
        55 -11.4127     22.1878    119.9524   8.0928896755e+01   4.8903033477e+01    0.4579048    0.2372884  65.48  0.001986283    2.036    0.509
        56  -9.0047    104.7115    116.9230   5.1781806980e+01   3.7790754377e+01    0.2038284    0.1946015 -66.68 0.0003350308    1.058    0.055
        57  -9.4408     31.8959    118.1868   7.7127378087e+01   4.8486417213e+01    0.2209577     0.174667  60.66 0.0005205585    1.216    0.178
        58  -9.2270    205.2249    110.5276   2.7835174731e+01   1.8713877403e+01    0.2376705    0.2103801   7.25 0.0008782025    1.186    0.157
        59 -13.8784     23.5262    184.1631   8.5339227737e+01   3.2771123960e+01     1.608958    0.8541166 -51.55  0.007998706    2.418    0.587
        60  -8.9153    110.3236    167.0699   6.0128313036e+01   2.5393512162e+01    0.1836098    0.1774078  86.56 0.0004072944    1.127    0.113
        61  -9.3085     23.7002    105.1490   7.8630997616e+01   5.2759758806e+01    0.2404719    0.1844452  42.58 0.0006831639    1.312    0.238
        62  -7.9930     33.2898    100.6815   7.4043301671e+01   5.3069377984e+01    0.1514003    0.1015595  64.87  0.000449345    1.598    0.374
        63  -8.8853     20.5323     91.4843   7.8099864580e+01   5.6719249957e+01    0.1416332    0.1273703 -69.21 0.0002311955    1.054    0.051
        64 -11.3570      6.4170     66.0667   8.1263499529e+01   6.4424782771e+01    0.4118354    0.1481116 -65.39  0.001667089    2.232    0.552
        65 -10.7019     50.7850    242.4280   8.2165194051e+01   1.8373472631e+01     0.396419    0.2130754 -81.75  0.002087014    2.281    0.562
        66 -12.0634    206.6090     58.3494   1.4881382997e+01   2.6167993461e+01    0.4594347    0.4170823  60.16  0.001566331    1.266    0.210
        67 -13.3005      3.8399    236.8189   9.1755545337e+01   2.3829930842e+01    0.5831103    0.3983414 -67.23  0.004147241    1.903    0.475
        68 -10.8867     13.5591     60.4721   7.6261172937e+01   6.5478848461e+01    0.3364891    0.2553621  81.79  0.001556602    1.407    0.290
        69  -8.5724     79.9781     59.9919   4.3108223596e+01   5.5979111215e+01    0.1840684    0.1733888 -46.95 0.0003733801    1.062    0.059
        70  -9.2060     18.5417     43.4813   6.8759455954e+01   6.9393189322e+01    0.1369909    0.1216634 -43.52 7.006834e-05    1.023    0.022
        71 -11.4485     19.7784     28.8136   6.2274519406e+01   7.2708747042e+01    0.6741738    0.2209739  41.31  0.002192366    3.902    0.744
        72 -11.7100      9.0485     23.8523   6.8771574348e+01   7.4772360605e+01    0.6558676    0.2265328  30.58  0.002601865    2.934    0.659
        73  -9.4258    210.6427    245.7043   5.1210546495e+01  -6.9439588724e-01    0.1106456    0.0608308   4.36  0.000703299    1.698    0.411
        74  -8.8567    189.4888     15.4664   5.0255472377e+00   3.5278875092e+01    0.1328633     0.114388 -60.40 0.0002061027    1.021    0.021
        75 -10.5682     71.2712    241.9751   7.7801554096e+01   1.6206940626e+01    0.2997742    0.1897068 -82.93  0.000798613    2.042    0.510
