#   1 NUMBER                 Running object number                                     
#   2 MAG_AUTO               Kron-like elliptical aperture magnitude                    [mag]
#   3 X_IMAGE                Object position along x                                    [pixel]
#   4 Y_IMAGE                Object position along y                                    [pixel]
#   5 X_WORLD                Barycenter position along world x axis                     [deg]
#   6 Y_WORLD                Barycenter position along world y axis                     [deg]
#   7 A_WORLD                Profile RMS along major axis (world units)                 [deg]
#   8 B_WORLD                Profile RMS along minor axis (world units)                 [deg]
#   9 THETA_WORLD            Position angle (CCW/world-x)                               [deg]
#  10 FWHM_WORLD             FWHM assuming a gaussian core                              [deg]
#  11 ELONGATION             A_IMAGE/B_IMAGE                                           
#  12 ELLIPTICITY            1 - B_IMAGE/A_IMAGE                                       
         1 -12.6493    249.5119     30.0640   3.5654545775e+02   2.0507926699e+01    0.4523057    0.1302476 -27.34  0.001823215    3.410    0.707
         2 -10.5473    156.5409    246.7059   5.3317089748e+01   4.4012734416e+00    0.1880583    0.1067472 -36.70  0.001143051    2.088    0.521
         3 -10.6524    160.5038    240.9915   5.1826296026e+01   4.6792302843e+00    0.1319594    0.1065119  87.61  0.000810488    2.577    0.612
         4 -10.7585    169.1479    242.3103   5.0321335503e+01   3.4165627467e+00    0.1923812    0.1392197 -11.48   0.00131977    1.396    0.284
         5 -10.4085    194.5021    230.9955   4.4030682822e+01   1.7462342748e+00    0.1601947    0.1019839 -28.86  0.001019802    1.622    0.383
         6 -11.2067    184.5556    227.3426   4.5337668867e+01   3.4622632460e+00    0.1938169    0.1112804 -42.18  0.001141815    2.112    0.527
         7 -10.3449    190.5208    226.4879   4.4103003062e+01   2.8197883367e+00    0.1180363   0.08964222   9.99 0.0008102008    1.003    0.003
         8  -9.9415    126.5124    226.5096   5.7030127065e+01   1.1359931867e+01    0.1268974     0.100902  27.99 0.0008104371    1.016    0.016
         9  -9.7375    248.5014    223.5092   3.3955504033e+01  -3.4962220018e+00    0.1076511    0.0732114  -1.79 0.0008102517    1.043    0.041
        10 -10.2842    198.4771    214.0415   4.0759320013e+01   3.4515123627e+00    0.1712455    0.1048951 -30.40  0.001044687    1.631    0.387
        11 -10.2162     76.5973    212.8137   6.6979672696e+01   2.0604581737e+01    0.1691975    0.1188754  85.22 0.0009563238    1.725    0.420
        12 -10.8349     85.5175    208.5411   6.4384183183e+01   2.0268141934e+01    0.2135037    0.1272021 -85.59  0.001038747    2.389    0.581
        13 -11.8922     98.7541    203.9488   6.0638452747e+01   1.9333165257e+01    0.4432091     0.169853 -57.71  0.001859042    2.999    0.667
        14 -10.7481    183.8559    203.1041   4.1751520204e+01   6.9635557746e+00    0.2332537    0.1727369 -14.71   0.00146568    1.286    0.222
        15 -10.8716    123.7870    197.2358   5.3733582250e+01   1.6918627041e+01    0.3972151    0.1840858 -56.75  0.001737384    2.685    0.628
        16 -11.8586     88.4749    197.0788   6.2347213820e+01   2.2181997694e+01    0.3785349    0.2581555 -88.92  0.001967495    1.916    0.478
        17  -9.8203    215.9903    195.4774   3.4639005057e+01   3.6498787504e+00    0.1377797    0.1012869  52.76 0.0008069599    2.352    0.575
        18 -10.5825     12.6211    195.1998   8.1562910176e+01   3.1427990518e+01    0.1661664    0.1036802 -72.59 0.0009558054    1.712    0.416
        19 -11.3155    246.2988    192.8459   2.9367299482e+01   2.1735685365e-01    0.2990246     0.170707 -43.86  0.001746055    2.466    0.595
        20 -10.6077    185.0000    194.0377   4.0023986202e+01   8.1582639653e+00    0.1944242   0.06803831 -40.63 0.0008065581    2.971    0.663
        21 -10.3687    197.4944    204.0047   3.9332685605e+01   4.9518005103e+00    0.1709643     0.108859 -32.16  0.000700528    1.576    0.365
        22 -11.5975     77.2948    191.8411   6.4593050747e+01   2.4849716101e+01    0.3623114    0.1790365 -58.72   0.00167105    2.238    0.553
        23 -10.8231    129.3598    187.5652   5.0943142987e+01   1.7889612406e+01    0.2835413    0.2380119  69.46   0.00161325    1.516    0.341
        24 -11.1915     95.4000    188.1899   5.9453957950e+01   2.3036093754e+01    0.3082477    0.1806379 -78.51  0.001376892    2.457    0.593
        25 -11.1403     94.2252    182.0103   5.8911545709e+01   2.4534644204e+01    0.4791653    0.2116387 -41.44  0.001807914    3.166    0.684
        26 -10.2921    140.0000    197.9582   5.0105550564e+01   1.4301988445e+01    0.2001043   0.07657067 -49.30 0.0008095364    2.992    0.666
        27 -10.5790     11.8220    183.6087   8.1251709587e+01   3.4094626425e+01    0.2367526   0.08396924 -78.46  0.001015606    2.729    0.634
        28 -10.7066    224.7964    193.0982   3.2764175891e+01   2.8209695927e+00    0.2851744    0.1375695 -41.46  0.001507965    2.378    0.579
        29 -10.7856    147.1919    178.8059   4.5325948268e+01   1.6643086304e+01    0.2837515    0.1105471 -53.77    0.0010234    3.496    0.714
        30 -11.0427     58.9945    175.7981   6.7731490926e+01   3.0906037255e+01    0.2532013    0.1695296  80.64  0.001183734    1.651    0.394
        31 -11.0987      2.3663    171.7653   8.3271769635e+01   3.7593532114e+01    0.3725418   0.09742142  86.21  0.001260434    4.163    0.760
        32 -10.9187     77.3862    171.8058   6.2077921210e+01   2.9326983986e+01    0.1984527    0.1275398 -51.93 0.0009549593    1.730    0.422
        33 -10.3986    120.6389    169.8341   5.0146891550e+01   2.2886031463e+01    0.1957362    0.1393322 -66.27 0.0009532796    1.753    0.430
        34 -10.9279     54.8984    168.1020   6.8046703289e+01   3.3257149665e+01    0.4330064    0.1972222 -82.26  0.001695712    2.752    0.637
        35 -10.7081    150.4137    168.7506   4.2771063186e+01   1.7981426466e+01    0.2654185    0.1373527 -49.95  0.001155856    2.196    0.545
        36  -9.9676     88.0000    167.0009   5.8416304333e+01   2.8847732290e+01    0.2253553   0.08361002 -60.60 0.0007640815    2.940    0.660
        37 -11.1993    212.8427    162.3532   2.9176223084e+01   8.7674769314e+00    0.3146767    0.1651141 -38.58  0.001623701    1.827    0.453
        38 -10.4796     91.6834    158.5078   5.6029205331e+01   3.0238138869e+01    0.2585525     0.137145 -59.40  0.001087647    2.030    0.507
        39 -10.5379    249.3159    150.6519   2.1391662124e+01   5.1384469558e+00     0.109162   0.08343272 -48.57 0.0007047691    1.725    0.420
        40 -12.2780      2.8588    141.9807   8.1766307438e+01   4.4843205474e+01    0.7351019    0.1781955  88.57  0.002201876    4.732    0.789
        41 -10.8986    189.3105    146.1937   3.0125244199e+01   1.5178418914e+01    0.2794993    0.1134304 -32.09  0.001083258    2.643    0.622
        42 -10.8137     54.7899    144.3394   6.5098169105e+01   3.9190132458e+01    0.3630801    0.1956557  88.07  0.001432169    2.436    0.589
        43 -10.8378    194.4950    143.4979   2.8599948826e+01   1.4715845175e+01    0.1340711    0.1200816 -11.90 -0.0001222975    1.022    0.021
        44 -10.2494    104.3535    142.6609   4.9499373989e+01   3.1779262198e+01    0.1626125    0.1154273  68.83 0.0007042574    1.804    0.446
        45 -11.2998     21.9294    133.9821   7.4863832013e+01   4.5469935016e+01    0.6887147    0.2800612 -70.09  0.002842122    2.230    0.552
        46 -10.3978     69.0401    135.9370   5.9125955159e+01   3.9339774050e+01    0.2172042    0.2123322  71.42 0.0003469625    1.053    0.050
        47 -11.5867    187.6729    134.5179   2.7928383709e+01   1.7452049836e+01    0.2530649    0.1197394 -38.44  0.001088088    1.999    0.500
        48 -11.4301    179.7399    132.6673   2.9034442245e+01   1.9266403661e+01    0.4495854    0.1726311 -45.30  0.001665324    2.738    0.635
        49 -10.4179    143.7673    131.7751   3.6663996337e+01   2.6551087670e+01    0.2433757     0.180368  85.84  0.001061512    2.117    0.528
        50 -11.9652    192.6991    129.3105   2.5857477374e+01   1.7398755462e+01    0.3354944     0.159517 -37.26  0.001467825    1.959    0.489
        51 -12.2851    169.0723    128.5642   3.0251265231e+01   2.2087902752e+01    0.5297215     0.285764 -52.52  0.002182947    2.259    0.557
        52 -11.5889    152.8163    128.6857   3.3822487021e+01   2.5338895828e+01    0.4761502    0.2571529 -55.19  0.001876326    2.342    0.573
        53 -11.3768    186.4823    128.5172   2.6816963607e+01   1.8703892568e+01      0.25744    0.1262316 -27.76  0.001037755    2.343    0.573
        54 -11.3626     11.6169    126.5987   7.7798299568e+01   4.8217037793e+01    0.6399831    0.1840444 -81.32  0.002172389    3.361    0.702
        55 -10.2468     98.3808    127.5822   4.8114629048e+01   3.6451225800e+01    0.3030628      0.14796 -69.06  0.000960399    3.345    0.701
        56 -12.5197    180.1321    123.9401   2.6974565899e+01   2.0731894154e+01    0.4242102    0.2205842 -47.12  0.001817633    2.035    0.509
        57 -11.1010     57.7048    121.5880   6.0463938594e+01   4.4705805340e+01    0.4658406    0.1934721 -76.93  0.001446213    3.582    0.721
        58 -11.1648     41.9858    119.4015   6.5845147673e+01   4.7304081856e+01    0.5873557    0.1984483 -81.67  0.001478706    5.648    0.823
        59 -11.5837    172.2890    121.1593   2.7865735941e+01   2.2800636163e+01    0.2379987    0.1808807 -19.26   0.00113786    1.423    0.297
        60 -11.3535    130.2272    116.2344   3.6336577798e+01   3.2629528912e+01    0.5647508    0.2074369 -43.32  0.001861602    2.802    0.643
        61 -11.6394      1.9346    114.1320   8.0363027552e+01   5.2087843948e+01    0.7243837    0.1705032 -85.50  0.002185272    4.339    0.770
        62 -12.1735    185.9842    114.7820   2.3740158165e+01   2.1161270475e+01    0.4317863    0.1831525 -41.83  0.001724114    2.234    0.552
        63 -10.8387    108.5853    113.2907   4.1650578873e+01   3.7828531774e+01    0.3036475    0.1546645 -54.43  0.001135327    2.124    0.529
        64 -10.5261     92.4043    113.2205   4.6684168710e+01   4.1053864926e+01    0.2277626    0.1512929 -68.16 0.0009527689    1.778    0.437
        65 -11.3138     77.7573    109.0704   5.0656446000e+01   4.4766852098e+01    0.7162493    0.2360651 -62.03  0.002012981    3.950    0.747
        66 -11.0454    122.3663    109.5493   3.6733824941e+01   3.5766392553e+01    0.4798646     0.270231 -23.95   0.00160754    3.110    0.678
        67 -10.7009     13.4288    108.5961   7.5428527567e+01   5.2849673270e+01    0.3871803    0.1574585 -75.68  0.001570552    2.216    0.549
        68 -12.0769    128.5866    100.5177   3.2630980858e+01   3.6332983245e+01    0.6054608    0.2972164 -46.22  0.002290658    2.072    0.517
        69 -11.1456     42.8267     99.6415   6.2012415399e+01   5.2457647952e+01    0.3298171    0.1669098  84.66  0.001085869    3.437    0.709
        70 -10.9109     19.6645     97.7919   7.1511790593e+01   5.5270765915e+01    0.4453712    0.1634033  89.88  0.001368666    4.040    0.752
        71 -10.5387    107.1779     98.1873   3.8055930578e+01   4.1579824127e+01    0.2245175    0.1908914  87.92 0.0007797226    1.361    0.265
        72 -11.7124     94.7025     94.2601   4.0920389757e+01   4.5119728040e+01    0.7513279    0.3303263 -42.80  0.002617611    2.455    0.593
        73 -11.7064      4.5826     89.7762   7.7120069964e+01   5.8367310088e+01    0.5376316    0.2961406 -89.10  0.002558611    1.749    0.428
        74 -12.0864    124.4472     89.3885   3.0555020419e+01   3.9596332280e+01    0.6513004    0.3158287 -40.36  0.002157171    2.126    0.530
        75 -11.7482     34.9223     86.2350   6.2669907653e+01   5.6905032202e+01    0.8801898    0.3079665 -60.24    0.0032051    2.491    0.599
        76 -12.5241     85.9958     84.7915   4.1125157144e+01   4.9104829238e+01    0.9134644    0.4123195 -53.17  0.003263316    2.358    0.576
        77 -11.9899    104.6008     81.7823   3.3961239227e+01   4.5763665704e+01    0.7580284    0.3489214 -52.94  0.002633763    2.520    0.603
        78 -11.6736    119.1145     79.4826   2.8982596286e+01   4.2865696650e+01     0.363217    0.2056626 -47.21  0.001457603    1.822    0.451
        79 -10.8356     74.1683     78.6797   4.3659411005e+01   5.2859288957e+01    0.4627964    0.2035707 -58.34  0.001574459    2.728    0.633
        80 -11.2737     23.8644     76.8368   6.5944457893e+01   6.0454654686e+01    0.6376526    0.1347518 -62.49  0.001999676    3.503    0.715
        81 -11.7522    127.8005     75.3429   2.5384658805e+01   4.1581716689e+01    0.3920498    0.1977263 -53.47  0.001414962    2.400    0.583
        82 -11.3574     48.2278     83.9781   5.6124011272e+01   5.5838503781e+01    0.6153473    0.3288948  72.79  0.001912388    4.122    0.757
        83 -11.8814     62.4838     71.4103   4.6143447289e+01   5.6700488801e+01    0.6593321    0.1474316 -52.71  0.001749132    4.460    0.776
        84 -11.3494     95.0347     71.0423   3.3511483849e+01   5.0199823325e+01    0.5753595     0.252863 -55.43  0.001845221    3.110    0.678
        85 -12.2104    117.6189     70.2188   2.6393495213e+01   4.5043286914e+01    0.5238425    0.3077631  39.00  0.000497293    1.909    0.476
        86 -10.8832     42.5385     71.2056   5.5291594755e+01   5.9827231430e+01    0.3790564    0.1301408 -57.07  0.001321308    2.677    0.626
        87 -13.0970    237.0175     68.9827   5.9942913986e+00   1.8112448690e+01    0.2867325    0.2541463 -51.57  0.001985793    1.102    0.093
        88 -12.8225    235.7812     64.5640   5.1334451926e+00   1.8916261753e+01    0.3154696     0.199018  33.59  0.001672288    2.423    0.587
        89 -11.3443     50.8641     67.8226   5.0248380230e+01   5.9460649392e+01    0.6508153    0.2347201 -64.18  0.001865935    4.303    0.768
        90 -10.0623    154.5911     67.8080   1.7129437507e+01   3.6315737123e+01    0.2101774    0.1724133 -77.31 0.0003700792    1.312    0.238
        91 -10.5058     16.0000     67.9949   6.8169793132e+01   6.3368310349e+01    0.2350022   0.07249231 -70.04 0.0008091669    2.989    0.665
        92 -11.4187    105.8827     70.4730   2.9856345343e+01   4.7811897657e+01    0.5071119    0.2303333 -43.21  0.001845133    2.249    0.555
        93 -10.9353     36.8984     62.5684   5.5565640805e+01   6.2675110203e+01    0.5255899    0.1676187 -57.14  0.001823731    2.844    0.648
        94 -11.3254     72.9242     56.9084   3.6504547635e+01   5.7923622794e+01    0.6252738    0.2105616 -42.37   0.00202036    3.099    0.677
        95 -10.4073    131.4730     57.5144   1.8671747844e+01   4.3850276339e+01    0.1520619    0.1460999  79.19 8.866086e-05    1.017    0.017
        96 -11.4061     22.2028     54.0076   6.1192329774e+01   6.6357871500e+01    0.3797235    0.2224154  89.56  0.001613056    2.556    0.609
        97 -11.4607    159.1944     54.8442   1.2384371954e+01   3.7224109057e+01    0.2293307    0.1909276 -66.05  0.000601412    1.188    0.158
        98 -11.3384     62.6961     53.6718   3.9614707714e+01   6.0621634378e+01    0.4294622    0.1676382 -44.38  0.001533355    2.596    0.615
        99 -10.2582     86.4616     54.5539   3.0413295367e+01   5.5452155087e+01    0.1520274    0.1454489  34.87 6.291095e-05    1.028    0.027
       100 -10.8047    166.4747     70.4630   1.5722589110e+01   3.2988897548e+01    0.1443378    0.1397392 -59.69 9.123533e-05    1.040    0.038
       101 -11.4354     27.9758     46.0032   5.5062666500e+01   6.7655888941e+01    0.3176309    0.2326564 -20.22 0.0009734135    1.443    0.307
       102 -10.2335     28.4530     42.4773   5.3432176461e+01   6.8400397328e+01    0.1857393    0.1654717 -30.82  0.000600172    1.035    0.034
       103 -10.2147    238.4746     42.5029   3.5999273085e+02   2.1146329309e+01    0.1220653    0.0976438 -47.70 6.079281e-05    1.011    0.011
       104 -11.1321    184.4960     41.4959   4.8954704932e+00   3.2878697055e+01    0.1379474    0.1235642 -63.61 -9.965032e-05    1.014    0.014
       105 -10.9137     53.9088     53.2064   4.3557301068e+01   6.2311247374e+01     0.482477    0.2179826 -63.70  0.001480129    4.151    0.759
       106 -10.6263     36.5513     40.1624   4.7514800186e+01   6.7850558226e+01    0.4279851    0.1300091 -51.95  0.001465905    3.225    0.690
       107 -10.0925     38.4731     35.4844   4.4245247097e+01   6.8537549902e+01    0.2019922    0.1302902  19.54  0.000832596    1.695    0.410
       108 -11.1495    122.8270     36.7999   1.3217864415e+01   4.9283218365e+01    0.2118518    0.1707694 -72.36 0.0008211889    1.320    0.243
       109  -9.7090     80.6618     35.6739   2.4470831288e+01   6.0127933643e+01    0.1559041    0.1113948  21.18 0.0007051544    1.726    0.421
       110 -11.5647    176.5637     33.2263   3.4963029413e+00   3.5846035793e+01    0.2460691    0.1834971  77.30 0.0005863261    1.311    0.237
       111 -10.8518     27.0042     30.7687   4.9328627222e+01   7.1103128634e+01    0.5021287    0.1151077 -42.16  0.001431217    4.980    0.799
