#   1 NUMBER                 Running object number                                     
#   2 MAG_AUTO               Kron-like elliptical aperture magnitude                    [mag]
#   3 X_IMAGE                Object position along x                                    [pixel]
#   4 Y_IMAGE                Object position along y                                    [pixel]
#   5 X_WORLD                Barycenter position along world x axis                     [deg]
#   6 Y_WORLD                Barycenter position along world y axis                     [deg]
#   7 A_WORLD                Profile RMS along major axis (world units)                 [deg]
#   8 B_WORLD                Profile RMS along minor axis (world units)                 [deg]
#   9 THETA_WORLD            Position angle (CCW/world-x)                               [deg]
#  10 FWHM_WORLD             FWHM assuming a gaussian core                              [deg]
#  11 ELONGATION             A_IMAGE/B_IMAGE                                           
#  12 ELLIPTICITY            1 - B_IMAGE/A_IMAGE                                       
         1 -13.5517     81.4235     59.0571   2.4136010590e+01   5.5503991347e+01     4.015317     2.118829 -26.70   0.01430287    3.069    0.674
         2  99.0000     32.0598     34.5375   3.6662127412e+01   6.9546201329e+01     3.121653    0.8413616 -42.45   0.01003592    4.057    0.754
         3 -12.2848    137.6362      4.5312   3.5183182011e+02   4.9526099453e+01    0.6063287    0.3453242  88.11  0.002820989    1.626    0.385
         4 -14.1783     46.7849     41.5233   3.1639203463e+01   6.5775381825e+01      1.93562     1.290768 -17.89  0.009021004    2.023    0.506
         5 -15.1830     64.2110     38.4260   2.2251904752e+01   6.2964218638e+01      2.98982     2.038079  16.10   0.01371316    2.095    0.523
         6 -15.1404     89.8056      7.0143   3.5982883797e+02   6.1128099411e+01     3.392297      1.31309  63.50   0.01436767    2.169    0.539
         7 -13.7893    119.9080     10.4670   3.5603885330e+02   5.3319208463e+01     1.346501    0.5525353  65.06  0.004816525    2.120    0.528
         8 -14.4016      9.8510     71.9968   6.2099262347e+01   6.3109830922e+01     2.321408     2.138737 -63.88   0.01401077    1.034    0.033
         9 -14.4878     11.8055     24.5159   4.6070681098e+01   7.4130660647e+01      3.12269     1.449911 -39.44   0.01449171    2.132    0.531
        10 -11.7747    241.9326     23.1707   3.4891312811e+02   2.5577165987e+01    0.4730484    0.1863067 -55.61  0.002126582    2.021    0.505
        11 -11.1298    208.4184     17.5372   3.4965522779e+02   3.2406944406e+01    0.4432372    0.2175066 -59.24  0.001727604    1.720    0.419
        12 -10.4971    139.3602     15.9446   3.5533597877e+02   4.7971031543e+01    0.3546335    0.1983548 -34.01  0.001683259    1.778    0.438
        13 -11.0993    244.4793     14.5393   3.4707341519e+02   2.6081101528e+01    0.1997895    0.1368877 -49.93 0.0007104824    1.058    0.055
        14 -11.1492    174.5667     13.2621   3.5102827058e+02   4.0019263088e+01    0.3055831    0.2332899 -79.94 0.0009621566    1.143    0.125
        15 -11.9793    184.4017      9.6874   3.4936080769e+02   3.8230291706e+01    0.7209077     0.349582 -50.72  0.003021167    1.682    0.406
        16 -10.0189    178.3823      8.3014   3.4942825602e+02   3.9686277069e+01    0.2142245    0.1633013  87.44 0.0006880001    1.236    0.191
        17  -9.7514     63.0030     11.5267   9.3104582195e+00   6.7071184707e+01    0.3536929    0.1968393  61.85  0.001303095    1.691    0.409
        18 -10.3820    202.1031     11.0870   3.4855600731e+02   3.4369748412e+01    0.1838297    0.1448068 -77.27 0.0004312815    1.150    0.130
        19  -9.6865    155.3029      9.6529   3.5168621249e+02   4.4810238015e+01    0.1917736    0.1140612 -39.90 0.0007160807    1.559    0.359
        20 -12.2385    148.8873      6.6884   3.5139902846e+02   4.6618797353e+01    0.5503996     0.317852 -79.18  0.001360959    1.648    0.393
        21 -10.1381    168.8870      8.7994   3.5027725649e+02   4.1759137657e+01    0.1785919    0.1634914  79.83 0.0005783294    1.253    0.202
        22  -9.7942    164.8049      8.6629   3.5056989197e+02   4.2703680403e+01     0.192104     0.172124 -27.24   0.00128036    1.349    0.259
        23  -9.7523    200.0582      5.1381   3.4728059564e+02   3.5397341476e+01    0.2064702   0.09707297 -58.71  0.001121674    1.741    0.426
        24 -11.3359    215.4392      2.2285   3.4584830584e+02   3.2630986368e+01    0.2136093    0.1402513 -60.92 0.0003539215    1.154    0.134
        25 -10.1317    238.6400      1.4325   3.4472339019e+02   2.8438949063e+01    0.1839314   0.09209028  86.60 0.0007885445    2.039    0.510
        26  -9.2702    191.6697      1.2978   3.4682673553e+02   3.7514947911e+01    0.1297379   0.06509079 -60.10 0.0007028856    1.640    0.390
        27 -13.3318      3.7841     97.0388   6.8843828514e+01   5.6755246085e+01     1.018862    0.8304616  71.30  0.004872846    1.235    0.190
        28 -13.3841    189.5673    248.1291   3.7940616211e+01   1.1142121212e-01    0.9034312    0.2891628  27.52  0.004465431    2.744    0.636
        29 -12.2745     16.7156    100.1210   6.3441058968e+01   5.5064252834e+01    0.5996956     0.434943 -64.79  0.003081181    1.263    0.208
        30 -11.5457    179.6093     93.1144   1.1054306527e+01   2.7531737692e+01     0.579064    0.4456083  34.34  0.003186733    1.648    0.393
        31 -10.1479     54.6704     95.3883   4.6011123775e+01   5.2008018886e+01    0.3537078     0.266255 -49.69   0.00170888    1.307    0.235
        32 -11.1850    204.5094     93.4899   7.4678497316e+00   2.2758057773e+01       0.4022    0.3199002  86.17  0.002468214    1.520    0.342
        33 -10.2454    201.7114     92.3179   7.5839211172e+00   2.3453618227e+01    0.2358028    0.1961457 -24.12 0.0005610614    1.300    0.231
        34 -12.0380    143.3731     92.3300   1.7635795686e+01   3.5197445686e+01    0.5172044    0.4489838  15.94  0.001568222    1.437    0.304
        35 -10.0659    162.9184     92.1111   1.3685738440e+01   3.1098020476e+01    0.2546642    0.1886252  64.94 0.0006968488    1.501    0.334
        36  -9.3614    157.3354     87.9951   1.3666487261e+01   3.3023637598e+01    0.1941189    0.1713932 -51.94 0.0004270931    1.038    0.036
        37 -11.6917    249.1548     85.2439   7.2903369596e-01   1.6595716477e+01    0.4062341    0.1976638 -41.35   0.00203535    1.502    0.334
        38 -11.5940    245.7191     80.0528   2.8075610281e-02   1.7829600919e+01    0.3342508    0.2557111 -63.53  0.001480885    1.320    0.243
        39 -11.0298    118.6830     84.2232   2.1199646202e+01   4.2220220807e+01    0.6597716    0.4226483 -77.34  0.002588831    2.448    0.591
        40 -10.1459     89.5646     86.5051   3.0469905939e+01   4.7952074948e+01    0.2765717    0.2676935 -73.39 0.0007537953    1.014    0.014
        41 -10.5729    172.5347    101.9985   1.4390430635e+01   2.7353173679e+01    0.3730437    0.2113006  59.84  0.001710826    2.120    0.528
        42 -11.1619    200.3535    236.1302   3.4406855769e+01   6.4644715206e-01    0.1898148    0.1494145  -5.47  0.000835211    1.095    0.087
        43 -10.0011    214.6754    232.1940   3.1430794028e+01  -2.4278069598e-01    0.1978098    0.0893034 -45.00  0.001088651    2.620    0.618
        44  -9.4982    124.0726    205.9330   4.5393639113e+01   1.4653538726e+01     0.162033     0.135917  -3.36            0    1.177    0.150
        45 -10.3815    247.9840    202.2421   2.1800498736e+01   4.3560355972e-01    0.1234393   0.08060398  21.11 0.0008928778    1.637    0.389
        46 -10.8116    244.2239    182.1474   1.9079206307e+01   3.4951655573e+00    0.2584785    0.1430333 -29.67  0.001654595    1.399    0.285
        47 -10.4314    227.3120    178.7522   2.0956034783e+01   5.8751965713e+00    0.2214343    0.1692248 -28.71 0.0009999396    1.114    0.102
        48 -11.0777    174.7979     80.9584   8.8312453609e+00   3.0580469270e+01    0.3749217    0.2152818 -43.65  0.001157525    1.535    0.349
        49 -10.4802    128.2194     81.9846   1.8178423405e+01   4.0545849551e+01    0.4240846      0.22711  59.22   0.00108403    2.064    0.516
        50 -10.1594    100.9872    176.0050   4.6635946935e+01   2.4303783712e+01    0.1954172    0.1870203  26.17            0    1.003    0.003
        51 -11.0540    234.5119     75.7230   2.1112324628e-01   2.0218534067e+01    0.2491062    0.1854066 -42.51 0.0004699699    1.064    0.060
        52 -10.6019    213.0025     76.5462   2.6434572056e+00   2.3826838315e+01    0.2242274    0.1503788 -41.71 0.0002419523    1.216    0.178
        53 -10.4674    110.0377     75.3818   2.0822976445e+01   4.5934306128e+01    0.5502965    0.4920391 -51.53  0.002936678    1.105    0.095
        54 -10.2813    104.2993     76.1505   2.2683112575e+01   4.7057794520e+01      0.35994    0.2967386 -88.29  0.001175612    1.373    0.272
        55  -9.9571    117.6722     73.8431   1.8326368099e+01   4.4510309190e+01    0.2778617    0.2156448  54.63 0.0008801559    1.296    0.229
        56 -10.2536    126.2838     71.1102   1.5392631637e+01   4.3054149196e+01    0.6754884     0.404322  44.26  0.002971131    1.852    0.460
        57 -11.0213    117.2637     69.5809   1.7094706361e+01   4.5416426017e+01    0.6117511    0.4838588  89.11  0.003052024    1.428    0.300
        58  -9.7619    206.0082     75.5013   3.2236144990e+00   2.5273064455e+01    0.2734946     0.116022 -59.40  0.001036304    3.416    0.707
        59 -10.7515    250.1622     74.2547   3.5849279227e+02   1.7926489101e+01    0.2100479    0.1365597 -45.18 0.0007239819    1.134    0.118
        60  -9.1666    198.5151     75.5624   4.1580647528e+00   2.6689798629e+01    0.1316168    0.1082557 -53.69 8.644367e-05    1.036    0.035
        61  -9.1374    143.9850     73.4460   1.2281329688e+01   3.8584493803e+01    0.1938986    0.1410615  63.44 0.0003334333    1.426    0.298
        62 -12.5659     96.1723     70.7791   2.3377683824e+01   4.9947658644e+01    0.3632384     0.333535  40.64 0.0005132627    1.135    0.119
        63  -9.3187    218.5094     71.4803   9.2479620189e-01   2.3571444407e+01    0.1245246   0.09957202 -48.13 -1.906307e-05    1.018    0.018
        64  -9.5616    236.9886     67.0353   3.5819495216e+02   2.0999117433e+01    0.1641782    0.1358792  -9.76 0.0009130445    1.638    0.389
        65 -11.9360    214.9876     60.6970   3.5890400636e+02   2.5735726048e+01    0.4007414    0.3150171  80.80  0.001354382    1.423    0.297
        66 -10.5625    169.6451     61.4104   4.5506768028e+00   3.4840396524e+01    0.3009466    0.2304748 -84.74 0.0008620318    1.355    0.262
        67  -8.9998    124.6880     62.2129   1.2983261847e+01   4.5024336417e+01    0.1404657    0.1071335 -88.39 0.0001539864    1.473    0.321
        68 -10.2982    246.6438     60.4057   3.5605013141e+02   2.0295869521e+01    0.1735317     0.106663  81.85 0.0007887112    2.040    0.510
        69 -10.1005    131.5294     60.0055   1.0803739485e+01   4.3792678509e+01    0.3045982    0.2254325  84.32 0.0004587558    1.482    0.325
        70 -11.4645    125.3771     56.7814   1.1088494978e+01   4.5788896922e+01    0.5574008    0.3185617  52.56  0.001503869    1.764    0.433
        71  -9.7900    174.1383     56.0334   2.4948589890e+00   3.4670812686e+01    0.2010565    0.1693978 -63.63 0.0004854286    1.040    0.039
        72 -10.7792    209.9044     54.2889   3.5795899950e+02   2.7576089452e+01    0.2472978    0.1922641  70.69 0.0008598716    1.468    0.319
        73 -10.1864    219.5463     53.4328   3.5686373326e+02   2.5879819926e+01    0.2142665    0.1626797 -50.55 0.0005105641    1.027    0.027
        74  -9.6374    167.7852     52.7143   2.4743366025e+00   3.6562580175e+01    0.3399793    0.1597397  78.59  0.001367124    2.804    0.643
        75 -11.3794    132.5238     51.5876   7.9484412127e+00   4.4926541765e+01    0.5804781    0.3436821 -87.83  0.002402548    2.376    0.579
        76  -9.9140    213.6497     50.1729   3.5667198298e+02   2.7415116325e+01    0.1879475    0.1416789 -71.25 0.0003836949    1.251    0.200
        77  -9.2853    198.5084     49.9116   3.5807926516e+02   3.0415121852e+01    0.1817715    0.1060092 -40.22 0.0003173897    1.450    0.311
        78 -12.4856    227.0909     41.4856   3.5365115908e+02   2.6039665660e+01    0.6532527    0.4370082  48.32  0.002546438    2.179    0.541
        79 -11.4662    157.1877     42.6580   1.1353874183e+00   4.0415056905e+01    0.3475787    0.2661887  65.77 0.0005844814    1.340    0.254
        80  -9.2472    141.4124     43.7782   3.8842733311e+00   4.3975586431e+01    0.1819423    0.1353134 -22.90 0.0009377521    1.609    0.379
        81  -9.6013    203.3483     43.0550   3.5597927653e+02   3.0355751301e+01    0.1857855    0.1629954  71.14 0.0007479307    1.351    0.260
        82 -10.0388    247.0632     42.4892   3.5246079802e+02   2.2466798305e+01    0.1378171    0.1029624  86.75 0.0004705547    1.522    0.343
        83 -13.1728    213.4804     39.1755   3.5420668219e+02   2.8866041467e+01     0.303441    0.2518543 -82.22 0.0006467098    1.221    0.181
        84 -10.2450    180.2643     40.9281   3.5778494890e+02   3.5453603873e+01      0.23097    0.1697424 -83.61 0.0007024961    1.323    0.244
        85 -12.3511    120.9706     44.0547   7.7905412480e+00   4.8869705711e+01    0.3545749    0.3355157 -12.70  0.001037221    1.244    0.196
        86  -9.4964    197.5132     40.1859   3.5583971446e+02   3.1906684781e+01    0.2188289    0.1548374  31.73  0.001190381    2.351    0.575
        87  -9.3445    133.5843     39.5310   3.8678605514e+00   4.6463514257e+01    0.1412218    0.1236663 -73.73 5.106677e-05    1.048    0.046
        88 -10.9803    160.2234     35.7000   3.5872843289e+02   4.0648001059e+01    0.2490881    0.2258284 -80.29 0.0004337279    1.092    0.084
        89 -10.4570    130.2538     36.7624   3.5407519203e+00   4.7656972071e+01    0.2302391    0.1949136  76.28 0.0003069623    1.119    0.106
        90 -12.2577    240.8730     34.3472   3.5122432305e+02   2.4478041440e+01    0.2756553    0.2421768  85.56 0.0005175482    1.400    0.286
        91 -10.5941    248.0171     31.0544   3.5014407006e+02   2.3656449608e+01    0.2942973    0.1519289  84.41  0.001644506    2.231    0.552
        92  -8.9290    171.6944     35.2564   3.5723490373e+02   3.8088802667e+01    0.1334064   0.08456226 -66.40 0.0002125972    1.514    0.340
        93 -11.8446    151.0590     31.4489   3.5866838722e+02   4.3342865023e+01    0.5121883    0.3362236  68.62  0.001619829    1.482    0.325
        94 -13.1706     18.6057    151.4141   6.8441607882e+01   4.0772206761e+01    0.7297862    0.5896716  55.77  0.004056463    1.157    0.136
        95 -10.0103    102.6736     30.3305   6.7833117954e+00   5.5295858880e+01    0.3379824    0.1768265  56.67  0.001068004    1.766    0.434
        96  -9.9118    106.8914     27.5036   4.7473721687e+00   5.4629295402e+01    0.2221087    0.1630073  53.27  0.001020602    1.344    0.256
        97 -10.9916    168.4089     26.9826   3.5532825838e+02   3.9859620101e+01    0.3921061    0.2147448  75.68  0.002000646    1.796    0.443
        98  -9.5082    216.0638     27.2763   3.5134527039e+02   2.9809715040e+01    0.1597945    0.1263372 -68.63 0.0004828518    1.118    0.106
        99  -9.6659    202.6788     25.6967   3.5194714496e+02   3.2632654044e+01    0.1629227    0.1054738 -59.32 0.0004635184    1.268    0.211
       100 -10.0747    230.0115     17.9700   3.4848629507e+02   2.8257778045e+01    0.2666174    0.0801001 -49.80  0.001094322    2.353    0.575
       101 -10.9052    249.6674    150.5018   1.2904628091e+01   7.3005644339e+00    0.2143175    0.0804673 -37.63  0.001097517    2.013    0.503
       102 -10.9596    234.9073     20.5824   3.4876396623e+02   2.7091564358e+01    0.2853267    0.1823309  68.46  0.001573889    1.883    0.469
       103 -13.0507      3.9060    140.1094   7.2545424073e+01   4.4919772377e+01      1.10481    0.4887922  82.77  0.004479962    2.277    0.561
       104  -9.6802    187.0363     18.4096   3.5137190693e+02   3.6728221314e+01    0.1789107     0.108957  80.44 0.0008996622    1.609    0.379
       105 -11.5031     58.9056    144.6598   5.4164947880e+01   3.8221087574e+01    0.6685132      0.44897  47.80  0.002261804    1.482    0.325
       106  -9.0667    201.3372     16.2316   3.4981230026e+02   3.3974567190e+01    0.1022669   0.08660687  58.55 0.0003372749    1.537    0.349
       107 -11.7415     51.8275    143.4261   5.6342012161e+01   3.9469076951e+01    0.3850468    0.3372127  36.77  0.001112837    1.141    0.124
       108 -10.1440    239.1902    144.4033   1.3148349348e+01   9.4841734725e+00    0.1342395    0.1137467  59.18 0.0009586397    1.727    0.421
       109  -9.5070    143.4966     14.3143   3.5432559274e+02   4.7142972640e+01    0.2110062     0.109813  76.89 0.0005506986    1.791    0.442
       110 -11.5473     64.7023    128.3749   4.9382667505e+01   4.1766996672e+01    0.4277425    0.3357198 -77.64  0.001835453    1.315    0.240
       111 -10.6453    248.7115    129.1510   9.1473572686e+00   1.0464041048e+01    0.1915316    0.1159933 -45.80  0.001206375    1.457    0.314
       112 -12.0059      9.2508    128.9427   6.9776472623e+01   4.7628030761e+01    0.4356288    0.2390708  28.70  0.002012997    1.825    0.452
       113 -12.0847      3.8080    125.4056   7.1512762302e+01   4.8948453890e+01    0.4868535    0.3284513  31.24  0.002511708    1.520    0.342
       114 -12.9002     18.7110    123.2836   6.5628540044e+01   4.8490469427e+01    0.9303206    0.3656563  34.29  0.003623751    2.390    0.582
       115 -11.5593     72.0123     93.5761   3.8718333895e+01   4.9621697217e+01    0.8801633    0.4849763 -41.17  0.002810553    2.018    0.504
       116 -13.0458    112.0259     95.6190   2.6259791983e+01   4.1243683945e+01     2.803884     1.783492 -71.83   0.01117632    2.243    0.554
       117 -14.5444     77.0116    106.3962   4.0245567493e+01   4.5529089499e+01     2.922941     1.775715  23.66   0.01049736    2.012    0.503
       118 -13.4114     97.6848     99.8184   3.1652692469e+01   4.3242024544e+01     1.557744     1.351207  88.70  0.007878761    1.263    0.208
       119  -9.2583    167.7459    119.5848   1.9402836527e+01   2.4991913383e+01    0.1789554    0.1362346  62.55 0.0009333098    1.577    0.366
       120 -12.6341      3.9829    113.7218   7.0453791801e+01   5.2158740725e+01    0.8677113    0.3547327 -52.80  0.003478062    2.324    0.570
