#   1 NUMBER                 Running object number                                     
#   2 MAG_AUTO               Kron-like elliptical aperture magnitude                    [mag]
#   3 X_IMAGE                Object position along x                                    [pixel]
#   4 Y_IMAGE                Object position along y                                    [pixel]
#   5 X_WORLD                Barycenter position along world x axis                     [deg]
#   6 Y_WORLD                Barycenter position along world y axis                     [deg]
#   7 A_WORLD                Profile RMS along major axis (world units)                 [deg]
#   8 B_WORLD                Profile RMS along minor axis (world units)                 [deg]
#   9 THETA_WORLD            Position angle (CCW/world-x)                               [deg]
#  10 FWHM_WORLD             FWHM assuming a gaussian core                              [deg]
#  11 ELONGATION             A_IMAGE/B_IMAGE                                           
#  12 ELLIPTICITY            1 - B_IMAGE/A_IMAGE                                       
         1 -10.5541    116.7333     11.7075   3.5742802123e+02   5.3951710921e+01    0.2305236    0.1705876  -3.11  0.001249761    1.769    0.435
         2 -11.6007     72.5225      6.5235   4.2022217691e+00   6.5387847130e+01    0.2962964    0.1711599  54.84 0.0005924713    1.509    0.337
         3 -11.3207     83.1908      7.3146   1.8941454317e+00   6.2728461939e+01    0.2277535     0.200181 -61.63 0.0003393813    1.218    0.179
         4 -11.2550     71.8425      9.8265   6.1065850824e+00   6.5221649067e+01    0.2448047    0.2020033 -20.21 0.0003566415    1.352    0.260
         5 -10.1639     39.6205      3.8905   1.4925813645e+01   7.3030670302e+01    0.2101572    0.1516421  40.26 0.0003727873    1.230    0.187
         6 -10.6513     92.3905      8.2249   3.0664112006e-01   6.0372815240e+01    0.1810589    0.1174998 -40.27  0.000690032    1.635    0.388
         7  -9.4655    128.3257      1.3415   3.5217934548e+02   5.2012644210e+01    0.1323268    0.0893672  44.58 0.0007051166    1.733    0.423
         8 -10.7592    117.0538    241.2764   5.2257403030e+01   9.3796122538e+00    0.2417773    0.1864816  41.86   0.00115107    1.336    0.251
         9  -9.8266    238.3284    250.6424   3.1092111415e+01  -4.4427795023e+00     0.123931   0.07116264   9.35 0.0009097814    1.437    0.304
        10 -10.8370    139.3072    248.5284   4.8420540052e+01   5.6622054167e+00    0.2777166    0.1668666 -42.73  0.001303555    1.863    0.463
        11  -9.7805    124.7414    249.6364   5.1550797876e+01   7.1254485905e+00    0.1788218    0.1275057  22.66 0.0006746835    1.127    0.113
        12 -10.3775    125.2282    246.0459   5.1048675986e+01   7.6464501636e+00    0.1875009    0.1297368 -43.82 0.0006812721    1.657    0.396
        13 -10.5587    114.6352    248.3927   5.3549092927e+01   8.4699947600e+00     0.311522    0.2323503 -71.96  0.001876064    1.905    0.475
        14 -10.1997     87.0324    250.3258   5.9708751518e+01   1.1241678413e+01    0.1771785     0.124793  29.94 0.0006671082    1.130    0.115
        15 -10.3504     49.7546    249.3297   6.7865844928e+01   1.5382476125e+01    0.1946678    0.1375086 -34.44 0.0009389115    1.943    0.485
        16 -13.5083      2.5616    178.8165   7.5780834361e+01   3.5110764398e+01     1.921742    0.4982565 -85.83   0.00651775    3.867    0.741
        17 -12.8670     21.4829    196.4440   7.1514948029e+01   2.9305383989e+01    0.8110325    0.4746269  13.00  0.004079554    1.941    0.485
        18 -13.6324     32.5228    246.8876   7.1544520849e+01   1.7527255154e+01      2.22851    0.4068261  28.12  0.008417827    3.527    0.716
        19 -13.7511     20.6143    215.4179   7.2765743455e+01   2.5066935268e+01     1.261836    0.5104321  62.49  0.005634427    2.488    0.598
        20 -13.1826      4.2956    201.6928   7.6246624619e+01   2.9521392727e+01    0.9310128    0.5806841 -76.55  0.004383676    1.641    0.391
        21 -13.6280      3.5674    217.8562   7.6992198203e+01   2.5978252457e+01     1.181768    0.4408847 -79.93  0.003251002    2.715    0.632
        22 -13.8587      4.7771    247.3659   7.7595848565e+01   1.9890768281e+01    0.7921374    0.4046961  31.01  0.001993374    1.546    0.353
        23 -14.4455     11.4278    239.1473   7.5898048735e+01   2.0928219634e+01     1.384249    0.8956922 -22.12  0.007411947    2.472    0.595
        24 -13.9013      6.3564    234.7328   7.6884490119e+01   2.2233251402e+01     1.166804    0.6655693 -29.76  0.005944772    3.088    0.676
        25 -13.4496     12.1179    190.5668   7.3704940646e+01   3.1510623279e+01    0.9961429    0.4749539  89.55   0.00322351    2.095    0.523
        26 -10.3696    248.1509    241.2913   2.8343572439e+01  -4.2130792041e+00    0.1646098    0.0933846  -1.24  0.001197227    1.482    0.325
        27 -10.6285    101.7978    238.4508   5.5303438886e+01   1.1654436585e+01    0.1857569     0.170765 -50.59 0.0005214214    1.307    0.235
        28  -9.8022    206.8031    236.6118   3.4177651299e+01   1.2555495981e-01    0.1429857    0.0874741  29.24 0.0009502652    1.681    0.405
        29  -9.8188    158.3338    233.2291   4.2647088760e+01   5.8581344671e+00    0.1771723    0.1270718 -18.18 0.0006750741    1.349    0.259
        30 -10.4291     58.9861    248.4505   6.5760337973e+01   1.4597277074e+01    0.1873235    0.0977922  26.47  0.001023762    1.586    0.369
        31 -11.0281     72.2497    232.7747   6.1516652370e+01   1.6124377847e+01     0.274338    0.1688294  28.67  0.001083159    1.362    0.266
        32 -10.3209     73.3095    229.6129   6.0987893599e+01   1.6622952781e+01    0.2623341    0.1773021  70.61  0.001123281    1.785    0.440
        33 -10.3979     61.9559    231.3068   6.3811014787e+01   1.7557644414e+01    0.2263117    0.1809936  28.60 0.0009054378    1.107    0.097
        34 -10.6944     57.8568    229.4269   6.4633429578e+01   1.8380499669e+01    0.1883035    0.1711078 -31.65  0.001268138    1.334    0.250
        35 -10.0876    216.9693    231.7462   3.1785247017e+01  -2.5108980491e-01    0.1344407   0.07779498  20.26 0.0007312912    1.573    0.364
        36 -10.4367    194.3350    228.7245   3.5209254730e+01   2.4838759403e+00    0.2276448    0.1398773 -39.57  0.001451949    1.695    0.410
        37 -10.6789    152.0981    229.7399   4.3433656935e+01   7.1417357399e+00    0.2923338    0.1427082  30.12  0.001542699    1.788    0.441
        38 -10.7599    138.1487    228.0737   4.6119867902e+01   9.0983393318e+00    0.2039568    0.1706366 -43.72 0.0004604291    1.383    0.277
        39 -10.1680    119.9367    227.1031   4.9963041893e+01   1.1504743179e+01    0.1886661     0.160146  21.08  0.000347523    1.031    0.030
        40 -12.1179    115.4327    225.3012   5.0752034386e+01   1.2388653370e+01    0.6023881    0.3296844 -55.64  0.003161606    2.118    0.528
        41 -11.5472    147.5439    224.8523   4.3707204486e+01   8.4913046950e+00     0.273236    0.1983175 -26.09 0.0005004555    1.392    0.281
        42 -10.6233    106.3327    225.9628   5.2901928985e+01   1.3391276187e+01    0.2736661    0.1502526   1.91  0.001190139    2.765    0.638
        43 -10.3217     80.3095    225.9753   5.8988817139e+01   1.6530419770e+01    0.1660059    0.1615399  48.88 0.0004748621    1.147    0.128
        44 -10.1541     91.8872    224.8804   5.6138327846e+01   1.5362911345e+01    0.1850843    0.1589828   1.61 0.0004097164    1.213    0.176
        45 -11.2688    159.5673    222.2257   4.0869974005e+01   7.4565120570e+00    0.3954704     0.228568  43.59  0.002118747    2.128    0.530
        46 -11.3060     52.3002    222.9923   6.5474867357e+01   2.0300167338e+01    0.2156997       0.1504  50.35  0.001267124    1.279    0.218
        47 -12.3694     47.5795    220.5737   6.6447191839e+01   2.1311089078e+01    0.9153443   0.06398325  29.43  0.002637892    5.079    0.803
        48 -11.4682    173.0274    220.4890   3.7956226827e+01   6.1148144244e+00     0.375562    0.3304736 -12.97  0.002684434    1.193    0.162
        49 -11.9567    127.6545    214.4157   4.6584723803e+01   1.2840972693e+01    0.3628049    0.2766758  53.81 0.0002643833    1.624    0.384
        50 -11.7836    124.3867    221.7235   4.8291172472e+01   1.1919965886e+01    0.4234005    0.2606263  32.12  0.002351505    1.425    0.298
        51 -11.6207    120.9744    216.0702   4.8321111265e+01   1.3398396599e+01    0.4681091    0.3156962  86.30  0.001943212    2.798    0.643
        52 -11.7700    145.1736    216.7300   4.3070362179e+01   1.0168760705e+01    0.3469928    0.2621373  47.85  0.001425834    1.636    0.389
        53 -10.0214     63.5573    216.8056   6.2195249554e+01   2.0355801825e+01    0.2871751    0.1278283 -84.73  0.001150067    3.388    0.705
        54 -10.3353     91.9473    217.1619   5.5275360156e+01   1.6881704192e+01    0.1988807    0.1555041  47.47 0.0003685098    1.259    0.206
        55  -9.1208     32.2934    217.3086   6.9991587911e+01   2.3561497291e+01    0.1160783   0.09473304 -29.40 0.0004563904    1.585    0.369
        56 -10.6492     29.1567    215.9984   7.0689134897e+01   2.4148523176e+01    0.2680914    0.1664065 -45.54  0.001431916    2.095    0.523
        57  -9.9810    250.6778    215.7928   2.4255980889e+01  -1.4562697249e+00    0.1325512   0.07495736 -34.88 0.0003528142    1.569    0.362
        58 -11.0179    108.4523    214.9488   5.1078117321e+01   1.5228816893e+01    0.2494525    0.2361871 -36.65 0.0007569522    1.183    0.154
        59  -9.4777     52.9909    216.0288   6.4758543423e+01   2.1701817937e+01    0.1545541    0.1334613  45.55 0.0003617288    1.019    0.019
        60  -9.9934     48.3272    216.3070   6.5943542206e+01   2.2144659681e+01    0.1233997   0.09625618 -21.57 0.0007037304    1.654    0.395
        61 -10.9032     85.1547    214.5377   5.6633959919e+01   1.8258805036e+01    0.4382634    0.1774725  38.36  0.001910207    2.097    0.523
        62 -10.9483    156.8621    213.8484   4.0200068933e+01   9.1775064492e+00    0.1914807    0.1759206 -21.46 0.0003837003    1.220    0.180
        63 -10.3459    115.3078    213.9206   4.9342820794e+01   1.4541078029e+01    0.1693282      0.15974  -9.45 0.0004078034    1.121    0.108
        64 -10.4812     40.0532    212.1054   6.7712348958e+01   2.3927325213e+01    0.2877536    0.1476622  78.61  0.001342333    2.313    0.568
        65 -10.3243    194.0243    211.8811   3.2725244091e+01   4.9564284965e+00    0.1744179    0.1373836  -8.13  0.000485308    1.017    0.016
        66 -10.3162    172.4583    211.9022   3.6773701309e+01   7.5442397584e+00    0.1700785    0.1106787 -38.18 0.0004149478    1.520    0.342
        67 -10.6912     73.5102    211.6942   5.9220605619e+01   2.0276398075e+01    0.3195523    0.2211745  18.14  0.000898639    1.443    0.307
        68 -10.3919     72.7056    208.6792   5.9112785860e+01   2.1021271140e+01    0.3171296    0.1943736  68.82  0.001543081    2.054    0.513
        69  -9.8950     97.3883    210.7096   5.3200423307e+01   1.7500815929e+01    0.2162476    0.1591615  47.53  0.001216423    1.365    0.267
        70  -9.9708     96.6778    207.7001   5.3004185786e+01   1.8211586731e+01    0.1978786    0.1359918 -56.96 0.0006288151    1.613    0.380
        71 -11.1218     25.7097    209.2783   7.1164441153e+01   2.5962102019e+01     0.254882    0.2162868 -79.78 0.0006396352    1.276    0.216
        72 -12.0934    180.1422    207.4160   3.4592024687e+01   7.3120748049e+00    0.2326632     0.194413 -10.52 7.075544e-05    1.059    0.056
        73 -11.0703    161.5600    208.1026   3.8365887433e+01   9.5500186959e+00    0.3040577    0.2527622  62.39  0.001239344    1.854    0.461
        74 -10.5245    229.0137    208.1692   2.6288317569e+01   1.6247155993e+00    0.1473257     0.126368  45.02 0.0009698819    2.004    0.501
        75 -11.0190    140.0200    207.5108   4.2846168383e+01   1.2484024934e+01     0.229484    0.1906601 -73.47  0.001374696    1.686    0.407
        76 -10.4530     77.0233    219.7348   5.9163666677e+01   1.8175331346e+01    0.1875728    0.1501295  33.75 0.0006722016    1.071    0.066
        77 -12.2556     36.0538    206.5025   6.8341206116e+01   2.5586912602e+01    0.4402405    0.3751525   3.74  0.002398244    1.367    0.269
        78 -10.8529     20.7419    204.6525   7.2173700941e+01   2.7465496582e+01    0.2590479    0.1960396 -71.97  0.001564296    1.426    0.299
        79 -11.0776     16.8344    204.7437   7.3180553034e+01   2.7790103304e+01    0.3557541    0.1668206  60.43  0.001430242    1.987    0.497
        80 -11.2059    145.8465    201.8726   4.0716110020e+01   1.2732583985e+01    0.3707043    0.2515704 -47.56  0.001777265    1.580    0.367
        81  -9.6685    103.5146    205.5335   5.1053896464e+01   1.7760052578e+01    0.1337583    0.1194003  22.39 0.0006600927    1.013    0.012
        82  -9.4687     62.2974    205.6776   6.1477365652e+01   2.2917599405e+01    0.1409342   0.08817661  56.13  0.000345849    1.622    0.383
        83 -11.8446     91.4822    198.2377   5.3112446166e+01   2.0904053642e+01    0.8367505    0.2761064 -52.95  0.002965438    3.089    0.676
        84 -11.9130     84.3843    198.8236   5.5008996771e+01   2.1709592589e+01    0.6439493     0.381399 -60.49  0.003190188    1.831    0.454
        85 -10.2787    135.4730    198.0037   4.2423855375e+01   1.4888624629e+01    0.3246146    0.2357732 -87.01   0.00161227    2.407    0.585
        86  -9.4489    138.6434    196.6947   4.1503230689e+01   1.4696402993e+01    0.1395068   0.09557945  -7.59 0.0007040516    1.720    0.419
        87 -10.2325    102.4909    198.9870   5.0434466949e+01   1.9261361014e+01    0.1863648    0.1353251 -56.90 0.0003628237    1.511    0.338
        88 -10.9477    176.4700    198.3122   3.3831883295e+01   9.2613383444e+00    0.2027732    0.1463547  45.82  0.001180715    1.805    0.446
        89 -10.9631    122.9844    196.3230   4.5065825088e+01   1.6970262885e+01    0.3469821     0.213245  48.39  0.001694375    1.861    0.463
        90 -11.9318     35.1583    195.7316   6.7799351281e+01   2.8169790918e+01    0.5848468    0.1961376  43.08  0.002338443    2.457    0.593
        91 -11.3660    192.7817    194.0444   3.0059630195e+01   7.8555288680e+00     0.285372    0.1863797 -28.73 0.0007659675    1.363    0.266
        92  -9.5904     53.5320    198.5161   6.3099831734e+01   2.5550490175e+01    0.1357475    0.1193379  47.93 0.0001097375    1.009    0.008
        93 -10.6578     52.8429    192.7557   6.2739201721e+01   2.6974788413e+01     0.202852    0.1957239 -35.10 0.0004288262    1.186    0.157
        94 -10.0262     50.3086    190.3412   6.3202185986e+01   2.7835706222e+01     0.263869    0.1941321  42.90 0.0005947932    1.214    0.176
        95  -9.8651    164.1665    192.0771   3.5254071634e+01   1.1985852121e+01    0.1634321    0.1532636  38.37 0.0008785845    1.319    0.242
        96 -10.7257    133.2733    191.3278   4.1878826619e+01   1.6503683023e+01    0.3406699    0.2350792  -4.58  0.001711856    1.746    0.427
        97 -11.5504     21.9748    188.3467   7.0884775186e+01   3.1198383705e+01    0.5903911    0.1518323  31.47  0.002207401    2.878    0.653
        98 -10.4501    110.6847    188.0082   4.6808061633e+01   2.0453142330e+01    0.1884939    0.1829629 -27.17 0.0006651148    1.091    0.083
        99  -9.6223    209.0224    186.2428   2.5899255768e+01   7.0310737945e+00    0.1372472   0.09393606  24.99 0.0002946395    1.513    0.339
       100  -9.5418    187.2028    186.6154   2.9815575643e+01   9.7855685244e+00    0.1618876    0.1079396  16.82 0.0003950436    1.535    0.349
       101 -10.4667    128.0296    185.8431   4.2224602889e+01   1.8373419835e+01    0.2100029    0.1857831  53.60  0.001226687    1.290    0.225
       102 -10.5413    163.7219    183.8995   3.3948089626e+01   1.3517887394e+01    0.3268424    0.1673354 -53.96  0.001471467    2.425    0.588
       103 -11.8839     25.6756    183.4543   6.9520270064e+01   3.2056588450e+01    0.4486171    0.2316471  33.82  0.002144942    1.705    0.413
       104 -10.8502     94.7823    181.0166   4.9874652256e+01   2.4294935234e+01    0.4532182     0.210737 -56.46  0.001678575    2.222    0.550
       105  -9.1455    205.4977    183.5007   2.6019591187e+01   7.8966895726e+00     0.120883   0.09926852 -16.75 0.0002361208    1.035    0.034
       106  -9.8743    105.2595    183.0045   4.7424334922e+01   2.2331132851e+01    0.1909528    0.1780243 -51.50 0.0006249245    1.142    0.124
       107  -9.3455     59.4752    180.5284   5.9598148606e+01   2.9133143267e+01    0.1428372    0.1271818  53.30 0.0008091307    1.041    0.040
       108  -9.9015    191.5696    177.7812   2.7455557706e+01   1.0659334558e+01    0.1662022    0.1108594 -46.64 0.0005044579    1.598    0.374
       109  -9.5831     55.9825    177.9669   6.0309212922e+01   3.0186029696e+01    0.1663863    0.1513227  48.71            0    1.018    0.018
       110  -9.7465    137.3284    177.3334   3.8595472566e+01   1.8713721818e+01    0.2030284    0.1386422  14.08  0.001003495    1.632    0.387
       111  -9.4928    136.3295    174.6751   3.8360899812e+01   1.9411354151e+01    0.1948565    0.1494754 -67.65 0.0006964338    1.652    0.395
       112 -12.2712    128.1947    174.6776   4.0302271967e+01   2.0673505099e+01    0.5633636     0.408672 -48.34  0.002439479    1.410    0.291
       113 -11.1658     31.5206    176.3228   6.7284631595e+01   3.3276481781e+01    0.3059259    0.2356728   3.65  0.001656301    1.538    0.350
       114 -10.3586    153.3250    176.0052   3.4755587781e+01   1.6533698838e+01      0.19272    0.1701371 -21.88 0.0007833475    1.065    0.061
       115 -10.4734    106.9492    175.2139   4.5753123445e+01   2.3820633766e+01    0.2293135    0.2096295 -63.68 0.0005807498    1.177    0.150
       116 -12.4667     20.7509    173.4908   7.0233549946e+01   3.4998076203e+01    0.3950705    0.3036326 -88.12  0.002232038    1.246    0.197
       117 -12.6150     24.4713    168.0388   6.8707879072e+01   3.6060304760e+01    0.6012201    0.2615958  37.08    0.0025884    2.011    0.503
       118 -11.5819     91.4539    171.0554   4.9264233068e+01   2.7100358995e+01    0.4399888    0.2674054 -46.80  0.001487382    1.745    0.427
       119 -10.5491     79.8625    173.2573   5.2847355817e+01   2.8236146547e+01      0.29486    0.2415021  32.66  0.001104686    1.161    0.139
       120 -10.1443    158.5270    171.4875   3.2811619355e+01   1.6605674621e+01    0.1341057    0.1227971 -10.82 0.0002017759    1.027    0.027
       121 -10.0609    160.5128    168.5094   3.1836165042e+01   1.6867145623e+01    0.2266372    0.1261807 -43.99  0.001078646    1.729    0.422
       122 -11.0004    153.1912    170.3483   3.3752344678e+01   1.7652184841e+01    0.2342051    0.2125205 -50.99 0.0004174921    1.231    0.187
       123 -11.7428     14.2471    170.9825   7.1988665410e+01   3.6187005892e+01    0.2605334    0.2064753 -13.19 0.0002200397    1.578    0.366
       124 -10.7213    143.6239    172.9137   3.6358241959e+01   1.8635323318e+01    0.4575873    0.2594788  60.08  0.001727732    3.452    0.710
       125 -11.5672     15.3193    166.6919   7.1385625397e+01   3.7200228435e+01     0.225463    0.1723722  58.52 0.0004986817    1.179    0.152
       126 -10.4696    197.3223    170.3892   2.5086452100e+01   1.1088577853e+01    0.2314697    0.1152917  31.06  0.001145321    2.222    0.550
       127  -9.7656     62.7103    177.3876   5.8300964832e+01   2.9502756508e+01    0.2021952    0.1340623  13.57 0.0009501941    1.720    0.419
       128 -11.6528    170.3755    160.7817   2.8327399548e+01   1.6779078939e+01    0.3457304    0.2099008 -28.12  0.001693463    1.738    0.425
       129 -10.4963    168.6296    156.7851   2.7895893574e+01   1.7805838834e+01    0.2684614    0.1796507 -52.30 0.0009188118    1.625    0.385
       130 -10.4635    152.1198    164.8654   3.2958219338e+01   1.8900391810e+01    0.1983126    0.1941168  80.85 0.0006206234    1.221    0.181
       131  -9.5170    205.5181    163.5003   2.2408363272e+01   1.1072728158e+01    0.1257824    0.1028892 -20.74 0.0001528355    1.023    0.022
       132 -11.2887      7.6072    163.3441   7.3520518869e+01   3.8662489181e+01    0.2714233    0.1786436  40.30 0.0006830848    1.403    0.287
       133 -11.6634      4.5201    161.1024   7.4338813245e+01   3.9462843816e+01    0.5706514    0.2385974 -41.11  0.002164182    3.364    0.703
       134  -9.3946     48.7971    160.9198   6.0470488046e+01   3.5374738594e+01    0.1861464    0.1112986 -69.08 0.0004445746    1.663    0.399
       135 -10.7454     37.3255    160.8874   6.4068067338e+01   3.6660592231e+01       0.1966     0.175083 -82.47   0.00057469    1.105    0.095
       136 -11.3353     13.0414    160.4377   7.1660280204e+01   3.9007448137e+01    0.3542275    0.1702992 -63.73 0.0009819219    2.014    0.503
       137 -11.5588     25.2668    159.6704   6.7757864653e+01   3.8169077192e+01    0.2738971     0.243019   9.43 0.0006936023    1.272    0.214
       138 -10.0066     20.3263    160.3012   6.9368743866e+01   3.8443411907e+01    0.1393172    0.1007247 -39.54 0.0004741591    1.639    0.390
       139  -9.4138     80.0414    163.2268   5.1295098792e+01   3.0667164985e+01    0.1913975    0.1184377  29.65 0.0003384714    1.580    0.367
       140 -10.5732    110.1840    164.9618   4.3159763106e+01   2.5647265822e+01    0.3197137    0.2031453  27.05  0.001110982    1.608    0.378
       141 -10.0119    211.1604    157.1435   2.0292800407e+01   1.1306269559e+01    0.1588418    0.1380632 -45.89 0.0005145749    1.324    0.245
       142 -10.4869    132.6820    156.7823   3.5900494802e+01   2.3772084105e+01    0.2543985    0.2158443  35.43  0.001386158    1.184    0.155
       143  -9.7860    118.1923    157.2404   3.9638273757e+01   2.6100502014e+01    0.2490526    0.1539216 -14.45 0.0009479122    2.745    0.636
       144 -11.3870     42.9067    154.7272   6.1594131815e+01   3.7678956430e+01    0.4130245    0.2436288 -50.98 0.0005057832    1.795    0.443
       145 -11.6309     20.2069    155.4803   6.9012785656e+01   3.9726176436e+01    0.3032126    0.3018947 -23.94  0.001089849    1.148    0.129
       146 -12.2483     20.8329    149.5140   6.8291068194e+01   4.1264516742e+01     0.392365    0.3716366  86.01  0.002350257    1.067    0.062
       147 -11.2663     27.5691    150.1433   6.6114089436e+01   4.0488504450e+01    0.3656533    0.2395972 -11.28  0.001686859    2.043    0.510
       148  -9.5150    141.4465    155.5587   3.3569029680e+01   2.2552961765e+01    0.1388518      0.13476 -15.12 0.0001142933    1.050    0.048
       149 -11.0717      1.5751    153.2619   7.4831874362e+01   4.1706378974e+01    0.3463485    0.1958314 -89.31  0.001583918    1.625    0.385
       150 -12.1592      4.9917    150.0096   7.3543954554e+01   4.2341781723e+01    0.4620171    0.3040678  -2.13  0.001681681    1.882    0.469
       151 -10.8415    172.5031    151.9748   2.6160867669e+01   1.8079322759e+01    0.3167717    0.1182921 -38.49   0.00120988    2.618    0.618
       152 -10.4895     84.4850    149.8618   4.7744573905e+01   3.3339249922e+01    0.2708794    0.2165832   4.98  0.000757149    1.472    0.321
       153  -9.9488     13.6036    154.2334   7.1041649901e+01   4.0597304249e+01    0.1953744    0.1168254 -67.65 0.0004627367    1.602    0.376
       154 -10.2564     74.8828    150.7430   5.0836308725e+01   3.4565309687e+01    0.3173877     0.235038 -89.35 0.0008847684    1.557    0.358
       155 -10.7552    109.0593    149.0077   4.0486998534e+01   2.9536382160e+01    0.3242353    0.2206348 -55.65 0.0007902855    1.499    0.333
       156  -9.6558     96.1530    148.8238   4.4097915569e+01   3.1735037771e+01    0.2012527    0.1764222 -14.20 0.0004144573    1.274    0.215
       157 -12.3281     11.5343    143.6905   7.0925410570e+01   4.3573395595e+01    0.4903337    0.2645941  88.03  0.002040966    1.806    0.446
       158  -9.6328    146.9776    144.9716   3.0127720361e+01   2.3801124111e+01     0.173442    0.1578446 -34.03 0.0003112737    1.048    0.045
       159 -11.6026    102.7981    142.5699   4.0958139196e+01   3.2138218252e+01    0.4656001    0.3302724  74.40  0.001039079    1.944    0.486
       160  -9.9498    143.0259    144.0065   3.0832415528e+01   2.4701656758e+01     0.170829    0.1640042   3.87 0.0003684203    1.043    0.041
       161  -9.9056    186.5457    143.5218   2.1788464143e+01   1.7329503111e+01    0.1324805    0.1166685 -32.04 1.618172e-05    1.045    0.043
       162 -10.8292     50.6638    142.3134   5.7366892634e+01   4.0078631111e+01    0.2514062    0.1428224  33.99 0.0007078925    1.693    0.409
       163  -9.8966     37.6178    142.8021   6.1887983990e+01   4.1457328027e+01    0.1944327    0.1330039 -89.46 0.0002449519    1.499    0.333
       164  -9.4565    164.9931    141.2284   2.5447600294e+01   2.1388064777e+01    0.1722167    0.1156351  40.18   0.00055428    1.592    0.372
       165 -11.2601     19.3443    138.3725   6.7754241299e+01   4.4405134950e+01    0.3027941    0.1998976 -40.11 0.0008268062    1.731    0.422
       166 -11.3365      1.7839    137.6426   7.3839746443e+01   4.5852922208e+01    0.3569104    0.1627968 -87.31  0.001067996    2.046    0.511
       167  -9.8902     96.7861    138.4080   4.1861870538e+01   3.4181256853e+01    0.2045615    0.1473845  21.19 0.0003173445    1.570    0.363
       168 -10.0730     40.9392    137.2451   5.9996596021e+01   4.2600776120e+01    0.3262997    0.1667733  72.32   0.00118915    2.680    0.627
       169 -10.6619     68.7074    137.1042   5.0446323827e+01   3.9013911294e+01    0.2601939    0.1951122  46.55 0.0004158034    1.327    0.246
       170  -9.7000    123.3664    135.2504   3.3776500183e+01   3.0176875817e+01    0.2052109    0.1463817 -34.12 0.0003344422    1.513    0.339
       171 -10.8969    126.8358    133.7065   3.2539761832e+01   2.9881088587e+01     0.353753    0.2602133  85.60  0.001574596    2.015    0.504
       172 -12.6664      9.9280    126.8224   7.0074660869e+01   4.8277320356e+01    0.7086503    0.2430612 -77.12    0.0025808    2.644    0.622
       173 -12.0157     13.1319    134.3511   6.9583446905e+01   4.5990029915e+01    0.3724566     0.243541 -72.02  0.001078792    1.413    0.292
       174 -12.0225     19.7942    131.9580   6.6938213956e+01   4.6122276816e+01    0.4858213    0.2600768  32.65 0.0004241996    1.819    0.450
       175 -11.2785      7.4309    135.1300   7.1681834550e+01   4.6177542359e+01    0.2831984    0.1463153  41.44 0.0007299621    1.856    0.461
       176  -9.6616    196.9810    134.4947   1.8118790774e+01   1.7204970860e+01    0.1620819    0.1170378  79.80 0.0008092138    2.444    0.591
       177 -10.9010     82.5731    130.2615   4.4576090816e+01   3.8618723763e+01    0.5014387    0.3351133 -36.83  0.001618553    1.733    0.423
       178 -10.7053     51.2265    129.6320   5.5168781220e+01   4.3428468103e+01     0.359627    0.1851523 -37.19 0.0009682905    2.576    0.612
       179  -9.6088    130.3939    128.2157   3.0395297482e+01   3.0426367319e+01    0.2081347    0.1397818 -57.39  0.000677906    1.587    0.370
       180 -10.2192    121.6596    128.1458   3.2625013033e+01   3.2102699227e+01    0.2372187    0.1874493 -71.06 0.0006576906    1.460    0.315
       181  -9.9154    100.8164    128.5825   3.8564913267e+01   3.5871961659e+01    0.2182412      0.13959  49.32 0.0004488976    1.653    0.395
       182 -10.8374     57.2574    126.6926   5.2492515211e+01   4.3417056043e+01    0.2690902    0.2209391  31.66  0.001356887    1.238    0.192
       183 -10.6180     26.9186    125.8268   6.3571939603e+01   4.7180227890e+01    0.2268363    0.1914481 -43.41 0.0008049586    1.259    0.206
       184 -12.4630      4.5483    120.2626   7.1538029617e+01   5.0415649951e+01    0.4379854    0.3666939 -43.33  0.002010834    1.273    0.214
       185 -11.3715     22.8740    123.9017   6.4865697412e+01   4.8076739911e+01    0.2539552    0.2004414  46.84 0.0003852659    1.267    0.211
       186  -9.3254     49.4480    123.5814   5.4773550498e+01   4.5296559412e+01     0.148528    0.1427273  84.09 7.530797e-05    1.008    0.008
       187 -13.0268     14.7384    120.2327   6.7579534545e+01   4.9746568462e+01    0.6085542    0.3718049  57.87  0.002297317    1.696    0.411
       188  -9.9378    105.2733    121.0396   3.5517119743e+01   3.6859851015e+01    0.2162943     0.201923 -62.54 0.0007438343    1.066    0.062
       189 -11.2668     95.8131    119.1143   3.7907012772e+01   3.9089907322e+01    0.4031763      0.27136 -60.29  0.001788083    1.542    0.352
       190 -10.8380     81.5630    119.2378   4.2518743365e+01   4.1598023289e+01    0.4836533    0.2404448  24.14  0.001495483    2.639    0.621
       191 -10.8915     82.3355    116.0802   4.1534562950e+01   4.2264416633e+01    0.3205163    0.2755486  -5.70 0.0002383395    1.373    0.271
       192 -10.0760     28.8245    120.2068   6.2080595949e+01   4.8547840426e+01    0.2309803     0.193903  73.96  0.000573848    1.183    0.155
       193 -12.0760     23.3361    118.7745   6.4033225138e+01   4.9450673167e+01    0.5944341    0.1973022  44.14  0.002018719    3.102    0.678
       194 -10.2121    121.9719    117.9703   3.0130280889e+01   3.4333828334e+01    0.2184953    0.2114124 -39.18            0    1.032    0.031
       195 -10.1457     71.4892    118.5077   4.5801116380e+01   4.3459326157e+01    0.1526916    0.1495674 -80.18 -3.13205e-06    1.013    0.013
       196 -10.7473    201.6284    114.0809   1.3041162343e+01   1.9869129215e+01    0.2006374    0.1927949  67.75 0.0003497185    1.233    0.189
       197 -10.5969     74.0172    114.0487   4.3916623418e+01   4.4200102412e+01    0.2254478    0.2241249 -86.34 0.0003147983    1.029    0.028
       198 -11.2772     62.0666    110.1567   4.7373941411e+01   4.7121060123e+01     0.429059    0.3037372 -83.93  0.001214073    1.667    0.400
       199 -12.3897      9.4864    110.5874   6.8628324070e+01   5.2767200185e+01    0.4900215    0.2326563  41.41  0.002088739    2.131    0.531
       200 -10.2776    165.4755    111.5119   1.8649135995e+01   2.7002825409e+01    0.1422862    0.1295377 -48.93 0.0001755399    1.037    0.036
       201  -9.6800     36.2434    110.1638   5.7527930178e+01   5.0537482984e+01    0.2037671    0.1621434  67.04 0.0003704517    1.328    0.247
       202 -11.8538      1.8854    108.2675   7.1542259358e+01   5.3844842159e+01    0.4246923    0.2045009 -74.07 0.0008092534    1.823    0.451
       203  -9.8400    123.7732    109.2473   2.7471927922e+01   3.5900446592e+01    0.2014341    0.1735567 -21.27 0.0004292389    1.306    0.234
       204  -9.5955    139.5729    106.8171   2.2970508912e+01   3.3157600337e+01     0.215412    0.1355898 -54.38 0.0009475744    1.647    0.393
       205 -10.1603    167.2789    104.9578   1.6727285667e+01   2.7869980298e+01    0.2065593    0.1626665 -42.99 0.0004781991    1.157    0.136
       206 -11.4459     12.1219    104.7049   6.6827829269e+01   5.4207110522e+01    0.3573175     0.251537  15.69  0.001826848    1.549    0.354
       207  -9.4630    104.5694    102.4688   3.1028266970e+01   4.1341924667e+01    0.1525256    0.1488932 -58.24 8.919118e-05    1.023    0.022
       208  -9.7542     78.8622    101.8313   3.9212933935e+01   4.6449131256e+01    0.2190309    0.1838659  72.55 0.0008193941    1.327    0.247
       209 -11.0218     55.9496    101.0419   4.7648427360e+01   5.0432317803e+01    0.2833737    0.2544521  12.92 0.0004688522    1.198    0.166
       210 -10.5769     57.9405     97.5097   4.5995844206e+01   5.1050370182e+01    0.2815163    0.2693276   8.03 0.0007996348    1.100    0.091
       211 -11.5833      9.8590    100.0629   6.7228342751e+01   5.5628141728e+01    0.3279106    0.2708472 -35.03 0.0006419751    1.270    0.213
       212 -12.7072      5.8156     97.5372   6.8721471127e+01   5.6560901348e+01    0.5955454    0.3340746 -76.79  0.002780285    1.623    0.384
       213 -10.5932     93.9302     98.1598   3.3140891208e+01   4.4475031882e+01    0.2445689    0.2103954  81.11 0.0005887438    1.295    0.228
       214  -9.4333    123.2862     97.3262   2.4432432413e+01   3.8565268985e+01    0.1496459    0.1218097  -6.73 0.0003435197    1.607    0.378
       215 -10.2253     98.1692     96.6942   3.1391739386e+01   4.3964291040e+01    0.2140509    0.1966518  42.25  0.001109467    1.109    0.098
       216 -10.4218     83.1956     93.7874   3.5508375755e+01   4.7599843238e+01     0.223582    0.1869225 -18.53  0.001082179    1.422    0.297
       217 -11.3128     42.5083     92.2655   5.1215062146e+01   5.4600642921e+01    0.5029854    0.2652236  33.42  0.001874464    1.893    0.472
       218 -11.3339     26.5711     92.1545   5.8383946042e+01   5.6433797489e+01     0.475705    0.3697245   3.06  0.002459824    1.434    0.303
       219 -10.2695     57.7270     91.7004   4.4595771138e+01   5.2571809382e+01    0.2578623    0.2277278 -22.00 0.0004872918    1.232    0.189
       220 -10.5059     73.6328     90.1040   3.7911157372e+01   5.0269274953e+01    0.2625603    0.2086729  49.68 0.0007083006    1.290    0.225
       221  -9.7372     12.7784     90.5836   6.4562483733e+01   5.8009221958e+01    0.1928753     0.125752  33.05 0.0004284711    1.604    0.376
       222 -10.8143     10.1211     81.6487   6.4429682561e+01   6.0582602798e+01    0.3732014    0.2291539 -70.10  0.001266413    1.485    0.327
       223 -10.9214      9.1345     76.4106   6.4042476525e+01   6.2030614371e+01    0.2966904    0.2365305 -67.06 0.0004427736    1.151    0.131
       224 -12.1427      3.0184     87.7625   6.8825855428e+01   5.9354154034e+01    0.5409486     0.280334 -89.41  0.002380206    1.983    0.496
       225 -11.8482      7.0018     86.7641   6.6764789406e+01   5.9406902729e+01     0.305158    0.2740275  84.91 0.0005456966    1.115    0.103
       226 -10.6385    125.3767     87.6465   2.1184854215e+01   4.0109251869e+01    0.3455928    0.2451053 -39.94 0.0009653935    1.415    0.293
       227 -11.8424     54.3954     85.3705   4.4279855082e+01   5.4687872698e+01    0.6156877    0.5141714 -62.47  0.003175552    1.195    0.163
       228  -9.6554    134.9868     84.2221   1.7922073876e+01   3.8647804001e+01      0.27827    0.1897046 -29.68  0.001271207    1.676    0.404
       229 -10.4519    189.8444     83.1210   7.7014787151e+00   2.7135509828e+01     0.200443    0.1577516 -55.19 0.0002836134    1.160    0.138
       230 -10.4351     64.3323     81.8522   3.9114099432e+01   5.3916035760e+01    0.2790188    0.2230684  23.72 0.0006536316    1.348    0.258
       231 -11.6516      3.8694     79.7009   6.7307500235e+01   6.1463160383e+01    0.4796687     0.215401  42.54  0.002003336    2.463    0.594
       232 -10.2710     88.9206     79.1866   2.9162821368e+01   4.9797763879e+01    0.3008162    0.2240306 -39.15  0.001422172    1.404    0.288
       233  -9.5339     70.2796     76.3667   3.5029029718e+01   5.4128430965e+01    0.1555854    0.1179281 -18.65 0.0005124864    1.683    0.406
       234 -10.2577    105.6121     73.7170   2.2218246101e+01   4.7321825067e+01    0.3360541    0.2243149 -67.41  0.001437583    1.918    0.479
       235 -12.2913     33.9812     67.0122   4.8611461392e+01   6.2107177170e+01    0.4273124    0.2923561  60.55   0.00200216    1.885    0.469
       236 -12.9016     39.3270     66.8877   4.5826202894e+01   6.1437313433e+01      1.02754    0.5790514  71.17  0.003415481    4.001    0.750
       237 -10.9401     43.6695     66.7127   4.3603474340e+01   6.0863172026e+01    0.2174035    0.1867509 -48.42 0.0002741367    1.136    0.120
       238 -10.7433     70.8318     70.0838   3.2728313346e+01   5.5436195082e+01    0.4891775    0.2977318 -22.58  0.001851409    2.673    0.626
       239 -10.6828    153.3133     79.9392   1.2912518075e+01   3.5358591901e+01    0.2112286    0.1778635 -49.53  0.001151342    1.103    0.094
       240 -10.7305     53.8631     70.4291   4.0010605820e+01   5.8400536384e+01    0.3303997    0.2203009 -21.52  0.001424019    2.038    0.509
       241 -11.3997     62.2196     67.9451   3.5513511476e+01   5.7524858595e+01    0.3476635    0.2720558  59.73 0.0008250363    1.448    0.309
       242 -10.6433     49.4159     65.7355   4.0504093354e+01   6.0212793125e+01    0.2912174     0.211312 -33.27 0.0008455458    1.487    0.328
       243 -10.2340     47.0011     62.9732   4.0717151828e+01   6.1230555581e+01    0.2126557    0.2092748  -5.08 0.0003220445    1.027    0.026
       244  -9.8531     13.2654     66.2611   5.9749787435e+01   6.4373400357e+01     0.190372    0.1568873  61.73  0.001058182    1.378    0.275
       245 -11.7339     23.7132     56.3694   5.1021314031e+01   6.5869376156e+01    0.4367752    0.2935025 -33.66  0.001312612    1.518    0.341
       246 -11.9290     18.2084     60.9140   5.5577231337e+01   6.5307037121e+01    0.4803249    0.3640781 -22.06  0.001222566    1.362    0.266
       247 -11.4639     12.3809     59.7634   5.8722462914e+01   6.6075242444e+01     0.349074    0.2741444  -5.52 0.0007861933    1.325    0.245
       248 -11.9449     27.7827     60.6337   5.0017916149e+01   6.4396576730e+01    0.2904176    0.2320797  36.08 0.0009879344    1.314    0.239
       249 -10.1573     42.4956     59.4784   4.1739598460e+01   6.2720282966e+01    0.1431394    0.1354467 -16.95 6.635102e-05    1.027    0.026
       250  -9.8694    153.0177     57.6431   6.6689700170e+00   3.9140028496e+01    0.1934814     0.169714  81.40 0.0004011804    1.129    0.114
       251 -11.1684    114.7355     49.7101   1.1716519424e+01   4.9518589030e+01    0.3355607    0.2302861   3.05  0.001416319    2.521    0.603
       252  -9.7407    106.3689     51.1840   1.4308093790e+01   5.1285909514e+01    0.2015848    0.1844463 -58.97   9.5724e-05    1.095    0.087
       253 -10.8423    110.5033     54.5480   1.4440609379e+01   4.9735416678e+01    0.2451773    0.1438569 -38.68 0.0006825196    1.734    0.423
       254 -10.7949    110.0240     51.0620   1.3333372095e+01   5.0432398214e+01    0.2729896    0.2461764  89.77 0.0003385091    1.092    0.084
       255  -9.9743    126.3125     54.6641   1.0799181129e+01   4.5931805681e+01    0.1539954    0.1066191 -70.83  0.000290613    1.687    0.407
       256 -10.6625     37.6663     54.0482   4.2314823914e+01   6.4656270406e+01    0.2021931     0.180033 -44.85 0.0007306728    1.108    0.097
       257 -10.9716    121.9259     52.8577   1.1155302925e+01   4.7278480326e+01    0.2221595    0.2024805  31.02 0.0009588262    1.273    0.214
       258 -10.3759    151.4807     51.9632   5.2596840345e+00   4.0363635488e+01    0.2132266    0.1303982 -37.93 0.0006250421    1.571    0.364
       259  -9.5536    143.5393     50.5788   6.1765159718e+00   4.2446373311e+01     0.141079    0.1273431 -75.89 5.242162e-05    1.014    0.014
       260 -11.5111     30.7838     49.6737   4.4555233160e+01   6.6578977896e+01    0.3261974    0.2494994 -11.14  0.001734871    1.429    0.300
       261 -11.4034     16.1967     49.9568   5.3601626701e+01   6.8137094783e+01    0.3010137    0.2447017 -40.13 0.0003105837    1.133    0.118
       262 -11.7625     98.3056     47.5534   1.5141550891e+01   5.3803455304e+01    0.5489945    0.3178088 -68.44  0.002072523    2.846    0.649
       263  -9.1662     44.2885     48.6325   3.6678371279e+01   6.4813554176e+01    0.1399248    0.1130067  82.71 0.0007023137    1.706    0.414
       264 -10.0476      1.8069     47.4004   6.2415603895e+01   6.9784612644e+01    0.1823814    0.1145384 -12.50 0.0009410774    1.662    0.398
       265  -9.5956     49.8253     44.1320   3.1963237877e+01   6.4774744045e+01    0.1886898    0.1593082  -0.09 0.0004656608    1.285    0.222
       266 -10.2190    120.5609     40.4727   7.1994831928e+00   4.9503328820e+01    0.3399956    0.2285264  -8.85  0.001371242    2.221    0.550
       267 -11.8786     33.2248     40.2146   3.9258210485e+01   6.8272449957e+01    0.4219892    0.2063016  31.03  0.001502973    2.046    0.511
       268 -10.9564    128.9067     46.8505   7.6938521966e+00   4.6527216976e+01    0.3445651    0.2073718 -32.48  0.001494665    1.756    0.431
       269 -10.9166    103.8123     37.8314   9.9839702069e+00   5.3988105110e+01    0.2022446    0.1633382 -74.00 0.0006690354    1.329    0.248
       270 -10.5753     80.4524     37.0470   1.6307198141e+01   5.9660970924e+01      0.39917    0.1780844 -40.58   0.00160987    2.325    0.570
       271 -10.9039     21.7705     35.5555   4.4506876609e+01   7.0768546169e+01     0.270783    0.1706167 -71.33  0.001282392    2.226    0.551
       272 -10.4681     85.8060     34.3889   1.3480291170e+01   5.8818391954e+01    0.2073535    0.1215596  48.01 0.0007135906    1.641    0.391
       273 -10.5589     42.6494     33.5812   3.0776986467e+01   6.8039666576e+01    0.2557905    0.1731277 -46.07  0.001316037    1.559    0.359
       274 -12.0340     31.0447     31.5650   3.6549138099e+01   7.0311251129e+01    0.3393396    0.2911296   7.01  0.002033561    1.117    0.104
       275 -11.0445     77.5763     30.5751   1.4389092835e+01   6.1297312176e+01    0.2674364    0.2324412 -88.04 0.0007636701    1.277    0.217
       276 -10.1688     72.0313     30.9482   1.6456426014e+01   6.2507666704e+01    0.2089935    0.1948391  49.36 0.0003082231    1.007    0.007
       277 -10.1284      3.3502     30.2535   5.6089985041e+01   7.3661792785e+01    0.2455346    0.1449275  -3.33  0.001269051    1.780    0.438
       278 -10.8296     67.8557     27.4899   1.6329175542e+01   6.3951627686e+01    0.2263806    0.1690048 -25.69 0.0007418625    1.474    0.322
       279  -9.8960     61.4189     28.2331   1.9200470924e+01   6.5248600573e+01    0.1900466    0.1285969 -47.25 0.0009503514    1.662    0.398
       280 -10.4065     45.8312     26.0101   2.5199645134e+01   6.8758207775e+01    0.2185051    0.1635319 -72.56  0.001095442    2.081    0.519
       281 -11.6117     85.2833     24.0015   9.0869047744e+00   6.0371653531e+01     0.304242    0.2502415 -70.16 0.0005999467    1.349    0.259
       282  -9.5161      1.3919     25.1834   5.5784576889e+01   7.4898407015e+01    0.1611168    0.1183731 -75.59 0.0005064476    1.605    0.377
       283 -11.0726     90.0636     23.4077   7.5443204342e+00   5.9289408252e+01    0.2961473    0.1854669  -1.27  0.001302316    2.486    0.598
       284  -9.9182     19.4829     23.9136   4.0511065081e+01   7.3384030267e+01    0.1823927    0.1239242 -48.82  0.000614718    1.511    0.338
       285 -11.2994     70.2622     21.3211   1.2442905096e+01   6.4253207314e+01    0.2415724    0.2227661 -37.40 0.0006687607    1.174    0.148
       286 -10.4723     99.9326     20.9706   4.1661406907e+00   5.7155289387e+01    0.2324135    0.1544394 -66.89  0.001136472    1.751    0.429
       287 -10.8745     81.3884     19.5770   8.1542563183e+00   6.1854372832e+01     0.234199    0.2203495 -65.48 0.0006861563    1.131    0.116
       288 -10.6653    132.8329     16.9421   3.5697539543e+02   4.9405741104e+01    0.2173343    0.1749588  79.73 0.0003514364    1.134    0.118
       289  -9.8940     65.9460     16.4636   1.1452983996e+01   6.5851778525e+01    0.2140095    0.1237635  58.67  0.001032823    1.603    0.376
       290 -13.8366     34.2895    234.9395   7.0527737635e+01   1.9688375986e+01     1.244183    0.4856274 -71.42  0.005990737    2.808    0.644
       291 -11.5957     67.7963    246.8150   6.3677868987e+01   1.3965363193e+01     0.420586    0.2720941  34.97  0.002173963    1.223    0.182
       292 -10.7254     99.5687    246.5089   5.6610895599e+01   1.0498544588e+01    0.2480582    0.1494102  14.69 0.0009795141    1.620    0.383
       293  -9.9070    204.8460    243.8217   3.5518774231e+01  -6.1006104012e-01    0.1354107    0.1130404   5.88  0.001070485    1.327    0.246
       294  -9.9320    142.8178    242.8276   4.7019552353e+01   6.1483188117e+00     0.151298    0.1320101  36.03  0.001073503    1.353    0.261
       295 -13.4404     13.2996    213.4993   7.4474776305e+01   2.6129118192e+01     1.486632    0.4345827 -81.41  0.005871027    3.554    0.719
