#   1 NUMBER                 Running object number                                     
#   2 MAG_AUTO               Kron-like elliptical aperture magnitude                    [mag]
#   3 X_IMAGE                Object position along x                                    [pixel]
#   4 Y_IMAGE                Object position along y                                    [pixel]
#   5 X_WORLD                Barycenter position along world x axis                     [deg]
#   6 Y_WORLD                Barycenter position along world y axis                     [deg]
#   7 A_WORLD                Profile RMS along major axis (world units)                 [deg]
#   8 B_WORLD                Profile RMS along minor axis (world units)                 [deg]
#   9 THETA_WORLD            Position angle (CCW/world-x)                               [deg]
#  10 FWHM_WORLD             FWHM assuming a gaussian core                              [deg]
#  11 ELONGATION             A_IMAGE/B_IMAGE                                           
#  12 ELLIPTICITY            1 - B_IMAGE/A_IMAGE                                       
         1 -14.6553    164.1042     40.0283   2.9013566745e+02   6.3581477012e+00   0.06060305   0.03983359 -50.58  0.003367268    1.484    0.326
         2 -14.2621    177.7311      7.3147   2.8978465960e+02   6.6565626871e+00    0.0443198   0.04404875  23.08  0.003959391    1.025    0.025
         3 -10.5311    114.0950    249.1399   2.9195020902e+02   4.2302168332e+00  0.007546079  0.005786095 -59.11    0.0002965    1.266    0.210
         4 -19.7095     73.3936    181.7009   2.9201373135e+02   5.2448732380e+00    0.8846069    0.3708366 -65.00   0.07321312    2.435    0.589
         5 -10.2437      9.2354    201.9762   2.9286506973e+02   5.3792986638e+00  0.009819227  0.008092036 -45.07 0.0004751275    1.211    0.174
         6 -11.9991    111.0325    209.3002   2.9174877239e+02   4.7086592310e+00   0.01573132   0.01086705 -26.66  0.001261416    1.732    0.423
         7 -10.0224    150.8203    247.7227   2.9152398172e+02   4.0347391621e+00  0.008293115  0.007218004  74.14 0.0006129287    1.241    0.194
         8  -9.3900     13.4955    244.5859   2.9306844759e+02   4.8617855359e+00   0.01106867  0.008757238 -46.75 0.0009531968    1.255    0.203
         9 -10.5440     14.0000    241.0028   2.9304153529e+02   4.9003484515e+00   0.01235417  0.007276289 -61.34 0.0009938871    1.644    0.392
        10 -13.7976    162.8985    202.0319   2.9111517694e+02   4.4932630327e+00   0.04241586   0.02038453 -80.03  0.002300304    3.227    0.690
        11 -12.0820    158.2938    204.0189   2.9117939195e+02   4.4968971152e+00   0.01729368  0.009713655  57.79  0.001536392    2.337    0.572
        12 -11.9844    168.9050    202.5295   2.9104978556e+02   4.4527967402e+00   0.01234294  0.009817699  71.81 0.0005640877    1.432    0.301
        13  -9.9418    139.9355    250.0453   2.9166157810e+02   4.0707031636e+00   0.01092999  0.007504787  63.71  0.001108668    1.768    0.435
        14 -10.9684    138.8994    198.8943   2.9136969194e+02   4.6681776140e+00   0.02737145   0.01089299  46.07  0.002114411    2.925    0.658
        15 -10.6483    119.2744    244.2126   2.9186206240e+02   4.2573370442e+00  0.008072793  0.006939062  64.51 0.0002251708    1.250    0.200
        16 -11.1082    153.0794    194.3109   2.9118102873e+02   4.6392699009e+00  0.009210594  0.008364307  32.96 0.0003671052    1.118    0.106
        17  -9.9713    131.9901    237.0295   2.9167476411e+02   4.2670577570e+00  0.007913631  0.006386232 -62.73 0.0003433011    1.215    0.177
        18 -12.3534    156.4648    190.9778   2.9112267429e+02   4.6582460746e+00    0.0158595  0.008448983  46.10  0.001457508    2.038    0.509
        19 -14.2800    207.0135    179.7955   2.9048094840e+02   4.4951469775e+00   0.04473358   0.03797501 -74.49   0.00427555    1.203    0.169
        20 -13.5649    196.5975    172.2517   2.9055450858e+02   4.6426169335e+00   0.03822415   0.02117636 -74.77  0.002842491    2.124    0.529
        21 -11.0018    108.1616    182.3103   2.9162120390e+02   5.0373843083e+00   0.01185564  0.009942603  75.90 0.0003873453    1.317    0.241
        22 -10.4436    135.2240    235.2718   2.9162753609e+02   4.2687239310e+00  0.008711618  0.007173153  87.32 0.0005837524    1.341    0.254
        23 -11.8766      4.1563    180.4093   2.9279531900e+02   5.6580102506e+00   0.01749115   0.01188649   4.44  0.001405118    1.804    0.446
        24 -13.3294    178.0011    172.0324   2.9076481906e+02   4.7527522821e+00    0.0256583   0.01697317 -72.29   0.00265271    1.610    0.379
        25 -10.8066     10.7047    174.8198   2.9268755272e+02   5.6850810648e+00  0.009268303  0.008242212 -45.58 0.0003773133    1.116    0.104
        26 -13.0116    138.6802    171.7213   2.9121064341e+02   4.9836532429e+00   0.02541808   0.01754296  81.73  0.001960846    1.853    0.460
        27 -14.2157    143.8886    168.6394   2.9113299359e+02   4.9891950897e+00   0.04213868   0.02397833  58.29  0.003798803    2.304    0.566
        28  -7.0544     17.5668    234.1326   2.9296031573e+02   4.9593611866e+00   0.01751393  0.007712555  51.58  0.001339589    3.060    0.673
        29  99.0000     25.7611    232.0652   2.9285476863e+02   4.9362107906e+00  0.009661337  0.007774124 -35.76            0    1.304    0.233
        30 -11.2200    122.8917    165.9420   2.9135611174e+02   5.1416627930e+00   0.01672707  0.009234029  43.68  0.001078283    1.895    0.472
        31  -7.6454     28.2237    229.7827   2.9281322312e+02   4.9484713889e+00  0.007588289  0.007014486  -3.83 0.0009245193    1.138    0.121
        32 -11.1588    223.8510    163.8757   2.9019459976e+02   4.5815957746e+00   0.01140879  0.009500716  89.64 0.0004579819    1.311    0.237
        33  -9.8301      3.1727    164.3742   2.9271156675e+02   5.8491841707e+00  0.006653596  0.004282238 -46.01  0.000293332    1.564    0.361
        34 -11.3753     24.1325    228.3127   2.9285112695e+02   4.9889884282e+00   0.01264452  0.008475198 -54.86 0.0008900926    1.435    0.303
        35 -10.9043     25.2874    224.0965   2.9281303661e+02   5.0311387268e+00   0.01559401  0.005832005 -50.35  0.001234784    2.560    0.609
        36 -12.2593    164.5925    157.9221   2.9083344570e+02   4.9934109308e+00   0.01371106   0.01091877  40.44 0.0005756933    1.276    0.216
        37 -14.5350    134.4529    146.4604   2.9110849132e+02   5.3001418351e+00   0.07039564   0.02556936 -72.42  0.004571265    4.196    0.762
        38 -14.1122    136.0699    127.4546   2.9097689564e+02   5.5105062958e+00   0.07816805    0.0178919 -66.46  0.004131193    6.039    0.834
        39 -14.2818    143.6028    143.7554   2.9098814517e+02   5.2785343307e+00   0.04446488   0.02482671 -85.59  0.003790607    2.617    0.618
        40 -11.6679      5.2251    137.5458   2.9252912055e+02   6.1477621938e+00   0.01785486     0.013804 -12.96  0.001499711    1.515    0.340
        41 -12.6080    133.7779    249.6096   2.9172904345e+02   4.1112678452e+00   0.01419332  0.009263906 -58.42  0.001479653    1.475    0.322
        42 -10.8545    219.1968    224.1572   2.9060647480e+02   3.9120045845e+00  0.009160399  0.007601133  72.29 0.0004591277    1.338    0.253
        43 -12.3815    160.7831    127.8996   2.9069798023e+02   5.3624540601e+00    0.0180569   0.01394373 -68.55  0.002041062    1.304    0.233
        44 -10.9464    110.0725    223.1185   2.9184169559e+02   4.5543700690e+00  0.009432544  0.009272099 -52.92   0.00038878    1.007    0.007
        45 -10.2906     19.6915    223.0234   2.9287043409e+02   5.0757039797e+00   0.00885763  0.007611051 -45.97 0.0004759454    1.155    0.135
        46 -12.0957    171.3736    116.9808   2.9051225523e+02   5.4273412090e+00   0.02284789   0.01378908  66.95 0.0009754026    2.336    0.572
        47 -10.4472     14.7082    221.0376   2.9291545919e+02   5.1273042064e+00   0.01475417  0.006024645 -45.28 0.0006479723    2.629    0.620
        48 -10.1081      1.2437    214.8541   2.9303229941e+02   5.2761574617e+00  0.008853343  0.005090639 -54.46 0.0004250987    1.658    0.397
        49  -9.5450     10.2573    211.0849   2.9290730902e+02   5.2680306022e+00  0.009030414  0.007205294 -55.78 0.0005879943    1.216    0.178
        50 -10.7017    205.6206    110.1039   2.9008127946e+02   5.3084104862e+00   0.01223606  0.009821665  14.41 0.0006587044    1.335    0.251
        51 -11.7808    174.6143    149.1000   2.9066679654e+02   5.0374077199e+00   0.01301786   0.01200989 -44.94 0.0008781755    1.075    0.070
        52 -10.0580    154.9332    104.6556   2.9062605237e+02   5.6649030636e+00  0.008833718  0.008212524  31.39 0.0002929393    1.094    0.086
        53 -10.8919      8.4537    102.0317   2.9228147037e+02   6.5399321766e+00   0.01489899   0.01076865  39.15  0.001445474    1.400    0.286
        54 -13.2261     11.6957    206.1894   2.9286196049e+02   5.3164184164e+00   0.02962316   0.01745325  18.57  0.002426959    1.896    0.473
        55 -10.2724    121.9587     68.5181   2.9078643564e+02   6.2731137619e+00  0.009845415  0.006400272  29.80 0.0009987036    1.548    0.354
        56 -14.2781    152.4859     54.7342   2.9035600129e+02   6.2556820204e+00   0.04873028   0.03848696 -28.95  0.001022062    1.388    0.279
        57 -12.3624    125.0440    247.3796   2.9181518930e+02   4.1874361802e+00   0.01754746  0.008280639 -62.09  0.001555925    2.056    0.514
        58 -12.7733    167.6721     31.9223   2.9004653324e+02   6.4310185620e+00   0.02063924   0.01587163 -45.89 0.0008920945    1.298    0.230
        59 -10.7077     13.6583     59.9553   2.9197186504e+02   6.9963701414e+00  0.009259957   0.00826487 -68.36 0.0004566122    1.112    0.101
        60 -10.3879    144.3475     33.8348   2.9032395001e+02   6.5440615597e+00   0.01151809  0.008379515  40.48 0.0007292388    1.395    0.283
