#   1 NUMBER                 Running object number                                     
#   2 MAG_AUTO               Kron-like elliptical aperture magnitude                    [mag]
#   3 X_IMAGE                Object position along x                                    [pixel]
#   4 Y_IMAGE                Object position along y                                    [pixel]
#   5 X_WORLD                Barycenter position along world x axis                     [deg]
#   6 Y_WORLD                Barycenter position along world y axis                     [deg]
#   7 A_WORLD                Profile RMS along major axis (world units)                 [deg]
#   8 B_WORLD                Profile RMS along minor axis (world units)                 [deg]
#   9 THETA_WORLD            Position angle (CCW/world-x)                               [deg]
#  10 FWHM_WORLD             FWHM assuming a gaussian core                              [deg]
#  11 ELONGATION             A_IMAGE/B_IMAGE                                           
#  12 ELLIPTICITY            1 - B_IMAGE/A_IMAGE                                       
         1 -10.4263    220.3984     11.5125   4.2813774247e+01   2.8090445762e+01      0.91943     0.465754 -65.37  0.003988258    2.302    0.566
         2 -11.4010    236.0184      4.7154   3.9746928434e+01   2.5051567089e+01     1.708501    0.6347125  71.27  0.007287278    2.548    0.608
         3  -9.2304    119.6306      9.2478   5.6674648886e+01   5.3764289491e+01    0.4641894    0.2894385  37.62  0.002250649    1.495    0.331
         4  -7.3900    179.2162      6.0427   4.5753253086e+01   3.9057017950e+01    0.1694771    0.1139463 -20.20 0.0004917706    1.623    0.384
         5  -8.4402    171.0688      5.7634   4.6706559915e+01   4.1186050564e+01    0.2249864    0.1944464   4.58 0.0002083025    1.288    0.224
         6  -8.9491    137.6900      4.7136   5.1416635921e+01   4.9782035486e+01    0.2282557    0.2193302  75.96 0.0002231348    1.127    0.112
         7 -10.7207     37.2911    215.1182   1.2590831563e+02   2.6046233713e+01    0.8241904    0.3968129  63.66  0.004933708    1.791    0.442
         8 -12.5921    204.0463    229.4915   9.7002400556e+01  -1.5080452464e+00     2.144217     1.105694  25.08   0.01083757    2.088    0.521
         9  -7.3336      2.6598    212.6909   1.3159873015e+02   2.9971295904e+01   0.08837704   0.07006986 -65.30 0.0007044114    1.689    0.408
        10  -9.7890    236.8792    193.2965   8.4802123771e+01  -2.2443813906e+00    0.3267603    0.2893173 -56.60  0.001232396    1.757    0.431
        11 -12.2616    244.9647    180.2575   8.0816998981e+01  -1.8611850105e+00     2.229737    0.8566615  27.58  0.007707305    3.988    0.749
        12 -10.5982    236.1265    179.0900   8.2117779529e+01  -1.5966821351e-01    0.5604963    0.2708623  25.11  0.002358458    2.553    0.608
        13 -11.6269    224.9370    188.2530   8.5949545321e+01   5.2026589826e-01    0.6618307    0.5367701 -13.65 0.0003614355    1.185    0.156
        14 -10.6149    226.1348    183.4931   8.4792082701e+01   9.9049059823e-01    0.4693562    0.3394644  49.30  0.000303189    1.602    0.376
        15  -9.9619    226.1830    178.5863   8.3794430472e+01   1.6982802998e+00    0.3198584    0.2662757 -17.01 0.0008392156    1.166    0.142
        16  -7.1929    149.7108    189.6795   1.0092273018e+02   1.4188098556e+01    0.1305288    0.1050747   3.72 0.0002703009    1.601    0.376
        17  -7.3422      6.5487    180.5708   1.2916140399e+02   3.5866980570e+01    0.1093892   0.07944035  83.74 0.0006304978    1.009    0.009
        18  -8.5452    146.9991    176.9825   9.9276623927e+01   1.7083186305e+01    0.2011033    0.1893907  37.43            0    1.053    0.050
        19 -10.0367    194.2560    175.3537   8.9194185194e+01   8.2412499841e+00    0.2440663     0.233696   3.24 0.0002606059    1.110    0.099
        20  -9.1582     80.0174    175.4595   1.1364523185e+02   2.8662093045e+01     0.213621    0.1681987 -73.08 0.0003053092    1.200    0.167
        21 -10.4164    248.1512    170.1252   7.8183567935e+01  -1.0131559212e+00    0.4980057    0.2622774 -42.82  0.002322607    2.296    0.564
        22  -7.3539    221.6530    167.3052   8.2277640589e+01   4.2522047828e+00    0.1284197    0.1139907 -85.34 0.0003439867    1.696    0.410
        23 -10.1881    249.1194    157.5382   7.5331547258e+01   6.0618658250e-01    0.3878196    0.2781629  19.75  0.001964783    1.374    0.272
        24  -8.5376     79.9481    160.0043   1.1148714889e+02   3.2060850434e+01    0.1935665    0.1692827  87.29  0.001194704    1.010    0.010
        25  -8.5176    214.4043    158.7915   8.1793130155e+01   7.0237941726e+00    0.2281486    0.1833101  37.06 0.0003013241    1.223    0.182
        26  -6.7596    124.4346    157.5515   1.0069731753e+02   2.5265412635e+01    0.1395108    0.1348957  75.32 6.152273e-05    1.030    0.029
        27  -7.7415    142.5307    154.0440   9.5838475175e+01   2.2554830775e+01    0.2211396    0.1865078  44.80  0.000469317    1.155    0.134
        28  -8.7858    240.2472    153.1621   7.5876518087e+01   2.8919372357e+00    0.2437075    0.1368227   8.09 0.0009541722    2.823    0.646
        29  -7.2757    146.7398    149.6968   9.3965324753e+01   2.2618573409e+01    0.1416807    0.1163175  -6.50 0.0002024578    1.516    0.340
        30  -9.0538    242.3626    147.1016   7.4159573907e+01   3.4098702650e+00    0.2202295    0.1703959  46.00 0.0008042098    1.444    0.308
        31  -6.9787    171.2847    132.3188   8.4454211780e+01   2.0956325949e+01    0.1545889    0.1200264   2.00 0.0002030058    1.589    0.371
        32  -7.7139      6.5343    132.5740   1.2541924059e+02   4.6167646243e+01    0.1169623   0.08697342 -88.17 5.927588e-05    1.072    0.067
        33  -6.9167    188.7150    131.7090   8.0592171309e+01   1.7213767627e+01    0.1518959    0.1168932   6.88 0.0006954484    1.536    0.349
        34  -7.9107      8.2084    129.1873   1.2468476369e+02   4.6808107662e+01    0.1571489    0.1104698  77.39 0.0005986604    1.322    0.244
        35  -8.6492    158.7170    108.9684   8.1290580621e+01   2.8471469724e+01    0.2411164    0.2175753  36.77 0.0003435049    1.124    0.110
        36  -7.5741    121.3348    106.0719   8.9800534741e+01   3.7207041947e+01    0.2094745    0.1818571 -45.28 0.0002365517    1.104    0.094
        37  -9.4703    214.9525    104.1863   6.8517674754e+01   1.6192954191e+01    0.2577778    0.2352234  28.69 0.0003132328    1.129    0.114
        38  -7.8266    219.5876    100.6752   6.6795711352e+01   1.5720811116e+01      0.26143    0.1996851  58.52 0.0008248248    1.451    0.311
        39  -7.5696    148.5423     93.5263   7.9348816989e+01   3.3919150339e+01    0.1573828    0.1514289 -15.52 0.0008085227    1.015    0.014
        40  -6.8261    242.2948     88.3231   6.0042458213e+01   1.2592435134e+01    0.1439596    0.1085517   7.94 0.0002340517    1.618    0.382
        41  -8.6148    102.9797     86.9862   8.9540877041e+01   4.4922484590e+01    0.2150013     0.200136 -31.62  0.001183866    1.014    0.014
        42  -7.7617    160.0385     82.6996   7.3441796392e+01   3.3269871522e+01    0.2131342    0.1990118  37.48 0.0002624085    1.082    0.076
        43  -7.2776     11.5366     81.5331   1.1735011038e+02   5.7376696958e+01    0.1217407   0.09175152 -62.11 5.818489e-05    1.008    0.008
        44  -8.4542    145.5036     74.7148   7.4344370513e+01   3.8243195474e+01    0.3306324    0.2488598 -39.85  0.001100193    1.311    0.237
        45  -8.4072    135.0693     70.3567   7.5508688666e+01   4.1491409727e+01    0.2541833    0.1889525  28.22  0.001171479    1.483    0.326
        46 -10.2388    117.6592     65.8503   7.8610159543e+01   4.6209009540e+01    0.2553149      0.23739  15.55 0.0002771919    1.070    0.065
        47  -6.7668     81.3347     64.3091   8.9102686725e+01   5.3435759487e+01    0.1462022    0.1041312 -10.71 0.0007042664    1.676    0.403
        48  -7.7734    129.1708     63.2245   7.4635564022e+01   4.4132117377e+01    0.1975317    0.1782643 -61.73 0.0005484167    1.272    0.214
        49  -9.1761    161.6161     61.6021   6.6507770357e+01   3.6562550671e+01     0.368864    0.3086742  60.77  0.001835699    1.240    0.193
        50  -8.6315    144.2338     59.4001   6.9635856818e+01   4.1232589398e+01    0.2775083    0.2578011 -63.25 0.0008079612    1.199    0.166
        51  -8.9352    213.6072     55.7940   5.5618293265e+01   2.4244821251e+01    0.3804075    0.2595611 -21.03  0.001789065    1.560    0.359
        52  -9.4127    179.4797     55.3874   6.1049167453e+01   3.2980626839e+01    0.5820086    0.3611082  89.90  0.002234774    2.501    0.600
        53  -8.4592    187.6983     47.6497   5.7258897347e+01   3.1990597983e+01    0.2585026    0.2232314  26.31 0.0006598976    1.260    0.206
        54  -8.3964    221.8539     39.7022   5.0117076815e+01   2.4414012176e+01    0.2885622    0.1926073 -67.76 0.0009365173    1.686    0.407
        55  -9.4856    180.9822     36.9968   5.5081634184e+01   3.5173383335e+01    0.5451817    0.3372823 -80.11  0.002228082    2.295    0.564
        56  -9.7640    182.0670     32.8748   5.3631525980e+01   3.5414788667e+01    0.7074631     0.380558 -62.41  0.002683151    2.661    0.624
        57  -8.8159    200.0832     34.9671   5.1628217391e+01   3.0494058271e+01    0.4479178    0.2682447 -68.47  0.001894988    2.145    0.534
        58  -7.3077    161.5047     36.5304   5.8294352130e+01   4.0283488510e+01    0.1482121    0.1415267  37.45 0.0001201146    1.017    0.017
        59  -8.5382    245.1884     35.6125   4.6455185754e+01   1.9390316339e+01    0.1822742    0.1192404  56.95 0.0004571166    1.656    0.396
        60  -8.9897    207.9245     26.9082   4.8318934298e+01   2.9482373450e+01    0.4204835    0.2532062 -62.51  0.001907096    1.889    0.471
        61  -9.0746    248.1956     15.9281   4.1430873380e+01   2.1044111272e+01    0.3469434    0.1557467  43.98  0.001395769    3.370    0.703
        62 -12.0740    174.6813    245.5667   1.0452814985e+02   1.1542162817e+00     2.329364    0.6095732  41.82  0.009492343    2.994    0.666
        63 -12.0909    187.8273    238.0134   1.0116595562e+02   2.8824000385e-02     1.786934    0.9433414  47.82  0.009815909    1.765    0.433
        64 -10.0307    128.3205    237.9258   1.1180623546e+02   9.6006762436e+00    0.2057137    0.1830856  53.08 0.0003549654    1.133    0.117
        65  -7.0851    140.9684     16.7696   5.5247452418e+01   4.7828955111e+01    0.1784858    0.1109146  59.66 0.0002031514    1.505    0.335
        66  -9.1463    238.6549    211.5382   8.7890733426e+01  -4.8651290932e+00    0.2953396    0.1799473   2.21  0.001363254    1.798    0.444
        67  -7.5321    130.6026    223.4731   1.0965297005e+02   1.1559287754e+01    0.1210366    0.1015944  54.07 -2.110932e-06    1.022    0.022
