#   1 NUMBER                 Running object number                                     
#   2 MAG_AUTO               Kron-like elliptical aperture magnitude                    [mag]
#   3 X_IMAGE                Object position along x                                    [pixel]
#   4 Y_IMAGE                Object position along y                                    [pixel]
#   5 X_WORLD                Barycenter position along world x axis                     [deg]
#   6 Y_WORLD                Barycenter position along world y axis                     [deg]
#   7 A_WORLD                Profile RMS along major axis (world units)                 [deg]
#   8 B_WORLD                Profile RMS along minor axis (world units)                 [deg]
#   9 THETA_WORLD            Position angle (CCW/world-x)                               [deg]
#  10 FWHM_WORLD             FWHM assuming a gaussian core                              [deg]
#  11 ELONGATION             A_IMAGE/B_IMAGE                                           
#  12 ELLIPTICITY            1 - B_IMAGE/A_IMAGE                                       
         1 -12.1015     61.0231     23.2810   8.5650952354e+01   6.4137571976e+01    0.5778672    0.3379647 -54.10  0.002589745    3.002    0.667
         2 -10.9684     10.0893     15.4520   1.0591037827e+02   7.1371419261e+01     0.241316    0.1459335 -25.14 0.0006449075    1.427    0.299
         3 -11.5469      3.9570     18.0294   1.1024391861e+02   7.1324442771e+01    0.3437518    0.2472397  -4.20  0.001472018    1.435    0.303
         4 -11.7035    129.5105     24.8119   6.5926388524e+01   4.9833333413e+01    0.5246207    0.3055103 -39.04  0.002414456    1.843    0.457
         5 -11.8475     20.8458     18.4753   1.0158850829e+02   6.9963933944e+01    0.4941159    0.4116878 -66.87  0.001856274    1.831    0.454
         6 -11.2989    129.4453     19.0487   6.3781181234e+01   5.0504569051e+01    0.4032379    0.3385327 -16.37   0.00173959    1.238    0.192
         7 -10.1373     34.8825     15.9007   9.3487750523e+01   6.8903308713e+01    0.3493603     0.187002 -21.66  0.001423031    1.901    0.474
         8 -11.2163     75.8985     15.2069   7.6481680939e+01   6.2643460394e+01    0.5204099     0.294923 -10.78   0.00236531    1.965    0.491
         9 -11.9290     70.4290     14.6427   7.8109131495e+01   6.3718747291e+01    0.3825073     0.227444 -17.81  0.001202655    1.651    0.394
        10 -12.2068     81.3267      6.7671   7.0759415561e+01   6.2541469533e+01    0.5397725    0.3182265  26.19  0.002778518    1.700    0.412
        11 -11.4459     74.1049      7.0568   7.3196873040e+01   6.3919115539e+01    0.3025213      0.19911 -14.88 0.0003330425    1.454    0.312
        12 -10.8267     63.3373     14.7819   8.0775547203e+01   6.4939318916e+01    0.4690243    0.2343932  10.90  0.001749363    3.791    0.736
        13 -10.3879     55.0773     13.2942   8.3290724177e+01   6.6481972743e+01    0.2183035    0.1642154 -25.52 0.0003580763    1.252    0.202
        14  -9.5534     50.9654     11.0331   8.3860838850e+01   6.7416990017e+01    0.2389968    0.1375329  -5.84 0.0008530689    2.018    0.505
        15 -10.4889    100.4203     12.9320   6.8124526901e+01   5.7893910444e+01    0.2963408     0.199434   6.48  0.001008569    1.604    0.377
        16 -10.4232     30.6499     12.9398   9.4102111721e+01   6.9853850817e+01    0.2915463    0.2460245  71.01  0.001816804    2.448    0.592
        17 -11.0941     26.4089     13.9552   9.6704444388e+01   7.0161056641e+01    0.3990405    0.3243415 -80.19  0.001220997    2.661    0.624
        18 -10.2845     10.9548      9.9304   1.0298718981e+02   7.2241970141e+01    0.3815201    0.2661665  39.46  0.002515528    2.147    0.534
        19 -13.0721     31.9785      2.0601   8.7771137545e+01   7.1244253599e+01    0.3283206     0.210473  16.10 0.0006053505    1.496    0.331
        20 -12.1183     27.2225      3.5496   9.0989231264e+01   7.1621700153e+01    0.9564337    0.4704646   3.93  0.004256497    3.366    0.703
        21 -12.2802     11.9882      2.2903   9.8626508648e+01   7.3367535341e+01    0.5898832    0.4008463  17.28   0.00241003    1.544    0.352
        22 -11.0505     16.9646      1.6455   9.5460338566e+01   7.2997586161e+01    0.1739712    0.1370368   4.32  0.001277884    1.240    0.193
        23 -11.2911    117.8267     11.2001   6.3226219962e+01   5.4101247953e+01    0.5732645    0.2576965 -36.04   0.00200086    2.392    0.582
        24 -11.6830    115.9822      3.0960   6.0363900046e+01   5.5277911428e+01     0.296869     0.209525  -5.24 0.0003869169    1.509    0.337
        25  -9.6043      5.2569     11.7183   1.0696512419e+02   7.2357691861e+01    0.1628536   0.09489505 -30.51   0.00104448    1.365    0.268
        26 -10.4416     59.7136     10.3351   7.9980046199e+01   6.6112135829e+01    0.2160175    0.1827888  37.24 0.0006846049    1.349    0.259
        27 -10.1857    108.0352      9.5768   6.4796398773e+01   5.6531727373e+01    0.2566816    0.1893087  -3.32  0.001415159    1.398    0.285
        28 -10.6072    128.2076      8.6859   6.0109558982e+01   5.1850922686e+01     0.242048    0.2039261 -61.42 0.0005453891    1.406    0.289
        29 -10.2360    178.6491      8.7106   5.2315102336e+01   3.9128594368e+01    0.1444745   0.09378629  41.76 0.0007026107    1.669    0.401
        30 -10.3922    123.4039      7.4820   6.0592212325e+01   5.3124121040e+01    0.3046051    0.1448788  37.32  0.001291455    2.188    0.543
        31 -10.2712     91.4624      6.9921   6.7916703887e+01   6.0432255513e+01    0.3846956    0.2278493  25.44  0.001929996    1.737    0.424
        32 -10.1368    228.7621      5.4189   4.6431612373e+01   2.7155344621e+01    0.2239984    0.1629378 -66.35 0.0006076563    1.264    0.209
        33 -10.5023    146.4764      4.9590   5.5567056367e+01   4.7651633529e+01    0.3056876    0.1809645   8.33  0.001399413    2.184    0.542
        34  -9.6086     59.9575      5.5211   7.7443828730e+01   6.6643150623e+01    0.2477682     0.109659  43.50  0.001196695    2.165    0.538
        35  -9.2426    167.7566      2.0329   5.1617212126e+01   4.2506146440e+01    0.1647164    0.1153415 -22.86 0.0006414003    1.553    0.356
        36  -9.8865     72.4121      1.9498   7.1233206682e+01   6.4766212109e+01    0.2404049    0.1637193  73.04  0.001241522    2.412    0.585
        37  -9.9983    176.7110      4.3807   5.1245652408e+01   4.0022955206e+01    0.2233746    0.1592077  19.78 0.0007829641    1.737    0.424
        38  -9.9394    174.4682    219.5432   1.0522987869e+02   5.4541614139e+00    0.2320482    0.1014847  32.24  0.001031345    2.294    0.564
        39 -10.8215    250.3689    246.0397   9.6023743569e+01  -9.2277116122e+00    0.3326124    0.1333974 -27.27  0.001835919    2.659    0.624
        40 -10.8542    180.9991    248.9986   1.0819831026e+02   3.8368395169e-01    0.2450311    0.1442569 -32.90  0.001499871    2.156    0.536
        41 -12.2548     28.7793    248.0252   1.3447999051e+02   2.1284869803e+01    0.5890447    0.2388424  63.64  0.003578513    2.045    0.511
        42 -12.1644     16.8465    238.3425   1.3592927361e+02   2.4137252390e+01    0.8596203    0.1947069  36.67  0.004156337    3.661    0.727
        43 -10.3074      5.5146    235.4592   1.3761438280e+02   2.5718382238e+01    0.1835887    0.1616767  63.63   0.00111695    1.444    0.307
        44 -12.8528     17.0340    246.7388   1.3627161452e+02   2.2703266636e+01     1.152158    0.1981106  51.45  0.005510819    3.371    0.703
        45 -11.9798      5.8695    244.9271   1.3792534153e+02   2.4084045377e+01    0.5313861    0.2105489  69.02  0.002873095    2.020    0.505
        46 -10.8168      1.3780    244.8212   1.3860649882e+02   2.4518067439e+01    0.2007365   0.07629789 -82.77 0.0006667115    2.321    0.569
        47 -10.6456    123.6846    221.3368   1.1525487672e+02   1.3400442070e+01    0.4807287    0.1979865  47.33   0.00226084    2.102    0.524
        48 -10.1636    192.0000    217.9571   1.0169674262e+02   2.7971930074e+00    0.1822855   0.07073884 -40.32 0.0008068096    2.973    0.664
        49 -10.8688      9.5521    216.9958   1.3614407164e+02   2.8633921488e+01    0.2744307    0.1350836  56.87  0.001004467    1.570    0.363
        50  -9.3942    136.3825    216.2824   1.1212392509e+02   1.2238912417e+01    0.1239196   0.09259674  14.72 0.0007008847    1.728    0.421
        51 -10.4407     31.0853    215.8852   1.3230049345e+02   2.6710834495e+01     0.202415    0.1494287  42.34  0.001489604    1.442    0.307
        52  -9.5932    194.5370    215.5019   1.0083151453e+02   2.7270709449e+00    0.1257291    0.1045136  25.14 3.687944e-05    1.017    0.017
        53  -9.1345    143.2934    213.3044   1.1035136781e+02   1.1611252171e+01    0.1196105    0.0948748   9.40 0.0003714966    1.577    0.366
        54 -11.0606     21.2577    212.3351   1.3385052853e+02   2.8383854079e+01    0.3097798    0.1330829  58.41   0.00181221    1.916    0.478
        55 -10.1487    208.9796    212.0797   9.7611278089e+01   8.3508178814e-01    0.1900391     0.153272  18.75 0.0004490681    1.028    0.027
        56  -9.9103      2.2901    212.3380   1.3717281641e+02   3.0149383116e+01    0.1479805    0.1151594  84.02 0.0006439803    1.187    0.158
        57 -11.8778      4.7438    207.2485   1.3651218227e+02   3.0889665845e+01    0.5242822     0.212678  83.89  0.002970134    2.189    0.543
        58  -9.2206    184.2931    208.3827   1.0159768765e+02   5.4838980826e+00    0.1316781   0.09181496   4.90 0.0005089082    1.756    0.431
        59  -9.9899     10.8656    208.1803   1.3547656130e+02   3.0162728356e+01    0.1354694    0.1093738 -78.27 0.0006377813    1.380    0.275
        60 -11.3744     18.5953    202.8984   1.3378252364e+02   3.0453141294e+01    0.3261253    0.2121598 -70.47  0.000949599    1.543    0.352
        61  -9.4617    223.5878    201.8001   9.3187035150e+01  -1.5272128976e-01    0.1572244    0.1149193 -40.69 0.0007356411    1.683    0.406
        62 -10.1446    175.2860    202.6962   1.0240126130e+02   7.9175408587e+00    0.2106242    0.1819433  51.09   0.00053101    1.240    0.194
        63  -9.6108     34.4973    201.0591   1.3066413496e+02   2.9206057105e+01    0.1615207    0.1248634  61.01 0.0004848251    1.139    0.122
        64  -9.5351    227.1443    196.8514   9.1655365209e+01  -6.4475711733e-02    0.1817894    0.1277658  10.73  0.000651944    1.356    0.263
        65 -10.1067    215.4154    194.7460   9.3375976758e+01   2.1860412864e+00    0.1686028    0.1138263 -17.12 0.0002897274    1.554    0.356
        66  -9.7714    203.8237    195.5147   9.5663358931e+01   4.0619503803e+00    0.3501815    0.1043811  35.48  0.001191992    3.623    0.724
        67  -9.7250    232.3159    191.2948   8.9710065599e+01  -1.5817832145e-01    0.1313757   0.08561382   9.07 0.0003178609    1.603    0.376
        68  -9.3778    245.6920    190.6806   8.7301122431e+01  -2.2319511130e+00    0.1303357   0.08248905   6.26 0.0006101825    1.638    0.390
        69 -10.6171    187.3783    189.8394   9.7788844296e+01   7.8477300002e+00    0.1874786     0.121653 -25.69 0.0009552968    1.764    0.433
        70  -9.1988     90.6861    189.6522   1.1802785801e+02   2.4393581981e+01    0.1198686     0.100632 -23.45  0.000704697    1.719    0.418
        71  -9.0678      1.5085    188.4431   1.3615860321e+02   3.4825607367e+01    0.1076911   0.07935558  79.59 0.0002051885    1.019    0.018
        72  -9.5641     61.6478    184.8405   1.2370424125e+02   2.9371760907e+01     0.177177    0.1021794 -84.12 0.0009468591    1.765    0.434
        73 -10.0459    167.0148    183.5160   1.0074211374e+02   1.2629430857e+01    0.2122027    0.1244183  41.67 0.0007809312    1.557    0.358
        74 -11.1839     16.0372    182.6823   1.3299466724e+02   3.4747315082e+01    0.3759483    0.1745602  80.07  0.001997413    2.033    0.508
        75  -9.6600      1.9757    180.3005   1.3562616473e+02   3.6432588274e+01    0.1503024    0.1129058  72.80  0.000584566    1.089    0.082
        76 -10.0465    244.4147    178.2631   8.5112260769e+01  -3.7406754894e-01    0.2340038    0.1121597 -26.36  0.001109952    2.050    0.512
        77 -10.7928    224.2374    178.3565   8.8642938067e+01   3.0431042383e+00    0.2296409    0.2116417  -5.86 0.0005242392    1.180    0.153
        78  -9.0690     36.4402    178.4889   1.2846413452e+02   3.3633176301e+01    0.1184955   0.09472974  82.37 0.0002744802    1.011    0.010
        79 -10.1047    200.1621    176.8168   9.2828890036e+01   7.6209428071e+00    0.1933029    0.1487775   9.66 0.0006028753    1.333    0.250
        80  -9.6636     70.1963    177.5850   1.2101658940e+02   2.9803619540e+01     0.154855    0.1207155  27.00 0.0005807828    1.578    0.366
        81  -9.7736     46.2851    177.3986   1.2625189314e+02   3.2790350632e+01    0.2076106    0.1163847  30.02  0.001128548    2.106    0.525
        82 -11.0239     18.3076    173.0327   1.3184489650e+02   3.6562318816e+01     0.391814    0.1472453  65.58  0.001762045    3.017    0.669
        83  -9.3979     75.1767    170.8276   1.1904089228e+02   3.0589624976e+01    0.1676905    0.1517874 -41.29  0.001062209    1.380    0.275
        84  -9.8757      4.6871    168.6849   1.3438043512e+02   3.8629209461e+01    0.1043267   0.07329262 -57.28 0.0003191303    1.639    0.390
        85 -11.0785     36.6611    166.1154   1.2726583365e+02   3.6282235313e+01    0.3754343    0.2050277  71.39  0.002013193    1.879    0.468
        86 -11.6155     36.9104    158.4084   1.2642839897e+02   3.7962256139e+01    0.3918748     0.160877 -69.41 0.0005550291    2.083    0.520
        87  -9.8256     67.0514    165.0196   1.2016432140e+02   3.2961468389e+01    0.2083529    0.1352408  70.65 0.0007787605    1.618    0.382
        88 -11.3311     44.2743    162.5504   1.2516573985e+02   3.6256210455e+01    0.2840967    0.1714508 -71.70  0.001187425    1.462    0.316
        89 -10.8521     51.6803    163.6545   1.2357718644e+02   3.5170641587e+01    0.3358274    0.1980951 -59.74  0.001707932    1.639    0.390
        90 -10.4721     48.2747    159.9037   1.2393800260e+02   3.6399798615e+01    0.2585901    0.2104019  42.42   0.00138505    1.341    0.254
        91  -9.5085    200.4962    162.5587   8.9868120915e+01   9.9086038750e+00    0.1392856    0.1281456  12.94  0.000170846    1.040    0.038
        92 -10.0888    238.5066    158.8182   8.2140079525e+01   3.4001800939e+00    0.2614613    0.1412547  23.09  0.001154737    2.317    0.568
        93 -11.3449     22.3712    156.4936   1.2959268245e+02   3.9784042389e+01    0.3907824    0.3224918  62.25  0.002243951    1.208    0.172
        94  -9.1049    147.5076    156.4822   9.9794517823e+01   2.1463080530e+01    0.1434774    0.1375043  48.51 0.0008102429    1.025    0.025
        95  -9.0588    235.7065    154.6905   8.1740715015e+01   4.5196170888e+00    0.1381401   0.09560027   4.49 0.0003051006    1.587    0.370
        96 -10.2679     11.8024    153.4272   1.3173264791e+02   4.1353561647e+01    0.2338565    0.1167807  23.46  0.001293634    2.605    0.616
        97 -10.3318    178.2286    151.5685   9.2028846842e+01   1.6279154970e+01    0.2518427    0.2019623 -38.78  0.000554846    1.279    0.218
        98 -10.2464     41.2448    146.3122   1.2402137083e+02   4.0248196110e+01    0.1943385    0.1501088 -84.01 0.0003279607    1.104    0.094
        99 -10.4665     19.0000    145.9753   1.2940187702e+02   4.2421462885e+01    0.1832868    0.1021544 -60.53 0.0005164284    1.643    0.391
       100 -10.6561     12.8465    146.8564   1.3093803212e+02   4.2724298315e+01    0.2332916    0.1371567 -89.40  0.000402369    1.435    0.303
       101 -10.6154     11.6925    143.6954   1.3093199981e+02   4.3518802252e+01    0.1962864     0.119204 -69.54 0.0008257679    1.368    0.269
       102  -9.3505    229.5200    146.5112   8.1031765633e+01   6.9265273090e+00    0.1383063    0.1236289  -7.10 -1.580642e-05    1.032    0.031
       103 -10.1059    207.0289    146.0575   8.5029278140e+01   1.1410138474e+01    0.2206423      0.20244   3.83  0.000659027    1.011    0.010
       104 -10.4572     22.2617    144.2404   1.2844705974e+02   4.2534792302e+01     0.165461    0.1157967  73.90 0.0007741135    1.323    0.244
       105  -9.8489     49.5982    141.5625   1.2130303518e+02   4.0431322253e+01    0.2361403    0.1597609 -31.74  0.001038347    2.123    0.529
       106  -9.5824    239.9934    140.7686   7.7983309064e+01   5.8352352118e+00    0.1669998    0.1113403  43.00 0.0004689124    1.583    0.368
       107 -10.4494     19.6233    139.8084   1.2864276032e+02   4.3761476851e+01    0.1786291    0.1407411 -77.15 0.0005772288    1.079    0.073
       108 -10.0705     56.8515    138.2310   1.1894788180e+02   4.0357368072e+01    0.3732227    0.2124941  75.84  0.001704728    2.325    0.570
       109  -9.5919    236.7607    138.5722   7.8031056026e+01   6.7815886372e+00    0.1662077     0.135066  53.41  0.000443064    1.472    0.320
       110  -9.0666     87.9652    137.9857   1.1074530315e+02   3.6125046461e+01    0.1613058    0.1509666 -87.85 0.0003813911    1.018    0.017
       111 -10.4468      9.1777    136.8721   1.3092425877e+02   4.5235329568e+01    0.1776391    0.1486199 -68.24 0.0003702024    1.214    0.177
       112 -10.7000      2.7961    136.2550   1.3242051784e+02   4.5817789242e+01    0.2427221    0.1178171 -69.47  0.001101653    1.616    0.381
       113 -10.4051     21.1574    135.8203   1.2784241129e+02   4.4541721833e+01    0.2103852    0.1660133 -86.47  0.000790994    1.037    0.035
       114  -9.2773    122.6812    135.3210   1.0127703485e+02   3.0726898975e+01    0.1508733    0.1156097  82.66 0.0004789096    1.666    0.400
       115  -9.3319    250.4587    134.4627   7.4903629719e+01   4.8419080626e+00    0.1349999    0.1164197 -14.80 0.0005622964    1.019    0.018
       116  -9.9582    107.0932    133.3231   1.0483132713e+02   3.4023879573e+01    0.2408307    0.2010865 -40.55 0.0009973149    1.261    0.207
       117 -10.2269     33.1149    133.6897   1.2452536771e+02   4.3968624471e+01    0.2691341    0.1535049 -81.95  0.001435575    1.622    0.384
       118 -11.1603     37.1371    130.4986   1.2304938594e+02   4.4321066630e+01    0.3310248    0.2765601 -61.48  0.001467169    1.171    0.146
       119 -11.6101     33.3200    126.0257   1.2346966709e+02   4.5729690052e+01    0.3197675    0.2088905  48.86 0.0003664469    1.649    0.394
       120  -9.6862     53.2646    133.0204   1.1910634403e+02   4.1999254435e+01    0.1932075    0.1462347 -67.05  0.001019485    1.164    0.141
       121 -10.3623     73.9713    129.5423   1.1292396015e+02   4.0155923805e+01    0.2721014    0.1911883 -61.00 0.0007854436    1.305    0.234
       122  -9.0160    243.2637    128.6170   7.4723897265e+01   7.0671234945e+00    0.1367568    0.1000817 -52.63 0.0003809008    1.686    0.407
       123 -11.5192     10.5792    122.3971   1.2913508862e+02   4.8416872429e+01    0.2603929    0.2197658 -87.53  0.001266812    1.093    0.085
       124 -11.2999      2.4332    123.8318   1.3140886385e+02   4.8627591238e+01    0.5400549    0.1172303 -65.77  0.002241079    2.990    0.666
       125  -9.8828     81.7613    125.4024   1.0999840925e+02   3.9990937579e+01     0.220578    0.1822915  22.75 0.0008431395    1.426    0.299
       126 -10.4230     20.3908    121.7124   1.2642298114e+02   4.7846443277e+01    0.1888377    0.1381813 -30.90  0.001167865    1.767    0.434
       127  -9.0053     64.6921    120.2428   1.1378345743e+02   4.3594760479e+01    0.1298211   0.09781657  71.45 0.0002670233    1.499    0.333
       128  -9.7586     33.2569    118.7774   1.2246850158e+02   4.7427950622e+01    0.1716938    0.1261533 -52.55 0.0005674429    1.316    0.240
       129 -12.0083     22.9392    106.2152   1.2360968441e+02   5.1238919763e+01    0.5549027    0.3009005 -88.80  0.002331914    2.045    0.511
       130 -11.9020     17.0680    115.8336   1.2661060446e+02   4.9458590228e+01    0.3996999    0.2474924 -65.06  0.001055687    1.305    0.233
       131 -12.7539     15.4300    109.0772   1.2621081118e+02   5.1136611205e+01    0.6115674    0.4532327  75.64 0.0007883703    1.386    0.278
       132  -9.9876    249.7905    118.5909   7.1427060857e+01   7.3328601887e+00    0.1701349    0.1351547  66.00 0.0009437404    1.641    0.390
       133  -9.5397    220.4600    117.0047   7.5781986839e+01   1.3513148674e+01     0.218995    0.1332235 -35.37 0.0005140704    1.537    0.350
       134 -10.0364     86.0495    116.4977   1.0694220484e+02   4.1403118961e+01    0.2179048    0.1777282 -57.47 0.0004711572    1.143    0.125
       135 -10.1789     51.1849    115.0018   1.1671405771e+02   4.6473875619e+01    0.3262409    0.1582575 -62.09  0.001525955    1.772    0.436
       136  -9.1068    166.3224    115.6906   8.6127439588e+01   2.5727913383e+01    0.1537789    0.1238508 -82.28 0.0003164638    1.648    0.393
       137 -10.0820     35.1650    114.1942   1.2123436863e+02   4.8323070329e+01    0.2298576    0.1602024 -68.58 0.0006504001    1.199    0.166
       138 -11.9075     35.4188    108.4048   1.2023198438e+02   4.9655267168e+01    0.4208239    0.2562136  85.31 0.0008896689    1.976    0.494
       139 -10.8380    249.0521    111.9677   7.0011312913e+01   8.4700242756e+00    0.2139169    0.1858927 -24.08 0.0005782169    1.018    0.018
       140  -9.4080    223.5595    111.8328   7.3997203074e+01   1.3702818340e+01    0.1956235    0.1262271 -43.66 0.0002795198    1.554    0.357
       141  -9.2991     94.2865    111.6218   1.0349408248e+02   4.1183601738e+01    0.1495273    0.1121644 -89.77 0.0007015894    1.727    0.421
       142 -10.4398     56.1865    108.5378   1.1402281361e+02   4.7410851471e+01    0.3652595    0.1519343 -58.14   0.00156217    2.045    0.511
       143 -12.2226      3.0902    100.3775   1.2871642642e+02   5.3909574264e+01    0.2805756    0.2189444  88.44  0.000452811    1.198    0.166
       144 -10.8276      1.5561     94.6391   1.2846373219e+02   5.5294567098e+01    0.3853149    0.1113688 -66.66  0.001074359    2.367    0.578
       145 -10.6359      6.4354    106.7270   1.2850678949e+02   5.2267860932e+01    0.2530238    0.1726746 -88.47  0.001616752    1.300    0.231
       146 -11.0222      2.5075    105.4300   1.2948186498e+02   5.2793890977e+01    0.2344612    0.1635898 -88.84 0.0004860763    1.256    0.204
       147 -10.4069    243.4919    104.5205   6.9087555636e+01   1.0704624400e+01    0.1396834    0.1238938 -19.57 0.0001252193    1.031    0.030
       148 -10.0531    223.2157    103.9382   7.2113991934e+01   1.5059078076e+01     0.217055    0.1836728 -45.94 0.0004360607    1.204    0.170
       149 -10.9137    247.8753    102.1842   6.7896915248e+01   1.0173021927e+01    0.2112443    0.1812838 -51.04 0.0007802778    1.247    0.198
       150 -10.5805     35.3514    101.2489   1.1902533886e+02   5.1333831858e+01    0.2836231    0.2010906  48.40  0.001666003    1.626    0.385
       151  -9.7314    119.7757    101.4040   9.3791325944e+01   3.8724509997e+01    0.2123323    0.1437644  30.65 0.0008950343    1.685    0.407
       152  -9.4573     43.5584    100.9931   1.1642300802e+02   5.0588308009e+01    0.1959577    0.1108727 -62.29 0.0001404886    1.498    0.333
       153  -9.5679     57.4793     96.5093   1.1109981182e+02   5.0059765073e+01    0.1834894    0.1259452  45.28 0.0009703335    1.663    0.399
       154 -10.9666     61.9220     98.6717   1.1018152543e+02   4.9001256942e+01    0.2817234    0.2569026 -56.18 0.0005864659    1.031    0.030
       155 -10.9554     66.3404     97.8596   1.0861051408e+02   4.8606972543e+01     0.552923    0.1700802 -49.92   0.00197692    2.813    0.645
       156  -9.5174     50.2763     99.6932   1.1406031415e+02   5.0166618402e+01    0.2170876    0.1293933 -34.45  0.001047236    2.005    0.501
       157 -11.3112     20.4971     96.9158   1.2292609427e+02   5.3578470483e+01    0.3477792    0.1954987 -84.63  0.001460902    1.860    0.462
       158 -10.1075     30.1866     98.1394   1.2009025904e+02   5.2519502640e+01    0.1815404     0.140983 -54.78 0.0003057836    1.136    0.120
       159 -10.7489     92.5218     96.4746   1.0022935796e+02   4.4908883812e+01    0.2767537     0.122763 -40.68  0.001033729    2.374    0.579
       160  -9.9999    141.9762     96.7681   8.6750607379e+01   3.4959801732e+01    0.2098965    0.1289501  46.74 0.0008826642    1.650    0.394
       161  -9.5706    249.5049     95.5085   6.6092845846e+01   1.0840721081e+01    0.1377365    0.1214433 -27.90 -0.0001000779    1.003    0.003
       162  -9.3987     42.2904     95.3959   1.1572317565e+02   5.2021113726e+01     0.141412   0.08257253 -40.22  0.000114423    1.784    0.439
       163 -10.6707     22.8728     86.7808   1.2042370050e+02   5.5729872629e+01    0.2521405    0.1597164 -58.34 0.0004584564    1.258    0.205
       164 -10.9337     31.3657     92.2631   1.1864589561e+02   5.3778007802e+01    0.3540052    0.2044036 -75.88  0.001837081    1.728    0.421
       165 -11.2635     25.6363     91.5875   1.2038550131e+02   5.4411949696e+01    0.2620758    0.2259776 -48.15  0.000870311    1.154    0.133
       166  -9.9282    104.0364     92.0060   9.5613178919e+01   4.3820063755e+01    0.2248969    0.1753217 -10.86            0    1.580    0.367
       167 -11.0324      4.4695     85.7913   1.2633438748e+02   5.7141368760e+01    0.3903738     0.224258 -67.02  0.002348185    1.321    0.243
       168 -11.8901     12.3678     78.6544   1.2252112706e+02   5.8296205404e+01    0.4171777    0.2115476 -50.18  0.001184493    1.617    0.382
       169 -11.4184      3.1897     78.7411   1.2568663336e+02   5.8792810376e+01    0.2939849    0.2364364 -74.34  0.001252259    1.110    0.099
       170 -11.6894      7.3763     73.6935   1.2338597682e+02   5.9698288397e+01    0.3589592    0.2729647  -6.81  0.002371036    1.629    0.386
       171 -10.5092     96.2658     90.4929   9.7483138953e+01   4.5572275036e+01    0.4312507    0.2585345   2.53  0.001406439    4.089    0.755
       172 -11.2697     31.0484     66.0832   1.1301484763e+02   5.9703001148e+01    0.4866803    0.2563338 -40.46  0.001801787    1.735    0.424
       173 -12.4116     44.7521     75.3201   1.1033077989e+02   5.6333657613e+01    0.2676548    0.2413553 -71.22 0.0003527752    1.190    0.160
       174 -11.6316     38.1320     70.4626   1.1148747865e+02   5.8085661738e+01    0.7331063    0.5334255  50.45  0.002885607    1.767    0.434
       175 -10.9512     48.8455     86.5390   1.1164717811e+02   5.3361323111e+01     0.792268    0.1495239 -55.30  0.002499022    3.820    0.738
       176 -11.4161     43.6227     83.0458   1.1260665815e+02   5.4719296771e+01    0.8356159    0.4123137  53.92  0.003485948    3.271    0.694
       177  -9.1447     21.3032     91.3236   1.2174549449e+02   5.4806433099e+01    0.1290077   0.07548283 -44.42 0.0004370887    1.637    0.389
       178 -10.4851    158.0354     89.9957   8.1008657180e+01   3.2594661982e+01    0.2429619     0.235524 -12.57  0.001053195    1.014    0.014
       179 -11.5677     10.9771     90.9438   1.2500657459e+02   5.5596274172e+01    0.3699074    0.2203911  25.75  0.002215259    2.061    0.515
       180 -10.3314    112.1758     85.8428   9.1490003055e+01   4.3543173768e+01     0.331656    0.2184708  61.64  0.001432668    1.991    0.498
       181 -10.6783     66.8183     85.3581   1.0536442557e+02   5.1384929675e+01    0.3003292    0.1947602 -37.89 0.0008615687    1.532    0.347
       182 -10.0891    166.8107     84.1545   7.7386460583e+01   3.1583304606e+01    0.4007444     0.206374  70.20    0.0012796    3.416    0.707
       183  -9.7587     14.9002     84.0139   1.2259938205e+02   5.6923720395e+01    0.1832355    0.1601934  11.81  0.001291229    1.430    0.301
       184 -10.4483    118.0229     82.7082   8.8907716650e+01   4.2988644781e+01    0.3017918    0.2136457 -32.19 0.0008696625    1.436    0.304
       185 -10.3499     29.5238     81.7533   1.1717940544e+02   5.6342954901e+01    0.1964652    0.1776132  13.49 0.0009157315    1.328    0.247
       186 -12.2853     21.4690     78.0382   1.1922734323e+02   5.7819615451e+01    0.4846795    0.3501923 -62.83  0.001509175    1.129    0.115
       187 -10.9193     90.6722     77.5304   9.5415482067e+01   4.9333756488e+01    0.4543928    0.3721094  67.67  0.002376718    1.563    0.360
       188 -10.2089     70.9790     79.4630   1.0237736450e+02   5.2096668737e+01    0.1915294    0.1387452  32.14   0.00051914    1.523    0.343
       189 -10.5527    151.0867     77.6965   7.8961982766e+01   3.6517546980e+01    0.3925975    0.2723251  51.19  0.001788804    1.456    0.313
       190 -12.0003     57.8991     74.2933   1.0539990769e+02   5.5016495865e+01    0.4726972    0.3462013  68.24 0.0004876082    2.012    0.503
       191 -11.9764     62.4406     71.6646   1.0305282639e+02   5.4987104903e+01    0.3395021    0.2777992 -40.39 0.0007742571    1.076    0.071
       192  -9.8610    122.0547     76.3273   8.5826945848e+01   4.3395501106e+01    0.2161785    0.1914703  43.90 0.0008115312    1.159    0.137
       193 -10.9455    138.8355     75.0080   8.1059850133e+01   3.9886276843e+01    0.2512735    0.2225844  55.78            0    1.179    0.152
       194 -10.7228    109.1089     74.7062   8.8951554899e+01   4.6419332222e+01    0.2828511    0.2579906 -60.41  0.001217405    1.207    0.172
       195 -10.9085    102.8882     73.3828   9.0364966395e+01   4.7915844059e+01    0.3718817    0.2822152 -72.60  0.001684802    1.841    0.457
       196  -9.7057    145.5407     73.4578   7.8953460109e+01   3.8599567825e+01    0.2474951    0.2032325 -24.83 0.0006709017    1.241    0.194
       197  -9.7382    145.0862     69.5410   7.7829800584e+01   3.9404366257e+01    0.2942269    0.2095348   0.95  0.001269288    1.891    0.471
       198  -9.4201    150.6352     72.2731   7.7398610634e+01   3.7596741131e+01    0.1549204    0.1222662 -81.93 0.0007002585    1.665    0.399
       199  -9.5902    128.8233     71.7779   8.2577567426e+01   4.2767677624e+01    0.1986678    0.1774853 -72.75 0.0002323643    1.308    0.236
       200 -10.0581     83.9778     72.3298   9.5951323402e+01   5.1568746023e+01    0.1873314    0.1749705  11.24 0.0002738795    1.113    0.102
       201 -11.2970     76.5526     70.9198   9.7971471043e+01   5.3073348679e+01    0.4845596    0.3506576  63.99   0.00207381    2.009    0.502
       202 -10.5133     77.2357     63.8148   9.5459475334e+01   5.4415977041e+01    0.4034142     0.245072 -41.83 0.0009579438    1.504    0.335
       203  -9.1042    178.2798     91.7337   7.7144296145e+01   2.7473779176e+01    0.1466724    0.1203661 -73.15 0.0006881877    1.485    0.326
       204  -9.0792    167.9712     70.2029   7.3015038866e+01   3.3726616806e+01     0.196411    0.1215615  55.94 0.0003635618    1.636    0.389
       205 -10.0306    160.9088     69.8379   7.4376495747e+01   3.5525009011e+01    0.2258788    0.2005782  14.58 0.0003324659    1.203    0.169
       206 -11.5300     94.5620     68.0691   9.1193568722e+01   5.0553988949e+01    0.4553161    0.2805342 -31.48  0.002077165    1.670    0.401
       207  -9.6655     68.7814     69.8755   1.0030410675e+02   5.4473693735e+01    0.1923238    0.1594232 -43.72 0.0002914283    1.092    0.085
       208  -9.5807     68.6904     66.7306   9.9359170110e+01   5.5143601389e+01    0.2246685    0.1125402 -40.70 0.0002637173    1.846    0.458
       209 -11.1386     50.8440     68.1757   1.0619647137e+02   5.7208769358e+01    0.4329934    0.2520734 -21.63  0.001849235    2.339    0.572
       210 -10.7557     51.1381     63.8144   1.0480864198e+02   5.8102112148e+01    0.6072997    0.2510602 -36.90  0.002432035    2.674    0.626
       211 -10.1721    123.1169     68.5576   8.3043286147e+01   4.4633554272e+01    0.2798196    0.1979399 -49.59  0.000654033    1.525    0.344
       212  -9.7928    120.3234     65.0128   8.2624828946e+01   4.5896359964e+01    0.2104814    0.1886571 -27.51 0.0003838979    1.085    0.079
       213 -12.3275     17.6282     67.1559   1.1834045286e+02   6.0515693379e+01    0.5491725    0.3223447 -13.53  0.001060418    2.224    0.550
       214 -10.8208     20.3169     61.8246   1.1608187344e+02   6.1489958215e+01    0.4879775    0.2289578  48.19  0.002224115    3.393    0.705
       215  -9.7702     33.8350     75.3191   1.1423885736e+02   5.7414865499e+01    0.1734656    0.1415232 -44.74 0.0006954428    1.089    0.081
       216 -12.1981      3.9413     64.9822   1.2303590699e+02   6.1801542149e+01    0.4009456    0.2816459  77.28 0.0005368146    1.776    0.437
       217 -10.2515     55.9422     66.9866   1.0399011527e+02   5.6837655381e+01    0.1624739    0.1396855 -38.60 0.0003547512    1.003    0.003
       218  -9.5244    139.1758     65.8071   7.8043866818e+01   4.1457905935e+01    0.2080102    0.1742292  18.28 0.0003776984    1.294    0.227
       219  -9.5195    128.4889     66.5780   8.0975263371e+01   4.3793035970e+01    0.1498853    0.1439699   6.60 0.0001075255    1.013    0.013
       220  -9.1159    135.4617     65.4799   7.8847077855e+01   4.2385316103e+01    0.1521904    0.1445552   5.06 2.117274e-05    1.034    0.033
       221  -9.8029     41.8957     64.4759   1.0847295333e+02   5.9003065087e+01    0.1887687    0.1489653 -48.61 0.0005262243    1.078    0.072
       222  -9.6097    216.2186     64.5569   6.3062617260e+01   2.2801492569e+01     0.264136    0.1455966  68.05  0.001128915    2.069    0.517
       223  -9.0702    196.6432     64.2693   6.6010733614e+01   2.7576846179e+01    0.1518506    0.1124192 -72.01  0.000699477    1.639    0.390
       224  -9.9908     99.8343     64.2045   8.8269767229e+01   5.0298807329e+01    0.2015126    0.1641472  -4.05 0.0004022109    1.332    0.249
       225 -11.8729     62.0336     60.5402   9.9755931676e+01   5.7367333059e+01    0.6938956    0.3498783  26.92  0.003123622    2.371    0.578
       226 -10.9920     11.1315     44.3168   1.1534052752e+02   6.5798450191e+01    0.4129166    0.1698559 -44.80  0.001416558    1.865    0.464
       227 -10.7103      4.6088     47.1638   1.1891104843e+02   6.5579362539e+01    0.2489993    0.1358431 -43.83  0.001421273    1.455    0.313
       228 -10.6465      7.0003     41.3734   1.1635512408e+02   6.6643442057e+01    0.3610023    0.1206185 -57.78 0.0009917519    2.177    0.541
       229 -11.0060      5.9798     58.0586   1.2085158560e+02   6.3199657424e+01    0.4009242    0.2434385 -83.85  0.002302648    1.912    0.477
       230 -11.7872      5.1101     51.7130   1.1978689897e+02   6.4598668461e+01    0.3655272    0.2264122 -48.40 0.0006944367    1.243    0.196
       231  -9.9005    201.2892     61.9717   6.4618064820e+01   2.6783097545e+01    0.2009905    0.1791476 -33.57 0.0002847081    1.095    0.087
       232 -10.9809     84.5778     61.7319   9.2288381133e+01   5.3592282030e+01    0.3966261    0.2433711  42.71  0.001896679    1.758    0.431
       233 -11.9922     87.0256     53.9774   8.8754101759e+01   5.4618130063e+01    0.6978129    0.2566965 -36.88  0.001871253    2.685    0.628
       234 -10.6749     45.2431     50.7540   1.0293992147e+02   6.1476322190e+01    0.3927168    0.1944441 -37.63  0.001891581    1.850    0.459
       235 -11.5839     29.7449     60.8376   1.1214720046e+02   6.0950435076e+01    0.5998299    0.2612686  12.18  0.002470174    3.421    0.708
       236 -12.7285     37.2152     51.1608   1.0632084671e+02   6.2267769529e+01    0.7248389    0.5111164 -27.69  0.003228719    1.341    0.254
       237 -10.3506     47.6564     58.3352   1.0444799172e+02   5.9657706666e+01     0.262906    0.2099476 -58.51  0.001581851    1.304    0.233
       238 -10.1816     43.8216     57.1763   1.0557403244e+02   6.0332781523e+01    0.1992281    0.1629104 -36.83 0.0002673923    1.031    0.030
       239 -10.8667    128.7208     57.0430   7.7715186825e+01   4.5395423166e+01    0.3768706    0.2601489  -2.51 0.0008711424    1.904    0.475
       240 -10.4467     11.0995     62.6916   1.1985179876e+02   6.1909957089e+01     0.198616    0.1702157 -64.55 0.0004022287    1.140    0.123
       241  -9.5582     22.7633     57.9596   1.1414568840e+02   6.2137918220e+01     0.159586    0.1262664  50.22  0.001020307    1.669    0.401
       242 -10.5517    123.0511     56.3701   7.8949020485e+01   4.6803386109e+01    0.2597983    0.2071097 -39.57 0.0003556759    1.271    0.213
       243 -11.9688    128.5311     50.3347   7.5437032405e+01   4.6531047080e+01    0.5973529    0.3774116  -5.22   0.00247159    2.217    0.549
       244 -10.8522     98.9399     55.1384   8.5381909258e+01   5.2144589362e+01    0.5768042    0.3381721  65.52  0.002223232    3.026    0.670
       245 -10.0514     75.2949     55.9973   9.3461712323e+01   5.6261912825e+01    0.1953382     0.159526 -33.37 0.0003687177    1.110    0.099
       246  -9.9747     62.1569     54.3718   9.7637143381e+01   5.8580439488e+01    0.2494022     0.212951  81.30  0.001429612    1.728    0.421
       247 -11.2845    118.1817     53.3013   7.9171878202e+01   4.8408816563e+01    0.4781662    0.2571003  46.36  0.002035235    1.842    0.457
       248 -10.7738     12.6911     51.9172   1.1669289274e+02   6.4121899924e+01    0.3021374    0.1748681 -65.32  0.001749116    1.552    0.356
       249 -10.3417    103.8723     45.8577   8.0485705257e+01   5.2719043648e+01    0.2958209    0.1947896 -22.63 0.0007308183    1.576    0.365
       250 -10.8792     69.9005     50.2868   9.3333490814e+01   5.8202431622e+01     0.344012    0.2946863 -80.20  0.001952264    1.698    0.411
       251 -10.5270     81.7363     50.0102   8.9070440182e+01   5.6282171577e+01    0.1929085    0.1730428 -19.58 0.0003817305    1.034    0.033
       252 -10.3003    220.9305     48.9568   5.8300539185e+01   2.3884434888e+01    0.2038904    0.1888419 -53.61  0.001199504    1.005    0.005
       253 -11.4924    153.2740     47.8243   6.8969033309e+01   4.0911649642e+01    0.5588986     0.292271  53.77  0.001839167    1.831    0.454
       254 -10.0172    113.8518     48.4877   7.8621804193e+01   5.0154493665e+01    0.2337637    0.2050672 -57.40  0.000978092    1.341    0.254
       255  -9.1507     78.5103     47.4563   8.9222118873e+01   5.7299599143e+01    0.1390729    0.1226703 -12.43 9.504734e-05    1.016    0.015
       256  -9.9908     62.4496     47.4664   9.5056353638e+01   5.9857851032e+01    0.2529796    0.1758226  28.82  0.001389981    1.539    0.350
       257 -10.7527     59.7524     45.3629   9.5303402578e+01   6.0638240918e+01    0.2729536    0.2066058   2.49  0.001239832    1.407    0.289
       258  -9.5839    233.3605     45.7409   5.5975050599e+01   2.1411461944e+01    0.1809241    0.1248447 -21.29 0.0006659493    1.552    0.356
       259 -10.3623    142.6014     45.5746   7.0483031808e+01   4.3883743179e+01    0.3478099     0.242984 -59.87  0.001101455    1.826    0.452
       260  -9.4895     18.4101     46.1750   1.1270270837e+02   6.4927482943e+01    0.1598793    0.1015246 -65.55 0.0003297854    1.602    0.376
       261 -10.3416     85.8553     45.1538   8.5849898805e+01   5.6388358061e+01    0.1916377    0.1532954  -0.94 0.0003791595    1.270    0.213
       262 -10.1605     51.2508     44.9898   9.8506611659e+01   6.1862556631e+01    0.1988579    0.1645876 -21.16 0.0003223384    1.066    0.062
       263 -11.1028     51.9104     40.8648   9.6695080812e+01   6.2543739135e+01    0.2702213    0.2312252 -67.17 0.0005076059    1.615    0.381
       264 -10.5608    122.1743     42.8262   7.4345816012e+01   4.9159384725e+01        0.332    0.2737271 -54.32  0.001736994    1.420    0.296
       265 -10.2913    183.9895     41.4924   6.1434616808e+01   3.4012592124e+01    0.2285509    0.1896567 -31.22 0.0004262786    1.219    0.179
       266  -9.7569    110.6196     41.7490   7.7010712165e+01   5.1919772646e+01    0.2265835    0.1791107  77.16 0.0003539927    1.708    0.414
       267 -10.9937     97.4333     41.0276   8.0564273305e+01   5.4816364476e+01    0.3545471    0.2683469  38.27 0.0007962629    1.306    0.234
       268 -11.3948     97.9431     31.8647   7.6763308183e+01   5.6079812761e+01     0.337696    0.2456215  21.98 0.0004045871    1.414    0.293
       269 -10.3190    101.0399     28.4913   7.4488416064e+01   5.5890847202e+01    0.2568357    0.2194321 -69.15 0.0008561188    1.594    0.373
       270 -11.7942    101.8282     36.8512   7.7617307352e+01   5.4544220937e+01    0.6315176    0.3361028  30.31  0.002169529    2.263    0.558
       271 -11.7573     96.9817     36.8763   7.9067404086e+01   5.5546985048e+01    0.2751583    0.2541809  21.14 0.0003497451    1.082    0.076
       272 -11.2397     66.5090     41.3536   9.1195693016e+01   6.0348343330e+01    0.4117256    0.2375786   0.31   0.00167913    2.983    0.665
       273 -11.9636     20.5920     37.7178   1.0909012422e+02   6.6453947137e+01    0.3670578    0.2562443 -69.40  0.001743701    1.793    0.442
       274 -12.7342     25.3684     35.9494   1.0630568442e+02   6.6394229298e+01    0.4797131    0.4504342 -37.21    0.0032125    1.270    0.213
       275  -9.5007    220.4386     41.5148   5.6410959780e+01   2.4984545099e+01    0.1374054    0.1276714 -56.52 8.508965e-05    1.012    0.012
       276 -11.3073     89.4498     39.4024   8.2425391971e+01   5.6654515058e+01    0.3664957    0.2142644 -42.06 0.0009819559    1.789    0.441
       277 -10.1702     42.3829     38.4718   9.9735098060e+01   6.4170794971e+01    0.5819043    0.3932536 -54.38  0.002674886    1.634    0.388
       278  -9.9475    226.0727     40.0391   5.5364259353e+01   2.3840052504e+01    0.2233913    0.1455057 -60.08 0.0006563078    1.605    0.377
       279 -10.7760     80.9960     27.4829   8.0271173320e+01   6.0059286775e+01    0.5591111    0.2770636 -51.85  0.002063356    3.787    0.736
       280 -12.5168     80.5210     36.6087   8.4263246472e+01   5.8770451054e+01    0.7548396    0.4747837 -51.87  0.002797721    2.128    0.530
       281  -9.5872    249.7190     38.3549   5.2455159101e+01   1.8698407852e+01    0.1410826   0.08314939 -55.56 0.0007014733    1.659    0.397
       282  -9.5436     61.9705     37.9406   9.1563468944e+01   6.1638918861e+01    0.1597243    0.1293584 -24.83 0.0003081499    1.078    0.073
       283 -10.2396      2.7523     23.6149   1.1290927486e+02   7.0362132144e+01    0.2824265    0.1501758 -25.08  0.001695203    1.808    0.447
       284 -11.2041     10.3965     34.6843   1.1281712756e+02   6.7778318003e+01    0.3993864    0.2202345   6.23  0.001966843    2.168    0.539
       285 -10.3810      3.1813     36.8505   1.1683110815e+02   6.7762833725e+01     0.399261    0.1589789 -51.23  0.002151675    1.751    0.429
       286 -11.2533      6.4509     30.2307   1.1327554678e+02   6.8888126333e+01    0.3231407    0.2211033 -33.48  0.000701992    1.206    0.171
       287  -9.5149      2.3025     28.6669   1.1480665299e+02   6.9421959311e+01    0.1869534    0.1365352 -83.52  0.000182927    1.923    0.480
       288  -9.9115    130.0430     33.3665   6.8973696629e+01   4.8634728029e+01    0.3747855    0.1644144 -44.11  0.001400147    2.696    0.629
       289  -9.7985    206.1634     33.8238   5.6107464131e+01   2.9426518043e+01     0.181144    0.1590136  35.19 0.0002390778    1.285    0.222
       290 -10.0484    150.5153     34.4929   6.5053789296e+01   4.3441919863e+01    0.1451035    0.1383148  40.84 0.0002842564    1.010    0.010
       291 -10.7871     59.6447     33.8909   9.0812918859e+01   6.2676457120e+01    0.3265116    0.1559633  20.62  0.001276845    3.263    0.693
       292  -9.2167     34.4348     34.4651   1.0166742204e+02   6.5794048276e+01    0.1251756    0.0993991 -28.99 0.0004062391    1.010    0.010
       293 -10.8766     18.7036     31.7146   1.0789033689e+02   6.7758955291e+01    0.3074057    0.2385138  33.49  0.002019064    1.670    0.401
       294 -11.2293    177.8090     31.5338   5.9378586280e+01   3.6860455350e+01     0.392905    0.2174092 -58.15  0.001614985    2.279    0.561
       295 -10.1669    145.0425     32.0614   6.5297174585e+01   4.5124189037e+01    0.2106686    0.2034202  42.29 0.0003514928    1.020    0.020
       296 -10.0759     56.2204     30.9862   9.0955191848e+01   6.3664671684e+01    0.2754486    0.1496133 -28.27  0.001366357    1.771    0.435
       297 -11.3937     50.2633     29.0955   9.2598130740e+01   6.4818908180e+01    0.4197135    0.2133647 -30.77 0.0007031046    1.842    0.457
       298 -10.2153     42.6141     31.8161   9.7010753774e+01   6.5342870950e+01    0.1921325    0.1507929  -2.71 0.0005479699    1.223    0.182
       299 -10.0459    139.8459     29.4442   6.5429608954e+01   4.6743080410e+01    0.2842132    0.1849614   0.07  0.001101426    1.939    0.484
       300  -9.9990    153.5273     28.8989   6.2590110909e+01   4.3379723565e+01    0.2104531    0.1416021 -27.39  0.000451652    1.538    0.350
       301 -11.1030    214.6358     27.4209   5.3372634966e+01   2.8123168809e+01    0.2452555    0.2223161 -68.30 0.0001741277    1.022    0.022
       302 -10.2365    211.0245     24.5186   5.3003652435e+01   2.9340440396e+01    0.2618831    0.1322065  77.48  0.001135846    2.123    0.529
       303  -9.2523    120.0639     27.9846   6.9294913191e+01   5.1693414644e+01    0.1625036    0.1505358  19.99            0    1.014    0.014
       304  -9.1202     21.4470     28.5057   1.0539443477e+02   6.8132051517e+01    0.1197056     0.094009 -33.48 0.0008080126    1.035    0.034
       305 -10.1819    200.7632     27.6689   5.5076105939e+01   3.1510438887e+01    0.1910061    0.1251064  81.58 0.0003059817    1.601    0.376
       306 -11.0592     70.5387     25.8715   8.3223148067e+01   6.2176723163e+01      0.49912    0.2457297  36.41  0.001889862    2.065    0.516
       307 -12.4635    226.4353    246.2358   9.9984016130e+01  -5.9718074944e+00    0.6321298    0.3963294  21.05  0.004192621    1.308    0.235
       308  -9.8088     24.8228     26.9039   1.0314957052e+02   6.8122033313e+01    0.1821356    0.1293592 -28.29 0.0004902828    1.147    0.128
       309  -9.3844    146.0246     26.0230   6.3001298300e+01   4.5614816562e+01    0.1679321    0.1584829  44.40            0    1.002    0.002
       310 -10.4791     88.0106     25.1416   7.6982684893e+01   5.9028073118e+01    0.3821883    0.2911466 -85.02  0.001328963    2.381    0.580
       311 -11.1079     84.4905     20.5414   7.6088617200e+01   6.0326264709e+01    0.5225066    0.2902649  32.41  0.002507569    1.841    0.457
       312  -9.4117     16.5352     26.5538   1.0703863933e+02   6.8894042292e+01    0.1195299    0.0898919 -32.99 8.492378e-05    1.025    0.024
       313 -10.6770     10.4304     25.2190   1.0957819036e+02   6.9587567312e+01    0.2381637    0.1705279 -27.68 0.0003808913    1.175    0.149
       314  -9.4652    115.4304    244.7276   1.1941777782e+02   1.0842177205e+01    0.1290804    0.1091907 -47.14 0.0006775447    1.567    0.362
       315 -10.6516      8.1190     20.6485   1.0904991079e+02   7.0584264653e+01    0.2623449    0.1080385 -47.29 0.0009721221    1.786    0.440
       316 -10.8369    156.4958    241.0824   1.1155820903e+02   5.1935208326e+00    0.1496633    0.1190224 -46.71  0.001030314    1.582    0.368
       317 -10.0026     72.4991    250.0917   1.2740491154e+02   1.5852830189e+01    0.1774912    0.1376971  32.05  0.001308925    1.593    0.372
       318 -10.1695    173.7108     24.1578   5.7718918596e+01   3.8779151421e+01    0.2307707    0.1828589  81.40 0.0002787613    1.277    0.217
       319  -9.3380    158.8436     24.1731   6.0077236866e+01   4.2581765634e+01    0.1982049    0.1559038  36.39  0.000439164    1.313    0.238
       320  -9.7475     93.6171     23.8217   7.4702326649e+01   5.8065095981e+01    0.1886511    0.1193273 -36.44 0.0009410505    1.664    0.399
       321 -10.4459    195.7431    238.3763   1.0412221560e+02  -5.2167069309e-01    0.2664168    0.1693524  23.75  0.001635192    1.427    0.299
       322 -11.5096     31.4872    237.4408   1.3349143964e+02   2.2786113157e+01    0.2484543    0.1460432  76.51  0.001047538    1.404    0.288
       323  -8.8991     97.2502     23.6655   7.3571997402e+01   5.7325793711e+01    0.1281705    0.1045142 -51.91 0.0003428693    1.559    0.358
       324  -9.1427     35.3028     22.8521   9.6485638878e+01   6.7737123482e+01    0.2613476    0.1313144   5.39  0.001108563    3.382    0.704
       325  -9.7676    120.2695     21.4875   6.6731969346e+01   5.2428171193e+01    0.2298183    0.1666804   3.40  0.001028702    1.515    0.340
       326 -10.1299     66.0624     21.2618   8.2797921075e+01   6.3602018712e+01    0.2395812    0.1575888  42.46  0.001323855    1.611    0.379
       327 -10.6094     46.1611     20.8829   9.0695254919e+01   6.6693536986e+01    0.2293853    0.1733365  23.07 0.0005273998    1.345    0.257
       328 -10.2152    162.2314     19.4329   5.7968225301e+01   4.2240590387e+01    0.2520691    0.1761916  -1.39 0.0007304382    1.730    0.422
       329  -9.9905    226.7152     19.1521   4.9996622919e+01   2.6182566023e+01    0.2280241    0.1597937 -89.84  0.000669519    1.433    0.302
       330 -10.4002     29.1761    232.8910   1.3362947468e+02   2.3823910232e+01    0.2238862    0.1280364  55.35  0.001345828    1.331    0.248
       331 -10.4917    166.7179     16.2785   5.6268466328e+01   4.1425154169e+01    0.3863857    0.2227368 -85.07  0.001635023    2.296    0.565
       332  -9.6724    168.5013     13.4860   5.5124442057e+01   4.1252874110e+01    0.2180366    0.1137923  56.34 -0.000115402    1.741    0.426
       333 -10.1605    108.3978     17.3977   6.7953613740e+01   5.5632118687e+01    0.2509609    0.1592032  57.99  0.000757227    1.580    0.367
       334 -12.1837     74.1533    238.4403   1.2622114013e+02   1.7565343099e+01    0.5394461    0.4070811 -70.52   0.00396151    1.510    0.338
       335  -9.7178    205.9314    246.2712   1.0347712903e+02  -3.0111742262e+00    0.1620913    0.1159661  26.68 0.0004465955    1.075    0.070
       336  -9.9879    109.3422    242.8332   1.2032185919e+02   1.2018508187e+01    0.2066649    0.1222271  50.49 0.0007893474    1.361    0.265
       337 -10.2934    159.9024    235.8957   1.1026558419e+02   5.4042933917e+00    0.1851439    0.1430865  22.72 0.0007321325    1.294    0.227
       338  -9.9198    217.5605     16.4943   5.0205122083e+01   2.8649777535e+01    0.2334403    0.1046061  58.68 0.0009197834    2.180    0.541
       339 -10.1993    177.6946    234.9480   1.0687708544e+02   2.7356192389e+00     0.216891     0.143134  22.32 0.0009551699    1.518    0.341
       340 -11.3790    153.4109    234.1341   1.1123468916e+02   6.6832392475e+00    0.2419085    0.1968194 -19.78 0.0009606621    1.571    0.364
       341  -9.7583     49.9757     15.1477   8.6322549792e+01   6.7002793684e+01    0.3086725    0.1573684  32.15  0.001593436    2.002    0.500
       342  -9.7950    167.0082    233.9758   1.0869960977e+02   4.5584612251e+00    0.1418079    0.1280305  27.14  0.001012017    1.129    0.115
       343  -9.9568     86.1197    233.1333   1.2361264468e+02   1.6879486154e+01    0.1689641    0.1091676  62.55 0.0006755172    1.363    0.267
       344  -9.7672    142.3181    232.2896   1.1306653246e+02   8.7054089943e+00    0.1145948   0.08676922  16.58 0.0002241755    1.597    0.374
       345  -8.9562     38.6218    232.7214   1.3201653653e+02   2.2833191858e+01   0.08634792   0.08375326 -16.16 0.0007007073    1.708    0.415
       346  -9.8508     24.0361    232.2984   1.3445868557e+02   2.4462275029e+01    0.1438355     0.103149  65.59 0.0005509635    1.044    0.042
       347  -9.8100     79.9407    231.3472   1.2458237378e+02   1.8021993017e+01     0.164189    0.1161083  52.35 0.0004619643    1.137    0.120
       348 -10.4906     88.8131    241.5748   1.2388150052e+02   1.5095413828e+01    0.2285653     0.138784 -48.12  0.001396436    2.374    0.579
       349 -10.0083    190.5231    226.4214   1.0328658954e+02   1.8627783373e+00    0.2029457     0.119495 -36.98 0.0006213742    1.985    0.496
       350 -10.4099    153.3091    227.3428   1.1035433081e+02   7.7235695556e+00    0.1196782   0.08938605   9.73 0.0007044437    1.695    0.410
       351  -9.7196     26.9760     18.4896   9.8524894256e+01   6.9366537656e+01    0.1938581    0.1243438 -12.59  0.001158981    1.535    0.348
       352  -9.4869    140.0465     13.5576   5.9695649684e+01   4.8463873512e+01    0.2041744    0.1298458  65.08 0.0004547994    1.500    0.333
       353 -10.0654    129.7431    226.7233   1.1475167533e+02   1.1557057172e+01    0.2685131    0.1158311  54.55  0.001185772    2.643    0.622
       354  -9.9547     87.5095    227.4931   1.2283026723e+02   1.7667123254e+01    0.1169975     0.093402  59.64  0.000810573    1.006    0.006
       355 -10.4060     66.7546    226.6218   1.2659342143e+02   2.0576323082e+01    0.2997807    0.1165755  49.45  0.001074873    2.073    0.518
       356 -10.8329      5.0703    226.2420   1.3730880202e+02   2.7371736897e+01    0.2942108    0.0720204  53.30  0.001514483    2.828    0.646
       357  -9.1157    185.7204     10.6948   5.2050028828e+01   3.7140397625e+01    0.1353413   0.09861889  37.13 0.0002559282    1.553    0.356
       358 -10.6315    120.0557    226.4978   1.1657174048e+02   1.3089874638e+01    0.1831065    0.1002382  41.89   0.00045362    1.519    0.342
       359  -9.9038    181.0000    224.9583   1.0482029662e+02   3.5992308603e+00    0.1736812   0.07062268 -42.49 0.0008000609    2.926    0.658
       360 -10.2287    115.9639    225.5003   1.1723699167e+02   1.3880696770e+01    0.1780809   0.07988296  56.08 0.0005948975    2.466    0.594
       361 -11.3762     74.0066    232.7110   1.2577803354e+02   1.8567687822e+01    0.2482251    0.1697574  45.34 0.0009046297    1.278    0.218
       362 -11.7783     37.6917    243.0035   1.3277257771e+02   2.1162588341e+01    0.3595237    0.1813471  48.32  0.002417361    1.523    0.343
       363 -10.2445    142.0192    220.7600   1.1162698317e+02   1.0583709746e+01    0.2345593    0.1530163  30.31  0.001312556    1.531    0.347
       364  -9.5432    250.4809    219.4452   9.1685163254e+01  -6.4354415323e+00     0.118562   0.08880326  10.54 0.0001557743    1.018    0.018
       365 -10.9183    241.2170    211.7377   9.1895228475e+01  -4.1813866116e+00    0.3358577    0.2712404   6.73  0.002326923    1.067    0.063
       366 -11.0600    235.3273    216.6969   9.3753517428e+01  -3.8938787005e+00    0.3142761    0.1770066 -13.57  0.001726458    1.982    0.495
       367 -11.0739    235.9994    213.7509   9.3132117402e+01  -3.6380385768e+00    0.3110066     0.138132  31.87 0.0007670727    2.030    0.507
