#   1 NUMBER                 Running object number                                     
#   2 MAG_AUTO               Kron-like elliptical aperture magnitude                    [mag]
#   3 X_IMAGE                Object position along x                                    [pixel]
#   4 Y_IMAGE                Object position along y                                    [pixel]
#   5 X_WORLD                Barycenter position along world x axis                     [deg]
#   6 Y_WORLD                Barycenter position along world y axis                     [deg]
#   7 A_WORLD                Profile RMS along major axis (world units)                 [deg]
#   8 B_WORLD                Profile RMS along minor axis (world units)                 [deg]
#   9 THETA_WORLD            Position angle (CCW/world-x)                               [deg]
#  10 FWHM_WORLD             FWHM assuming a gaussian core                              [deg]
#  11 ELONGATION             A_IMAGE/B_IMAGE                                           
#  12 ELLIPTICITY            1 - B_IMAGE/A_IMAGE                                       
         1 -13.1596     67.5305    144.7069   1.3097049774e+02   3.7111448282e+01     1.180488    0.6481661  78.45  0.004982525    2.741    0.635
         2 -13.7704      6.0528     11.7136   1.2711619001e+02   7.4440111329e+01     2.430007    0.7540972 -51.03   0.01086073    2.252    0.556
         3 -14.3062    200.1018     15.9639   6.5164752178e+01   3.2855287938e+01     2.649066     1.541402  23.70   0.01068577    2.413    0.586
         4 -13.5426    205.1574      9.6155   6.2887960020e+01   3.2256603512e+01     1.266825    0.6570485  43.18  0.001398566    2.314    0.568
         5 -13.3420     80.7112    247.7774   1.3807971939e+02   1.6202578417e+01    0.7722727    0.3512398  34.48  0.004765827    1.657    0.396
         6 -11.3324    247.7927    249.7205   1.0905041889e+02  -4.0464039395e+00    0.4187821    0.1262037  30.14   0.00227197    2.560    0.609
         7 -11.4416    126.9005    249.0394   1.2965971581e+02   1.0583270888e+01    0.2948264    0.2032767  -8.26  0.001986778    2.052    0.513
         8 -12.5217    127.8648    244.2535   1.2901290092e+02   1.1101142295e+01    0.4500187    0.1683203  28.90  0.002239162    2.393    0.582
         9 -12.9227    100.0415    247.9175   1.3451953231e+02   1.3969012967e+01    0.5555497    0.3046775  35.39  0.003690362    1.357    0.263
        10 -15.0607     31.7265    247.5924   1.4690548956e+02   2.1230682589e+01     8.769934     2.535037  22.38   0.02894958    8.224    0.878
        11 -11.5733    138.2710    249.4141   1.2761485361e+02   9.1308455567e+00    0.3225716    0.1443499  38.92  0.001908155    1.708    0.415
        12 -10.6619    144.1490    243.1560   1.2587566563e+02   9.1951900501e+00      0.16639     0.120918  21.02  0.000463977    1.174    0.148
        13 -11.0405     33.1737    228.8561   1.4585811649e+02   2.4088798625e+01    0.2073847    0.1563001  74.93 0.0006238892    1.250    0.200
        14 -11.2111     35.4936    225.4907   1.4526145465e+02   2.4435338163e+01    0.2091437     0.166788  37.29 0.0009821494    1.231    0.188
        15 -15.8373      3.4529    235.7576   1.5148250532e+02   2.5516173206e+01     10.34023     0.874561 -78.03   0.03699742    8.452    0.882
        16 -15.1291     51.0697    219.1058   1.4186611572e+02   2.3987513144e+01     2.219986     1.463351  45.28   0.01228239    1.187    0.158
        17  -9.0880     94.7906    216.8817   1.3279518744e+02   1.9365994038e+01    0.1556514    0.1120761  56.67 0.0003727866    1.367    0.269
        18 -10.5812    193.1466    195.3359   1.1004203957e+02   8.7961177092e+00    0.6279669     0.357354 -59.99  0.001977933    8.386    0.881
        19 -11.4997     68.7982    195.3978   1.3633460596e+02   2.6345039365e+01     0.336723    0.2300745 -37.71  0.001611412    2.036    0.509
        20 -11.6644     73.7906    188.2052   1.3452216865e+02   2.7133439554e+01    0.2701749    0.2214152 -45.00 0.0005518461    1.479    0.324
        21  -9.3357    113.7635    193.1089   1.2607061387e+02   2.0938706882e+01    0.2373946    0.1514814   9.27  0.001209698    2.157    0.536
        22  -9.3088    125.4411    185.3812   1.2241610812e+02   2.0617300945e+01    0.2522664    0.1096003  23.11 0.0009475595    3.251    0.692
        23 -10.8134     82.5428    176.0464   1.3113403509e+02   2.8446479974e+01    0.2210508    0.2079239  61.25 0.0004298436    1.064    0.060
        24 -13.2397     70.1096    173.5483   1.3385182687e+02   3.0521319330e+01    0.4629959    0.2643487 -42.31  0.001591608    2.305    0.566
        25 -11.0891    126.9140    174.1792   1.2038487350e+02   2.2425471915e+01    0.4204346    0.1675736  32.49  0.001722255    2.400    0.583
        26 -12.3640     58.3554    132.7277   1.3190080306e+02   4.0996953861e+01    0.9064381    0.3358279 -77.63  0.002966457    4.135    0.758
        27 -12.4723     89.0741    167.1141   1.2840386530e+02   2.9399109399e+01      1.62671    0.4822208  44.77  0.005848556    3.320    0.699
        28 -12.2430     75.5943    242.4822   1.3866280323e+02   1.7558628567e+01    0.4310465    0.2429758 -74.33  0.002891991    2.248    0.555
        29  -9.3877    103.9694    146.7523   1.2145113481e+02   3.1500058169e+01    0.3615912    0.1966362 -29.76  0.001414892    2.964    0.663
        30 -11.9627     90.0831    150.2535   1.2569056413e+02   3.2835125085e+01    0.2670354     0.239536 -12.50 0.0005130213    1.275    0.216
        31 -11.9235     43.0238    149.0395   1.3818397728e+02   3.8876856815e+01    0.4621339    0.2485118  42.93  0.002423105    1.728    0.421
        32  -8.7555    192.0453    144.0506   1.0052355145e+02   1.6504672687e+01    0.1643927    0.1403918   1.70 0.0003885466    1.013    0.013
        33  -9.9289    111.5654    136.4215   1.1752228963e+02   3.2477847087e+01    0.3060817    0.2254744 -11.87  0.001241523    1.786    0.440
        34 -10.5271     99.2527    133.5269   1.2030462914e+02   3.5126197507e+01    0.2732497    0.2160007 -24.61 0.0006306585    1.482    0.325
        35  -9.6485    134.4039    148.6465   1.1412516568e+02   2.6058781773e+01    0.2515892    0.1377267 -52.52 0.0007808722    2.079    0.519
        36 -14.2826     10.1498    207.1125   1.4942076002e+02   2.9886600866e+01      2.28454     1.456682 -28.15    0.0141141    2.949    0.661
        37 -11.4919     50.0537    130.0051   1.3397655398e+02   4.2575641012e+01    0.2982007    0.2233073  66.19 0.0006972984    1.359    0.264
        38  -9.4712    108.1160    123.4950   1.1579679110e+02   3.5873633871e+01    0.2000636    0.1890903 -39.61 0.0003261272    1.068    0.064
        39 -11.8048     32.9448    156.2252   1.4149089101e+02   3.8225855684e+01    0.4242829    0.1622753 -79.54  0.001887079    2.626    0.619
        40 -11.2105    168.2163    113.4253   9.8331490526e+01   2.6247295146e+01    0.3531179    0.3044134 -59.49 0.0008004277    1.448    0.309
        41 -13.7550     45.6457    229.6525   1.4353477387e+02   2.2753549159e+01    0.9924726    0.2997885  39.31  0.001431889    2.242    0.554
        42 -10.0490    101.1893    150.9761   1.2289746088e+02   3.1030705911e+01    0.2707805    0.2405502  23.76 0.0008033013    1.129    0.114
        43 -11.5986    105.9090    246.3770   1.3330162336e+02   1.3491418270e+01    0.2021555    0.1473783  49.13 0.0007375597    1.256    0.204
        44 -12.3539     69.2734    235.0919   1.3935228871e+02   1.9398024572e+01    0.5574149    0.2750207  82.14  0.003056203    3.029    0.670
