#   1 NUMBER                 Running object number                                     
#   2 MAG_AUTO               Kron-like elliptical aperture magnitude                    [mag]
#   3 X_IMAGE                Object position along x                                    [pixel]
#   4 Y_IMAGE                Object position along y                                    [pixel]
#   5 X_WORLD                Barycenter position along world x axis                     [deg]
#   6 Y_WORLD                Barycenter position along world y axis                     [deg]
#   7 A_WORLD                Profile RMS along major axis (world units)                 [deg]
#   8 B_WORLD                Profile RMS along minor axis (world units)                 [deg]
#   9 THETA_WORLD            Position angle (CCW/world-x)                               [deg]
#  10 FWHM_WORLD             FWHM assuming a gaussian core                              [deg]
#  11 ELONGATION             A_IMAGE/B_IMAGE                                           
#  12 ELLIPTICITY            1 - B_IMAGE/A_IMAGE                                       
         1 -12.3943    174.7567     41.4672   1.1250260154e+01   3.6064141496e+01     1.168948     1.036299  11.42  0.005127264    1.570    0.363
         2 -12.8010    188.7745     34.2300   7.8249322822e+00   3.3761454847e+01     1.265037    0.8530931  28.54   0.00500775    2.629    0.620
         3 -14.3980    204.6469     66.5593   1.4325458394e+01   2.5879877736e+01      1.41411    0.7539057 -48.09  0.006118224    1.588    0.370
         4 -13.5325    217.1082     56.3643   1.0647107373e+01   2.4825129017e+01     1.119988    0.8829436  -7.36  0.004142892    1.775    0.437
         5 -13.0722    208.9452     46.3783   9.0415222662e+00   2.7806090485e+01     1.314817    0.7380075 -60.57  0.006855031    1.654    0.395
         6 -14.9338     65.9453     82.8921   5.2118922284e+01   5.4149160770e+01      2.91371     1.748803  63.24   0.01127855    2.196    0.545
         7 -11.2728     30.5211     20.4231   4.4924792020e+01   7.4123812325e+01    0.9192735    0.4873804 -45.93  0.004358237    1.973    0.493
         8 -11.6152     45.6479     28.5675   3.9961513466e+01   6.9933762672e+01     2.850135     1.820789 -32.78   0.01386007    1.744    0.427
         9  -8.7656     92.2816     34.1845   2.3730926418e+01   5.8246826016e+01     1.249029    0.7696206 -70.73  0.005189734    2.200    0.546
        10 -11.8681     85.3569      1.8636   9.8879275959e+00   6.3872339316e+01    0.7382022     0.180601  61.54  0.001207862    2.993    0.666
        11 -13.9200      9.8352     44.2668   7.2034623113e+01   7.1312119544e+01     2.096771     1.452925  68.25   0.01090032    1.759    0.431
        12 -12.3096     25.8559     41.1528   5.9116845774e+01   7.0518074012e+01     1.505309    0.7189617 -49.50  0.006574546    2.000    0.500
        13 -12.1019     12.0972     25.1446   6.3122022275e+01   7.5590682975e+01    0.5405892    0.4489768  29.05 0.0008120807    1.249    0.199
        14 -13.8004     36.5358     56.6477   5.8140438306e+01   6.5463312583e+01     1.707271     1.500588  13.10   0.00855157    1.185    0.156
        15 -14.1249     63.6696     33.2869   3.3465431289e+01   6.5324164974e+01     3.636038    0.9893453 -36.85   0.01087561    4.240    0.764
        16 -13.2767     78.6969     23.2152   2.2653890647e+01   6.3267458770e+01     1.277018    0.8789777  65.64  0.006358445    1.360    0.265
        17 -13.8574     79.4831     43.9787   3.2213500241e+01   5.9794301480e+01     1.419001     1.210486  89.00  0.006243268    1.255    0.203
        18 -12.3029     79.1639      9.4399   1.5317615015e+01   6.4785271003e+01     1.873542    0.6691946  65.07  0.002072457    2.405    0.584
        19 -11.6557    211.1118     21.3738   2.8815156860e+00   3.0433964418e+01    0.5031503     0.433027   7.43  0.003099819    1.749    0.428
        20 -11.4647    103.3051     26.6676   1.7651855629e+01   5.6436053727e+01    0.5331722    0.3579685 -53.50  0.001425127    1.544    0.352
        21 -12.4902    244.0384     22.4196   1.2987324636e+00   2.3922157754e+01    0.5744432    0.3155248  84.53  0.002912422    1.997    0.499
        22 -12.5066    221.5453      8.5606   3.5934676783e+02   2.9695232424e+01    0.5893062    0.1795857 -47.48  0.001995075    2.189    0.543
        23 -11.1454    230.4332      1.5277   3.5743560605e+02   2.8665325016e+01    0.3704899     0.115041 -87.84  0.001637317    3.504    0.715
        24 -13.9182    244.4979      8.5908   3.5841487099e+02   2.5321629514e+01     1.119111      0.41067 -70.59  0.005646954    2.688    0.628
        25 -12.4206    228.8443     10.2609   3.5940250510e+02   2.8078279042e+01    0.5415199    0.2595753 -62.43  0.001867182    1.707    0.414
        26 -12.7632    226.2976     22.7042   2.2881645898e+00   2.7214375790e+01    0.4142385      0.34415  86.54  0.001932475    1.363    0.267
        27 -12.3482    176.5766     23.3690   5.9815208709e+00   3.7936331235e+01    0.3548059    0.2924142  39.47  0.002081445    1.670    0.401
        28  -9.7164     19.9850     19.6873   5.2996257646e+01   7.5834584941e+01    0.6409882    0.2054733 -49.87  0.002058897    3.023    0.669
        29 -11.9284    108.5242      9.4698   9.2922572914e+00   5.7014019912e+01    0.5121697    0.2678604 -25.65 0.0007306343    2.107    0.526
        30 -11.5229    123.5393     22.9654   1.2263728622e+01   5.1516385580e+01    0.6353622    0.3557489 -37.07  0.002923048    1.775    0.437
        31 -10.7924    111.1144      4.2616   6.7026590514e+00   5.6805161525e+01    0.6538582    0.2862625 -84.21  0.002495122    2.633    0.620
        32 -12.6388    115.4571     11.4889   9.0492056967e+00   5.4954465959e+01    0.7034381    0.5013276 -26.88  0.001202403    1.569    0.363
        33 -10.6804    118.9889      6.9892   6.7501252160e+00   5.4448857894e+01    0.1963207    0.1650364 -88.03            0    1.019    0.019
        34 -11.6804    125.3003     14.4583   8.7822257927e+00   5.2014177601e+01    0.3688004    0.2703625 -23.83 0.0008166865    1.575    0.365
        35 -10.6174    125.2260      9.8740   7.0584822585e+00   5.2505834456e+01     0.666527    0.3563006  32.96  0.001835081    3.028    0.670
        36 -10.4733    202.9373     16.5971   2.2310910283e+00   3.2709642051e+01    0.4331011     0.191796 -80.61  0.002028529    2.369    0.578
        37 -12.2479     51.1561     19.6897   3.1736658403e+01   7.0260384273e+01     1.232335    0.7826468 -86.61  0.004776251    3.394    0.705
        38 -11.6587     94.3495     15.8068   1.4828683103e+01   6.0131070327e+01    0.2780634    0.2520206  83.71  0.001610955    1.024    0.023
        39 -10.0876    187.2507     14.1138   2.6151465005e+00   3.6484144893e+01    0.2466817    0.1289153 -34.95  0.001262713    1.712    0.416
        40 -11.2883    141.2481     14.1766   6.6808460145e+00   4.7833612280e+01    0.2044203    0.1947352  88.15 0.0004194254    1.196    0.164
        41 -11.0701    150.1460     13.2299   5.4210912721e+00   4.5631829437e+01    0.2565448    0.1878192 -44.15 0.0009757875    1.297    0.229
        42 -10.6584    146.7711     12.3942   5.4885008512e+00   4.6588147250e+01    0.2114139    0.1589231 -71.48  0.001175018    1.147    0.128
        43  -9.5157    133.3434     12.1681   6.8983978293e+00   5.0120271578e+01     0.197008    0.1119585 -41.34 0.0009378227    1.672    0.402
        44 -10.4986     87.8255     11.8592   1.4421395854e+01   6.2278992106e+01    0.2993966    0.1924343  78.13  0.001458054    1.480    0.324
        45 -10.2650    101.7004      9.8561   1.0622848642e+01   5.8802873118e+01    0.2513945    0.1702246  61.60 0.0006133097    1.357    0.263
        46  -7.1415    100.4702      5.9902   9.0944033265e+00   5.9499488278e+01    0.3205641    0.1501001 -62.74  0.001259596    2.586    0.613
        47 -11.0074     26.2682      9.8061   4.0746853815e+01   7.6638557778e+01    0.2602147    0.1994457   8.23  0.000863516    1.415    0.293
        48 -11.3830    193.8796      7.7959   5.5353407445e-01   3.5648149429e+01    0.2468017    0.2147696  77.83 0.0009546927    1.349    0.259
        49 -13.0414    173.2692      5.4868   1.1854655372e+00   4.0671892248e+01    0.4947472    0.2980032 -15.79  0.002529094    2.155    0.536
        50 -11.1136     47.4084      8.2312   2.6039728769e+01   7.2638535989e+01    0.3187019    0.2987612  18.23   0.00112621    1.094    0.086
        51  -9.8909    216.0126      8.2630   3.5953172024e+02   3.0847878810e+01    0.1631441    0.1184826 -63.58 0.0003552374    1.082    0.076
        52  -9.3673    156.5978      8.0723   3.1916066465e+00   4.4521949940e+01    0.1567303    0.1297918  -6.21 0.0006611865    1.612    0.380
        53  -9.5794    131.5008      8.4625   5.7759719034e+00   5.0979387430e+01     0.141526    0.1188653 -80.86 1.611211e-05    1.005    0.005
        54 -11.2095      3.8543      5.6518   6.0808982881e+01   8.0365882228e+01    0.3561206    0.1930756  -2.38  0.001291962    2.204    0.546
        55  -9.0288    188.0766      4.0440   3.5990245470e+02   3.7341962073e+01    0.3122296   0.09016037 -44.19  0.001287136    2.429    0.588
        56  -9.6352    183.4582      3.5372   2.4809720917e-02   3.8456362211e+01    0.2794911    0.1878149 -76.29 0.0008299322    1.255    0.203
        57 -11.2151    217.0220      2.1390   3.5807668184e+02   3.1265474616e+01    0.3958396    0.1837215  80.89  0.002157275    2.170    0.539
        58 -10.9013     46.4300      2.2255   2.2122202797e+01   7.3535682392e+01    0.3323504    0.2020284  42.31   0.00142005    1.549    0.355
        59  -9.8398    126.5105      1.9069   3.9024429743e+00   5.2904731741e+01    0.2318492    0.1610344 -69.89  0.001240399    1.297    0.229
        60  -9.5252      8.5072      1.3956   5.1457979494e+01   8.0658296119e+01    0.1233679    0.1040266  -0.05 -0.0001533866    1.061    0.057
        61  -9.6708    203.0164      1.0000   3.5839641909e+02   3.4320635874e+01    0.1691515   0.06166926  83.09 0.0003417644    2.662    0.624
        62 -12.0420    229.7023     47.8038   7.6464171892e+00   2.3536242543e+01    0.3510059    0.2924404 -21.91  0.001305361    1.449    0.310
        63 -11.8463    234.2202     46.1632   6.9490119790e+00   2.2905780041e+01    0.3176205    0.1977245 -72.56 0.0009982742    1.638    0.389
        64 -10.7260    170.4367     98.0128   2.7058535622e+01   2.7911858610e+01    0.3587634    0.2393145 -49.01  0.001763921    1.400    0.286
        65 -11.3161     56.7112     99.4336   6.0394260760e+01   5.1411224185e+01    0.3054829    0.1413646  37.02  0.001135637    2.069    0.517
        66 -10.4134     46.2847     99.0477   6.4764081221e+01   5.3054454512e+01    0.2166884    0.1925316 -82.51 0.0003502266    1.091    0.084
        67 -12.0668     11.7330     97.3913   8.0340333947e+01   5.7059827507e+01    0.4953166    0.3031938 -60.39  0.002357734    1.544    0.352
        68 -11.1896    141.0970     96.0522   3.2467088247e+01   3.4761425706e+01    0.4107936     0.341881  77.84  0.001626733    1.274    0.215
        69  -9.9349    236.7026    145.9832   2.7131323400e+01   8.6192162768e+00    0.1621705     0.121298 -28.93 0.0003746281    1.062    0.058
        70 -14.2771     10.3575     69.7191   7.7237835519e+01   6.4724642193e+01     2.661535     1.310346  12.69   0.01158448    2.191    0.544
        71 -12.2032     90.4694     51.0961   3.1416669194e+01   5.5849760958e+01    0.2949722    0.2590895 -60.45  0.001536022    1.158    0.136
        72  -9.4072    184.7479    134.9685   3.2984236199e+01   1.8452965578e+01    0.1743279      0.10597 -39.17 0.0004598406    1.505    0.335
        73 -14.1259     37.9922     80.3603   6.4361138855e+01   5.9216179822e+01     2.066683     1.121886 -39.45  0.008277157    2.193    0.544
        74 -11.6437     73.0188    119.0940   5.8482289793e+01   4.3456015863e+01    0.2628921    0.2310127  63.04  0.001319391    1.095    0.087
        75 -10.6567    181.4284    119.0051   3.0086404608e+01   2.1902923015e+01    0.2420202    0.1958938  76.27 0.0005759876    1.537    0.349
        76 -14.1338     77.3998     58.8623   3.9159727151e+01   5.7375032796e+01      1.62217    0.5658955  50.45    0.0036712    2.889    0.654
        77 -10.3704    182.8708    115.7001   2.9084249458e+01   2.2216177643e+01    0.3388742     0.229389  62.21  0.001720929    1.793    0.442
        78 -12.8048     51.2876     44.8455   4.5069537387e+01   6.5700450064e+01     1.225268     0.515951  32.80  0.001642396    2.921    0.658
        79 -12.5775      4.1224     57.0155   7.8953042720e+01   6.8409587304e+01    0.8648664    0.5374021 -33.42  0.004370094    1.639    0.390
        80 -10.1312    203.1509    115.8666   2.5845921477e+01   1.8442280911e+01    0.3085758    0.1809507  74.17  0.001339353    3.183    0.686
        81 -10.9431     93.1931    116.0429   5.0920250926e+01   4.0540038303e+01      0.25679    0.2240173  43.51 0.0003172377    1.138    0.121
        82 -13.0815     14.2746     34.7758   6.5370552627e+01   7.3227336870e+01    0.6156958    0.5754653  12.97   0.00175445    1.095    0.087
        83 -11.0071    163.2849    114.9264   3.2545796485e+01   2.6239166773e+01    0.2109443    0.1803119 -45.06 0.0007130677    1.102    0.092
        84 -12.6271     58.4150     62.2022   4.8605415055e+01   6.0547141590e+01     1.103031    0.8219794 -48.02  0.005361036    1.368    0.269
        85 -10.4337    143.0441    113.0405   3.6425264155e+01   3.0841373648e+01    0.2319732     0.224418 -70.07 0.0006515448    1.007    0.007
        86 -13.0818     61.7504     44.3539   3.9673311219e+01   6.3710695248e+01    0.8374544    0.5643578 -85.54  0.002115378    2.529    0.605
        87 -11.5886     81.0196    111.4523   5.3930250535e+01   4.4031680213e+01    0.5068973    0.2273535 -43.96  0.001710895    2.679    0.627
        88  -9.1614    191.2686    112.7096   2.6999847228e+01   2.1141390749e+01    0.1301412    0.0979685 -63.43 0.0002389693    1.507    0.336
        89 -11.9586     75.9861     52.0330   3.6970931376e+01   5.9083027945e+01    0.2962609     0.266621 -61.10 0.0003472008    1.143    0.125
        90 -11.3592    197.1430    108.4789   2.5123605702e+01   2.0754196491e+01    0.4838125    0.3191599 -73.70  0.002325701    2.285    0.562
        91  -9.1481    237.2486     96.3282   1.7324340099e+01   1.5624791442e+01    0.1131264   0.08299141 -16.93 0.0002784961    1.544    0.352
        92  -9.5730      3.0408     95.9973   8.4293247481e+01   5.7951484546e+01    0.1652605     0.152395  85.34            0    1.023    0.023
        93 -10.4539    250.3174     94.1677   1.5547002089e+01   1.3876381064e+01    0.2285874    0.1163908 -40.19 0.0007385918    1.471    0.320
        94 -11.8667     54.6536     93.8394   5.9927930665e+01   5.3233629632e+01    0.3405576    0.2675315 -85.11  0.001629316    1.347    0.258
        95 -11.7796     49.4160     94.9225   6.2473295106e+01   5.3733948080e+01     0.331214    0.2531173  66.19 0.0006152742    1.392    0.282
        96 -11.9903     45.7240     91.5725   6.3351772331e+01   5.5167331901e+01    0.4200617    0.3241597 -61.87  0.001785283    1.265    0.210
        97 -10.1292    244.4962     97.7613   1.6848340546e+01   1.4279006775e+01    0.3004167   0.09755967 -32.87  0.001292494    2.656    0.623
        98 -11.8034    215.7711     91.4826   1.8761012335e+01   2.0015572834e+01    0.3930371    0.2075339 -25.60  0.001853982    2.171    0.539
        99 -11.2333    212.3929     89.2657   1.8682615494e+01   2.0972639411e+01    0.2333581    0.1273011 -49.64 0.0009038222    1.664    0.399
       100 -10.7988    226.4599     92.0689   1.7627050764e+01   1.8036192885e+01    0.2541522    0.1697755  84.91  0.001050508    2.114    0.527
       101 -12.8169    194.9544     67.8340   1.5779278532e+01   2.7700565690e+01    0.6999567    0.4468559  68.75  0.003713794    1.729    0.422
       102 -10.2311    172.5047     90.5742   2.4819271306e+01   2.8799591234e+01    0.2417945    0.1823231  73.78 0.0005658201    1.485    0.327
       103 -10.3425    168.1933     90.1366   2.5457102141e+01   2.9816308601e+01    0.3449904    0.2381376  75.73  0.001662088    1.728    0.421
       104  -9.9086     79.4336     91.0814   4.9184095765e+01   4.9513040965e+01    0.2453578    0.2154649  31.26  0.001209131    1.231    0.188
       105 -12.1756    223.7155     87.1011   1.6865863915e+01   1.9240491096e+01    0.4558659    0.2888044  32.34  0.002397126    2.514    0.602
       106 -10.7694      7.2206     89.0586   8.1596003301e+01   5.9647234843e+01    0.3027827    0.1369222  74.47  0.001139573    2.499    0.600
       107 -11.5279    245.3223     80.6309   1.3298653637e+01   1.6483034191e+01    0.5013255    0.2370572 -63.00  0.002317334    3.151    0.683
       108 -11.1561    110.6243     86.9462   3.7654247312e+01   4.3704993087e+01     0.335178     0.323907  27.07  0.001220489    1.178    0.151
       109 -10.9941    105.8525     86.8202   3.9022443020e+01   4.4828322985e+01    0.5292445    0.3328469 -70.82  0.002055105    2.140    0.533
       110 -12.4210    114.7884     81.1799   3.4719208376e+01   4.3968688899e+01     0.745517    0.5611717 -29.72  0.002325244    1.609    0.378
       111 -10.4434    112.9944     75.4363   3.3399439687e+01   4.5590041685e+01    0.2832785    0.2249624 -26.21 0.0006008517    1.553    0.356
       112 -11.4483     51.8332     86.9104   5.9420407592e+01   5.5512997258e+01    0.3022071    0.2521671 -20.97 0.0002842392    1.435    0.303
       113 -11.6153     48.0498     85.0825   6.0684109464e+01   5.6569643935e+01     0.319509    0.2662895  43.50 0.0007118891    1.191    0.160
       114 -11.5811    237.9494     86.4707   1.5213723017e+01   1.6892008079e+01    0.2429106    0.2144535 -85.48 0.0008713182    1.339    0.253
       115 -12.0177    234.1336     85.1665   1.5330025296e+01   1.7712685106e+01    0.4220788    0.2642612 -82.74  0.001806231    2.343    0.573
       116 -11.8245    175.6933     85.8392   2.3078639616e+01   2.8933342498e+01    0.5684116    0.3761375  28.06  0.001126577    2.419    0.587
       117 -11.8489    161.3383     84.7807   2.5279746071e+01   3.2308382686e+01    0.6905466    0.4755315  46.09  0.003070501    1.646    0.393
       118 -11.1717    248.0218     87.3138   1.4400456862e+01   1.5154186935e+01    0.2221477    0.1274056 -41.75 0.0003750665    1.319    0.242
       119 -11.5109    147.5379     84.5108   2.7887830373e+01   3.5537900980e+01    0.4824321    0.3941988  84.43  0.001460511    1.289    0.224
       120 -11.3976    147.1261     79.2962   2.6493055043e+01   3.6611865324e+01    0.3594209    0.2748403 -53.07  0.000900236    1.240    0.194
       121 -13.0077    220.1969     80.8050   1.5874596141e+01   2.0792208790e+01    0.4894864    0.2975276 -14.87  0.001491901    2.490    0.598
       122 -12.8434    220.5175     69.6026   1.3334220502e+01   2.2337964761e+01    0.4009541    0.2839839 -63.49   0.00125802    1.370    0.270
       123 -13.7579    175.1339     70.6203   1.9191092729e+01   3.1602802864e+01     2.676194     1.272381  83.12  0.008959325    3.986    0.749
       124 -13.3919    194.6055     47.0576   1.0583612450e+01   3.0766917841e+01     1.069048    0.6188278 -84.35  0.003624218    1.949    0.487
       125 -11.9237    238.1090     80.8829   1.4032965555e+01   1.7637668252e+01    0.2322467    0.2014711  -7.18  0.000382377    1.448    0.310
       126 -12.3720    168.9845     79.4302   2.2511584716e+01   3.1520156472e+01    0.7009834    0.3903051 -48.62  0.001619739    1.668    0.401
       127 -11.9741     96.7610     69.5446   3.6257901363e+01   5.0686486742e+01    0.5965878    0.5173834 -14.72  0.002688819    1.463    0.316
       128 -10.6642     99.4371     80.8130   3.9142067496e+01   4.7630700020e+01    0.4182585    0.2662157  51.98  0.001724276    1.545    0.353
       129 -11.0864     99.4647     76.7644   3.7828189785e+01   4.8512819339e+01    0.4196196    0.2815873 -33.01  0.001649898    1.820    0.451
       130 -10.8424     96.1191     75.5602   3.8503483461e+01   4.9548006362e+01    0.3315529    0.2667176  67.20 0.0008763287    1.261    0.207
       131 -12.7941     49.2082     54.3794   5.0212920945e+01   6.4001821251e+01     1.187485    0.5023519  36.98  0.004469609    2.341    0.573
       132 -12.5044     73.6415     74.3764   4.6255075480e+01   5.4724285884e+01    0.7970753    0.5499882  48.29  0.002526962    1.422    0.297
       133 -10.9070     86.7982     74.2461   4.1234463771e+01   5.1947220654e+01    0.5474287    0.2735012 -47.18  0.001933402    2.043    0.510
       134 -10.9895     82.9996     72.9469   4.2168599293e+01   5.3075398078e+01    0.3750698    0.3308373  28.68 0.0009932136    1.275    0.215
       135 -10.3422    155.9702     76.8214   2.4080167063e+01   3.4973268126e+01    0.3344846    0.2007829  71.67   0.00105421    1.920    0.479
       136 -10.4024    103.9991     75.5617   3.6035665600e+01   4.7709609572e+01    0.2553986    0.2228072 -38.24 0.0005431474    1.257    0.204
       137 -10.1220    106.2270     72.2171   3.4267755829e+01   4.7878892274e+01    0.2596033    0.1175861 -53.26 0.0008884244    2.488    0.598
       138 -13.1765    187.1397     59.8280   1.4713593727e+01   3.0591731750e+01     1.144772    0.8174653  65.81  0.006325941    1.512    0.339
       139 -11.3237    124.3053     69.4156   2.8532210549e+01   4.4015598291e+01    0.5275893    0.3005925 -77.14  0.001324753    3.159    0.683
       140 -13.6946    116.9682     61.6287   2.7750418938e+01   4.7305013265e+01    0.9235777    0.8316975 -37.77  0.002116919    1.223    0.182
       141 -12.1365    137.2068     71.8132   2.6347344803e+01   4.0388375188e+01     1.393674    0.5158454  60.72  0.004625318    2.948    0.661
       142 -12.1120    144.8963     68.3058   2.3707786535e+01   3.9138196349e+01    0.6514456    0.5685499  47.36  0.002583419    1.304    0.233
       143 -11.7586    155.0520     65.6432   2.1043529670e+01   3.7126307333e+01    0.9633169    0.5391809 -52.38  0.004209215    1.746    0.427
       144 -11.4767     82.3511     77.6990   4.3995153894e+01   5.2128284668e+01    0.4075612    0.3914975 -48.86  0.001116057    1.114    0.102
       145 -11.5677     91.2104     66.2434   3.6919637382e+01   5.2678895069e+01    0.3809423    0.3326108  21.16  0.001435964    1.395    0.283
       146 -10.8807     62.7793    110.3897   6.0421016479e+01   4.7490477080e+01    0.2183469    0.1534707  21.00 0.0009190062    1.649    0.393
       147 -10.8300    140.9541     61.7346   2.2462803738e+01   4.1254421996e+01    0.3303845    0.2211727  70.38 0.0004046789    1.514    0.339
       148 -10.0671    136.6280     62.1001   2.3442816493e+01   4.2273313249e+01    0.2845252     0.228406 -56.59 0.0005776772    1.185    0.156
       149 -10.4904    137.1645     58.1143   2.2061029381e+01   4.2821005372e+01    0.3107297    0.2429356 -64.06 0.0008943626    1.237    0.191
       150 -11.4170     98.3370     54.1671   3.0160824711e+01   5.3346854653e+01    0.7817222     0.288573 -45.83  0.002626646    2.802    0.643
       151 -10.5822    102.0131     53.4995   2.8829493159e+01   5.2552970202e+01    0.7807347    0.3794214 -38.11  0.003016981    2.175    0.540
       152 -10.9527    127.2794     58.7745   2.4348683823e+01   4.5211328211e+01    0.4632188    0.2773653  41.01   0.00181906    2.121    0.529
       153 -10.3476    146.9976     57.1401   1.9907605253e+01   4.0513027496e+01    0.5035487    0.3335505  13.56  0.001920024    3.208    0.688
       154 -11.7316    174.3769     56.2921   1.5417264131e+01   3.4021211666e+01    0.4074508    0.2965655  44.90  0.001057789    1.744    0.427
       155 -11.3665    162.2393     56.7104   1.7273142675e+01   3.6836837389e+01    0.4812752    0.3939109 -83.32  0.002190632    1.164    0.141
       156  -9.8004    155.1119     54.6360   1.7774273976e+01   3.8899890169e+01    0.2596145    0.1838537  50.42 0.0007540147    1.610    0.379
       157 -12.6915    104.4219     65.9413   3.2655879186e+01   4.9587296691e+01    0.5558386    0.4512532  35.46 0.0003438671    1.436    0.303
       158 -10.6606    137.7569     52.9744   2.0282282540e+01   4.3520270344e+01    0.4000373    0.2046235  75.11 0.0008132573    2.265    0.559
       159 -10.4159    142.7207     54.3209   1.9793385586e+01   4.2043695601e+01    0.3479817     0.227451 -46.27 0.0009517896    1.449    0.310
       160 -11.6490    146.0636     52.1177   1.8505032090e+01   4.1551445935e+01    0.5305341    0.3181849  35.30  0.001628726    2.661    0.624
       161 -10.3356    167.6493     51.7574   1.5064427304e+01   3.6290559812e+01    0.2676752    0.2021544  41.01 0.0007856119    1.738    0.425
       162 -10.2539    161.6403     49.2734   1.5188742184e+01   3.8114325163e+01    0.2954405    0.2271156   3.03  0.001454485    2.012    0.503
       163 -10.5930    133.6656     46.3280   1.8846461944e+01   4.5621948354e+01    0.3900515    0.2216773 -56.33  0.001443275    1.834    0.455
       164 -10.5134    135.4916     43.4600   1.7540062325e+01   4.5585682738e+01    0.3361606    0.2503984  73.39  0.001699153    1.277    0.217
       165 -11.1739    133.2152     40.3849   1.6896855046e+01   4.6632059445e+01    0.6611816    0.2429639  61.69   0.00241143    2.508    0.601
       166  -9.4977     99.0000     47.0007   2.7169514158e+01   5.4460773023e+01    0.3492567    0.1562126 -43.55  0.001312128    2.272    0.560
       167  -9.7631     99.8352     42.0502   2.4942683549e+01   5.5076612412e+01    0.3979557    0.2657378  -0.18  0.001224568    2.760    0.638
       168 -10.4788    155.1865     42.7799   1.4160105699e+01   4.0658510314e+01    0.7088824    0.4700506  29.08  0.003119339    2.517    0.603
       169 -11.4986    149.8214     41.8866   1.4669995679e+01   4.2138792171e+01    0.5820462    0.3928118 -32.45  0.002870797    1.561    0.359
       170 -10.6898    146.4605     39.5390   1.4429073973e+01   4.3329271709e+01    0.3222201    0.2879718  -4.45 0.0005914285    1.462    0.316
       171 -11.1938    161.3311     40.3350   1.2576222497e+01   3.9473523970e+01    0.5268956    0.2566094  48.05  0.002121111    2.673    0.626
       172 -11.3834    158.1756     36.3665   1.1787106715e+01   4.0800580019e+01    0.3579415    0.1990715  77.88 0.0008223676    1.792    0.442
       173 -11.3667    161.4644     35.5321   1.1118302482e+01   4.0092986413e+01    0.3388832    0.2711975 -45.23  0.001420785    1.199    0.166
       174 -11.0616    142.2721     46.6937   1.7423530339e+01   4.3352707108e+01    0.2471032    0.2278286  61.60 0.0001820669    1.213    0.175
       175 -11.3743    144.9929     44.0123   1.6102709724e+01   4.3058783363e+01    0.2284913    0.2181104 -45.89  0.000332889    1.200    0.166
       176 -10.0453    121.6208     45.2130   2.0873048035e+01   4.8923624354e+01    0.3600124     0.280257 -45.93  0.001747027    1.284    0.221
       177 -10.2114    124.6665     42.6695   1.9324989783e+01   4.8523275757e+01    0.2316275    0.2113275  60.69  0.001266539    1.178    0.151
       178  -9.7892    105.3681     44.0462   2.4264563782e+01   5.3329463422e+01    0.3705066    0.2641747 -65.80  0.001732692    1.535    0.348
       179 -10.0328    250.1811     38.8476   4.3581751798e+00   2.0961823955e+01    0.1802167    0.1130233 -53.18  0.000786982    1.213    0.176
       180  -9.6701    114.4793     39.1181   2.0166167858e+01   5.1730223547e+01    0.2669059    0.1836219 -80.99  0.001222442    1.615    0.381
       181  -9.7952    123.0735     36.3743   1.7354139696e+01   4.9871263974e+01    0.3153817    0.1117813  57.70  0.001114171    2.579    0.612
       182 -10.6912    121.9480     32.8786   1.6273099970e+01   5.0658781291e+01    0.2522096    0.1976868 -50.71 0.0004344535    1.252    0.201
       183 -10.7159    131.6409     33.7009   1.4837169504e+01   4.7988712864e+01    0.3113611    0.1952469 -54.63 0.0007095526    1.559    0.359
       184  -9.5942    152.2817     33.9459   1.1810572264e+01   4.2610327518e+01    0.1616319    0.1165031 -44.04 0.0003839638    1.309    0.236
       185 -10.5041    112.3583     32.8974   1.8211377062e+01   5.3193847455e+01    0.2963649    0.2361532  55.22 0.0008506382    1.276    0.216
       186 -10.4041    171.4212     32.7053   9.1386156713e+00   3.8024261611e+01     0.441531    0.1563969  77.87  0.001610327    3.158    0.683
       187  -8.3140    247.5067     32.5053   3.2087150003e+00   2.2164863154e+01    0.1193456   0.08153664 -51.22 0.0008098679    1.062    0.058
       188 -10.8736    163.6331     31.1044   9.5333043236e+00   4.0132825603e+01    0.3497249    0.2107798 -67.80 0.0006543582    1.606    0.377
       189 -10.1630    241.8995     30.1313   3.0254068806e+00   2.3434854867e+01    0.2304032    0.1081887 -47.90  0.001082625    1.528    0.346
       190 -10.1582    237.9357     30.5287   3.3349085649e+00   2.4110282893e+01    0.2437936    0.1586445 -86.91  0.001506983    1.610    0.379
       191 -10.7741    226.9699     31.0701   4.1185306946e+00   2.6114174830e+01    0.3229477    0.1767708  71.76  0.001507774    2.049    0.512
       192  -9.7883    229.6804     28.3253   3.3413516734e+00   2.5914807267e+01    0.1820962   0.08655693 -46.23 0.0007761403    1.535    0.348
       193 -12.1239    161.0014    105.8118   3.0784212255e+01   2.8462796072e+01    0.3919054    0.2546217 -50.73 0.0007223006    1.496    0.331
       194 -10.9192    218.6013     29.3907   4.2809525308e+00   2.7964480472e+01     0.306605    0.2014727 -30.75  0.001835819    1.503    0.335
       195 -10.1511    212.7883     28.8307   4.5444480050e+00   2.9216310434e+01    0.2735688    0.1645101  60.44  0.001542151    2.019    0.505
       196 -10.8612    216.6756     24.9120   3.3658476610e+00   2.8879678301e+01    0.3383788     0.253291 -29.52   0.00136797    1.433    0.302
       197 -10.6120    152.3146     29.5525   1.0415169890e+01   4.3173039401e+01    0.2264092    0.1934436 -80.08 0.0001370089    1.036    0.035
       198 -11.1518    158.9151     26.0836   8.5461692324e+00   4.1936035273e+01    0.4119077    0.2098094 -29.49  0.001858502    2.034    0.508
       199 -11.5156    144.5530    103.2743   3.3604312825e+01   3.2524493353e+01    0.4900132    0.3363018 -31.98  0.002233255    1.647    0.393
       200 -11.6206     97.8899     22.0826   1.6891586734e+01   5.8453571118e+01     0.266243    0.2615893 -28.19  0.000555337    1.174    0.148
       201  -9.8652    102.4474     19.4987   1.4746249114e+01   5.7558251332e+01    0.2328432      0.16786  59.82  0.001184865    1.302    0.232
       202 -11.5572    135.2742     26.3230   1.1664636899e+01   4.7996392824e+01    0.4990233    0.3070223 -67.30  0.002058599    1.647    0.393
       203  -9.8991    114.1245     28.2163   1.5994919211e+01   5.3361963630e+01    0.1961419    0.1087975  65.46 0.0008526387    1.647    0.393
       204 -11.0052    112.6338     23.7794   1.4509962904e+01   5.4325641582e+01     0.385237    0.3258293  32.55  0.001721386    1.448    0.309
       205  -8.6785    233.9088     24.3765   2.2356413271e+00   2.5565679911e+01    0.2959296    0.1937379 -25.83  0.001840401    1.658    0.397
       206  -9.8491     85.3485    107.2750   5.1402446594e+01   4.4279436981e+01    0.1564929    0.1289351  -6.06  0.000332983    1.632    0.387
       207 -10.6626    209.9567    104.9419   2.2483977417e+01   1.8984652701e+01    0.3454449    0.2502381 -70.76  0.001942847    1.740    0.425
       208 -11.0507     17.1681    105.4756   7.8789430460e+01   5.4404990113e+01    0.4123273    0.2539639   9.48   0.00189268    1.863    0.463
       209 -11.2076    155.7993    105.1897   3.1679516613e+01   2.9693785259e+01    0.2004489     0.179135  -8.17 0.0006407385    1.322    0.244
       210 -10.7420    109.4288    104.6878   4.3027728270e+01   3.9950266081e+01    0.2870688    0.1534783 -54.16 0.0008145579    1.928    0.481
       211 -13.4545    121.9196     99.9865   3.8258615643e+01   3.8266498183e+01     1.759511    0.4788716 -48.76  0.004913007    3.781    0.736
       212 -13.6846    130.3579     95.2903   3.4797878358e+01   3.7365765628e+01     1.057735    0.9278906  -8.56  0.005327474    1.441    0.306
       213  -9.5926    167.5950     26.4612   7.7292036925e+00   3.9736727869e+01    0.2878202    0.1269476  78.31  0.001219464    2.265    0.559
       214 -10.3239    147.0086     25.7660   9.8670212020e+00   4.5006740535e+01    0.3195916    0.1817553  48.50 0.0009525446    2.145    0.534
       215 -10.4583     21.2519     25.9878   5.5521978152e+01   7.4401474655e+01    0.2645612     0.196053  25.68  0.000897993    1.316    0.240
       216 -11.7810    131.9939     83.0679   3.0903460195e+01   3.9487294993e+01    0.4286386    0.2799929 -40.26 0.0003345046    1.560    0.359
       217  -9.7705    153.4721     25.4886   8.9857980842e+00   4.3384386075e+01    0.1452726    0.1179632 -70.11 5.899384e-05    1.056    0.053
       218  -9.6739    191.8478     23.7826   4.8236161851e+00   3.4342559054e+01    0.1911915    0.1192398 -62.98 0.0004524516    1.368    0.269
       219 -10.3106    136.6190     19.4739   9.0773063653e+00   4.8461286678e+01    0.3658595     0.162338  53.14   0.00147434    2.456    0.593
       220 -10.8080    107.4609     17.0585   1.2704990284e+01   5.6501442270e+01    0.2520459    0.1845962  80.29 0.0003609316    1.239    0.193
       221 -12.5734    136.4219     80.2209   2.9044442809e+01   3.8989109977e+01       1.0333    0.6475837  75.31  0.002076712    1.992    0.498
       222 -11.3035    130.2746     19.2354   9.8554147235e+00   5.0164062256e+01    0.5871028    0.2453434  84.74  0.002105775    2.694    0.629
       223 -11.9699    127.0935     89.5296   3.3981383444e+01   3.9324782612e+01    0.5027711     0.301752  48.44  0.000893855    1.695    0.410
       224 -12.8796    125.5367     85.6158   3.3231004035e+01   4.0501210316e+01    0.7524394    0.5872872  20.18  0.001848753    1.810    0.447
       225 -11.5104    226.1344    100.1149   1.9375189028e+01   1.6910808914e+01    0.4107973     0.208363 -46.23  0.001072685    1.709    0.415
       226 -10.8334    215.6566    100.7320   2.0806676755e+01   1.8626261408e+01    0.3260739    0.1969493 -22.37  0.001662311    1.933    0.483
       227 -10.4684    183.1649    101.8922   2.5815721743e+01   2.4587559230e+01    0.1808637    0.1597605 -13.70 0.0003186203    1.286    0.222
       228 -11.3854    107.0923     96.3215   4.1427530972e+01   4.2397788630e+01    0.3150576    0.2808685 -63.46 0.0007031724    1.110    0.099
       229 -11.2405    202.1451     20.7246   3.3038870840e+00   3.2417291523e+01    0.3387236    0.2274501 -64.70  0.001281236    1.231    0.188
       230 -12.4063    110.7891     92.9765   3.9383104589e+01   4.2330332485e+01    0.7073992    0.3406019  56.70  0.002506748    2.356    0.575
       231  -9.7690    163.2346     20.7954   6.4843054021e+00   4.1486041360e+01    0.2030917     0.150763 -68.71 0.0004612049    1.154    0.133
       232 -10.1976    191.1456     19.5426   3.7703561903e+00   3.4991313511e+01    0.2274978    0.1587918 -83.59 0.0004998224    1.312    0.238
       233 -10.1085    194.4730     18.4487   3.2511055710e+00   3.4365912424e+01    0.2197715    0.1549737 -71.49 0.0005194959    1.208    0.172
       234  -9.3210    169.4924     18.5313   5.2295139263e+00   4.0204344673e+01    0.1386976    0.1109863 -67.29  0.000119847    1.024    0.024
       235 -12.3393    102.3790     96.3856   4.2882674898e+01   4.3418815454e+01    0.6839167    0.3790114 -43.93  0.002348728    1.910    0.476
       236 -10.0980    172.3883     16.0706   4.2712484043e+00   3.9775956139e+01    0.1923463    0.1400931 -49.34 0.0005600033    1.196    0.164
       237 -12.2262     95.5849     90.3511   4.3310883262e+01   4.6313487634e+01    0.6059721    0.4981175  68.21  0.001315351    1.249    0.199
       238 -10.1007    165.5287    101.5073   2.8835627722e+01   2.8313556265e+01    0.1449431    0.1335721 -55.52 6.309557e-06    1.004    0.004
       239 -11.2615    151.8362    107.8324   3.3174928117e+01   3.0023538633e+01    0.2952577    0.1887565 -67.26  0.001150847    2.068    0.516
       240  -9.7418    159.9706     13.7651   4.6579193037e+00   4.3084229363e+01    0.1835966    0.1519822 -80.29 0.0002210985    1.062    0.058
       241 -12.4006    152.4541     97.0560   3.0277960292e+01   3.2008914289e+01    0.6853592    0.4554672 -65.75  0.003061461    1.791    0.442
       242 -10.4377    158.4739     95.4548   2.8647846028e+01   3.0979862451e+01    0.3525635    0.1869778  53.44 0.0006818104    1.980    0.495
       243 -11.0761     87.7974     97.6213   4.8017409577e+01   4.6208200030e+01    0.4209045    0.4108772 -37.68  0.001573466    1.134    0.118
       244 -12.0547     84.6573     97.6714   4.9131086542e+01   4.6831159779e+01    0.7960712      0.56711 -16.23  0.002681498    2.281    0.562
       245 -11.3685    199.6817     96.3241   2.1979356180e+01   2.2268400411e+01    0.3817973    0.2806222 -48.98  0.001313001    1.210    0.173
       246 -14.8560    199.6961     81.8368   1.8581232001e+01   2.4570853978e+01     3.622302     1.299504  45.60   0.01304205    4.138    0.758
       247 -10.6492     36.5214    248.9788   8.2921443581e+01   1.7525834573e+01    0.1472672   0.08575404 -45.80 0.0008102951    2.633    0.620
       248 -10.7694    180.8472    244.0692   5.2072163378e+01   1.7896749922e+00    0.1623881    0.1332835  19.80  0.001242011    1.279    0.218
       249 -11.5199    246.7430     49.2371   6.7153966885e+00   2.0299902846e+01    0.5033132    0.3841089  79.85  0.002196082    1.561    0.359
       250 -11.6665    247.3213     42.2629   5.2346910471e+00   2.1048196182e+01    0.6573333    0.2819845 -81.35  0.003111681    3.404    0.706
       251 -10.1924    110.3823    241.2099   6.5861960033e+01   1.0489472901e+01    0.1424139    0.1173093 -89.44  0.000947064    1.683    0.406
       252 -12.7271    231.8850     57.4135   9.5804113513e+00   2.1890503599e+01     0.897558    0.6539906 -33.41  0.003144224    1.284    0.221
       253  -9.4904    218.5292    239.5486   4.5049105068e+01  -1.5501460646e+00    0.1040883   0.07548498  -0.32 0.0002152998    1.018    0.017
       254  -9.8801    179.3863     11.5243   2.4592266203e+00   3.8594981253e+01    0.1717357      0.10259 -75.36 0.0009040781    1.489    0.329
       255 -11.8747    208.8636     58.1297   1.1860355042e+01   2.6226483423e+01    0.4212047    0.2470869 -70.62  0.001624147    1.898    0.473
       256 -10.0361     16.0026    238.4932   8.7134815205e+01   2.1503384755e+01     0.177663    0.0945048  28.89 0.0004721192    1.531    0.347
       257 -12.0745    202.7075     33.6488   6.4687286827e+00   3.0754613464e+01    0.5224801    0.2951744 -54.80 0.0002226967    1.469    0.319
       258 -12.7637    220.8646     38.6380   6.2516933153e+00   2.6389607427e+01    0.8044963    0.3412314 -59.89 0.0004049695    2.310    0.567
       259 -12.0187    233.1810     37.6641   5.1713300499e+00   2.4144447702e+01    0.5948725    0.4674477  88.60  0.001642135    1.394    0.283
       260 -14.0009    242.2506     61.4121   9.5860705132e+00   1.9534126652e+01     1.277713     0.713383 -39.68  0.002824753    1.350    0.259
       261 -12.2781    237.9658     51.0389   7.7229375115e+00   2.1613470694e+01    0.4065516    0.2119485 -49.47  0.002340424    1.491    0.329
