#   1 NUMBER                 Running object number                                     
#   2 MAG_AUTO               Kron-like elliptical aperture magnitude                    [mag]
#   3 X_IMAGE                Object position along x                                    [pixel]
#   4 Y_IMAGE                Object position along y                                    [pixel]
#   5 X_WORLD                Barycenter position along world x axis                     [deg]
#   6 Y_WORLD                Barycenter position along world y axis                     [deg]
#   7 A_WORLD                Profile RMS along major axis (world units)                 [deg]
#   8 B_WORLD                Profile RMS along minor axis (world units)                 [deg]
#   9 THETA_WORLD            Position angle (CCW/world-x)                               [deg]
#  10 FWHM_WORLD             FWHM assuming a gaussian core                              [deg]
#  11 ELONGATION             A_IMAGE/B_IMAGE                                           
#  12 ELLIPTICITY            1 - B_IMAGE/A_IMAGE                                       
         1 -12.0769     27.7635     72.9417   7.2869025209e+01   5.9361702491e+01     1.653425     1.242546 -62.52  0.009985814    1.527    0.345
         2 -13.3199    162.5007     62.9385   2.8570496783e+01   3.6421768337e+01     1.610939     1.147477 -39.92  0.008282213    1.480    0.324
         3 -12.8757     54.5222     35.1710   4.9313271329e+01   6.2699675917e+01     1.772422    0.9517254 -38.63  0.004765115    2.015    0.504
         4 -12.4547    178.5272     52.4002   2.3034873622e+01   3.4176781635e+01    0.9752618    0.7431398  21.09  0.005081201    1.942    0.485
         5 -10.7701     64.5122     25.3671   4.1741123652e+01   6.2338363631e+01    0.4801171    0.4378459 -29.76   0.00151131    1.441    0.306
         6 -11.7413    198.8241     72.9353   2.4826449622e+01   2.6306070759e+01     1.074547    0.2684088 -43.61  0.003452922    3.663    0.727
         7 -10.6291     26.9324     34.1042   6.0626698922e+01   6.6372772675e+01    0.5677888    0.3444044 -27.42  0.003504848    1.413    0.293
         8 -11.4630     28.9586     17.1502   5.2752761206e+01   6.8480418026e+01    0.6204517    0.4459172  -8.57  0.002822947    1.130    0.115
         9 -10.6204     56.9010     10.5683   3.8393257348e+01   6.5172721775e+01     0.686895    0.3893498  27.14  0.004046212    1.544    0.352
        10 -11.5931     43.2572     16.1162   4.6040636644e+01   6.6718327307e+01    0.7415964    0.3792755  -9.61  0.003833121    2.386    0.581
        11 -11.1971     46.6749      3.7419   3.9214882173e+01   6.7448561887e+01    0.7803454    0.4159321  37.06  0.004690436    1.517    0.341
        12  -9.4914     21.2439      7.8860   5.2252666922e+01   7.0478077734e+01    0.3579075     0.180614 -22.02  0.001567909    1.837    0.456
        13  -9.3063     36.8496    224.8374   9.3972458306e+01   2.2261205060e+01     0.178082    0.1598488 -75.13 0.0005176559    1.273    0.214
        14  -8.2783    193.5041    249.9576   6.3366355534e+01  -6.6691555078e+00    0.1945969     0.151128  22.09 0.0004103453    1.108    0.098
        15  -9.0976    140.6240    250.3820   7.4569056325e+01   1.5935585803e+00    0.3650357    0.1593149  35.41  0.001014577    2.026    0.506
        16  -9.8794    166.9124    221.5334   6.4224896826e+01   2.7278920326e+00     0.377042    0.2391233 -80.57  0.001367514    3.861    0.741
        17  -9.3066    163.0000    222.0293   6.5182490480e+01   3.3059232037e+00    0.2246089   0.08126621 -48.51  0.000660628    2.958    0.662
        18  -7.6622     55.9849    220.1970   8.9413456718e+01   2.0930595414e+01    0.1537506    0.1301739  75.78            0    1.000    0.000
        19 -10.5115     56.0108    216.7864   8.9044545227e+01   2.1714530821e+01    0.2318782    0.1664982 -76.51            0    1.305    0.234
        20 -11.8570    233.3291    210.6402   4.8480991852e+01  -6.0650075768e+00    0.7442459    0.5670921 -15.18  0.001713913    1.171    0.146
        21  -8.9950    101.0151    215.0345   7.8417358703e+01   1.5463736113e+01    0.2093447    0.1865646  64.61            0    1.047    0.045
        22 -10.1386    189.5965    210.4345   5.7241719930e+01   9.8277108275e-01    0.6440505    0.4427591 -74.80  0.002735564    2.834    0.647
        23 -13.1587    190.2664    153.5120   4.5327073349e+01   1.2590184691e+01     3.478718    0.8282202 -48.46  0.008868326    4.709    0.788
        24 -11.1169    197.3037    187.2386   5.1047191266e+01   4.2095956564e+00    0.5372895    0.4948137  54.03 0.0004105303    1.271    0.213
        25 -12.3053    194.0013    196.5837   5.3623253428e+01   2.9304346924e+00     1.888573     1.153019 -67.60   0.00685409    3.201    0.688
        26 -12.7016    208.5133    189.6654   4.9224866919e+01   1.7384831291e+00     2.519076     1.301729 -49.69   0.01072884    2.102    0.524
        27 -10.0105    124.0728    206.0022   7.1485883459e+01   1.3616483342e+01    0.2299127    0.1989051  47.06            0    1.101    0.092
        28  -9.3898     93.1919    205.8223   7.8944641164e+01   1.8877542831e+01     0.192963    0.1760851 -11.56 0.0007818246    1.352    0.261
        29  -9.0477     88.4620    206.1090   8.0131053741e+01   1.9557825667e+01    0.2110735     0.136768 -63.65    0.0010149    1.546    0.353
        30  -8.9584    126.6220    201.2689   7.0058127120e+01   1.4250072264e+01    0.2607624    0.1879366  14.42 0.0008367585    1.766    0.434
        31  -9.4775     47.3813    200.5496   8.9235882993e+01   2.6662992062e+01    0.2710656    0.2346723 -18.08  0.001609619    1.600    0.375
        32  -8.0281    138.9064    199.0885   6.6692038504e+01   1.2517378416e+01    0.1843566    0.1667995   1.43 0.0009719399    1.198    0.165
        33  -8.7987    132.9895    198.9855   6.8105457705e+01   1.3624171830e+01    0.2079044    0.2004391  46.41            0    1.006    0.006
        34  -8.8484      6.3617    208.6888   9.9006575997e+01   2.9110218316e+01    0.2146041    0.1712378  85.35 0.0006618426    1.049    0.046
        35  -8.3107    114.7885    191.6020   7.1293882383e+01   1.8641425849e+01    0.2126768    0.1344038  48.20  0.000282042    1.586    0.370
        36  -9.0871    223.0093    187.9991   4.6034357687e+01  -4.0823074636e-01    0.1998944    0.1760058 -20.55            0    1.017    0.016
        37  -8.5028    118.2164    186.3614   6.9483842751e+01   1.9291764839e+01    0.2434519    0.2021091 -46.52 0.0005501607    1.244    0.196
        38 -10.7360    180.6652    173.7745   5.1845105208e+01   1.0160055100e+01     1.070737    0.3615913 -45.10  0.003494759    2.882    0.653
        39 -11.0304    247.2325    168.5415   3.7774003083e+01  -7.7496042442e-01     1.674233    0.6775876 -38.32  0.007083693    2.154    0.536
        40 -11.2141    237.6786    165.8126   3.8852916230e+01   1.2832532926e+00     1.279269    0.6915314 -52.04  0.005784811    2.027    0.507
        41  -8.9525     54.7144    176.2840   8.4363581920e+01   3.1763885830e+01     0.308245    0.1314879 -47.65  0.001186949    2.599    0.615
        42 -10.1412    100.9981    175.9989   7.2053016692e+01   2.4891157508e+01     0.215814    0.2076668 -88.10            0    1.005    0.005
        43  -7.9423     47.3315    171.6831   8.5656279449e+01   3.3832184780e+01    0.1467701   0.09684891  70.09 0.0007047121    1.687    0.407
        44 -11.6587     19.3014    167.0213   9.2327960148e+01   3.7887296873e+01    0.6359249    0.4028193 -62.91  0.003540034    1.356    0.262
        45  -9.7298     12.4067    206.3951   9.7581133926e+01   2.9073350375e+01    0.4621541    0.3134563  38.67  0.002870216    1.593    0.372
        46 -12.0799     29.3753    158.4681   8.8660156822e+01   3.9091518416e+01     1.028522    0.5704213   3.76  0.004569152    2.941    0.660
        47 -10.8627     34.9690    153.4866   8.6445120581e+01   3.9794353151e+01    0.3448347    0.2772527 -44.69  0.001043872    1.292    0.226
        48  -9.3282     72.9898    161.9943   7.7162821976e+01   3.2923995687e+01    0.2357597    0.2218526 -70.34   0.00132177    1.030    0.029
        49 -10.6641    163.4622    156.6724   5.2046683505e+01   1.7432636377e+01    0.8550063    0.4647815 -49.55  0.003373042    1.845    0.458
        50  -9.3019     76.3717    155.9093   7.5109275444e+01   3.3981945339e+01    0.2524585    0.2010881  48.78  0.000452647    1.319    0.242
        51 -11.3991     22.9968    156.8639   9.0167997304e+01   4.0081627427e+01    0.4319433    0.3317709  58.99  0.002425254    1.394    0.283
        52 -11.4623    174.0185    150.6703   4.8239606615e+01   1.6570406684e+01    0.6742527    0.6103032 -48.59  0.003487439    1.083    0.077
        53  -9.3930    169.1686    140.1407   4.6896181559e+01   1.9931599310e+01    0.3191888    0.2458276  31.55  0.001318463    1.431    0.301
        54  -9.7646    173.0217    137.5126   4.5400690198e+01   1.9674856982e+01    0.3584098    0.3026704  50.02  0.001657422    1.226    0.185
        55  -9.6346    157.7593    150.3820   5.1976135417e+01   2.0062218836e+01    0.3713556     0.270783  35.00  0.001522733    1.446    0.308
        56 -12.0152    145.2995    147.9270   5.4487569855e+01   2.3253001265e+01     1.721499     1.077498 -60.41  0.006938455    1.852    0.460
        57  -9.3816    135.8475    153.2298   5.8125848891e+01   2.3946129626e+01    0.3765029    0.2282353 -44.21   0.00142747    1.652    0.395
        58  -9.5298    200.0381    151.2653   4.2807714743e+01   1.1087967480e+01    0.4126484    0.3316686  88.90  0.002017481    1.666    0.400
        59 -10.4338    244.7466    149.4672   3.4327840717e+01   3.1098997209e+00    0.5711353    0.2778531 -52.19  0.002466104    2.191    0.544
        60 -10.9089    237.3240    133.5124   3.2216406406e+01   7.3804710482e+00    0.4910208    0.4059191   1.57  0.002759214    1.559    0.358
        61  -9.9779    230.3870    146.9697   3.6203983005e+01   6.1143425699e+00    0.4726426    0.2442211 -49.35  0.002075882    1.863    0.463
        62  -9.9219     67.6456    148.0553   7.6162056568e+01   3.7254423583e+01    0.5126958    0.3404013  76.15  0.001169069    2.058    0.514
        63 -10.9942     67.9781    138.5769   7.4220780429e+01   3.9613366941e+01     1.429873    0.7483997 -80.64  0.004822704    3.407    0.706
        64  -9.4786     52.9107    147.9759   8.0457913786e+01   3.9199957225e+01    0.5213817    0.2576593 -75.24  0.002051609    2.383    0.580
        65 -10.6077     30.2788    143.6452   8.6338413759e+01   4.2723769056e+01    0.4073418    0.3214753  62.71  0.002363975    1.407    0.289
        66  -9.6791      2.0000    139.4800   9.3774203248e+01   4.5927000975e+01    0.3781597    0.1929504 -67.86  0.001999107    1.513    0.339
        67  -9.4666    211.7439    138.5323   3.7711561789e+01   1.1332498503e+01    0.5178339    0.2547136 -55.41  0.001966289    2.440    0.590
        68  -9.0126    211.4391    148.4207   3.9947694082e+01   9.4134215909e+00    0.4108744    0.2331204 -49.48  0.001794381    1.723    0.419
        69  -7.8936     85.5526    140.4888   6.9344232761e+01   3.6465627658e+01    0.1522528    0.1437683 -57.15 0.0001110483    1.009    0.008
        70 -10.5978    224.1760    129.3449   3.3487699950e+01   1.0664636880e+01    0.4603338    0.3150689 -86.13  0.002078079    2.268    0.559
        71  -9.5002    147.8731    131.1083   4.9811815947e+01   2.6588352999e+01    0.2871093    0.2837132 -36.81  0.001503447    1.014    0.013
        72  -8.9995     32.3507    132.1937   8.3921067505e+01   4.5383157268e+01    0.1938727    0.1154845 -75.22 0.0002350892    1.672    0.402
        73  -9.1680    244.4670    130.6328   3.0503990047e+01   6.6123353948e+00    0.3071863    0.1939796 -64.13  0.001481264    1.956    0.489
        74 -10.6608    234.4214    126.7233   3.1246622811e+01   9.1856482394e+00    0.8194613    0.3348232  41.82   0.00315194    3.207    0.688
        75  -7.8559    152.6146    121.7081   4.6294480432e+01   2.7636267682e+01    0.1638711     0.126342   8.22 0.0007014452    1.760    0.432
        76  -9.7822     34.2830    116.9237   8.0576089520e+01   4.8936270635e+01    0.6966314     0.347643 -80.74  0.002685162    3.075    0.675
        77  -9.3409    186.9771    118.2341   3.7813889860e+01   2.0669173256e+01     0.392557    0.2953033 -29.11  0.001236978    1.475    0.322
        78  -8.9545     77.6656    116.6072   6.6308420366e+01   4.3580630013e+01    0.3532858    0.3105416 -20.09  0.001903909    1.158    0.137
        79  -8.5901    167.0871    115.8620   4.1447699489e+01   2.5627128825e+01    0.2371211    0.2095482 -81.70  0.000504719    1.221    0.181
        80  -9.4290    134.1077    106.8165   4.7073447568e+01   3.4960263336e+01    0.7025685     0.260161 -48.43  0.002264186    2.875    0.652
        81 -11.1543    119.6698    110.5292   5.1995251625e+01   3.7252958385e+01      1.36508     1.010017  78.93  0.005897401    1.959    0.490
        82 -10.5596    128.5550    106.3403   4.8418844498e+01   3.6274219831e+01    0.9515487    0.5631146 -55.28            0    1.936    0.483
        83 -10.6656    121.6992    102.0783   4.9125149733e+01   3.8648797957e+01    0.5900544    0.4855742 -85.20   0.00283774    1.558    0.358
        84 -11.6123    116.3259    100.4928   5.0195112478e+01   4.0112572842e+01     1.118507    0.8363699 -88.90  0.004890872    2.035    0.509
        85  -9.5803    202.7521    111.4646   3.3208738610e+01   1.8538935850e+01     0.288485    0.2587799  15.19  0.001566164    1.372    0.271
        86  -9.7916    166.1184    109.9340   4.0166075788e+01   2.7071540689e+01    0.5319268    0.2297069 -45.40  0.001910015    2.292    0.564
        87 -10.8951     67.7878    104.3378   6.6487325948e+01   4.7925652159e+01    0.7730608    0.4966896  50.25  0.003578432    1.966    0.491
        88 -10.1694    157.5239    103.9637   4.0563495333e+01   3.0256879494e+01    0.5623222    0.4222143  20.15  0.002532401    1.765    0.434
        89 -10.4834    184.3957     78.1566   2.8480947474e+01   2.8772902755e+01    0.3674554    0.2553341  52.19  0.001210056    1.461    0.315
        90 -11.7805    177.8893     88.1976   3.2197192898e+01   2.8533479351e+01    0.6222494    0.3700439  43.08   0.00271206    1.883    0.469
        91 -11.7690    183.0076     83.8599   3.0148498920e+01   2.8112277223e+01    0.5016412    0.4313641 -10.92  0.002671947    1.483    0.326
        92 -12.4687    189.4517     99.2455   3.2743946296e+01   2.3826310497e+01    0.9498022    0.8497965 -88.25  0.005203812    1.114    0.102
        93 -11.3633    153.5555     97.9734   3.9895551560e+01   3.2365914166e+01    0.5679379    0.4803982 -48.54 0.0007522071    1.191    0.161
        94  -9.1741    223.5514     98.2040   2.6779589021e+01   1.6560562045e+01    0.3647827    0.2753786  56.06  0.001998555    1.448    0.309
        95  -9.6941    227.5623     94.7374   2.5434647211e+01   1.6339872726e+01    0.2481042     0.235925 -76.56 0.0007069714    1.138    0.121
        96 -10.4174     55.6153     89.5662   6.6830176896e+01   5.2863689617e+01    0.9890873    0.5479842  20.67  0.004585373    2.034    0.508
        97 -11.5462     48.6549     77.0990   6.5895485695e+01   5.6332112842e+01     1.099837    0.8806643  57.82  0.006221993    1.822    0.451
        98 -12.2549     34.4421     84.6104   7.3346623972e+01   5.6311464714e+01      1.42001     1.147076  62.29  0.008331448    1.784    0.439
        99  -8.5170    230.3162    249.3315   5.6000946780e+01  -1.1773444188e+01     0.129606   0.07989652  -3.55 0.0007046674    1.685    0.406
       100  -7.8367    128.0962     91.1138   4.4309130025e+01   3.9491591691e+01    0.1878377    0.1712341  80.22            0    1.219    0.179
       101  -8.7485    109.4920     85.9782   4.7992025965e+01   4.4465899028e+01      0.27816    0.1449911 -46.39  0.001125761    2.019    0.505
       102 -10.6856    102.5436     87.5777   5.0533357273e+01   4.5550890759e+01    0.5941443    0.4291013  77.72  0.002578912    2.297    0.565
       103  -8.9107    105.9983     85.9964   4.9027016166e+01   4.5173329111e+01     0.267103    0.2401468   6.48 0.0003861225    1.116    0.104
       104 -10.7186    211.4547     85.5149   2.5786270296e+01   2.1367894090e+01      0.51943    0.3599792 -29.16  0.002598813    1.729    0.422
       105 -10.4673    204.5706     86.5656   2.7105622181e+01   2.2709771234e+01    0.3236466    0.2273126 -66.87 2.646033e-05    1.501    0.334
       106  -8.2633    106.1080     81.6627   4.7696971269e+01   4.5984045642e+01    0.2363339    0.2017056 -49.68 0.0005602999    1.278    0.218
       107 -11.0885    187.0984     43.9759   1.9680557346e+01   3.3326327769e+01    0.6157884    0.5053193 -69.27  0.003713439    1.160    0.138
       108 -12.4304    173.0335     64.5226   2.7045888911e+01   3.3672081872e+01    0.7097828     0.532698 -51.93  0.003760934    1.355    0.262
       109 -10.2122    219.6298    245.8927   5.7467754759e+01  -9.8134993593e+00    0.3421114    0.2701817 -28.68  0.002195478    1.302    0.232
       110 -11.7427    194.7408     90.0018   2.9559232144e+01   2.4319366120e+01    0.8082432    0.3732071 -29.11  0.002837806    3.186    0.686
       111  -9.5413    131.9484     65.9897   3.6006267670e+01   4.3113127292e+01    0.3832522    0.3257994   8.61  0.002070987    1.352    0.260
       112 -11.7455     64.3828     39.0167   4.7060094279e+01   6.0628494504e+01    0.7475072    0.7068374 -68.36  0.004957444    1.616    0.381
       113 -10.1707    150.3283    246.5213   7.1919937279e+01   7.3324911138e-01    0.5426921    0.1492429 -48.24  0.001891883    4.006    0.750
       114 -12.3587     73.0444     59.2069   5.1172108553e+01   5.6122015932e+01    0.9062565    0.7924104 -32.15  0.005242669    1.235    0.190
       115 -11.9495     81.7635     50.9324   4.5341846330e+01   5.5908201796e+01     1.095989    0.7964427  32.48  0.004077861    1.255    0.203
       116 -11.5972     38.1409     63.7912   6.6020019505e+01   6.0134176708e+01    0.7481109    0.4562395 -35.91  0.004155599    1.426    0.299
       117 -11.4807     87.6271     72.7175   5.0670516102e+01   5.1215026667e+01    0.8935306    0.5119411  38.86  0.002423763    1.700    0.412
       118 -10.7898     94.4315     67.0462   4.6684010260e+01   5.0935577111e+01    0.8068847    0.3891056  40.28  0.002672758    1.988    0.497
       119 -10.4776     62.0322     58.0567   5.4774714829e+01   5.8064196991e+01    0.5635535    0.3590531 -14.12  0.002880861    1.760    0.432
       120  -8.8936    146.2313    244.8236   7.2553194461e+01   1.7180485401e+00    0.2245413     0.139613  68.85 0.0009530889    2.822    0.646
       121 -11.9091    170.6480     54.3200   2.4825471045e+01   3.5768901280e+01    0.6165078    0.4946636  48.88 0.0006459676    1.297    0.229
       122  -8.5537     94.8969     51.9947   4.1563551975e+01   5.3244304973e+01     0.200344     0.178788  20.48  0.000353749    1.012    0.012
       123 -11.1738    221.3224    237.8640   5.5749284208e+01  -8.8029052284e+00    0.6669833    0.3629999  40.45  0.003416776    2.014    0.504
       124  -8.5202     21.3207     48.3147   6.8224455467e+01   6.4583632716e+01    0.2107811    0.1361902 -30.58 0.0007119335    1.258    0.205
       125  -7.9692     18.7747     45.9749   6.8594937357e+01   6.5207587153e+01    0.1538695    0.1446953  35.19 0.0003108638    1.582    0.368
       126 -11.9939    214.4334    227.2101   5.5209399585e+01  -6.0568412642e+00     0.758408    0.6387073 -10.61  0.001704457    1.057    0.054
       127 -10.8374     38.4403     39.8456   5.7700263644e+01   6.4201331452e+01    0.6671098    0.2833453  13.90  0.002526839    3.994    0.750
       128  -8.6049    189.9185     36.6932   1.7569255791e+01   3.3618824455e+01     0.193063    0.1845546 -33.26 0.0007045118    1.318    0.241
       129  -9.7258    180.7394    244.6960   6.5150894912e+01  -3.8296096385e+00    0.4883188     0.163267 -40.26  0.001856709    3.350    0.701
       130 -10.1015     24.4701     27.9629   5.9369147798e+01   6.7536616238e+01    0.4145831    0.1953103 -16.91  0.001929779    2.591    0.614
       131  -9.1730    181.2050    233.4535   6.3176788019e+01  -1.9227976085e+00    0.3374096    0.1202573  38.63  0.001278789    2.585    0.613
       132  -9.3973    133.1809     30.7641   2.5181586763e+01   4.7630223808e+01    0.2477045    0.2301273 -64.21   0.00158896    1.214    0.176
       133  -7.9017     20.2089     35.4325   6.4241029071e+01   6.6827036713e+01    0.2081831    0.1005096  16.22  0.001127852    2.078    0.519
       134  -9.5878    222.0511     22.6224   1.0961258978e+01   2.8179538300e+01    0.2487314    0.1674496 -29.78 0.0008283893    1.929    0.482
       135 -10.6415    156.6905    229.3466   6.7826798606e+01   2.9434729080e+00    0.3694154     0.207828  33.77  0.001484716    1.651    0.394
       136  -9.1115    189.7822    222.6071   5.9446781643e+01  -1.3474586697e+00    0.2944116    0.1235045  40.23  0.001193229    2.326    0.570
       137  -9.6972    173.7950     33.7760   1.9090400363e+01   3.7743391112e+01    0.2629912    0.1801351 -66.90            0    1.561    0.359
       138  -8.1225     19.2120     20.2245   5.8716426750e+01   6.9154627495e+01    0.2370856    0.1219781  16.41 0.0003897321    1.819    0.450
       139  -7.7828      3.3833     22.2958   6.7568435591e+01   7.0211058190e+01    0.1199611   0.06114797 -17.61 0.0007018631    1.765    0.433
       140  -9.2500     75.0433     16.9935   3.4949569393e+01   6.1354609640e+01    0.1770144    0.1489767  27.73  0.000318827    1.071    0.066
       141 -10.2670    185.8173    226.0863   6.0911781600e+01  -1.3346693611e+00    0.5820508    0.1933518 -47.14   0.00210431    3.286    0.696
       142  -9.2319    172.0620     50.0211   2.3479399262e+01   3.6041884985e+01    0.2001671    0.1786308  83.59            0    1.012    0.012
