#   1 NUMBER                 Running object number                                     
#   2 MAG_AUTO               Kron-like elliptical aperture magnitude                    [mag]
#   3 X_IMAGE                Object position along x                                    [pixel]
#   4 Y_IMAGE                Object position along y                                    [pixel]
#   5 X_WORLD                Barycenter position along world x axis                     [deg]
#   6 Y_WORLD                Barycenter position along world y axis                     [deg]
#   7 A_WORLD                Profile RMS along major axis (world units)                 [deg]
#   8 B_WORLD                Profile RMS along minor axis (world units)                 [deg]
#   9 THETA_WORLD            Position angle (CCW/world-x)                               [deg]
#  10 FWHM_WORLD             FWHM assuming a gaussian core                              [deg]
#  11 ELONGATION             A_IMAGE/B_IMAGE                                           
#  12 ELLIPTICITY            1 - B_IMAGE/A_IMAGE                                       
         1 -15.8826    224.5482     37.1847   3.5483280120e+02   2.6694816775e+01     2.274525      1.30328 -77.62   0.01297467    1.891    0.471
         2 -17.0795    184.5690     12.6849   3.5192809615e+02   3.7810232398e+01     5.809109     2.485367  87.13   0.02656254    2.443    0.591
         3 -13.0039      2.8762     23.4699   5.8149715048e+01   7.5308518056e+01    0.6605473    0.5846339  41.20  0.004333408    1.352    0.261
         4 -13.3943      4.6569      7.4030   4.8270058292e+01   7.8455888480e+01     1.398058    0.9149033  -9.24  0.008124122    1.526    0.345
         5 -11.4332     15.5395     18.6589   4.4772503537e+01   7.5194305586e+01    0.2563389    0.2066549  46.47  0.000759906    1.537    0.349
         6  -9.4723     80.1565     14.7134   8.3065097931e+00   6.3291452363e+01    0.2243363    0.1308891 -68.06 0.0009305278    2.635    0.620
         7 -10.5451    141.1729    250.3150   5.0382093063e+01   5.2222430042e+00    0.2441344   0.09036309  21.98   0.00109209    2.603    0.616
         8 -10.5949     34.0704    249.0553   7.3324745366e+01   1.7129574021e+01    0.2909192    0.1961276  32.85  0.001573027    1.194    0.162
         9 -13.5717     47.5523    144.2495   6.1218023175e+01   3.9924996290e+01    0.7829466    0.5270306 -14.01  0.001608874    2.058    0.514
        10 -12.3646     76.0645    131.4337   4.9489317535e+01   3.9425288752e+01    0.5015202    0.3826822 -77.52 0.0005201747    1.407    0.289
        11 -12.1610     49.8718    156.4044   6.2017887661e+01   3.6419106464e+01    0.5180923    0.3601735  74.50 0.0007559178    1.526    0.345
        12 -12.4599     42.7439    160.6508   6.4753996340e+01   3.6118436682e+01    0.8870119    0.4952108  -8.19  0.002161797    3.021    0.669
        13 -14.4037      7.9464    243.3961   7.8758342298e+01   2.0540223327e+01     1.556462     1.464853   6.14   0.01219554    1.395    0.283
        14 -15.7733     11.2276    206.7774   7.6797939508e+01   2.7851834628e+01     5.502253     2.165457  15.69   0.02357146    2.928    0.658
        15 -12.1181     62.6315    149.2935   5.6965216205e+01   3.6680902523e+01    0.3706086    0.2894071  37.91   0.00029194    1.235    0.191
        16 -16.3128     18.6411    169.4817   7.2880591172e+01   3.6166413052e+01     8.490494      2.82068  85.83   0.02849678    3.696    0.729
        17  -9.4662     64.4458    183.6265   6.0879347095e+01   2.7789223399e+01    0.2285223    0.1381747 -79.30 0.0006392801    1.863    0.463
        18 -10.8222     58.5017    238.4823   6.7268326875e+01   1.6646944427e+01    0.2332995    0.1359376  28.91 0.0009985075    1.414    0.293
        19 -11.2743     99.0306    181.1139   5.1091985799e+01   2.3676871104e+01    0.3157797    0.2714501  24.98 0.0006826554    1.108    0.098
        20 -10.0472    129.6292    180.5412   4.3239240961e+01   1.9209198814e+01      0.34779    0.1853199 -60.75  0.001490676    2.377    0.579
        21  -8.7709     66.6633    177.7319   5.9565078142e+01   2.8933120667e+01    0.1383038    0.1085378 -17.70 0.0003663009    1.594    0.373
        22 -11.8949    231.0924    167.0238   2.1005619334e+01   6.8976846855e+00    0.2861015    0.2076324 -30.92  0.001925603    1.153    0.133
        23 -10.7509     98.5124    169.0457   4.9366735290e+01   2.6534313977e+01    0.3090369    0.1864698  37.44 0.0008735405    1.552    0.356
        24 -10.2910     55.6461    166.1742   6.1410984316e+01   3.3195834025e+01    0.4951152    0.2417626  85.17   0.00179837    2.987    0.665
        25  -9.3953    196.7449    165.4070   2.6322371808e+01   1.1819747732e+01     0.227161     0.140527 -46.28 0.0007595469    1.676    0.403
        26 -14.5737     68.8451    145.0639   5.4298037328e+01   3.6932286940e+01     4.206202     2.135097  85.85  0.002431861    3.773    0.735
        27 -11.7639    234.6588    161.8907   1.9551922372e+01   7.1929860250e+00    0.2515035    0.1627341  -1.56  0.001510275    1.791    0.442
        28  -9.6759    195.3255    159.5292   2.5454261073e+01   1.3018015274e+01    0.2385981    0.1022304 -51.01 0.0009391611    3.080    0.675
        29 -11.8932     57.6180    231.4241   6.6970359189e+01   1.8112051698e+01    0.3851868    0.1939605 -64.34  0.002025543    2.270    0.560
        30 -11.1060     60.9892    226.4572   6.5800455967e+01   1.8733675476e+01    0.2946576    0.2369382 -79.20  0.001223019    1.425    0.298
        31  -9.9220     37.9981    240.5846   7.2041757111e+01   1.8347652199e+01    0.1858784    0.1554029 -56.88 0.0006713358    1.518    0.341
        32  -8.8129    133.1985    142.9622   3.5256918158e+01   2.6687125095e+01    0.1945351    0.1146715 -49.19  0.000364597    1.687    0.407
        33 -11.0629    249.1467    140.5354   1.3652098318e+01   8.3921084687e+00    0.1976972    0.1312154 -21.78 0.0006716634    1.334    0.251
        34  -8.9022     38.3247    136.2820   6.3351596546e+01   4.3122986841e+01    0.1473809    0.1085116 -34.31 0.0002765926    1.596    0.373
        35  -9.2411    206.9436    135.5369   1.8683464463e+01   1.5244337609e+01    0.1633798    0.1276399  38.59 0.0003545192    1.471    0.320
        36 -10.3983     89.1369    134.5253   4.5880916827e+01   3.6504383056e+01    0.3568578    0.2876252 -13.07 0.0007656459    1.533    0.348
        37  -9.9288     93.1360    132.2901   4.4173877362e+01   3.6387329558e+01      0.31523    0.2643323 -21.92  0.001397688    1.383    0.277
        38 -10.4943    118.8330    240.2001   5.3908799909e+01   9.4159677050e+00    0.1646574    0.1257959   1.50 0.0003873066    1.313    0.238
        39 -10.3000     76.8957    229.4396   6.2290593371e+01   1.6336963010e+01    0.2266107    0.1794828 -78.79 0.0004307248    1.505    0.335
        40 -12.4954    243.9967    127.5034   1.1829737852e+01   1.0942679565e+01     0.480614    0.1285199 -35.15  0.001914703    3.083    0.676
        41 -10.1170    105.1460    129.9141   4.0032728170e+01   3.4838387660e+01    0.3514997    0.2824337 -83.28  0.001219934    1.469    0.319
        42  -9.9555    103.7397    126.3113   3.9642127531e+01   3.5970190807e+01    0.3646996    0.2455145  18.82  0.001222287    1.901    0.474
        43 -10.5684     67.3468    124.8691   5.1188351661e+01   4.2495399417e+01     0.299783    0.2325891  17.96  0.001431923    1.436    0.303
        44 -11.4822     90.0151    121.2239   4.2747846416e+01   3.9717724448e+01    0.3732139    0.2915131  24.69 0.0008702628    1.394    0.282
        45 -10.2190     35.7701    117.9676   6.1731424921e+01   4.8432566707e+01    0.2080504    0.1857297 -84.04 0.0004051935    1.061    0.058
        46  -9.6047    102.5418    116.0107   3.7580407209e+01   3.8691773931e+01    0.2163339    0.2051666  43.48 0.0001863234    1.063    0.059
        47 -11.5972     17.2612    115.0818   6.8676699810e+01   5.0893699335e+01    0.3645489    0.2558486  56.32  0.001101584    1.442    0.306
        48 -10.9023     73.0052    228.7025   6.3139519176e+01   1.6930013841e+01    0.2470657    0.2106967 -47.12 0.0008181916    1.408    0.290
        49 -10.5963    204.8364    110.6751   1.3705612445e+01   1.9711832854e+01     0.326361    0.2501289  27.31  0.001157095    1.627    0.385
        50 -12.2780    108.3716    229.2755   5.5004534334e+01   1.2587598860e+01    0.4392672    0.2410943  25.23  0.002318431    1.576    0.365
        51 -10.7712     23.9907    105.4252   6.4648847632e+01   5.3026232479e+01    0.2932272    0.2499589 -50.49 0.0008564706    1.168    0.144
        52 -12.6576    127.0117    229.8143   5.0920525570e+01   1.0189831400e+01    0.4647219    0.2694127  27.04  0.002586187    1.450    0.310
        53 -12.0377     99.3901    227.4259   5.6854070496e+01   1.4032020957e+01    0.4291599    0.2528957  43.48  0.002329685    1.585    0.369
        54 -13.8304      8.4904    180.4277   7.6398906566e+01   3.4246774311e+01     0.815431    0.6568282  17.69  0.001996687    1.371    0.271
        55  -9.0511     30.5268     79.5193   5.6820330717e+01   5.9430637355e+01    0.1433954    0.1370773 -67.46 9.015053e-06    1.033    0.032
        56  -9.0952    184.5625     77.5076   8.9092782054e+00   2.9079245961e+01    0.1382722    0.1203556 -51.09  0.000107907    1.008    0.008
        57 -10.5799     21.2760     71.2310   5.9702480833e+01   6.2479478467e+01     0.261073    0.2285094  70.36 0.0006607035    1.254    0.203
        58 -10.1675    221.9213     61.0184   4.0685631845e-01   2.4111806699e+01     0.258924    0.1756689  57.13   0.00146133    1.794    0.443
        59 -11.8045    211.6120    246.4153   3.6793360847e+01  -1.7059009000e+00    0.4159898    0.1949434 -38.41  0.002570567    2.185    0.542
        60 -10.6392    124.7522    246.9848   5.3394728101e+01   7.6133699675e+00    0.3449999    0.0758545 -50.14   0.00133061    4.754    0.790
        61 -11.5913      3.3267     38.5978   6.2823244133e+01   7.1838164425e+01    0.3824355    0.2578737  55.61  0.001612711    1.886    0.470
        62 -10.3398     50.7200    239.6018   6.9113308286e+01   1.7252701769e+01    0.1855035    0.1694574  47.27 0.0003952478    1.151    0.131
        63 -10.4931    115.7864    183.0603   4.7060868161e+01   2.0771749803e+01    0.3333708    0.1748082 -60.17  0.001449868    2.216    0.549
        64 -10.9780     74.2085    245.5904   6.4255610382e+01   1.3620771966e+01    0.3245033    0.2007596  26.47   0.00193798    1.341    0.254
        65  -9.5521     60.3520     21.1976   1.8651611094e+01   6.7051417148e+01    0.2243335    0.1695232  40.95 0.0005283313    1.239    0.193
        66  -9.3806     85.7597     18.9055   8.7541969192e+00   6.1437033450e+01      0.27215    0.1757481 -82.82  0.001234241    2.108    0.526
        67  -9.9115     71.2305    241.4519   6.4599049685e+01   1.4703973031e+01    0.1879167    0.1675477 -88.00 0.0008113529    1.333    0.250
