#   1 NUMBER                 Running object number                                     
#   2 MAG_AUTO               Kron-like elliptical aperture magnitude                    [mag]
#   3 X_IMAGE                Object position along x                                    [pixel]
#   4 Y_IMAGE                Object position along y                                    [pixel]
#   5 X_WORLD                Barycenter position along world x axis                     [deg]
#   6 Y_WORLD                Barycenter position along world y axis                     [deg]
#   7 A_WORLD                Profile RMS along major axis (world units)                 [deg]
#   8 B_WORLD                Profile RMS along minor axis (world units)                 [deg]
#   9 THETA_WORLD            Position angle (CCW/world-x)                               [deg]
#  10 FWHM_WORLD             FWHM assuming a gaussian core                              [deg]
#  11 ELONGATION             A_IMAGE/B_IMAGE                                           
#  12 ELLIPTICITY            1 - B_IMAGE/A_IMAGE                                       
         1 -11.9101     39.3407     86.4413   1.1441720495e+02   5.3793572067e+01     2.426778    0.6909804 -51.09  0.009415919    3.122    0.680
         2 -13.1132     17.5926     56.8886   1.1579968073e+02   6.2285118157e+01     1.280631    0.9775965  11.84  0.008726342    1.714    0.416
         3 -12.3870    145.3595     37.4616   6.8565619077e+01   4.4443680254e+01     3.200315     1.238537  45.67   0.01103002    2.704    0.630
         4 -12.7612     51.9445     91.7333   1.1161802267e+02   5.1232152227e+01     4.462173     1.271042 -47.14   0.01505475    4.077    0.755
         5 -10.8679     89.9476     21.6551   7.6296406953e+01   5.9435444655e+01    0.4624903    0.3079708  -5.08   0.00222329    1.730    0.422
         6 -11.9395     54.7312     37.1600   9.5410559032e+01   6.2694470116e+01      1.11907    0.8277027 -73.73  0.006104826    1.954    0.488
         7 -12.9507     86.2042     54.6993   9.0739340979e+01   5.4374521157e+01     2.693377      1.59134  60.28   0.01170282    2.505    0.601
         8 -13.0446     71.5384     31.0915   8.6644934819e+01   6.1291755603e+01     2.310996     1.047015  46.50  0.008176696    2.577    0.612
         9 -11.1330     68.6697     19.7164   8.2588153087e+01   6.3661847904e+01     1.117721    0.7036164  20.87  0.004864085    1.937    0.484
        10 -13.4538     15.6523    100.0482   1.2346236193e+02   5.2752961525e+01     2.534737    0.8009665 -62.10   0.01195249    2.356    0.576
        11 -11.6790     39.3397     46.8104   1.0479218847e+02   6.2572903125e+01     1.777304     1.439074  37.97   0.01156362    1.511    0.338
        12 -12.9336    118.6283     49.1434   7.9247345107e+01   4.8943021541e+01     4.088223     1.322296 -38.11  0.008611211    2.877    0.652
        13 -12.8848    144.6184     52.7535   7.4170495298e+01   4.2251691221e+01     3.492167     2.155138  65.16  0.003200458    1.889    0.471
        14 -10.8232     98.9920     40.1908   8.1378308909e+01   5.4656996250e+01     1.307131     1.050224 -14.03  0.007024992    1.268    0.211
        15 -12.0264    130.6490     19.8962   6.4944225584e+01   5.0485235840e+01     1.286074    0.5917991  55.78  0.004155044    2.081    0.519
        16 -11.0362    129.8814     14.1772   6.2767115993e+01   5.1353547551e+01     1.188589    0.3375192  53.38  0.003980687    3.023    0.669
        17 -11.9332    112.6529      7.6587   6.3748617027e+01   5.6244685034e+01     1.424055    0.6031745  61.19  0.004979933    2.432    0.589
        18 -11.5107    112.5417     23.1014   7.0548613532e+01   5.4382643046e+01    0.8871987    0.8124848 -65.75  0.004019594    1.297    0.229
        19 -11.6111    117.2271     15.1852   6.5996877080e+01   5.4308670176e+01    0.4292593    0.3552877  81.41 0.0002278301    1.472    0.320
        20 -12.8299     99.8647      6.1874   6.6220145900e+01   5.9326992970e+01    0.6460817    0.3829797 -23.46 0.0005785308    1.607    0.378
        21 -11.6762     93.8176      7.7874   6.8627827555e+01   6.0461543642e+01    0.7434192    0.5111303   4.27  0.003699405    1.527    0.345
        22 -10.1361    200.9368     31.2180   5.7007972077e+01   3.0742013409e+01    0.7909696    0.5457775  -6.42  0.003674179    1.656    0.396
        23 -10.9434    211.1838     15.8815   5.1105583119e+01   2.9821269110e+01    0.8998041    0.6180741 -37.49  0.004503823    1.374    0.272
        24  -9.3781    217.8643     13.1910   4.9620473245e+01   2.8386475577e+01    0.3509505    0.2111395  46.28  0.001429773    1.834    0.455
        25 -11.1360    211.5738     32.9942   5.6164088733e+01   2.7768475002e+01    0.7638494    0.5461437 -76.95  0.001709432    1.633    0.387
        26 -10.4542    217.3632     25.8948   5.3375715087e+01   2.7126327770e+01    0.5781342    0.4391676 -14.77  0.001892826    1.366    0.268
        27  -9.4504    230.2003      2.9434   4.5616955802e+01   2.6304372405e+01    0.3819285    0.1637911  65.39  0.001626068    2.274    0.560
        28  -9.8307    231.3766     17.5291   4.9534819533e+01   2.4536717507e+01    0.6265584    0.3936947 -19.65  0.003061464    1.600    0.375
        29  -9.9026    248.9838      4.4679   4.4585746017e+01   2.1640981536e+01    0.6727299    0.2323459 -34.84  0.002785214    2.300    0.565
        30 -11.0059    236.5791     31.6115   5.2891742186e+01   2.1691291931e+01    0.5708296    0.4905125 -28.92  0.002057973    1.089    0.082
        31  -9.9170    223.6914     11.5758   4.8592667357e+01   2.7075465624e+01    0.7141597    0.3486178 -72.18  0.002768645    2.753    0.637
        32  -9.6753    226.2787      8.4210   4.7467140017e+01   2.6744927266e+01    0.3282402    0.2694823  -2.84 0.0009208033    1.358    0.263
        33 -10.7631    233.0603      8.8253   4.6988897468e+01   2.5024126285e+01     0.503399    0.3464989 -18.41  0.002628624    1.482    0.325
        34 -10.9684    239.2758     18.6793   4.9114706881e+01   2.2488197372e+01     1.137257    0.2746748 -29.31  0.003850115    3.181    0.686
        35 -10.8380    243.2214     11.2122   4.6782872314e+01   2.2325615426e+01    0.9191455    0.3333231 -20.12  0.003464714    2.856    0.650
        36 -10.7598     69.3983      3.7598   7.4251068710e+01   6.5785106558e+01    0.7103814    0.3643225  31.33  0.003352452    2.184    0.542
        37 -10.6393     42.3135      3.6051   8.5106212353e+01   7.0151756513e+01    0.5208375    0.3268447  -2.59  0.002884069    1.866    0.464
        38 -11.0078     51.5578     23.5805   9.1065037195e+01   6.5640764569e+01    0.8159097    0.3735127 -25.88   0.00050457    3.081    0.675
        39 -11.3371     50.2733     10.0264   8.5056634299e+01   6.8059853535e+01    0.3865856    0.2730247 -23.17  0.001002618    1.209    0.173
        40 -11.7287     56.3521      4.0304   7.9311383312e+01   6.7991986603e+01    0.6397412    0.4858782 -10.22  0.002305851    1.145    0.127
        41 -10.1834     23.9944     32.2666   1.0646114990e+02   6.7037053505e+01    0.8206744    0.2670391 -61.31   0.00327349    3.152    0.683
        42 -11.3814     24.9923      5.3912   9.4585118701e+01   7.1966005491e+01    0.5563586    0.5118004  32.22  0.003138918    1.502    0.334
        43 -11.9299     30.2225     23.1437   1.0023274049e+02   6.8256927756e+01     1.091485    0.4338868 -51.00  0.004617193    2.067    0.516
        44 -10.4769     31.7020     11.4647   9.4284804636e+01   7.0215691514e+01    0.3076545    0.2039534 -28.44  0.001079946    1.287    0.223
        45 -10.8148     41.7913     14.8452   9.1212195272e+01   6.8438855023e+01     0.721783    0.6610487 -88.36  0.004678173    1.665    0.399
        46 -11.7664     19.7912     13.6121   1.0124432981e+02   7.1018500694e+01    0.7750021    0.5800465  -7.21  0.005335946    1.442    0.306
        47 -11.0085     40.6139     21.4766   9.4813872370e+01   6.7423322941e+01    0.4178817    0.2002994 -46.79 0.0005687617    1.784    0.440
        48 -12.2288      8.7934     26.1150   1.1142778773e+02   6.9407088990e+01    0.8166009     0.568001 -17.07  0.003874289    1.642    0.391
        49 -11.9106     12.7264      7.4039   1.0217090550e+02   7.2739337123e+01    0.6536489    0.3016395 -46.61  0.002363117    1.611    0.379
        50 -12.6512      3.2732     17.5161   1.1131523885e+02   7.1457775293e+01    0.4123802    0.2359069 -46.45 0.0004467072    1.299    0.230
        51 -13.7234      3.9873      9.6109   1.0796776809e+02   7.2945538329e+01    0.5878776    0.3187692 -52.89  0.001568689    1.377    0.274
        52 -10.7210    185.6666     13.7067   5.3428597265e+01   3.6777593359e+01    0.6495636     0.491069 -17.56  0.002858699    1.363    0.266
        53 -10.2462    167.3756     24.4704   5.9760542703e+01   4.0449361729e+01    0.6953341    0.5625284  46.32  0.001201825    1.232    0.189
        54 -10.1719    159.1440     22.2974   6.0369004073e+01   4.2886398056e+01    0.6614026    0.4227861 -21.34  0.002421286    1.586    0.370
        55 -11.0253    156.5360     14.6214   5.7994522052e+01   4.4448578647e+01     1.394168    0.6045135 -24.38  0.005376309    2.267    0.559
        56 -11.0968    167.6587     12.4984   5.5491460240e+01   4.1719474529e+01    0.8190169    0.4983958 -85.94  0.003467131    2.099    0.523
        57 -10.9900    163.8079      4.6820   5.3250227831e+01   4.3519538720e+01      1.18924    0.4622483 -19.51  0.004384434    2.645    0.622
        58 -10.5071    184.3747     26.3441   5.7768656394e+01   3.5703665357e+01    0.8622469    0.4745574  19.55  0.003100848    2.805    0.643
        59 -11.7878    148.6985     17.3053   6.0356825826e+01   4.6204300365e+01     1.139546    0.6114661   4.93  0.003981639    2.733    0.634
        60 -10.7106    202.1322     19.1557   5.3127070510e+01   3.1827547730e+01    0.7709875    0.4188753  50.06  0.003334621    1.898    0.473
        61  -9.2608    198.3823     16.3259   5.2694856109e+01   3.3121787872e+01    0.3208234    0.1957033   2.43  0.001366403    2.118    0.528
        62 -10.3762    141.6898     11.3914   5.9336389863e+01   4.8669176054e+01    0.2561364     0.227689  15.13 0.0004896838    1.115    0.103
        63  -8.5473    138.5301      8.5421   5.8778369710e+01   4.9776664398e+01    0.2639907    0.2233034 -71.27 0.0009727951    1.370    0.270
        64  -9.9921    173.6706      8.7111   5.3319947495e+01   4.0495729903e+01    0.3292417    0.2160859 -22.22 0.0005820375    1.541    0.351
        65 -10.4504    221.0633      2.8875   4.6364254198e+01   2.8594872687e+01    0.8131364    0.2199075  54.77  0.002723839    3.602    0.722
        66  -9.9033    189.8275      7.9702   5.1047465611e+01   3.6248585424e+01    0.6732967    0.1948061  63.91  0.002131797    2.989    0.665
        67 -10.4439    180.9270      4.4767   5.0954529382e+01   3.8959367550e+01    0.5287681    0.4095934 -88.21  0.002739675    1.348    0.258
        68  -9.3774    175.3497      3.9975   5.1478709224e+01   4.0496802494e+01    0.3729267    0.3184325  89.39  0.001480198    1.192    0.161
        69 -10.3989    211.2069      4.5287   4.7731382028e+01   3.0960042210e+01    0.5624501    0.3108291  40.11  0.002459862    2.155    0.536
        70  -9.7884    204.5578      6.2442   4.8899282642e+01   3.2524556290e+01    0.3048065    0.2720206 -18.68 0.0008042408    1.157    0.135
        71 -10.6994    206.7761      2.8950   4.7667681559e+01   3.2263817224e+01    0.5637454    0.3064094 -82.04   0.00239991    2.176    0.540
        72 -10.4671    200.3228      6.6808   4.9472905272e+01   3.3593731874e+01    0.6238336    0.2665862 -26.25  0.001796019    2.207    0.547
        73 -10.1407    196.3114      6.0128   4.9694241015e+01   3.4716815495e+01    0.4337679      0.32285  15.49  0.001682702    1.575    0.365
        74 -10.6982     77.2970      9.0954   7.4335521023e+01   6.3638259731e+01    0.2879971    0.2509164 -16.80 0.0006020013    1.099    0.090
        75  -9.5134     78.2345      4.2100   7.1513484904e+01   6.4064900302e+01    0.5788285    0.1915418  39.59  0.002119855    3.380    0.704
        76 -10.6370    246.5407     19.0618   4.8570051772e+01   2.0718251341e+01    0.5596327    0.3480081  67.30  0.002182597    1.703    0.413
        77 -11.1122    132.4319      4.3978   5.8210937766e+01   5.1738612157e+01     0.658357    0.3583858  52.63  0.002681222    1.696    0.410
        78 -11.0568    139.5436      1.7312   5.5857464435e+01   5.0170251213e+01    0.4208051    0.2571759  73.92  0.001231397    1.745    0.427
        79 -11.5836    177.4570     26.1836   5.8750189732e+01   3.7563218511e+01     1.185606    0.6258445 -20.88  0.004840671    1.965    0.491
        80  -8.3335    122.3100      3.5915   5.9840545092e+01   5.4338639231e+01    0.2507584    0.2002604 -40.83  0.001351053    1.366    0.268
        81  -9.0201    190.8549     39.9856   6.1203637872e+01   3.2266095455e+01    0.2307158    0.1979509  24.20  0.000562219    1.254    0.203
        82 -10.0667    233.5050    249.8290   9.9867332922e+01  -4.3799761451e+00    0.2524685    0.1275703  33.65 0.0005480456    1.431    0.301
        83  -8.8215    211.6640    250.3214   1.0319824752e+02  -1.3477510629e+00   0.09572291   0.07167703  55.01 0.0007050198    1.708    0.415
        84  -8.9038    184.1541    250.1860   1.0739872485e+02   2.6479110620e+00    0.1422495    0.1027791  50.68  0.001076756    1.335    0.251
        85 -10.5774     39.5446    127.2794   1.2053478484e+02   4.4554884327e+01    0.3056889    0.2016996  62.44  0.001631668    1.475    0.322
        86  -9.5979     92.4033    119.8240   1.0605111467e+02   3.9284810257e+01    0.3659319       0.2328 -43.92  0.001822077    1.754    0.430
        87  -9.8076     92.1939    114.2204   1.0498712888e+02   4.0551638535e+01    0.5377382    0.2815619 -62.89  0.001177058    1.935    0.483
        88  -9.1672     74.9540    124.3169   1.1127001777e+02   4.0912681071e+01    0.1810317    0.1586799  78.40 0.0005305842    1.077    0.072
        89  -9.4501     59.3339    120.6473   1.1464417477e+02   4.3791837100e+01    0.2555186    0.1948083 -41.02 0.0009679389    1.642    0.391
        90  -9.8511    104.5573    117.3269   1.0248891544e+02   3.7800722939e+01    0.4625223    0.3101212  87.94  0.002144291    2.045    0.511
        91  -9.6583     98.4916    114.5271   1.0343362389e+02   3.9446621611e+01    0.4208057    0.2724754  45.85  0.002122606    1.591    0.372
        92  -9.8646     51.2152    118.2463   1.1637312937e+02   4.5297218898e+01    0.2980353    0.2095236  77.28  0.001769827    1.414    0.293
        93  -8.7230    184.7837    236.3889   1.0564359907e+02   4.0449426198e+00    0.1626989   0.07880847  36.44 0.0009495369    1.672    0.402
        94 -10.9748     82.6076    114.8760   1.0760467485e+02   4.1900212688e+01    0.3631206    0.2765741  34.95   0.00073917    1.517    0.341
        95  -9.1330    109.7574    115.4358   1.0078550304e+02   3.7289372610e+01    0.2628067    0.1322857  47.90  0.000890032    2.036    0.509
        96  -9.0915     73.1610     89.3845   1.0480311035e+02   4.9014976997e+01    0.6589449    0.1583683  40.70  0.002158843    4.342    0.770
        97  -8.6852     77.1845     93.7648   1.0464764969e+02   4.7443570671e+01    0.2594266    0.2015177 -20.61 0.0003610604    1.755    0.430
        98  -9.2171     92.9038     88.9273   9.8979468944e+01   4.6015763873e+01    0.3170439    0.2092204  84.32 0.0007396743    2.429    0.588
        99 -10.9131     82.2700     86.6082   1.0144896135e+02   4.8265174864e+01     1.185272    0.3180186 -53.00  0.003885103    3.349    0.701
       100 -11.1334     77.0255    101.9653   1.0649811719e+02   4.5622461500e+01    0.8707983    0.3686229  36.06  0.003317246    2.706    0.630
       101 -11.2463     67.3086    107.6736   1.1031144381e+02   4.5691590599e+01    0.9580953    0.3607892 -45.03  0.003546695    3.408    0.707
       102 -10.1163     74.2311    107.5846   1.0841098010e+02   4.4758814048e+01    0.3594079    0.2471772  38.89  0.001268335    1.616    0.381
       103 -10.8166     85.3058     98.0709   1.0333880004e+02   4.5238114240e+01    0.5099614    0.3447662  82.69  0.001747948    2.022    0.505
       104 -11.0563     88.5760     91.5589   1.0086929805e+02   4.6159227631e+01     1.005228    0.4411381 -62.54  0.002766265    2.777    0.640
       105 -10.1867     45.0024    113.8402   1.1734967824e+02   4.6979320286e+01     0.210839    0.1865051  30.45  0.001355062    1.437    0.304
       106 -10.0305    133.0638    111.8132   9.4276625145e+01   3.3584803588e+01     0.391058    0.2841187 -48.32  0.001947993    1.366    0.268
       107  -9.8980     32.6464    109.3771   1.2001569017e+02   4.9229448015e+01    0.4008986     0.269474 -65.97  0.001952263    1.260    0.206
       108  -9.6770     37.6672    108.3569   1.1851702263e+02   4.8975677517e+01    0.3622457    0.1911718 -50.22  0.001489303    1.975    0.494
       109  -8.6218    104.4723    109.0521   1.0070859618e+02   3.9609511226e+01     0.214751    0.1320781 -52.51 0.0007032945    1.550    0.355
       110  -8.4167    120.3555    109.3070   9.6757926012e+01   3.6619097921e+01    0.1439851    0.1163216  -2.07 0.0006954318    1.721    0.419
       111  -9.7005    133.6118    102.2267   9.1768022253e+01   3.5426061239e+01    0.2854798    0.2173737 -44.62 0.0008041823    1.293    0.227
       112  -9.4265     53.1268    104.7816   1.1369627468e+02   4.8121841660e+01    0.3285031     0.168138 -68.29  0.001629367    1.728    0.421
       113  -9.2562    150.9572    104.9194   8.8415037158e+01   3.1179479491e+01    0.2089787    0.2074408 -49.24   0.00117181    1.004    0.004
       114  -8.7912    195.5544    103.9848   7.8982530383e+01   2.1233090491e+01    0.2328205    0.1432912 -31.16  0.001031627    1.613    0.380
       115  -9.6941    171.0826    102.7221   8.3478764813e+01   2.7075147611e+01    0.3752164    0.2663456  24.32  0.001123796    1.724    0.420
       116  -9.4162    141.3800    102.4133   8.9969589508e+01   3.3747049193e+01    0.3197962    0.2590095 -17.87  0.001597157    1.462    0.316
       117  -9.0445     96.9165    103.0410   1.0131779193e+02   4.2233811575e+01    0.2028849    0.1854895 -70.55  0.001186173    1.008    0.008
       118  -8.2352    105.5676    102.5089   9.8904439457e+01   4.0833846593e+01    0.1413699    0.1322166 -60.61 0.0001388208    1.041    0.039
       119  -9.1641     62.4981    101.5049   1.1046992499e+02   4.7720223947e+01    0.2665005    0.1923577 -73.63  0.001339205    1.262    0.208
       120  -9.0422     64.3708     97.9287   1.0922884591e+02   4.8290068636e+01    0.3140527    0.2688088 -60.81  0.001070668    1.092    0.084
       121 -10.5054    117.9038     98.2553   9.4651347322e+01   3.9424445207e+01    0.7137927    0.4222901 -17.09  0.002310197    4.214    0.763
       122 -10.5237    114.2016     94.5518   9.4649182482e+01   4.0926313746e+01    0.4187026    0.3443772 -77.58  0.002193935    1.353    0.261
       123  -9.5719    159.4366     96.9687   8.4428026758e+01   3.0797052367e+01    0.3168162    0.2645178  65.22 0.0009609293    1.301    0.231
       124  -8.6498    188.8224     94.1658   7.7653889363e+01   2.4436780273e+01    0.2111129    0.1760579  12.48 0.0007047941    1.311    0.237
       125 -10.3340    103.5398     92.5916   9.6978700402e+01   4.3346612076e+01    0.3185678    0.2539727  42.96 0.0007897202    1.343    0.256
       126 -11.2430    108.7195     85.6151   9.3700034667e+01   4.3869748163e+01    0.8148707     0.643911   0.09  0.004049356    1.735    0.424
       127  -9.9629     91.2265     77.2005   9.6282930845e+01   4.8844290619e+01    0.5677044    0.3659526  26.10  0.002640643    2.065    0.516
       128 -10.0562     97.2332     72.0780   9.3008061592e+01   4.8861047871e+01    0.3833115    0.2533234  28.50    0.0013727    1.903    0.475
       129  -9.9668    102.1447     70.5679   9.1119081072e+01   4.8258014028e+01    0.6872076    0.3226539 -55.16  0.002596657    2.486    0.598
       130  -9.6189    105.5882     76.0533   9.1810812222e+01   4.6470085218e+01    0.4606796    0.3016858  64.75  0.002061168    2.040    0.510
       131 -10.6812    103.4519     80.1031   9.3596796584e+01   4.6028664110e+01    0.4979631    0.4055958 -52.64  0.001651029    1.158    0.137
       132  -8.4621    137.3805     90.7710   8.7791009762e+01   3.6926376106e+01    0.2111956    0.1406167 -32.52 0.0007917699    1.603    0.376
       133  -8.5935    187.2574     89.4518   7.6661117767e+01   2.5600104475e+01    0.1887945    0.1504913  68.71 0.0003149358    1.432    0.302
       134 -11.0306    119.0705     85.9502   9.1034825053e+01   4.1759857442e+01    0.7183271    0.3881171  50.92  0.003027561    1.987    0.497
       135  -9.7888    123.4571     80.6344   8.8357759997e+01   4.1936525111e+01    0.4127414    0.2912329  26.96  0.001188124    1.778    0.438
       136 -10.4841    145.9504     86.6479   8.4591575250e+01   3.5825472538e+01    0.4432037    0.3035162 -28.55 0.0006560453    1.582    0.368
       137  -9.6715    140.7964     85.4824   8.5469775459e+01   3.7210617315e+01    0.4937596    0.2943757 -49.54  0.002101575    1.740    0.425
       138 -10.5124    134.0485     78.8873   8.5161010258e+01   3.9993989309e+01    0.7870544    0.3090654 -48.15  0.002662208    2.750    0.636
       139 -10.5042     98.4147     77.3837   9.4241464961e+01   4.7532091645e+01    0.4288884    0.3303997 -51.75 0.0008632508    1.213    0.176
       140  -9.5680    164.4491     85.8050   8.0227446000e+01   3.1682914016e+01    0.2994702    0.2526193   2.58 0.0005445518    1.345    0.256
       141  -8.5617    152.9846     87.4843   8.3220558540e+01   3.4057751112e+01    0.2333183    0.1499509  48.83  0.001024599    1.577    0.366
       142  -8.9495    238.5929     86.2773   6.7266778902e+01   1.4126930696e+01    0.2041136    0.1290257 -16.47 0.0009504047    1.605    0.377
       143  -8.4686     76.9975     84.4778   1.0247237192e+02   4.9547707187e+01    0.1896176    0.1364693  42.30 0.0004614671    1.543    0.352
       144 -10.0792    217.0472     81.1608   6.9177342045e+01   1.9794444274e+01    0.5611441     0.254454 -19.60  0.001985388    2.715    0.632
       145  -9.7594    160.2631     81.8070   7.9964689277e+01   3.3399203976e+01    0.3978077    0.3086542  64.80  0.001905337    1.425    0.298
       146  -9.3967    179.4684     80.4727   7.5620273162e+01   2.8994854552e+01    0.3115516    0.2404295  79.87  0.001129361    1.614    0.380
       147  -8.4804    154.4996     71.4865   7.8104016761e+01   3.6630741280e+01    0.2351564    0.1884894 -71.14  0.001110467    1.518    0.341
       148 -10.0367    150.5815     75.6037   8.0250398803e+01   3.6823381299e+01     0.749191     0.415134 -31.70  0.003031677    1.865    0.464
       149  -9.9171    151.3935     67.2016   7.7443638167e+01   3.8137155099e+01    0.3911392    0.3328056  17.69    0.0012185    1.301    0.231
       150 -10.7981    145.5861     75.8232   8.1464568336e+01   3.7954042290e+01    0.5110675    0.3848633  -4.82  0.002333942    1.701    0.412
       151  -9.6725    247.6938     75.3450   6.3210344167e+01   1.3599174199e+01    0.3158544    0.2063632 -53.26  0.001118096    1.799    0.444
       152  -9.3471    214.7572     72.7394   6.7223354411e+01   2.1583157309e+01    0.5458938     0.293604  -1.31  0.001821361    3.390    0.705
       153  -9.5333    191.8776     73.3934   7.1237099774e+01   2.7097473767e+01    0.3979512    0.2694313 -79.06 0.0009547445    2.270    0.559
       154  -8.8248     84.8553     74.3680   9.7380087269e+01   5.0525666688e+01    0.1851748    0.1743417  11.19   0.00109996    1.204    0.169
       155 -10.5685    139.4688     75.3928   8.2778403382e+01   3.9444537087e+01    0.5130046    0.3538677 -28.19  0.002332285    1.538    0.350
       156  -8.5355    169.1971     70.6257   7.4728508621e+01   3.3186076842e+01    0.2159035      0.13828  43.39 0.0003401944    1.626    0.385
       157  -9.4747     84.8960     67.8698   9.5443128862e+01   5.1902667618e+01    0.3499642    0.2054582 -35.06  0.001591853    1.841    0.457
       158  -9.1617     92.8477     66.2637   9.2509290329e+01   5.0859338782e+01    0.3122392     0.216321  -0.65  0.001379456    2.336    0.572
       159 -10.0252    250.5044     65.3119   6.0273952228e+01   1.4288050364e+01      0.60254    0.1248982 -27.28  0.001715522    4.289    0.767
       160  -8.7523    199.1089     63.1754   6.6990855699e+01   2.6859757831e+01    0.2220798    0.2006627  12.99 0.0003810853    1.152    0.132
       161  -8.8555     61.9598     62.4736   1.0128554770e+02   5.6522588549e+01    0.2014216    0.1546562 -51.88 0.0004418622    1.119    0.106
       162  -7.7302      5.2790     63.2124   1.2146973322e+02   6.1661465500e+01    0.1035492   0.06908089 -48.34            0    1.416    0.294
       163  -9.2646    189.2979     49.7893   6.4538716535e+01   3.1320847141e+01    0.3136431    0.2316704 -62.82 0.0007431317    1.580    0.367
       164 -10.0167    193.1514     54.1614   6.5258397749e+01   2.9698806481e+01    0.3606035    0.2920988 -42.43 0.0005720768    1.221    0.181
       165  -8.4498    198.2133     54.6475   6.4587743585e+01   2.8332394636e+01    0.2304384    0.1534937  63.81 0.0004551601    1.586    0.369
       166  -9.8355    185.9754     53.7496   6.6336321298e+01   3.1605121751e+01    0.6359813    0.3360918  -4.24  0.002064245    3.357    0.702
       167  -9.6054    179.1866     58.9066   6.9158382486e+01   3.2568416804e+01    0.5616238    0.3029213 -15.26  0.001752667    2.422    0.587
       168 -10.7525    182.1186     50.6869   6.6036396747e+01   3.3051063989e+01    0.7325293    0.3713091 -35.32  0.001234672    1.869    0.465
       169  -9.7638    201.7838     57.9875   6.5021210936e+01   2.6944494569e+01    0.5020565    0.3400311   2.29  0.002177509    1.893    0.472
       170 -10.5487    174.4147     56.5112   6.9286442425e+01   3.4158883585e+01    0.6501693    0.3644768  -6.44  0.002221519    2.831    0.647
       171  -8.9690    137.1868     59.4529   7.8187434410e+01   4.2890349211e+01    0.2687016    0.1457026  48.12 0.0006639498    1.883    0.469
       172  -9.0342    243.1375     54.6134   5.8363826315e+01   1.7325440550e+01    0.2564602    0.1729661 -36.62  0.000823084    1.340    0.254
       173  -9.0537    235.6133     55.2262   5.9452042622e+01   1.9004646081e+01    0.2035367    0.1313888 -14.92 0.0008462272    1.619    0.382
       174  -8.7780    227.3007    231.5739   9.8300351732e+01  -1.8604815715e+00    0.1508672   0.07743502  33.45 0.0005532344    1.504    0.335
       175  -8.9633    202.0452    229.0185   1.0191223498e+02   2.2126563232e+00    0.1682005    0.1279554  35.64 0.0003636833    1.055    0.052
       176  -8.7281    225.8036     49.2853   5.9060719773e+01   2.2137959090e+01    0.2174205    0.1780703 -80.50 0.0003821097    1.390    0.281
       177  -9.4853    198.4398     48.1812   6.2588044414e+01   2.9183466014e+01    0.6873977    0.3280569  30.94  0.002204199    3.512    0.715
       178  -9.3014    171.4076     48.7064   6.7315660550e+01   3.6116609240e+01    0.3060357    0.1983161 -22.24 0.0008872611    1.598    0.374
       179  -8.5302     50.5782    227.7950   1.2684277697e+02   2.4024642947e+01    0.1386134   0.07520219  83.34 0.0009555058    1.713    0.416
       180  -8.6290    110.4850    224.5150   1.1665022160e+02   1.6787042407e+01    0.1116467   0.08375871  57.26 0.0008101122    1.031    0.030
       181  -8.7988     52.7943    224.1552   1.2626384649e+02   2.4351697639e+01    0.1264672    0.1090745  64.91  0.001079804    1.349    0.259
       182  -8.3629     40.6869    221.6591   1.2808291990e+02   2.6120336664e+01   0.08236094    0.0758344 -69.11 0.0004006991    1.700    0.412
       183  -8.1701    167.5440    220.5227   1.0646915728e+02   8.6414174837e+00    0.1150313   0.09054571  42.12 0.0001133862    1.005    0.005
       184  -8.3715    234.3285    219.2615   9.5394405758e+01  -1.7211888142e+00    0.1140541   0.06650345  21.76 0.0002033754    1.566    0.361
       185 -12.0128    105.8174     33.4562   7.6689449018e+01   5.4347389873e+01    0.5024626     0.384718 -68.81 0.0002971587    1.822    0.451
       186 -11.6097    112.7402     31.7392   7.4094201869e+01   5.3094076552e+01    0.6722391    0.4301238  81.21  0.001358692    2.714    0.632
       187  -8.6906      3.3888    214.2189   1.3368647722e+02   3.1053436550e+01    0.1401531    0.0624408  80.97 0.0009576349    1.760    0.432
       188  -9.2304     27.5413    211.8560   1.2970398325e+02   2.9145539962e+01    0.2409633    0.1134875  35.99  0.001538965    2.278    0.561
       189  -9.2928    205.9372     46.0269   6.0821700749e+01   2.7549760205e+01    0.4352154    0.1765894  55.31  0.001609399    2.404    0.584
       190  -9.7432    152.6747     43.8561   6.9328537579e+01   4.1648984927e+01    0.3689425    0.3195416 -38.55  0.001234895    1.150    0.130
       191  -9.5721    156.4963     43.9912   6.8596952779e+01   4.0656103890e+01    0.3872377    0.2721284 -64.97  0.000418005    1.826    0.452
       192  -9.1742    230.5571     44.9065   5.7241898543e+01   2.1539121950e+01    0.4748387    0.1933965  47.22  0.001770671    2.755    0.637
       193  -9.8915    213.9276     42.8639   5.8775555977e+01   2.5929881828e+01    0.6051505    0.3190495   1.25  0.002073836    3.278    0.695
       194  -8.0215    196.5095     45.5195   6.2066628483e+01   3.0047375714e+01    0.1502701    0.1448638 -37.29 -7.976327e-05    1.016    0.016
       195 -10.1704     66.8134     43.3639   9.3234205296e+01   5.9766634131e+01    0.3758939    0.2201813 -39.47 0.0007790165    1.512    0.338
       196  -9.2892     12.5877     34.2121   1.1214136404e+02   6.7497413450e+01    0.1930799    0.1800853  50.93  0.001068176    1.403    0.287
       197  -7.2604     11.8148     41.6340   1.1449140576e+02   6.5982255972e+01    0.6015821    0.3353089  19.77  0.003616996    2.306    0.566
       198  99.0000     21.9101     40.4414   1.0993283975e+02   6.5515642671e+01    0.3466614    0.2196711 -88.57   0.00173646    2.323    0.570
       199  99.0000     17.6601     37.2738   1.1081463273e+02   6.6504465065e+01     1.032534    0.5891282 -81.25  0.005330477    2.421    0.587
       200 -10.1963     16.5989     31.5863   1.0954839843e+02   6.7761009483e+01    0.3066976    0.2060581 -81.91  0.000922183    1.920    0.479
       201 -10.1227    222.5290     56.9724   6.1659726811e+01   2.1918153749e+01    0.4102428    0.3949719  86.42  0.001809875    1.118    0.105
       202  -8.8076    219.8243     42.8002   5.7985183309e+01   2.4453318532e+01    0.2154185    0.1937582  14.86 0.0006765415    1.194    0.162
       203 -10.3294    203.1591     37.8276   5.8734874801e+01   2.9338052272e+01    0.6453489    0.4975777  -1.48  0.002590115    1.454    0.312
       204  -9.4156    244.8742    204.1074   9.1337342180e+01  -1.8275694204e+00    0.1819125    0.1318376  18.26  0.001258495    1.099    0.090
       205  -8.8858    233.7658    199.9966   9.2396356045e+01   3.4911980265e-01    0.1427286   0.09193993 -23.53  0.000890216    1.665    0.399
       206  -8.7254     27.9865    194.5043   1.2867449397e+02   3.2144580226e+01    0.1585019   0.04917645  55.27 0.0008103398    2.576    0.612
       207  -9.8765    221.4816     33.1898   5.5013873130e+01   2.5227131538e+01    0.6159639    0.2445667 -24.49  0.002295769    2.427    0.588
       208  -9.2761     10.7416    191.8898   1.3155484988e+02   3.4270725464e+01    0.1855058    0.1042928  85.93  0.001336807    1.379    0.275
       209  -9.6734    212.3030     24.9572   5.3683249993e+01   2.8530153755e+01     0.339281    0.2589513 -18.84 0.0007053825    1.325    0.245
       210  -9.1238    196.8831     41.7393   6.0840994046e+01   3.0459101088e+01    0.2292306    0.2003276  39.82  0.001196941    1.192    0.161
       211  -9.7729    162.4021     41.4614   6.6565769028e+01   3.9507389838e+01    0.6484531    0.2881887  74.16  0.001990698    3.680    0.728
       212  -8.9779    161.8480     37.7825   6.5395703004e+01   4.0172068871e+01     0.384733    0.2224598 -29.60  0.001111892    1.683    0.406
       213  -8.3531    245.9929    187.0334   8.8210728615e+01  -2.2315533013e-01    0.1447038    0.1143942  14.40  0.000423207    1.017    0.016
       214 -10.7400     20.1097    183.9333   1.2947221374e+02   3.4865822198e+01     0.377787    0.1727709  28.01  0.002132053    3.083    0.676
       215  -9.9372    247.6099     25.8722   5.0264417284e+01   1.9723233107e+01    0.5490186    0.2882887  62.56  0.002575378    2.004    0.501
       216  -9.5894    235.1697     38.6481   5.4973580084e+01   2.1195714285e+01    0.3584471    0.2604367 -39.51  0.001362014    1.264    0.209
       217  -9.9555    246.5335     32.9955   5.2247091684e+01   1.9166254083e+01    0.6617119    0.2216889  55.64  0.002494877    3.026    0.670
       218 -10.2973     11.9820    183.8096   1.3093689763e+02   3.5641020837e+01    0.1737787     0.143506 -89.58  0.001460527    1.318    0.241
       219 -10.2499      1.6549    178.3385   1.3253046946e+02   3.7552018241e+01    0.3828038    0.1090545 -82.31  0.001945856    2.889    0.654
       220  -8.4320     37.4850    179.3381   1.2592472513e+02   3.3984467938e+01    0.1793308   0.09023498  39.61  0.001085639    1.956    0.489
       221  -8.7899     80.0032    176.7733   1.1732799178e+02   2.9285190275e+01    0.1580696     0.124482 -51.72 0.0007342332    1.623    0.384
       222  -9.5085     26.2257    176.3907   1.2786527829e+02   3.5705351056e+01    0.2434863    0.1786469  56.57   0.00124954    1.254    0.202
       223  -9.0226      9.9885    157.8009   1.2984545217e+02   4.0843652394e+01    0.2307691     0.100315 -59.62   0.00130379    2.489    0.598
       224 -11.0086     13.9187    165.1035   1.2951765943e+02   3.9054101466e+01    0.5204403    0.1968922  31.49  0.002834564    3.026    0.670
       225 -10.1783      8.6730    162.5988   1.3039603177e+02   3.9998730988e+01    0.2756113    0.1506328  35.48  0.001543303    2.027    0.507
       226  -9.2586    192.5968     36.1496   5.9726161145e+01   3.2310709250e+01    0.2906783    0.2360118  40.34 0.0008859197    1.292    0.226
       227  -9.9358    180.5613     38.1064   6.2229100533e+01   3.5221509446e+01    0.5691728    0.3096905 -58.62  0.002122302    2.508    0.601
       228 -10.1664    173.1939     38.2973   6.3530674049e+01   3.7133755553e+01    0.5356701    0.3216135 -88.03  0.002041064    2.526    0.604
       229 -12.1484     20.7281    148.0475   1.2692225089e+02   4.1905996617e+01    0.7031676    0.4943463  66.41  0.004256474    1.223    0.182
       230 -10.1536      2.4469    160.7219   1.3151058849e+02   4.0875385772e+01    0.3304706    0.1551728 -78.91  0.001997093    1.694    0.410
       231 -10.0758     16.2900    159.5867   1.2869019510e+02   3.9943009488e+01    0.2342198    0.1729753  29.54  0.001712557    1.807    0.447
       232  -9.1632     77.2597    156.1392   1.1542751942e+02   3.3768583364e+01    0.2535268    0.1305541  62.44  0.001236617    2.124    0.529
       233  -9.2644     32.7974    156.3780   1.2503831630e+02   3.9033441828e+01    0.1273559    0.1069949  31.86 0.0003816469    1.594    0.373
       234  -8.8579     48.0057    154.5253   1.2161522105e+02   3.7788591454e+01    0.1381817    0.1053965  -8.41 0.0008089885    2.528    0.604
       235  -8.9919    125.2869    249.1094   1.1651846803e+02   1.1274144289e+01     0.137355    0.1274992  20.01  0.001187176    1.504    0.335
       236  -8.7297     11.7550    248.8615   1.3362219915e+02   2.4861323409e+01    0.1921083   0.05718863  56.83  0.001244575    2.120    0.528
       237  -8.8887      3.4657    246.2049   1.3470045089e+02   2.6025762614e+01    0.1479158   0.06640321 -78.93  0.001125065    2.146    0.534
       238 -11.4840      5.3772     98.5043   1.2613013636e+02   5.3804753968e+01    0.7045574    0.2752032 -50.15  0.003528375    2.721    0.633
       239 -11.4644      4.9608     79.5155   1.2400215234e+02   5.8054807934e+01     1.708706    0.3344942 -68.43  0.006799661    3.196    0.687
       240  -9.4222     48.6656    138.1834   1.1966001852e+02   4.1183635926e+01    0.4157788    0.1811794  51.59  0.002058633    2.283    0.562
       241 -11.3670     36.9308     25.6782   9.8237996060e+01   6.7070009214e+01    0.3550789    0.2983644 -54.04 0.0006453334    1.271    0.213
       242 -13.1289      9.3968    134.4202   1.2835788473e+02   4.5714158619e+01     1.978983    0.9380049 -54.49  0.009565248    2.382    0.580
       243 -12.7118     24.7169     82.2687   1.1822441129e+02   5.6062081643e+01     1.330017    0.8735099 -72.70  0.008222064    1.226    0.185
       244 -12.1248     67.3751     62.1420   9.9354297838e+01   5.5840124584e+01    0.3181905    0.2622156 -56.90 0.0004124597    1.121    0.108
       245  -8.9093    104.3402    245.6616   1.1952718777e+02   1.4612270540e+01     0.109988   0.05931481  63.44 0.0007050382    1.764    0.433
       246  -9.8585    142.2249    243.4524   1.1328653577e+02   9.5719365085e+00      0.28907    0.1445438  31.97  0.001640485    2.280    0.561
       247  -9.1279    171.7672     32.5818   6.1838226834e+01   3.8270480318e+01    0.2872576    0.2206266  24.45  0.001001951    1.454    0.312
       248  -9.5624    228.1786     31.3207   5.3716777604e+01   2.3778887200e+01    0.2997547    0.2169806 -36.80 0.0007120605    1.270    0.213
       249  -9.8891    225.2435     26.7114   5.2735356960e+01   2.5043622921e+01     0.490093    0.2876932 -74.36  0.002062723    2.175    0.540
       250  -9.9451    194.7766     30.6959   5.7687683987e+01   3.2422440257e+01    0.4588044    0.2895074   3.30  0.001637824    2.080    0.519
       251 -10.6188     53.4388     30.1659   9.3132830079e+01   6.4193713660e+01    0.4753854    0.2379206  28.25 0.0008952746    2.523    0.604
       252 -12.2742     56.4386     69.7280   1.0516731244e+02   5.5654204804e+01     1.292051    0.5344699  30.01  0.005478572    3.091    0.676
       253 -12.4043     40.2467     65.6699   1.0966080116e+02   5.8387910671e+01     1.603387    0.8768992  25.18  0.008421754    2.335    0.572
       254 -11.6856     78.1103     61.8370   9.5716018823e+01   5.4277394981e+01     1.532624    0.5224969 -38.27  0.003123278    3.713    0.731
       255 -12.0595    101.8517     54.8193   8.5986458183e+01   5.1431918184e+01     1.187942     1.003264  24.46  0.004183603    1.298    0.230
       256  -8.6152    243.6159    239.3176   9.6934962909e+01  -4.8994821328e+00   0.09330102   0.07596551  51.78 0.0007018894    1.830    0.453
       257 -10.2308     14.6963    236.6092   1.3277999913e+02   2.6417529144e+01    0.2435794    0.1377826 -63.00  0.001391932    2.459    0.593
       258  -9.8009    175.9075     15.2916   5.5275100446e+01   3.9219141091e+01    0.2706305    0.2338089  29.57 0.0005167247    1.209    0.173
       259 -10.4959    149.1489     23.6969   6.2691403443e+01   4.5327479215e+01    0.7703323    0.2680478  60.07   0.00265005    2.722    0.633
       260  -9.3447     12.9193    232.3415   1.3288730292e+02   2.7249110405e+01    0.2133642   0.08771081  61.80  0.001051831    1.695    0.410
       261  -8.5960     11.3070    153.3045   1.2928872075e+02   4.1640927552e+01   0.09839795    0.0722666 -60.83 0.0002487538    1.604    0.377
       262 -11.2586     29.8309    139.7556   1.2418168985e+02   4.2810141191e+01    0.7433499    0.3956811  82.12  0.002891048    1.783    0.439
       263  -8.9829     97.8511     22.2823   7.4207447782e+01   5.7722126155e+01    0.2400985    0.1787176 -36.43 0.0009279252    1.331    0.249
       264  -9.2686    222.6521     45.8908   5.8506568783e+01   2.3353288555e+01    0.2596788    0.1929789  50.82  0.001306665    1.417    0.294
       265  -8.6186     82.7966     13.1114   7.4535696987e+01   6.2048510035e+01     0.174143    0.1384994  18.03 0.0009933456    1.233    0.189
       266 -10.2998     22.9708    136.2574   1.2542102767e+02   4.4193286105e+01    0.4660353    0.1854365 -72.33  0.002439396    2.018    0.504
       267 -10.8444     34.7586    150.4671   1.2409413278e+02   4.0059125093e+01    0.4237082    0.2080444  45.95  0.001383721    1.914    0.477
       268 -10.6219     39.3259    147.2786   1.2278516375e+02   4.0256269167e+01    0.3258074    0.2724391  77.18  0.001429373    1.112    0.101
       269 -10.2085     38.2508    143.0202   1.2259515358e+02   4.1272332244e+01    0.2475219    0.1913734  45.87 0.0003647501    1.410    0.291
       270  -8.6070     41.1860    236.8403   1.2881057400e+02   2.3662214659e+01    0.1160212   0.09964974  73.76 0.0007338664    1.409    0.290
       271  -8.9963     87.1582    148.9296   1.1223641526e+02   3.3842594699e+01    0.2045653    0.1545751  79.72 0.0007187551    1.277    0.217
       272  -9.8800     66.2851    148.2797   1.1685637194e+02   3.6881050796e+01    0.2483702    0.2083677  19.93  0.001596116    1.684    0.406
       273  -8.9705     60.8081    147.6574   1.1801444198e+02   3.7708753074e+01    0.1603213    0.1517305  30.58  0.000548205    1.422    0.297
       274  -9.4311     45.5087    145.3222   1.2119814676e+02   4.0003838672e+01     0.258371    0.1780449 -69.29  0.001656892    1.332    0.249
       275  -8.4401     80.5388    140.5066   1.1250007983e+02   3.6589428132e+01    0.1281926    0.1118494  87.86 0.0001347525    1.022    0.021
       276  -9.2630     59.0319    139.3197   1.1737252352e+02   3.9714229059e+01    0.1695538     0.141967  72.93 0.0004669509    1.097    0.089
       277 -10.1475     54.6766    137.8251   1.1820409933e+02   4.0564644208e+01    0.2850738    0.1591606 -57.06  0.001037758    1.780    0.438
       278  -9.0556     85.6634    134.4346   1.1032927936e+02   3.7143294349e+01    0.3050525    0.1736712  28.20  0.001421839    2.439    0.590
       279 -11.1452     46.5754    130.0169   1.1915489767e+02   4.3200642898e+01    0.6646819    0.3192658 -50.57  0.003294765    2.377    0.579
       280 -10.5800     72.2493    129.7472   1.1282644156e+02   4.0088616337e+01    0.3806453    0.2180917 -58.42  0.001963268    1.633    0.388
       281 -11.9058     58.3810    125.5606   1.1562870164e+02   4.2812978752e+01    0.9454985    0.2888022  44.00  0.003300531    3.200    0.688
       282  -9.7224     69.1266    116.1604   1.1136415317e+02   4.3534225209e+01     0.292506    0.1765514 -64.38 0.0009201241    1.481    0.325
       283 -10.4293     65.9654    125.0177   1.1364363218e+02   4.1974311258e+01    0.2575782    0.2450615  48.93  0.001277179    1.271    0.213
       284 -10.0869     68.6074    121.1966   1.1235695422e+02   4.2476281235e+01    0.3456685    0.2114352 -61.19  0.001263767    1.475    0.322
