#   1 NUMBER                 Running object number                                     
#   2 MAG_AUTO               Kron-like elliptical aperture magnitude                    [mag]
#   3 X_IMAGE                Object position along x                                    [pixel]
#   4 Y_IMAGE                Object position along y                                    [pixel]
#   5 X_WORLD                Barycenter position along world x axis                     [deg]
#   6 Y_WORLD                Barycenter position along world y axis                     [deg]
#   7 A_WORLD                Profile RMS along major axis (world units)                 [deg]
#   8 B_WORLD                Profile RMS along minor axis (world units)                 [deg]
#   9 THETA_WORLD            Position angle (CCW/world-x)                               [deg]
#  10 FWHM_WORLD             FWHM assuming a gaussian core                              [deg]
#  11 ELONGATION             A_IMAGE/B_IMAGE                                           
#  12 ELLIPTICITY            1 - B_IMAGE/A_IMAGE                                       
         1 -13.9421    226.6011     34.1408   3.3528361880e+01   2.6181674270e+01     1.082819    0.8053575  47.22  0.006834024    1.829    0.453
         2 -12.4664    249.4001     13.0408   2.7720114233e+01   2.4231919148e+01    0.5851995    0.2418352 -39.31  0.003037175    2.106    0.525
         3 -11.8385      2.2650      6.8738   8.3150795759e+01   7.3816957181e+01    0.7817332    0.1471911 -44.35  0.002978583    4.792    0.791
         4 -11.5523      8.6360      4.1523   7.7758348145e+01   7.3587142046e+01     0.331477    0.2175397 -51.53  0.001964596    2.801    0.643
         5  -9.5109     16.3098      1.6566   7.1870978947e+01   7.3037518997e+01   0.09357338   0.08788391   6.28 -3.422242e-06    1.698    0.411
         6 -15.0133     23.1844    247.7331   1.1856669433e+02   1.8395477702e+01      6.32729     1.381064  26.87   0.01999126    6.456    0.845
         7 -14.9367    104.0296    227.8270   9.9270892346e+01   1.2342438445e+01      6.78155     1.451979  40.52    0.0213069    3.877    0.742
         8 -11.7081     47.8479    177.7850   1.0675158529e+02   3.1705715523e+01    0.4010583    0.2995547 -30.66  0.001064939    1.675    0.403
         9 -11.5893     54.9392    171.7532   1.0402790221e+02   3.2392646740e+01    0.3367131    0.2629021 -41.02 0.0005299347    1.409    0.290
        10 -13.1467     75.1682    155.7037   9.5696478383e+01   3.3813669106e+01     1.556457    0.8633657  62.71  0.001417022    2.731    0.634
        11 -13.1523     67.7495    143.9887   9.5758939098e+01   3.7878956611e+01      1.00652    0.6504919  65.26  0.002796239    2.077    0.519
        12 -12.7627     52.5627    115.8856   9.5032856180e+01   4.7008776994e+01     1.548352    0.3555115 -62.71  0.001579317    5.527    0.819
        13 -12.8831     52.9212    158.0472   1.0259836757e+02   3.6155601189e+01    0.5973976    0.3780488 -38.17  0.002783129    1.813    0.448
        14 -10.9946     22.9284    223.5975   1.1706578337e+02   2.3503945132e+01    0.2974593    0.1707488  65.20  0.001664298    1.595    0.373
        15  -9.2704    134.3657    142.4772   7.6209526194e+01   2.6769881899e+01    0.2728521    0.1466403 -47.45 0.0009669763    1.819    0.450
        16 -10.5843     91.7330    142.7195   8.8233320267e+01   3.4547475573e+01    0.3411056    0.2978499  16.11 0.0009708341    1.230    0.187
        17  -9.7305     95.2515    139.0735   8.6394155385e+01   3.4868446078e+01    0.4044082    0.2372424 -30.79  0.001351765    2.219    0.549
        18 -11.9470     79.1484    140.5919   9.1590461254e+01   3.7091523649e+01    0.3507488    0.2797915 -45.22 0.0003342166    1.213    0.176
        19  -8.4351    137.6749    135.2570   7.3644169852e+01   2.7772711679e+01    0.1522281    0.1247945  77.40  0.000185408    1.552    0.356
        20 -10.6640    105.8079    131.0260   8.1419880900e+01   3.4973092287e+01    0.4062401    0.3461208   7.91  0.001011949    1.300    0.230
        21 -15.0103     24.1252    196.7074   1.1472071501e+02   2.9557527448e+01     3.148772     1.853673  63.51   0.01173166    1.664    0.399
        22 -10.2816     92.2194    127.1676   8.4592911595e+01   3.8335102793e+01    0.3430172    0.2650808 -24.48 0.0007923049    1.447    0.309
        23 -12.7943     56.0253    128.4332   9.6465749448e+01   4.3416046225e+01     1.189281     0.500039 -72.77  0.003774185    3.615    0.723
        24  -9.5093    103.8764    119.3732   7.9126810986e+01   3.8116830772e+01    0.2367545    0.2069374 -57.37 0.0003225469    1.180    0.152
        25 -14.2634     12.6133    205.6213   1.1805451423e+02   2.8539607517e+01     1.097096    0.9911987  17.61  0.006390805    1.417    0.295
        26  -9.4785    204.8214    110.8583   5.3371066945e+01   1.8838406152e+01    0.3401222    0.1736968  35.28  0.001330953    2.902    0.655
        27 -10.9982     66.8261    162.2626   9.9244447638e+01   3.3295646870e+01    0.2811493    0.2662186 -73.95 0.0003636343    1.008    0.008
        28 -10.8947     13.3150     60.4423   9.7174858174e+01   6.3539882775e+01    0.2669891    0.1835261 -46.60 0.0005789277    1.214    0.177
        29 -11.6735      2.4234     51.5770   9.9935525268e+01   6.6031902854e+01    0.4314688    0.1664911 -55.42  0.002108717    2.055    0.513
        30 -11.8106    206.6952     50.9390   3.9258202005e+01   2.8143498296e+01    0.5431851    0.2958603 -68.93  0.002546719    2.216    0.549
        31  -8.7003     92.0543     52.9354   6.2694851313e+01   5.3785664493e+01    0.1647478    0.1503462  19.39 0.0003965484    1.012    0.012
        32 -11.6657     10.8200     42.8216   9.3016173207e+01   6.7211484278e+01    0.3767731    0.2179074  33.76  0.001412972    2.155    0.536
        33 -11.4183      3.7320     38.5815   9.5322412849e+01   6.8486490008e+01    0.3220724    0.2561622  17.57   0.00223768    1.455    0.312
        34 -10.6278    120.5641     28.6337   4.6860860951e+01   5.0768734738e+01    0.3957224    0.2596006 -75.66  0.001360231    2.266    0.559
        35 -15.7819     29.9549    186.2604   1.1233758946e+02   3.1514891655e+01     10.95069     3.894912  88.45   0.03062757    5.760    0.826
        36 -10.7372     28.7360    219.9918   1.1555279588e+02   2.3708311098e+01     0.372536    0.1673867  77.52  0.001634046    2.655    0.623
        37  -9.9199    189.8997     15.4905   3.2953619908e+01   3.6133200705e+01    0.1807775     0.152246 -59.83 0.0007439502    1.162    0.139
        38 -13.2293      6.8718    227.1189   1.2060738944e+02   2.4275283093e+01     1.389856    0.6652792  79.99  0.007400271    1.967    0.491
        39 -11.3341     24.4226    231.6228   1.1730093977e+02   2.1610927416e+01    0.4408053    0.1197958  43.51  0.001456922    2.812    0.644
