#   1 NUMBER                 Running object number                                     
#   2 MAG_AUTO               Kron-like elliptical aperture magnitude                    [mag]
#   3 X_IMAGE                Object position along x                                    [pixel]
#   4 Y_IMAGE                Object position along y                                    [pixel]
#   5 X_WORLD                Barycenter position along world x axis                     [deg]
#   6 Y_WORLD                Barycenter position along world y axis                     [deg]
#   7 A_WORLD                Profile RMS along major axis (world units)                 [deg]
#   8 B_WORLD                Profile RMS along minor axis (world units)                 [deg]
#   9 THETA_WORLD            Position angle (CCW/world-x)                               [deg]
#  10 FWHM_WORLD             FWHM assuming a gaussian core                              [deg]
#  11 ELONGATION             A_IMAGE/B_IMAGE                                           
#  12 ELLIPTICITY            1 - B_IMAGE/A_IMAGE                                       
         1 -11.6792     80.0892     23.4306   8.9743176984e+01   5.9951614476e+01    0.6907593    0.2519467  37.25   0.00289818    2.767    0.639
         2  -8.9247     46.4697     20.3318   1.0022096055e+02   6.5534167604e+01    0.3624896    0.1816607 -21.75  0.001588019    2.034    0.508
         3  -8.8479    231.8231     15.7361   6.0424590158e+01   2.6157438527e+01     0.306974    0.1791167 -37.71   0.00118925    1.776    0.437
         4  -9.2107     79.3637     12.9321   8.5837777579e+01   6.1228430535e+01    0.4434682    0.2087883  39.50  0.002280256    1.868    0.465
         5  -9.1317     74.0884     13.4937   8.7680271055e+01   6.2103359922e+01    0.3877996    0.2241856  10.85  0.001446508    2.024    0.506
         6  -9.4819    123.9084     11.7281   7.4319481908e+01   5.2253185240e+01    0.6165335    0.2608569  27.35  0.001980851    4.365    0.771
         7  -8.8634     64.4393     14.2077   9.1122577557e+01   6.3637459155e+01    0.3074115    0.1573941  28.55  0.001191135    1.919    0.479
         8  -9.4278    134.0842     13.5979   7.2930672816e+01   4.9760509707e+01    0.2660009    0.1940466  40.78 0.0002691718    1.299    0.230
         9  -8.1935     96.2849     13.2771   8.1242443269e+01   5.7979343365e+01    0.3128466    0.1340271  24.91  0.001142938    3.936    0.746
        10  -9.2941     32.1797     10.7324   1.0193624001e+02   6.8489065207e+01    0.3260559     0.178378  10.36 0.0007569817    1.956    0.489
        11  -9.0653     32.0252      6.1139   9.9943270770e+01   6.9051374854e+01    0.1993814    0.1352563 -11.86 0.0003855144    1.201    0.168
        12  -9.8147    130.8511      7.1324   7.1463802423e+01   5.1094334977e+01    0.3570073    0.2653396 -30.29  0.000625436    1.543    0.352
        13  -8.0001    134.2541      3.0271   6.9544559083e+01   5.0661859919e+01    0.1867941    0.1454622  44.15 0.0002696168    1.182    0.154
        14  -9.0053     71.1845      9.0464   8.6774397227e+01   6.3051651765e+01    0.2963395    0.1289141  37.75  0.001496521    2.041    0.510
        15  -9.6827     46.6707      6.4942   9.4206616305e+01   6.7125383426e+01    0.2857585     0.172864  20.60 0.0001432532    1.487    0.327
        16  -9.2019     41.1652      6.0302   9.6145770513e+01   6.7920698666e+01    0.3329016    0.1859151  -1.87  0.001565705    1.928    0.481
        17 -10.0350      7.6590      5.4130   1.1076228103e+02   7.1551778937e+01    0.4568315    0.1983624   8.11  0.002470041    2.926    0.658
        18  -9.1525    119.2397      6.8421   7.3628169493e+01   5.3727561340e+01    0.2236166    0.1709793  41.45 0.0002236367    1.152    0.132
        19  -9.0766     76.2299      5.9284   8.3946651068e+01   6.2462179562e+01    0.3015942     0.199475 -22.85   0.00189064    1.585    0.369
        20  -7.5930    100.5183      6.5856   7.7692346677e+01   5.7736709000e+01    0.1248861    0.1015012  37.32 0.0001405242    1.027    0.027
        21  -8.7094    110.6563      3.4835   7.4265584914e+01   5.5872861384e+01     0.341161    0.1931895 -33.72  0.001236341    2.043    0.511
        22  -8.4389    105.2693      1.9867   7.4911177677e+01   5.7133138569e+01    0.4228843    0.1332493  44.99   0.00178226    2.614    0.618
        23  -7.7542     91.6161      4.7401   7.9212808613e+01   5.9679275339e+01    0.1315572   0.07254413  33.22 0.0006974459    1.680    0.405
        24  -7.9648    175.9247      3.0994   6.3437805837e+01   4.0769271510e+01    0.1906533    0.1600909  73.05 0.0003999548    1.047    0.044
        25  -7.8517    153.7759      3.3743   6.6513837351e+01   4.6060181803e+01     0.195862   0.09325784  57.25 0.0006511264    1.722    0.419
        26  -8.4934    143.2274      2.1734   6.7783709876e+01   4.8651060437e+01    0.2066281    0.1735187  56.65 0.0003063648    1.048    0.046
        27  -8.1708     56.6724      2.9194   8.8969179923e+01   6.6008333798e+01    0.2048541    0.1268565  29.82   0.00129537    1.368    0.269
        28  -8.2941    156.3365      6.6922   6.7085903631e+01   4.5154785728e+01    0.2485601    0.1433013  36.73 0.0009315989    2.033    0.508
        29  -7.9984      2.9512      1.4147   1.1131333783e+02   7.2433628710e+01     0.137738   0.08249483  12.96 0.0004706065    1.575    0.365
        30  -7.8228    109.0046    106.9851   1.0803386623e+02   4.0053392177e+01     0.240284    0.1863436  -6.45  0.001125943    1.724    0.420
        31 -10.2708    218.2553    250.2335   1.1263290929e+02  -9.8168399856e+00     0.601667    0.1316795  39.93  0.002116807    3.909    0.744
        32  -9.4529    205.9801    247.4875   1.1445976528e+02  -7.4770582785e+00    0.2603269    0.1809904  70.39  0.001317327    2.745    0.636
        33  -8.0478     93.8315    103.6321   1.1147357887e+02   4.3575738143e+01     0.303298     0.183732  26.50  0.001317311    2.072    0.517
        34  -7.6189     66.6321    104.6975   1.1983128556e+02   4.7554495406e+01    0.1420448    0.1000387 -23.69  0.000703398    1.742    0.426
        35  -7.3172    140.3360     99.3039   9.7677543122e+01   3.5103606555e+01    0.1571095    0.1245066   8.59 0.0004779771    1.667    0.400
        36  -9.5153     16.1318     94.9186   1.3335263792e+02   5.4883446816e+01    0.2892436     0.206297 -77.98  0.001166572    1.407    0.289
        37  -9.3082     12.3869     93.7486   1.3429857180e+02   5.5390588120e+01    0.3071701    0.1537393 -51.72  0.000972299    1.550    0.355
        38  -7.1982    150.6536     95.6581   9.4170734515e+01   3.3467670475e+01     0.162063    0.1249742   9.85 0.0007046025    1.791    0.442
        39  -7.3728     83.5051     93.4732   1.1185712504e+02   4.7515824489e+01    0.1414285    0.1294622 -33.38 1.049661e-05    1.029    0.028
        40  -8.5956     44.2362     92.1626   1.2388552096e+02   5.3031179944e+01    0.2895969    0.1726287 -23.81  0.001433474    2.168    0.539
        41  -8.3254     96.7871     90.3070   1.0699909486e+02   4.5913467955e+01    0.3866894    0.2248345  11.79  0.001334348    3.645    0.726
        42  -8.0425    110.3075     90.4185   1.0313515183e+02   4.3331821454e+01    0.2816797    0.1319738  30.61 0.0009561018    3.112    0.679
        43  -8.3574     64.2344     86.1927   1.1593868758e+02   5.1909725713e+01    0.5197804    0.2348921 -25.07  0.001372206    6.842    0.854
        44  -7.8587    126.2345     84.1938   9.6996775607e+01   4.1262963549e+01    0.2501889    0.1628615   9.64  0.000941763    2.735    0.634
        45  -9.9294     37.5130     80.9960   1.2343539236e+02   5.6083303126e+01    0.5685201    0.3050415 -11.71  0.002538744    3.098    0.677
        46  -7.7910      2.2752     84.3392   1.3579193262e+02   5.7990285422e+01    0.1213073   0.06189186 -45.48 0.0002862021    1.613    0.380
        47  -7.2877    140.6509     79.6678   9.2030060355e+01   3.8884473407e+01    0.1584261    0.1191894  14.13 0.0007048288    1.771    0.435
        48  -8.4919     88.5978     78.9046   1.0615795508e+02   4.9661419723e+01    0.2949795    0.1952791  21.10 0.0008279023    1.832    0.454
        49  -9.8370      8.3998     77.2540   1.3243398213e+02   5.9116645006e+01    0.4889912    0.2458379 -22.41  0.002606174    2.495    0.599
        50  -7.9299    184.1623     78.1004   8.2245849179e+01   2.8629928203e+01     0.223379    0.2063673  20.80 0.0008894401    1.272    0.214
        51  -7.7141    147.0649     77.9505   9.0003945504e+01   3.7701078476e+01    0.1701266    0.1674242 -79.01 0.0009294264    1.025    0.025
        52  -8.3696     48.2571     77.8536   1.1899265687e+02   5.5607406897e+01    0.2460655    0.1514614 -14.55  0.001228752    2.158    0.537
        53  -9.1669     32.2625     62.3560   1.2037784395e+02   6.0299135542e+01     0.518478    0.2003171 -57.56  0.002291819    2.693    0.629
        54  -9.1958     27.4539     60.0000   1.2149127823e+02   6.1173976964e+01    0.3465016    0.1301473  14.94  0.001444558    3.994    0.750
        55  -9.4973     28.9727     68.9994   1.2336773311e+02   5.9299987252e+01    0.3334635    0.1925793 -16.48   0.00147367    2.146    0.534
        56  -9.1824     23.7280     74.2516   1.2652260049e+02   5.8677552809e+01    0.4625305    0.1402551 -45.08  0.001997601    2.630    0.620
        57  -8.3571     23.4677     69.4927   1.2545440689e+02   5.9655402480e+01    0.2145071    0.1689595 -49.03 0.0005813201    1.086    0.079
        58  -8.0413     74.9674     74.2845   1.0907753610e+02   5.2777199666e+01    0.1866957     0.164226   7.30 0.0005074471    1.152    0.132
        59  -7.7860    105.8254     67.3884   9.7470644049e+01   4.8628433586e+01    0.2046745    0.1271317  33.96 0.0007323128    1.707    0.414
        60  -8.6931     83.2226     64.5979   1.0340838219e+02   5.3265238625e+01     0.442775    0.2695893  -3.61  0.001857814    2.731    0.634
        61  -9.4265    240.1497     64.4906   7.0215753861e+01   1.7497106860e+01    0.2515809    0.2255044  82.54 0.0004403135    1.153    0.133
        62  -9.0755     18.8114     61.3933   1.2507801175e+02   6.1594070761e+01    0.2799681    0.1396591 -25.43  0.001470801    2.265    0.559
        63  -9.7013     62.1450     61.4546   1.0939997934e+02   5.7048730943e+01     0.754052    0.2550039  28.22  0.002659892    4.152    0.759
        64  -7.6136    122.9825     60.7751   9.0698585095e+01   4.6173714758e+01    0.2583487    0.1535346   4.81 0.0008878636    3.606    0.723
        65  -8.9975     36.6057     59.6416   1.1799521061e+02   6.0396969956e+01    0.3243671    0.1753345 -28.95  0.001715954    1.884    0.469
        66  -9.2708    244.3470     60.1099   6.8731456813e+01   1.7240215676e+01    0.2267562    0.1770995  63.75 0.0008327373    1.372    0.271
        67  -8.3300     97.9764     57.2105   9.6449673705e+01   5.1891576326e+01    0.4621693    0.2612239  -2.67  0.001594555    3.975    0.748
        68  -7.5712    111.2107     58.5390   9.3113089787e+01   4.9045323570e+01    0.2021204    0.1248819  35.50 0.0009402609    1.675    0.403
        69 -10.1823     74.9203     50.2418   1.0131143343e+02   5.7075096795e+01    0.3820485    0.2688975 -13.49 0.0003489805    1.490    0.329
        70  -8.1427    118.3828     51.0971   8.8765673787e+01   4.8697646908e+01    0.2259217    0.1765313  37.89 0.0003797672    1.224    0.183
        71  -8.9142     45.5683     48.6545   1.1117761990e+02   6.1399417645e+01    0.3022537    0.2049876  -3.23  0.001125639    1.575    0.365
        72  -8.2351    106.7041     48.8676   9.1147377433e+01   5.1483527889e+01    0.3245193    0.1670097  20.52  0.001092629    3.942    0.746
        73  -7.2889     91.4621     48.5008   9.5443611600e+01   5.4496815735e+01    0.1336631    0.1198386   5.73 0.0001745195    1.007    0.007
        74  -8.7908     10.5234     47.0705   1.2435332838e+02   6.4831508254e+01    0.3242807     0.140853 -44.46  0.001148004    1.706    0.414
        75  -9.1227     13.6996     45.6685   1.2267434553e+02   6.4868910653e+01    0.5632409    0.1705073 -36.37  0.002374875    3.155    0.683
        76  -8.7241     56.0050     43.4903   1.0551985735e+02   6.0943347811e+01    0.3440083    0.1895558  -7.97  0.001285965    2.793    0.642
        77  -8.0583     58.7689     40.4290   1.0341179236e+02   6.1042337452e+01    0.2062403     0.144735  22.36 0.0008834554    1.396    0.284
        78  -8.9583      2.8953     43.8651   1.2651746930e+02   6.5863364090e+01    0.4323092    0.0924367 -47.22  0.001962829    2.810    0.644
        79 -10.6972     83.1051     40.2419   9.5102323366e+01   5.7225348802e+01    0.3840797    0.2548149  -7.32 0.0002733464    1.727    0.421
        80  -8.7421     87.7882     38.1314   9.2883919226e+01   5.6684072037e+01    0.2424727    0.1819501 -10.47  0.000635346    1.344    0.256
        81  -7.7361    112.8288     42.4114   8.7312578450e+01   5.1143300880e+01    0.2073628    0.1123486  40.04 0.0009459813    1.799    0.444
        82  -7.4943    124.0505     39.7711   8.3626465582e+01   4.9060292195e+01    0.2275049    0.1362769  31.64 0.0007568685    1.901    0.474
        83  -8.4680     92.3809     37.8382   9.1398245262e+01   5.5871865872e+01    0.3953059    0.1911947 -39.58  0.001311648    2.228    0.551
        84 -10.2776    136.9792     38.7855   8.0367772585e+01   4.6235438796e+01    0.2361277    0.2120304  44.72  0.000231554    1.039    0.037
        85  -8.4636     35.6901     38.3211   1.1142203203e+02   6.4201189213e+01    0.1917278    0.1602601 -56.21 0.0006442876    1.656    0.396
        86  -9.1586     38.5099     35.5119   1.0928800593e+02   6.4340325446e+01    0.3255573    0.1814851  20.24  0.001396278    1.893    0.472
        87  -9.5450     69.4764     36.1193   9.8054271559e+01   6.0084896076e+01    0.5719628    0.3166426  22.13  0.002853417    2.089    0.521
        88  -8.9457     61.3875     36.8637   1.0115491356e+02   6.1203552908e+01    0.2104123    0.1708647  58.25  0.001291898    1.881    0.468
        89  -8.9347     56.4501     34.9154   1.0220850980e+02   6.2190116423e+01    0.2940426    0.1815643 -15.37 0.0007012766    1.683    0.406
        90  -9.6203     22.7981     35.6172   1.1571858623e+02   6.5873670487e+01    0.4280912    0.1677207  25.87  0.002236835    2.758    0.637
        91  -8.8938     21.9182     32.1130   1.1485613561e+02   6.6512731116e+01    0.2199944     0.185796 -26.37 0.0003959641    1.208    0.172
        92  -9.7125      6.2954     33.7924   1.2209070993e+02   6.7406169429e+01    0.3291552     0.238584 -29.58  0.002067097    1.043    0.041
        93  -9.1127      1.6214     30.0322   1.2291071284e+02   6.8311685305e+01    0.3133577    0.1524946 -63.09  0.001671566    2.896    0.655
        94  -8.9903     41.9868     27.1471   1.0472908963e+02   6.5179404737e+01    0.3009166    0.2193994 -28.98  0.001065411    1.250    0.200
        95  -9.4161    179.2831    248.8393   1.1969373889e+02  -3.2220792166e+00    0.1823802    0.1623551  87.79 0.0008257345    1.443    0.307
        96  -8.8692     61.7270     26.8945   9.7205691692e+01   6.2537146469e+01    0.2900637    0.1585302  23.82 0.0003873392    1.939    0.484
        97  -8.6871     63.5102     23.0117   9.5034734960e+01   6.2759238454e+01    0.2399243    0.1641687 -40.72  0.001348743    1.768    0.434
        98  -8.5679     25.7374     25.2479   1.1068518767e+02   6.7213802383e+01    0.2898909    0.1166854 -33.16  0.001508036    2.194    0.544
        99  -8.6336     28.9540     21.0447   1.0765461323e+02   6.7495119421e+01    0.2831385    0.1711496 -26.93  0.001763287    1.375    0.273
       100  -8.3451    144.8163     23.4588   7.4001346468e+01   4.6229315398e+01    0.1980494    0.1883581   0.84 0.0003434912    1.177    0.151
       101  -7.4580    118.4790     24.4824   7.9806837282e+01   5.2161106212e+01    0.1328261     0.116038  38.67 0.0001233677    1.017    0.017
       102  -7.8643    128.8175     22.4145   7.6836760627e+01   5.0072575322e+01    0.1962326    0.1041032  48.36 0.0008218191    1.655    0.396
       103  -9.1262     14.4686    105.5271   1.3568849427e+02   5.2672205744e+01    0.3403922    0.1499822 -32.05   0.00152699    3.224    0.690
       104  -7.3271    156.5084     20.4886   7.1050673363e+01   4.3744583066e+01    0.1352535    0.1183882  65.43  -5.7961e-05    1.007    0.007
       105  -8.4899    140.3331     19.9349   7.3750303700e+01   4.7667996802e+01    0.2389762     0.167115  53.29 0.0003512079    1.248    0.199
       106  -7.9788     92.9503     20.3556   8.4794589144e+01   5.7907501063e+01    0.1824229    0.1429965  36.26 0.0005098003    1.118    0.105
       107  -8.5319      9.8895     19.6792   1.1555191452e+02   6.9390717663e+01    0.2609967    0.1325194  -8.50  0.001143581    2.217    0.549
       108  -7.2127    146.6958     19.2658   7.2377596004e+01   4.6232076530e+01    0.1281379   0.09768642 -80.41 0.0002106443    1.527    0.345
       109  -8.1982      5.0801     18.7243   1.1740511195e+02   6.9876031560e+01    0.1588692    0.1319708 -45.28 0.0006823705    1.518    0.341
       110 -10.0226    166.9812    244.8057   1.2145566868e+02  -4.7293184257e-01    0.2416244    0.1952204  42.07  0.001513852    1.038    0.036
       111  -8.4897    127.5358     17.0278   7.5333882390e+01   5.0924015831e+01    0.1941211    0.1548201  51.35 0.0003542902    1.088    0.081
       112  -8.5187    113.1183    245.1159   1.3184936684e+02   8.6805467174e+00    0.1768286     0.157295  49.48 0.0004468199    1.229    0.187
       113  -7.7806    118.4572    241.1665   1.3035712448e+02   8.5202964262e+00    0.2193997    0.1211961 -53.67  0.001134993    2.119    0.528
       114  -7.6364    189.4861     15.5135   6.4934771572e+01   3.6229330027e+01    0.1332825     0.113472  80.62 4.675039e-05    1.027    0.027
       115  -7.5518     37.7118    239.2944   1.4501864544e+02   2.0756257004e+01    0.1191991   0.06419766  69.88            0    1.548    0.354
       116  -9.6431    188.0819    233.8989   1.1568845442e+02  -2.3943270370e+00    0.3401706    0.2464211 -71.25  0.001808445    2.172    0.540
       117  -7.3398     43.3401    210.2707   1.4162031329e+02   2.6014299822e+01    0.1046004   0.09262005 -52.51 0.0006989713    1.606    0.377
       118 -10.1313    169.1245    208.3080   1.1519557720e+02   5.5747113118e+00    0.2386665      0.22153  56.80 0.0002092862    1.071    0.066
       119  -7.4220    170.1950    193.6414   1.1231185365e+02   8.2260605927e+00    0.2024246    0.1295372  35.05 0.0003249701    1.595    0.373
       120  -8.9651    116.0686    152.5388   1.1674117343e+02   2.8128203017e+01    0.2630189    0.2108212 -59.13 0.0002779445    1.212    0.175
       121  -7.6386    113.3041     11.3317   7.6440250169e+01   5.4623867389e+01    0.1343835   0.08289909  30.68 0.0002174613    1.657    0.397
       122  -7.4456    109.3471     11.2851   7.7318195967e+01   5.5475533908e+01    0.1353038   0.08013695  33.65 0.0003963461    1.650    0.394
       123  -7.4283    133.6578    147.7008   1.1134879327e+02   2.5774145614e+01    0.1537241    0.1261865  -2.94 0.0007035742    1.670    0.401
       124  -9.1667     67.2288    144.7458   1.2778914400e+02   3.8065122823e+01    0.4202868     0.288375  74.02  0.002120914    1.697    0.411
       125  -9.1827    228.1462    138.8866   8.9052491782e+01   6.9938000780e+00    0.2875601    0.2510936  32.35 0.0004419728    1.247    0.198
       126  -7.7820     41.3447    129.3052   1.3204608236e+02   4.4885834485e+01    0.1319091    0.0885069 -38.87  0.000704169    1.690    0.408
       127  -7.5912    153.3255    124.3244   1.0106385612e+02   2.6806382780e+01    0.1600891     0.128756   1.74 0.0003810741    1.690    0.408
       128  -7.7921    132.7014    124.6422   1.0621959577e+02   3.1274805683e+01    0.1586725    0.1257147 -10.83 0.0007035451    1.706    0.414
       129  -7.9656     12.0000    121.9902   1.3884287956e+02   4.9157366164e+01    0.2079013   0.05446327 -68.51 0.0008052624    2.962    0.662
       130  -9.1275    246.0629    120.4191   8.1923868272e+01   6.6812714520e+00    0.2343618    0.1836805 -32.07 0.0005189421    1.249    0.199
       131  -7.4255    180.6747    120.6874   9.3987760998e+01   2.1245100920e+01    0.1579329    0.1271797   8.26 0.0007041192    1.662    0.398
       132  -7.4717    231.4890    119.5436   8.4080279717e+01   9.8940165738e+00    0.1466409    0.1337547 -55.44  9.47485e-05    1.035    0.034
       133  -7.8064    119.9321    118.5447   1.0802308778e+02   3.5306497884e+01    0.2163673    0.1378775  18.15 0.0008085038    2.593    0.614
       134  -7.8912    100.6544    118.6728   1.1329094476e+02   3.8966188628e+01     0.152851    0.1170868 -15.55 0.0007050346    1.748    0.428
       135  -7.2011    142.6961    111.6844   1.0041250214e+02   3.1957483850e+01    0.1560342    0.1268814   0.36  0.000457054    1.621    0.383
       136  -8.9743      1.9496    109.7610   1.3988509037e+02   5.2538436787e+01    0.3152762    0.1031517 -49.84  0.001486364    2.517    0.603
       137  -7.2683     38.7236    110.6417   1.2947129221e+02   4.9476297437e+01    0.1349885   0.08149527 -41.36 0.0007007809    1.657    0.396
       138  -7.8140    133.8608    106.4542   1.0125082274e+02   3.5040748058e+01    0.3092383    0.2083626 -26.13 0.0008897723    1.877    0.467
       139  -7.6360    123.9972    107.4910   1.0409614734e+02   3.6928435993e+01    0.2081466    0.1362742  18.93 0.0005521837    2.358    0.576
