#   1 NUMBER                 Running object number                                     
#   2 MAG_AUTO               Kron-like elliptical aperture magnitude                    [mag]
#   3 X_IMAGE                Object position along x                                    [pixel]
#   4 Y_IMAGE                Object position along y                                    [pixel]
#   5 X_WORLD                Barycenter position along world x axis                     [deg]
#   6 Y_WORLD                Barycenter position along world y axis                     [deg]
#   7 A_WORLD                Profile RMS along major axis (world units)                 [deg]
#   8 B_WORLD                Profile RMS along minor axis (world units)                 [deg]
#   9 THETA_WORLD            Position angle (CCW/world-x)                               [deg]
#  10 FWHM_WORLD             FWHM assuming a gaussian core                              [deg]
#  11 ELONGATION             A_IMAGE/B_IMAGE                                           
#  12 ELLIPTICITY            1 - B_IMAGE/A_IMAGE                                       
         1 -13.7519     25.0746     48.9341   1.0883871509e+02   6.3311988176e+01     3.174583     1.615123 -11.44   0.01543973    2.585    0.613
         2 -14.5172     79.0992     69.7199   9.5774982671e+01   5.2517405404e+01     2.528332      1.50251  -5.87    0.0104042    2.843    0.648
         3 -14.5017     70.3191     57.3891   9.4706365626e+01   5.6045602180e+01     3.270981      1.99234 -51.71   0.01634364    2.160    0.537
         4 -14.6721     96.2388     71.5944   9.1085933139e+01   4.9100598204e+01      1.63572     1.109004  19.61   0.00218834    1.757    0.431
         5 -15.1585     60.9915     70.8527   1.0219249838e+02   5.5156140962e+01     2.572901     1.238833  44.73   0.00945395    2.543    0.607
         6 -10.6476     16.1572      5.5236   9.6122234802e+01   7.0225879755e+01    0.2774619    0.1573107   8.59  0.001716081    1.596    0.373
         7 -14.8600      8.6002     22.4280   1.0667013425e+02   6.8857442127e+01     1.701499    0.8903294 -29.15  0.009875208    1.580    0.367
         8 -14.4878     37.3732     85.2017   1.1466147896e+02   5.5275761747e+01     2.327647     1.078374 -44.26   0.01108593    1.838    0.456
         9 -12.9043    138.6559      4.4288   6.1390755492e+01   4.8479253934e+01     1.009787     0.273192  60.37  0.004249094    2.665    0.625
        10 -11.5813     73.3186      1.4683   7.3734968881e+01   6.2088779939e+01     0.244008    0.1084708  52.58 0.0005960464    1.872    0.466
        11 -12.8650     83.5677     22.5428   7.8557757231e+01   5.8307425417e+01    0.5413055    0.4126635  51.69  0.001124955    1.299    0.230
        12 -13.4594    121.7020     10.6187   6.5966306032e+01   5.1651690013e+01     1.166585    0.4560301  55.59  0.005608669    1.995    0.499
        13 -14.4517     85.2292      7.4662   7.2802716689e+01   5.9387592780e+01     1.958932     0.837144  50.84    0.0102267    1.857    0.461
        14 -12.1340     75.7663     13.4930   7.7500977279e+01   6.0635803657e+01    0.3203958     0.266808  55.70  0.001201865    1.358    0.263
        15 -12.4140    151.1397     21.0298   6.3881914065e+01   4.4151093973e+01    0.5234591    0.3272646  58.38  0.002353818    1.374    0.272
        16 -13.5231    185.8101     11.9645   5.7144164655e+01   3.7315154721e+01     0.613367    0.4551728  72.45  0.002764191    1.162    0.139
        17 -13.1574    191.8814      5.8202   5.5180049525e+01   3.6606653354e+01    0.6229904    0.4283308 -88.51  0.003035503    1.226    0.184
        18 -11.2198     64.8628     17.9446   8.2455694306e+01   6.2120719567e+01    0.3628556    0.2167135  30.34  0.001435851    1.471    0.320
        19 -10.6017     33.6015     10.3984   9.0700756229e+01   6.7608489697e+01     0.346341    0.2033373  -5.17  0.002182311    1.697    0.411
        20 -11.3417     32.7600      4.1362   8.8350580947e+01   6.8348579296e+01    0.4722747    0.2120249  33.19  0.001852127    1.881    0.468
        21 -11.5080     30.2904     16.8419   9.4757398694e+01   6.7314354404e+01    0.3888353    0.2887381  -0.25   0.00284065    1.051    0.049
        22 -11.6349     28.3071     10.7311   9.3032199697e+01   6.8248438850e+01    0.4155592    0.1873323 -30.06  0.001521649    2.154    0.536
        23 -12.9632    175.9869     12.9479   5.8495211235e+01   3.9392684502e+01    0.5061868    0.3382343  33.38  0.002866803    2.201    0.546
        24 -12.5625    149.4169      8.1697   6.0799544382e+01   4.5777601203e+01    0.5556406     0.275855  70.32  0.002452208    1.735    0.424
        25 -12.8466    110.5478      5.0305   6.6386801592e+01   5.4483463799e+01    0.7929548    0.4364091  42.69  0.004523794    1.631    0.387
        26 -11.3648    167.9051      3.0557   5.7157159768e+01   4.2129512467e+01    0.1820304    0.1752779 -24.12  0.001036264    1.361    0.265
        27  -9.4896     49.5051      4.4736   8.2233654320e+01   6.5886639809e+01    0.1121406    0.0863363  21.25   0.00080999    1.021    0.020
        28  -9.0694    211.7056      1.6694   5.2531810210e+01   3.2796768366e+01    0.1033754   0.08064317  54.17 0.0005123758    1.633    0.388
        29 -10.7325    249.2193    249.4038   9.6467873295e+01  -1.4546650935e+01    0.1542692    0.1020198  35.29 0.0009592023    1.724    0.420
        30 -10.2208    144.5048    181.4976   1.0544485663e+02   1.5231511138e+01    0.1521934    0.1484298 -87.16 0.0008104318    1.034    0.033
        31 -13.5500     42.1599     47.9431   1.0167547225e+02   6.1580310791e+01    0.8056841    0.4966972  25.13  0.002812357    1.573    0.364
        32 -10.8786    135.1395     98.6985   8.8359050981e+01   3.5997468070e+01    0.5605309    0.4306954  19.28  0.002655461    1.644    0.392
        33 -11.6005    141.7189     96.1731   8.6092997029e+01   3.5051818993e+01    0.6192903    0.3746151 -23.91   0.00245808    2.372    0.578
        34 -10.4205     34.4109    177.2744   1.3235232379e+02   3.3654830084e+01    0.2490849    0.1743508   3.91  0.001292703    2.165    0.538
        35 -10.8942    114.1405     96.6872   9.3279999543e+01   4.0833565740e+01    0.4123985    0.2659494 -51.13  0.001418582    1.628    0.386
        36 -11.3502    203.0790    172.3633   9.0658775780e+01   6.0071519458e+00    0.3764746    0.1986226 -43.01   0.00161283    1.756    0.431
        37 -10.3964    188.4413     94.4510   7.5969206842e+01   2.4835045327e+01    0.3592387    0.2472136 -76.16  0.001311463    1.772    0.436
        38 -11.9496    117.5560     88.5883   9.0099201045e+01   4.1734331694e+01     0.477747    0.2274815 -47.62  0.001884272    2.215    0.549
        39 -13.6982     42.3746     42.4141   9.9661418194e+01   6.2402236447e+01      1.11772    0.5229691  16.76  0.004570873    2.875    0.652
        40 -10.9651    249.0891     86.2885   6.5247522644e+01   1.3618779358e+01    0.3674957    0.2502049 -64.94  0.002124083    1.332    0.249
        41 -13.0442      5.8099     82.8743   1.2548791153e+02   5.8359044260e+01     1.064336    0.3794837 -45.94   0.00510187    2.101    0.524
        42 -11.4953      8.2403     65.6772   1.2054347084e+02   6.1660252143e+01    0.4219496     0.218093 -48.72    0.0019453    1.517    0.341
        43 -10.6002    137.8473     84.4356   8.3840073768e+01   3.8138590764e+01    0.3701494    0.1373832  48.34    0.0013036    2.617    0.618
        44 -11.5611    128.1168     81.8135   8.5467558827e+01   4.0754998209e+01    0.3879208    0.3242391 -51.39  0.001071622    1.256    0.204
        45 -12.8349    121.0047     79.6903   8.6664591620e+01   4.2666064378e+01    0.4387683    0.3980019 -71.65   0.00212852    1.237    0.191
        46 -12.2465    144.2140     75.1953   7.9857513274e+01   3.8343564280e+01     0.488815    0.3966015 -40.03 0.0009239717    1.283    0.220
        47  -9.3549    148.6711     80.7050   8.0370656762e+01   3.6376134755e+01    0.1451133    0.1144186  20.05 0.0002468952    1.631    0.387
        48 -12.9404      2.7424     70.6485   1.2389341047e+02   6.1029783885e+01     1.056517    0.3010658 -60.46  0.004408604    3.086    0.676
        49  -9.4648    196.0210     76.4868   7.0470518583e+01   2.6298684696e+01    0.2035426     0.131241  59.71  0.001012275    1.546    0.353
        50 -13.4065    126.9746     72.5583   8.3119562388e+01   4.2626546498e+01    0.9121933    0.3877553  50.77  0.003579076    2.263    0.558
        51 -10.1276    182.7337     72.0383   7.1588097269e+01   3.0040204990e+01    0.2159432    0.1828786  72.45 0.0004873241    1.126    0.112
        52  -9.5231    168.7359     71.7895   7.3999826622e+01   3.3294124968e+01    0.2210883    0.1099328  67.91 0.0008657919    2.381    0.580
        53 -12.6913    117.6885     66.9436   8.3799224200e+01   4.5555366263e+01    0.5153998    0.3622655  -8.46  0.002362751    1.924    0.480
        54 -10.2977    146.8405     66.5344   7.6928543909e+01   3.9175449365e+01    0.2694487    0.2249361  20.06  0.001076181    1.455    0.313
        55 -10.2335    170.0714     63.1161   7.1565920000e+01   3.4369481953e+01    0.2962359    0.1827331  55.72 0.0006743884    1.546    0.353
        56  -9.7574    165.9973     62.7424   7.2196603674e+01   3.5366841980e+01    0.2065115    0.1910709  81.46 0.0003637192    1.021    0.021
        57 -10.9326    214.7345     60.7901   6.4296983277e+01   2.4687259601e+01    0.2828141    0.2202755 -48.92 0.0008185723    1.259    0.206
        58 -12.1713    124.6013     57.7024   7.9368453373e+01   4.5509203991e+01    0.4084545    0.2568581  50.27 0.0009192557    1.472    0.320
        59 -10.9556    174.7779     56.4224   6.9096064604e+01   3.4294872380e+01    0.2338721     0.208309 -85.67  0.000414818    1.036    0.035
        60 -10.6153      2.6404    171.3177   1.3930968404e+02   3.8069737712e+01    0.2039976    0.1217172  72.34  0.001119029    1.719    0.418
        61 -10.8918    138.3750     55.0395   7.5522831837e+01   4.2842983566e+01    0.3011117    0.2257856  43.13 0.0006388391    1.320    0.242
        62 -11.6382    133.2867     53.7823   7.6257338965e+01   4.4164979974e+01    0.3494214    0.2382767  54.35 0.0007414249    1.349    0.258
        63 -10.3893     88.9438     47.9595   8.5713399018e+01   5.4198148140e+01    0.2376707    0.1786918  75.25  0.001250896    2.087    0.521
        64 -11.7870     92.7561     52.7704   8.6178102471e+01   5.2784962842e+01    0.3534688    0.2351918 -22.04 0.0003334173    1.656    0.396
        65 -11.4605     99.0419     50.1616   8.3561875122e+01   5.1938153644e+01     0.510219    0.2308747  36.74  0.002154633    2.356    0.576
        66 -10.4177    185.9830    167.0415   9.3044896059e+01   1.0383916730e+01    0.2401826    0.1893465 -88.88 0.0009662363    1.725    0.420
        67 -13.1986      3.3605     46.7067   1.1730799595e+02   6.5444847548e+01    0.6117811    0.5522726 -80.07  0.003135487    1.730    0.422
        68 -11.5709    215.1358    162.2838   8.6226369389e+01   5.8332973759e+00    0.2948251    0.2234382 -21.05  0.001506586    1.468    0.319
        69 -10.5489    154.4555     53.0026   7.1772461205e+01   3.9470413084e+01    0.4261938    0.1410391  45.20  0.001417558    3.642    0.725
        70 -11.2277    145.3753     50.5079   7.2834014047e+01   4.1898790784e+01    0.3006657    0.2640749 -46.61 0.0007734818    1.223    0.182
        71  -9.7326    173.6800     47.6915   6.7119918216e+01   3.5788548442e+01    0.2126978    0.1624708  67.75 0.0007787627    1.190    0.160
        72 -10.4933    176.6373     45.6578   6.6166110902e+01   3.5387953766e+01    0.2755869    0.2332996  -2.36  0.001537735    1.657    0.397
        73  -9.2894    126.9811     48.7574   7.6187716227e+01   4.6264827500e+01    0.1771429    0.1048578  54.14  0.000451605    1.538    0.350
        74  -9.2778    243.4362     45.5494   5.8030060034e+01   2.0973413481e+01    0.1224732   0.09517429 -72.03 0.0001556706    1.003    0.003
        75 -11.5380    157.3891     43.6832   6.8786807440e+01   4.0069995063e+01    0.3024489    0.2392724  53.73 0.0006952994    1.214    0.176
        76 -11.1600    122.1344     43.9024   7.5834164831e+01   4.7971448463e+01    0.2771159    0.2299274  20.27  0.001642804    1.319    0.242
        77 -10.3683    203.1792     43.9102   6.2112267714e+01   2.9645992675e+01    0.2967009    0.1385548  56.67  0.001405348    2.127    0.530
        78 -10.4298    181.8682     43.3934   6.4849114909e+01   3.4498219171e+01    0.2199537    0.2030409  57.24  0.000385837    1.238    0.192
        79 -10.6328    140.4018     43.8862   7.1974685122e+01   4.3917588477e+01    0.3241219    0.1823602  64.77 0.0009290749    1.743    0.426
        80 -10.5452    197.0548     41.2254   6.2292107376e+01   3.1364953119e+01    0.2072913    0.1696685 -61.58 0.0004788793    1.167    0.143
        81 -12.2582    215.6471     39.0484   5.9618824079e+01   2.7591454562e+01    0.7659883    0.2424317  61.87  0.002357319    2.873    0.652
        82 -11.3675    204.5292     38.1506   6.0701236845e+01   3.0119186643e+01    0.4474458    0.2881005  58.14  0.002105541    1.596    0.373
        83 -11.3381    199.4340    155.2781   8.7756271207e+01   1.0250974254e+01     0.432474    0.2368987 -60.97  0.001650606    2.480    0.597
        84 -10.1065    159.9768     36.3618   6.6455166334e+01   4.0406193920e+01    0.1842047     0.139852  66.78 0.0001963544    1.163    0.140
        85 -12.0210     82.5041     33.0149   8.2530474769e+01   5.7338702104e+01    0.4041298    0.3135329  18.88   0.00140824    1.205    0.170
        86 -12.2508     79.5038     30.0323   8.2370492682e+01   5.8238949288e+01    0.5012683    0.3519686  -0.52  0.002555498    1.551    0.355
        87  -9.4536    240.5111     34.4721   5.6232329826e+01   2.3057153759e+01    0.1198057   0.09383244 -75.66 0.0001527967    1.030    0.029
        88 -11.7378    176.5969     33.4044   6.3220545679e+01   3.6974193234e+01    0.2748144    0.2050021  74.89 0.0004591262    1.175    0.149
        89 -11.1013     25.3953     31.9720   1.0277741889e+02   6.5907407999e+01    0.3611061    0.2020705  -9.18  0.001398116    1.932    0.482
        90 -10.6624    151.1575     32.2854   6.6846328685e+01   4.2906742827e+01     0.421133    0.1433863  58.48  0.001719792    2.449    0.592
        91  -9.2548    216.3449     28.3069   5.7356270802e+01   2.8823622685e+01    0.1128741   0.08929615  48.61 0.0007043025    1.695    0.410
        92  -9.3650    109.3215     28.3140   7.3958454331e+01   5.2566535993e+01    0.1321142   0.08562937  29.94 0.0007039905    1.656    0.396
        93  -9.0885     37.2812     27.2923   9.6063497168e+01   6.5155349537e+01    0.1157905   0.07369503  -0.69 0.0002266673    1.532    0.347
        94 -11.3090    233.1909    153.9810   8.1288966572e+01   4.2196846851e+00    0.2303838    0.2126812  44.62  0.001400189    1.250    0.200
        95 -10.7474     29.5600    153.8689   1.3047516928e+02   3.9982136044e+01    0.2696799    0.1650946 -54.22   0.00133791    1.453    0.312
        96 -11.8193     19.1908    153.3752   1.3316330881e+02   4.1067787062e+01    0.3429335    0.2840331 -15.25    0.0021302    1.551    0.355
        97 -10.6195    189.7126    152.9984   8.9221234140e+01   1.2664583337e+01    0.2267181    0.1951662 -42.82  0.001180003    1.092    0.084
        98  -9.8834    138.9691    152.4955   1.0065853350e+02   2.3186424798e+01    0.2378354    0.1569854  41.88 0.0005606874    1.560    0.359
        99 -11.3468    246.3714    145.5649   7.7443002435e+01   3.5317908201e+00    0.3198788    0.2404008 -73.48  0.001717127    1.675    0.403
       100 -11.5482    241.0020     22.7287   5.4034942867e+01   2.4453936670e+01    0.5522728    0.2465868  85.72  0.002218449    2.321    0.569
       101 -12.9211     49.3750    142.0493   1.2305547606e+02   4.0777693584e+01    0.8502846    0.6757427  22.51  0.004583848    1.469    0.319
       102 -10.9572    139.6801     20.8652   6.5704303123e+01   4.6740669363e+01    0.2833227    0.1794281  62.02 0.0009266516    1.338    0.253
       103 -10.8694    209.0848     18.8221   5.6165345965e+01   3.1503367648e+01    0.2958599    0.2042639 -73.86  0.001072227    1.266    0.210
       104 -10.8790    186.9440     18.3289   5.8424895448e+01   3.6389814127e+01    0.2453663     0.198224 -86.04  0.001018337    1.056    0.053
       105 -10.0965     90.2984    145.6572   1.1207554736e+02   3.3991545116e+01    0.1558786    0.1176583  83.07 0.0007035086    1.670    0.401
       106 -11.5274    213.7834    142.5972   8.2293902274e+01   1.0051651084e+01    0.6301228    0.3005592  56.37  0.002473849    2.683    0.627
       107 -11.4120     75.8935    141.3026   1.1525577383e+02   3.7373199915e+01    0.3846239    0.2447999 -65.80  0.001512701    1.599    0.375
       108 -11.3385    193.5351    137.3598   8.4966574107e+01   1.5196499837e+01    0.3651468    0.2165009 -41.43  0.001592848    1.604    0.376
       109 -12.4860     35.2375    135.4197   1.2599493178e+02   4.3977253877e+01    0.5369787    0.3052175  12.15  0.002524683    2.411    0.585
       110 -11.5748     81.8616    133.6926   1.1190164267e+02   3.8324192474e+01    0.3394928    0.2443029 -72.10  0.001598389    1.561    0.360
       111 -10.3627     21.7551    133.8716   1.2965997667e+02   4.5613176488e+01    0.2412348    0.1522367  59.91  0.001195896    2.010    0.502
       112 -13.0322    204.4372    125.1129   8.0149712798e+01   1.5440807364e+01    0.7448307    0.6551897  48.94  0.004122674    1.253    0.202
       113 -11.0765    122.2727    127.4456   9.9083828958e+01   3.2467609494e+01    0.4268545    0.3805318 -74.08  0.001313008    1.193    0.162
       114 -11.3963     58.2523    144.1525   1.2088868821e+02   3.9145082003e+01    0.6130399    0.4198526  67.75   0.00292814    1.857    0.461
       115 -10.7874     64.5594    129.7934   1.1618289090e+02   4.1852147646e+01     0.274022    0.2457396  85.94  0.001415573    1.232    0.188
       116 -10.1463    190.5401    112.4669   7.9828932531e+01   2.0919535939e+01    0.1488162    0.1375628 -64.51 6.715628e-05    1.003    0.003
