#   1 NUMBER                 Running object number                                     
#   2 MAG_AUTO               Kron-like elliptical aperture magnitude                    [mag]
#   3 X_IMAGE                Object position along x                                    [pixel]
#   4 Y_IMAGE                Object position along y                                    [pixel]
#   5 X_WORLD                Barycenter position along world x axis                     [deg]
#   6 Y_WORLD                Barycenter position along world y axis                     [deg]
#   7 A_WORLD                Profile RMS along major axis (world units)                 [deg]
#   8 B_WORLD                Profile RMS along minor axis (world units)                 [deg]
#   9 THETA_WORLD            Position angle (CCW/world-x)                               [deg]
#  10 FWHM_WORLD             FWHM assuming a gaussian core                              [deg]
#  11 ELONGATION             A_IMAGE/B_IMAGE                                           
#  12 ELLIPTICITY            1 - B_IMAGE/A_IMAGE                                       
         1 -13.2950     42.1940     45.7175   9.4484464349e+01   6.3012927940e+01    0.8760406    0.7039124  39.47 0.0006770597    1.571    0.363
         2 -12.1444    124.9405     27.7858   5.9994578782e+01   5.0690120976e+01    0.8286106    0.5092369  42.58  0.002090271    1.556    0.357
         3 -11.5008    120.5743     57.6229   7.1919109235e+01   4.7266054880e+01     1.743236      1.22438 -81.47  0.007267928    2.445    0.591
         4 -12.7884    116.8805     42.7464   6.7580780196e+01   5.0514794315e+01     1.071717    0.7399043  79.54  0.004764712    2.202    0.546
         5 -12.7659    162.8495     28.3388   5.2665468279e+01   4.1124836020e+01     0.784366    0.5014852  43.92 0.0008529579    1.612    0.380
         6 -12.1426    132.5729     14.7595   5.3535261078e+01   5.0306765485e+01     1.660665    0.6076323  58.19  0.006489018    2.330    0.571
         7 -11.3846    154.9355     23.7178   5.2516568679e+01   4.3706552453e+01     1.358403    0.5675741  53.45  0.005413552    2.138    0.532
         8 -11.7418    137.5462     22.3767   5.5299723572e+01   4.8255033280e+01     1.198932    0.4178043  56.57  0.003915389    2.461    0.594
         9 -10.7570    146.1852     16.3610   5.1567501068e+01   4.6742271482e+01    0.5544049    0.2941134  49.72 0.0003792307    1.732    0.423
        10 -10.9133    178.5300     21.4537   4.8111912640e+01   3.7882062041e+01    0.6434914    0.3804441  33.44  0.002539087    2.219    0.549
        11  99.0000      5.9020     34.0425   1.0672760346e+02   6.8316378573e+01     1.841267    0.2853995 -49.97  0.007383395    3.234    0.691
        12 -10.7426     22.4368      5.0731   8.6258058413e+01   7.1944207539e+01    0.2389819    0.1663217 -36.77  0.000409751    1.444    0.307
        13 -11.5837     26.2967     27.9391   9.4829122563e+01   6.7921836122e+01    0.4681582    0.3101574 -48.67  0.002216095    1.465    0.317
        14 -11.1762     14.1629     23.5989   9.9026600848e+01   6.9716373232e+01    0.4223625    0.3110792 -44.97  0.002446447    1.235    0.190
        15 -11.5006     20.0432     22.6050   9.5687032182e+01   6.9414778676e+01    0.6843004    0.2499262 -45.61  0.002431034    2.168    0.539
        16 -12.6263     17.0893     13.4381   9.3196499922e+01   7.1196097809e+01     0.575078    0.4163133 -31.64 0.0005828975    1.121    0.108
        17 -12.0453     22.3328     11.4615   8.9527343112e+01   7.1015645859e+01    0.5070161    0.3118773 -17.06  0.003187095    1.458    0.314
        18 -11.7730    105.9638     20.3040   6.1750809149e+01   5.5972836903e+01    0.4626067    0.3680355 -29.86 0.0004012829    1.334    0.250
        19 -11.1187    198.5610     28.7696   4.7533516132e+01   3.1880297573e+01    0.5848838    0.3970112 -18.35  0.002412281    1.742    0.426
        20 -10.8523    214.6352     23.0683   4.4113923029e+01   2.8556847135e+01    0.4770841    0.3585344  -2.04  0.002525246    1.814    0.449
        21 -11.2734    164.9259     17.9457   4.9020391138e+01   4.1781078554e+01    0.5048436    0.2881663  35.39   0.00165435    2.135    0.532
        22 -10.0878     87.0413      7.5097   6.1467026478e+01   6.1397895553e+01    0.5762563    0.3141925  55.76  0.002657333    1.837    0.456
        23 -11.0988     90.8636     20.6163   6.6128984794e+01   5.9165505807e+01    0.6171808    0.3892796 -21.09  0.002562564    1.590    0.371
        24 -11.5251     85.9902     14.1073   6.4752336400e+01   6.0916027780e+01    0.6015724    0.3369971 -13.23  0.001947807    1.936    0.483
        25 -10.5722     47.0494     19.1786   8.1492935316e+01   6.6929960230e+01    0.3483788    0.2611548 -30.95  0.001455232    1.275    0.216
        26 -12.3903     48.6593     12.9738   7.7813392582e+01   6.7570787447e+01    0.7007989    0.3154859  37.97  0.003529604    2.243    0.554
        27 -11.6793     36.3478     18.9153   8.6182529249e+01   6.8343886927e+01    0.6385849    0.3537164 -35.46  0.002540122    1.548    0.354
        28 -11.1504     32.5850     12.6218   8.4965931390e+01   6.9732940335e+01    0.2189503    0.2009441  31.75 0.0005607419    1.594    0.373
        29 -11.8280     68.2453     18.1248   7.2531324134e+01   6.3766057461e+01    0.4720016    0.3958417  -4.03  0.001760662    1.053    0.051
        30 -11.9540    239.1031     15.8967   4.0014427473e+01   2.3588867405e+01    0.8371449    0.4151316  72.29  0.002787701    1.966    0.491
        31 -11.8440    247.0273      6.7000   3.7308734764e+01   2.2837581269e+01    0.5732356    0.4681394  36.80  0.003543686    1.711    0.415
        32 -10.8722    242.4881      3.7960   3.6991171535e+01   2.4164633912e+01    0.3446834    0.2347373  79.19  0.002007962    1.394    0.283
        33 -10.1999    225.8519     15.4489   4.1078054626e+01   2.6731618447e+01    0.3609931    0.1925873 -36.51  0.001340442    1.753    0.430
        34 -11.3684    192.4090      7.9280   4.2487156155e+01   3.5776163012e+01     0.609067    0.3986654  15.91   0.00214278    2.276    0.561
        35 -12.2675    104.7069     12.9026   5.9028528926e+01   5.7063080680e+01    0.4955043    0.4405038 -27.15  0.001757909    1.244    0.196
        36 -11.5039    211.9601      9.7061   4.0952446100e+01   3.0719057903e+01    0.4687014    0.3128091   1.46  0.000776064    2.271    0.560
        37  -9.3713     94.7740     11.9251   6.1237590697e+01   5.9332071887e+01    0.2775473    0.1617792  32.63  0.001381284    1.673    0.402
        38  -8.9960     61.8454     12.0656   7.2040654946e+01   6.5620051397e+01    0.1717548    0.1197088  -5.75 0.0005653894    1.336    0.251
        39  -8.8130      5.3766     12.1853   9.8962807673e+01   7.2306162219e+01    0.2929133    0.1576276  16.11  0.001854754    2.035    0.509
        40 -10.1015    169.1264      9.7079   4.5845912092e+01   4.1546684231e+01    0.3764657    0.1730189  49.59  0.001597803    2.130    0.531
        41  -9.3147    163.2874      9.6808   4.6648156429e+01   4.3047971150e+01     0.221662    0.1859641  25.64 0.0006865725    1.341    0.254
        42  -9.0029    162.7637      6.0861   4.5586998788e+01   4.3521633239e+01    0.3088344    0.2500874  39.55   0.00125563    1.297    0.229
        43 -10.0822     66.1390     10.1044   6.9491777357e+01   6.5115189657e+01     0.301322    0.1725184  47.01  0.001050246    1.792    0.442
        44  -9.8065     62.5852      6.9508   6.9241501377e+01   6.6090165305e+01    0.3142461    0.1978817   8.67  0.001726429    1.626    0.385
        45 -10.3633    232.6176      7.4182   3.8573275279e+01   2.6030650632e+01    0.3423864    0.2337384  89.75  0.001155319    1.356    0.262
        46 -10.3840    237.3958      6.1810   3.7910479398e+01   2.5063175427e+01    0.3111248    0.1410786 -48.95  0.001498017    1.931    0.482
        47 -10.1052    228.3795      3.7967   3.8061667559e+01   2.7403126574e+01    0.2788744    0.2592679 -22.83  0.001852316    1.323    0.244
        48 -10.9061    218.8581      3.3539   3.8738789252e+01   2.9706802659e+01    0.3153931    0.2897837 -54.74  0.001108372    1.161    0.139
        49 -10.4893    223.8619      1.8955   3.7971582775e+01   2.8662673248e+01    0.3628608     0.215526  72.45  0.001199159    1.566    0.361
        50  -9.1348    155.3793      7.3981   4.7066345059e+01   4.5286635653e+01    0.4666981    0.1878785  74.34  0.001462292    2.631    0.620
        51 -11.3482     40.7179      5.8497   7.7686357890e+01   6.9618126194e+01    0.4488995     0.222846 -13.87  0.001600871    2.359    0.576
        52  -9.3572      1.1251      7.3369   9.9231578018e+01   7.3383462638e+01    0.1852659   0.05146653 -49.00 0.0006349269    2.683    0.627
        53 -10.3800    183.4585      5.1778   4.2715769622e+01   3.8316478215e+01    0.3830009    0.2560588 -45.92  0.001530217    1.520    0.342
        54 -10.5154     72.9832      2.7510   6.3545356428e+01   6.4640575329e+01    0.4971429     0.226182  30.58  0.002276728    2.310    0.567
        55  -9.4730     78.4898      7.4853   6.4046718057e+01   6.3111274003e+01    0.2104036    0.1533568  39.85 0.0006581827    1.251    0.200
        56 -10.4942     76.5167      3.9429   6.2989032384e+01   6.3847929835e+01    0.4039176    0.2243222  -8.20  0.001878317    1.927    0.481
        57 -10.6178    176.3791      5.4110   4.3618525901e+01   4.0100151963e+01    0.4690834    0.2474782  85.24  0.001072465    2.020    0.505
        58  -9.2045    170.3525      3.6755   4.3843740956e+01   4.1800877885e+01    0.2935386    0.1346657 -66.76    0.0010687    3.285    0.696
        59  -9.6609    122.3116      1.1146   5.0419766486e+01   5.4047309584e+01    0.6270564          nan  59.18  0.001432455    7.200    0.861
        60  -9.9679    113.4970      3.4780   5.3127778843e+01   5.5937534841e+01    0.4130463    0.3219468 -74.60  0.002312193    1.688    0.407
        61 -10.5407    106.1913      1.8042   5.4052071552e+01   5.7760203940e+01     1.039032    0.3803247  66.37  0.003944566    3.063    0.674
        62 -10.0112     50.1899      6.2063   7.3742365529e+01   6.8195861489e+01    0.1981342     0.151343  27.96 0.0004265152    1.268    0.211
        63 -11.6583    133.5673      2.8043   4.8997521762e+01   5.1170376034e+01    0.4262169    0.2710087  54.30  0.001533099    1.364    0.267
        64 -10.5285    142.2673      3.2281   4.7692360031e+01   4.8972313207e+01    0.4105042    0.2534547  50.92  0.001744979    1.448    0.309
        65 -10.0028    206.5253      2.6424   3.9653255856e+01   3.2776758678e+01    0.5109323    0.2173043  87.87  0.002056549    2.657    0.624
        66  -9.1603    157.4819      2.5228   4.5182858687e+01   4.5187494976e+01    0.2077456    0.1838125  17.50  0.001247007    1.271    0.213
        67  -8.7479    161.0113      1.0000   4.4219973649e+01   4.4419864732e+01    0.3256216   0.06962208  69.77 0.0009617324    4.156    0.759
        68 -11.0879      3.3469      1.7707   9.5287324000e+01   7.4117796015e+01    0.4068122    0.1678154  12.60  0.002197013    2.847    0.649
        69 -10.2145     12.8821      1.8364   8.9776380300e+01   7.3338408058e+01    0.2429099    0.1392338  12.95  0.001122242    1.765    0.434
        70 -10.0872     82.1907      1.3099   6.0015796518e+01   6.2968910089e+01    0.1947086    0.1030663  51.54 0.0003294257    1.721    0.419
        71 -10.8222    249.5437    142.6723   6.8554434144e+01   2.5539813472e+00    0.6232665    0.2542309 -34.77  0.002590191    2.194    0.544
        72 -10.2048    142.9824    249.5059   1.0761578463e+02   4.4867058762e+00    0.1699373    0.1527173  52.42  0.001098743    1.155    0.134
        73  -9.4216    107.8203    146.0643   9.9497992210e+01   3.0709925086e+01    0.2222601    0.1893646  85.28 0.0004295687    1.208    0.172
        74 -10.6907     33.2698    144.5000   1.1838337389e+02   4.1452161203e+01    0.3950099    0.2492428  47.79  0.001988017    1.649    0.393
        75  -8.9859    154.6625    143.3112   8.7431035444e+01   2.2065814274e+01    0.1567404    0.1221943  85.00 0.0003348896    1.687    0.407
        76 -10.8556    133.4090    141.2499   9.2065437172e+01   2.6928851117e+01    0.3573491    0.2995488 -64.50  0.001813538    1.236    0.191
        77 -12.1664     24.1837    136.4639   1.1973874445e+02   4.4187293200e+01    0.7933347    0.5075066  51.46  0.004715153    1.647    0.393
        78 -11.9273     29.9576    132.8819   1.1780617581e+02   4.4511737563e+01    0.4043403    0.2760609 -82.25 0.0003281878    1.251    0.201
        79  -9.5052     79.2357    137.2736   1.0530087133e+02   3.7504282240e+01    0.2837609    0.1836349 -67.33  0.001387083    1.473    0.321
        80  -9.7234     82.0293    135.2250   1.0416970200e+02   3.7573106653e+01     0.310377    0.1614749  31.00  0.001134805    2.293    0.564
        81 -10.0941     67.8076    135.6680   1.0808967855e+02   3.9524485581e+01    0.3923985     0.253591 -39.71  0.001913462    1.884    0.469
        82 -10.3098     47.3757    135.7173   1.1358059691e+02   4.2051228766e+01    0.4497933    0.1756795 -63.43  0.001303045    2.133    0.531
        83 -10.4418     39.5789    137.5544   1.1589466728e+02   4.2455899020e+01    0.2536772    0.2237541 -41.27 0.0007965788    1.375    0.273
        84  -9.3150    192.2126    136.4167   7.7584133158e+01   1.5306157411e+01    0.2034993    0.1466847  57.91 0.0003883188    1.565    0.361
        85  -9.2873    216.8019    135.1853   7.2507839517e+01   1.0254981985e+01    0.2018858    0.1647343  -2.44 0.0005078665    1.310    0.236
        86 -10.5056     92.7404    128.9659   1.0001023310e+02   3.7358654791e+01     0.397152    0.2782336 -68.09  0.001926651    1.448    0.309
        87 -10.0265     74.0463    132.6522   1.0585876412e+02   3.9377637283e+01    0.2774774    0.2118837 -25.44  0.001426614    1.768    0.434
        88 -10.0485     61.8428    132.0522   1.0909174017e+02   4.1187719460e+01    0.3540828    0.2517255 -19.67  0.001759148    2.163    0.538
        89  -9.4378    103.8497    130.5406   9.7333165812e+01   3.5062451184e+01    0.2136669    0.1469357  40.59 0.0004733309    1.514    0.339
        90 -10.9401     10.8228    126.8522   1.2211602940e+02   4.7495350019e+01    0.5334848    0.1959477 -55.67  0.001908142    2.361    0.576
        91 -10.3314     81.0812    126.1702   1.0266259917e+02   3.9894418410e+01    0.6182148    0.3686835 -25.33  0.002380554    3.082    0.676
        92 -10.2552    240.4324    126.4403   6.6369485989e+01   6.9077400847e+00    0.4142984    0.2428352 -64.78  0.001525909    3.525    0.716
        93  -9.1186    223.9957    126.9483   6.9270099772e+01   1.0186896437e+01    0.2235391    0.1729565 -63.51  0.000614442    1.648    0.393
        94  -9.9798     22.9898    126.9598   1.1891016739e+02   4.6526488985e+01    0.1827786    0.1461354 -81.14            0    1.026    0.025
        95  -9.8403      2.6369    126.2555   1.2417140558e+02   4.8185906490e+01    0.2861199    0.1574465  72.69  0.001565487    1.855    0.461
        96 -10.9225     55.8521    123.5530   1.0929207391e+02   4.3989893771e+01    0.5362661    0.4040854  14.85  0.002211964    1.751    0.429
        97  -9.9733     18.7696    124.3791   1.1972566898e+02   4.7476816437e+01    0.3072215    0.1269901 -64.87    0.0015037    1.860    0.462
        98 -11.9843    104.1882    122.1231   9.5359609827e+01   3.6983446139e+01    0.4446723    0.4277244 -32.19  0.001043403    1.114    0.102
        99  -9.4961     67.2412    124.2184   1.0618037501e+02   4.2364708839e+01    0.3162048    0.2056981   8.58  0.001433069    2.489    0.598
       100 -10.7557     42.4498     94.2153   1.0773993449e+02   5.2492631873e+01    0.4299961     0.339405  85.06  0.002229316    1.453    0.312
       101 -11.0406     17.1509    100.8999   1.1699338901e+02   5.3105670686e+01    0.2981067    0.2319525 -51.83 0.0004105665    1.215    0.177
       102 -12.3687     42.0665     85.3834   1.0592604861e+02   5.4579090071e+01      1.66816    0.5384653  21.51  0.005813977    4.699    0.787
       103 -11.5618      9.5875     97.1048   1.1875643577e+02   5.4486267878e+01    0.6111519    0.4356599 -85.73  0.002098497    1.295    0.228
       104 -12.0767      7.4712     89.0087   1.1821696955e+02   5.6469707740e+01    0.5381091    0.4365954  31.13  0.002042181    1.556    0.358
       105 -11.3141     35.1645     92.9579   1.0986936726e+02   5.3496937080e+01      0.69767    0.4404688 -56.52  0.002775925    1.292    0.226
       106 -11.3279     22.3795    114.0588   1.1736923309e+02   4.9622375680e+01    0.3872385    0.2518058   1.64  0.001641711    2.278    0.561
       107 -11.1135     28.4790    113.0458   1.1545563730e+02   4.9354547054e+01    0.3153085    0.2558785  -9.74   0.00115331    1.634    0.388
       108 -12.9238     25.1756    106.8812   1.1548241306e+02   5.1091042741e+01     1.302089     1.207181 -39.26  0.007487292    1.256    0.204
       109 -12.0922     18.7219    106.1621   1.1730458264e+02   5.1761460195e+01    0.2432993    0.2356302 -66.92 0.0002468027    1.231    0.187
       110 -11.7647     21.8217     94.9492   1.1456856913e+02   5.4150761637e+01    0.6402321    0.3915831  -4.89  0.003468339    2.382    0.580
       111 -12.4457     18.3726     89.8209   1.1479931379e+02   5.5589352866e+01    0.5748447    0.2734905 -47.75  0.001212544    1.845    0.458
       112 -10.4079      4.6300    120.5357   1.2307388414e+02   4.9375605138e+01    0.7180391    0.1272537 -55.19  0.002598001    4.137    0.758
       113 -11.5752      2.2910    112.1337   1.2279968924e+02   5.1454543443e+01    0.4758086    0.3121011  73.89  0.001966899    1.555    0.357
       114 -11.5995      3.5958    105.5615   1.2166739424e+02   5.2892033540e+01    0.4005139    0.3444294  83.53  0.001757866    1.208    0.172
       115  -9.0817    221.2022    120.4022   6.8195579090e+01   1.1921314680e+01    0.1937454    0.1446793  64.49 0.0006153175    1.622    0.383
       116  -9.4667    148.0869    119.9776   8.3396741556e+01   2.8512384482e+01    0.2508828    0.1960362  -2.23 0.0006039686    1.705    0.414
       117  -9.3330     72.0089    120.0706   1.0400547544e+02   4.2702564132e+01    0.2266486    0.1625897 -30.79   0.00112319    1.748    0.428
       118  -9.5936    185.5620    119.0057   7.4683414385e+01   2.0167857675e+01    0.2353236    0.1931921  47.29  0.001151435    1.241    0.194
       119  -8.5161     13.6568    118.7603   1.2043386073e+02   4.9178234081e+01    0.1143058   0.07902548 -45.73 0.0001891009    1.559    0.359
       120  -9.1525    210.3181    117.6443   6.9483017473e+01   1.4798213326e+01    0.1558126    0.1168877 -68.07 0.0007045696    1.751    0.429
       121 -10.1022    113.3454    115.9548   9.1371436340e+01   3.6695826953e+01    0.2683139    0.2265102  32.14 0.0002475742    1.283    0.221
       122 -11.2020     45.7317    120.3466   1.1163016680e+02   4.5926192926e+01    0.4786968    0.2821838  72.58   0.00225642    2.228    0.551
       123 -10.6523    107.6152    112.1552   9.2011360281e+01   3.8671327329e+01    0.4530952    0.3361843 -80.17   0.00196787    1.711    0.415
       124 -10.9390    102.5287    109.0908   9.2680023323e+01   4.0329034778e+01    0.5932353    0.5333513 -12.40   0.00316735    1.259    0.206
       125  -9.6716     66.9919    110.5230   1.0349983775e+02   4.5693630771e+01    0.3037078    0.2165554  38.19  0.001600073    1.551    0.355
       126  -9.1597    126.9731    113.6692   8.7130565669e+01   3.4463814204e+01    0.2213998    0.2025416  43.86  0.001017145    1.120    0.107
       127  -9.7148     48.8204    112.3377   1.0931972008e+02   4.7509981372e+01    0.2445991    0.2330364 -13.59  0.001243972    1.252    0.202
       128 -11.0738    170.9776    110.1768   7.5517695128e+01   2.5310893281e+01    0.6171297    0.4422387  34.49  0.001952122    1.540    0.351
       129  -9.1934     67.7620    114.1919   1.0404206252e+02   4.4709167103e+01    0.3950447    0.2557608  74.14  0.001802022    2.152    0.535
       130 -11.3798     79.6072    108.2730   9.9204694761e+01   4.4399670920e+01     0.696106    0.4084433  39.23  0.002378791    1.841    0.457
       131 -10.4791     90.6883    104.1549   9.4890007545e+01   4.3571636123e+01    0.4551336    0.3191324  21.16  0.001708848    1.806    0.446
       132 -10.2889     85.8856    103.8782   9.6259617743e+01   4.4437078468e+01    0.4478057    0.2940373 -22.02  0.001282608    2.229    0.551
       133 -10.0842    130.5662    110.1035   8.5255251341e+01   3.4497063871e+01    0.3259855    0.2113847  28.02  0.001337426    1.948    0.487
       134 -10.1034    120.7431    109.1517   8.7620329224e+01   3.6767343396e+01    0.4209411    0.3060812 -16.16  0.001828522    1.896    0.472
       135 -10.5469    157.5017    106.4572   7.7584355864e+01   2.9225570383e+01    0.4062375    0.2925221 -19.94  0.001410325    1.707    0.414
       136 -10.3127    143.4919    106.0034   8.0848545739e+01   3.2541086581e+01    0.3363212    0.3019168  86.33  0.001474879    1.239    0.193
       137 -11.8409    145.3642    100.8048   7.8948278305e+01   3.3210827854e+01    0.6015182     0.533022  27.08  0.002187997    1.205    0.170
       138  -8.8041     45.5399    105.5663   1.0904002658e+02   4.9487633386e+01    0.1335116    0.1130638 -61.27 0.0001300723    1.027    0.027
       139 -10.2023     57.4363    102.6517   1.0474260297e+02   4.8810155782e+01    0.3356222    0.2144529 -64.06  0.001253701    1.426    0.299
       140 -10.1907     56.9894     97.9752   1.0385243200e+02   4.9969750356e+01    0.5542102    0.2456172  33.80  0.002405049    2.515    0.602
       141  -9.9072     81.2535     97.6860   9.6113045184e+01   4.6621552670e+01    0.2084757      0.17678 -52.88 0.0006125704    1.082    0.076
       142  -9.5533     77.2147     97.0642   9.7213959647e+01   4.7393817942e+01    0.2846205    0.2154758 -11.95 0.0009005611    1.719    0.418
       143 -11.1583     89.7613     89.5617   9.1279071880e+01   4.7057677409e+01    0.7060045    0.3598501 -36.62  0.002805873    2.184    0.542
       144 -10.3686     64.7731     99.3409   1.0168903165e+02   4.8647028954e+01    0.4167937    0.2729786  -1.15  0.001736013    2.444    0.591
       145 -10.7725     67.9926     95.2878   9.9692268882e+01   4.9153815715e+01    0.5477472    0.3344153  35.73  0.002673615    1.819    0.450
       146 -10.5387     82.5406     93.2544   9.4550638040e+01   4.7432789737e+01    0.4092485    0.2812053  37.80  0.001116808    1.581    0.367
       147 -10.6063     76.9268     92.9968   9.6256230707e+01   4.8374913237e+01    0.5425186    0.3903275 -20.25  0.002060386    1.756    0.430
       148  -9.6633     82.4823    102.2748   9.6892800043e+01   4.5360453437e+01    0.3321983    0.1704879 -35.51  0.001279601    2.488    0.598
       149 -10.7120     51.6798     96.8995   1.0531903449e+02   5.0856360326e+01    0.9288014    0.2552724 -59.74  0.003196219    3.151    0.683
       150  -9.9070     47.7598     90.9935   1.0528548315e+02   5.2678923652e+01    0.2564762    0.1811435 -55.63  0.001136003    1.196    0.164
       151  -9.4364    120.8005    101.2171   8.5468366299e+01   3.8521166882e+01    0.2181733    0.1866508  -8.32  0.001071909    1.361    0.265
       152 -10.0957    210.7229     97.6713   6.4355047090e+01   1.8273372180e+01    0.3675747    0.3036862  20.40  0.001494694    1.411    0.291
       153 -10.2992    117.4199     93.3623   8.4188546721e+01   4.0937422714e+01    0.5301905    0.3424467  25.02  0.002185558    2.039    0.510
       154 -10.4109    121.3746     88.8278   8.1761850816e+01   4.1069401629e+01    0.4221611    0.2944274  39.72   0.00163073    1.494    0.331
       155 -10.9524    120.9932     85.0177   8.0723821411e+01   4.1945600958e+01    0.4484368    0.3052375  39.74  0.001924118    1.531    0.347
       156 -10.3466    126.0046     93.4952   8.1867602641e+01   3.9085454772e+01    0.3711971    0.3514784  22.56  0.001198446    1.094    0.086
       157 -10.4407    122.4804     93.5406   8.2838857985e+01   3.9833771332e+01    0.3451712    0.2626596 -48.46 0.0008317895    1.296    0.229
       158  -9.5592    160.3807     93.7742   7.3386782045e+01   3.1102135488e+01    0.3717171    0.2205464  67.04   0.00139794    2.258    0.557
       159  -9.2495    138.0724     93.1335   7.8593859360e+01   3.6474652928e+01     0.344607    0.2361962   7.79  0.001334896    2.363    0.577
       160 -11.6729    101.8570     90.0294   8.7725658446e+01   4.4759316711e+01    0.8231405    0.6413489  -3.92  0.002891344    1.637    0.389
       161 -11.2162    113.4180     84.3614   8.2658579886e+01   4.3680759578e+01    0.6600953    0.3712734 -36.37  0.001907094    1.826    0.452
       162 -10.6920    152.4863     91.4978   7.4569155432e+01   3.3442723296e+01    0.5285329    0.4386828  75.28  0.002259425    1.386    0.278
       163 -10.6888     46.8728     74.3962   1.0150744663e+02   5.6544874250e+01    0.3194714    0.1841325 -51.59  0.001641225    1.453    0.312
       164 -10.2932     93.7295     76.4638   8.6137215707e+01   4.9180461645e+01    0.5757861    0.3604375  30.85  0.002151242    1.808    0.447
       165 -12.3948     74.7921     50.6672   8.3696850688e+01   5.7546727812e+01     1.272729     0.753651 -48.44  0.006120354    1.791    0.442
       166 -11.7495     76.3455     80.2728   9.2924843395e+01   5.1317185912e+01     1.026729    0.8368738  74.05  0.004458269    1.630    0.387
       167 -10.2654     67.3264     81.9289   9.6417038324e+01   5.2291585718e+01     1.021652    0.6222847 -40.94   0.00498131    1.540    0.351
       168 -12.3449     89.5741     59.3283   8.1780907488e+01   5.3352860446e+01     1.064746     0.891229  51.88  0.005849432    1.381    0.276
       169 -11.6416     85.3519     73.7003   8.7957418983e+01   5.1246606335e+01    0.6480996    0.5177907  42.58  0.002622215    1.366    0.268
       170 -11.0700     79.8696     67.5530   8.7808597938e+01   5.3440411397e+01    0.5574006    0.4866146  53.77  0.002019827    1.364    0.267
       171 -13.1534     52.5196     73.4574   9.9216586809e+01   5.6099342516e+01     0.522693    0.2976325 -57.67 0.0008884942    1.643    0.391
       172  -9.1944    199.9258     87.7566   6.3655288654e+01   2.2581938618e+01    0.2112623     0.200756  64.98 0.0005820056    1.090    0.082
       173 -10.3914    183.5785     85.7341   6.6175118685e+01   2.6945418141e+01    0.8076991    0.3215716 -46.35  0.002685655    2.687    0.628
       174 -11.0931     58.0979     77.8721   9.8464613537e+01   5.4435380144e+01    0.5315878    0.3098032 -65.42 0.0003956602    1.965    0.491
       175 -10.4416    165.6192     83.4300   6.9229113986e+01   3.1809561623e+01    0.4423143     0.366269 -57.60  0.001585935    1.282    0.220
       176 -11.2444    142.9473     83.9711   7.4652773354e+01   3.7192178692e+01    0.4034867    0.3649192  43.96 0.0006814037    1.116    0.104
       177 -10.4306    127.3084     82.8511   7.8341754301e+01   4.1005083147e+01    0.4167316    0.2740003 -42.25  0.001829087    1.491    0.329
       178 -10.2735    127.1343     77.2091   7.6633991340e+01   4.2166253661e+01    0.4387406    0.2691958 -56.00  0.001011146    1.987    0.497
       179  -9.8783    124.2921     73.2347   7.6132876416e+01   4.3575154232e+01    0.3670262    0.2901635 -88.56  0.001660974    1.732    0.423
       180 -10.6153    120.0229     68.9891   7.5917390641e+01   4.5332793697e+01    0.3734167    0.2933046  71.63 0.0008438178    1.598    0.374
       181 -11.3232    123.7894     67.6307   7.4439985219e+01   4.4746765615e+01    0.7401398    0.4563034  30.89  0.003092345    1.951    0.487
       182 -10.8705    109.3205     80.5504   8.2676576648e+01   4.5313581148e+01    0.3457135    0.3093476 -15.30 0.0005728533    1.147    0.128
       183 -10.3911    232.4868     76.5784   5.5546330217e+01   1.6764130179e+01     0.663998    0.3157952 -50.54   0.00265765    2.240    0.554
       184  -9.4700      8.9778     76.2918   1.1557436392e+02   5.9259727899e+01    0.1621703    0.1268717 -56.53 0.0002334248    1.051    0.048
       185 -11.7313     14.1025     74.7734   1.1346529682e+02   5.9291693987e+01    0.4794829    0.3204492 -58.07  0.001604922    1.152    0.132
       186  -9.2407    170.7805     77.8105   6.6484241871e+01   3.1555793946e+01    0.2156024    0.1835614 -72.68 0.0004168825    1.307    0.235
       187 -11.8829      1.8630     71.1261   1.1717246258e+02   6.0777930898e+01     0.615549    0.1485364 -67.24  0.002483716    3.000    0.667
       188 -12.3096      6.2943     62.0525   1.1376356654e+02   6.2538210946e+01    0.5853147     0.383628 -29.40  0.002955945    1.564    0.361
       189  -9.5888    139.1118     77.2006   7.3530572570e+01   3.9407620682e+01    0.2329001    0.2088886  17.07 0.0003453231    1.190    0.160
       190  -9.7605    192.5490     65.6979   5.8855424051e+01   2.8136321256e+01    0.2910396    0.2486074 -71.76 0.0007942535    1.226    0.184
       191 -12.1114    186.6123     70.4644   6.1264349057e+01   2.8849353957e+01     0.956908    0.6599876 -34.74  0.003342598    1.434    0.303
       192  -9.9758    184.1875     61.4531   5.9094907590e+01   3.0935859759e+01    0.2989985    0.2801521 -40.26 0.0008535457    1.070    0.065
       193  -9.1448     63.6585     76.2829   9.6078929236e+01   5.4048799735e+01    0.2016673    0.1657354 -43.58 0.0002834667    1.070    0.065
       194  -9.5654     66.3672     74.2177   9.4534041885e+01   5.4119683438e+01    0.2127499    0.1762993 -31.08 0.0007060678    1.135    0.119
       195  -9.3721    114.1020     75.0430   7.9554378152e+01   4.5439464758e+01    0.4935696    0.1724665  39.27  0.001537517    3.373    0.704
       196  -9.4498    151.8847     73.4943   6.9310320972e+01   3.7024094968e+01    0.4220279    0.2014663  37.01   0.00143134    2.734    0.634
       197 -10.6011     21.6019     36.4606   1.0021052201e+02   6.6774482142e+01    0.6809539    0.3763148  52.07   0.00311265    3.983    0.749
       198 -11.7886     21.4914     46.7940   1.0362744037e+02   6.4761742627e+01    0.5472382    0.4341363 -16.49  0.002164794    1.263    0.208
       199 -11.7782     40.9879     70.6893   1.0266665850e+02   5.7988267007e+01    0.8674576    0.2253349 -50.84  0.001753747    2.881    0.653
       200 -11.4711     32.4889     72.0362   1.0615362546e+02   5.8505572944e+01     0.539958    0.2833899  25.05  0.002423415    2.252    0.556
       201 -10.1851     53.4537     49.4678   9.1266307146e+01   6.0927913726e+01    0.4263436    0.3255173  86.10  0.002185783    2.499    0.600
       202 -11.3335     41.0061     57.1079   9.8745896445e+01   6.0875571009e+01     0.485097    0.3633212  66.81  0.001871046    2.142    0.533
       203 -11.7548     33.1189     58.6790   1.0234589580e+02   6.1331647985e+01    0.5820828    0.4048201  -5.49  0.001798252    1.676    0.403
       204 -11.4222     25.6146     55.1262   1.0434927386e+02   6.2727858442e+01    0.7737061    0.3961908 -35.80  0.003411345    1.830    0.454
       205 -11.1707     20.1086     54.7524   1.0649711275e+02   6.3231256574e+01    0.3826822    0.3171955  17.37  0.001302635    1.448    0.309
       206 -11.1552     50.9220     61.2419   9.6190709220e+01   5.8896595096e+01    0.3086308    0.2956106  57.59   0.00104942    1.314    0.239
       207 -11.3868     46.1252     58.3943   9.7139652978e+01   6.0047850093e+01    0.4250599    0.2966871 -44.13  0.001162657    1.208    0.172
       208  -9.3954    216.6774    249.3512   9.4354342810e+01  -6.9304803402e+00    0.1035876   0.08698165  55.71 0.0007048172    1.751    0.429
       209  -9.8156    162.2931     70.9041   6.6204078128e+01   3.4905299812e+01    0.2949033    0.2608298  89.57 0.0009249799    1.238    0.192
       210 -10.2161     14.1067     67.3833   1.1193058997e+02   6.0927501248e+01     0.319641      0.25615   6.94  0.002196482    1.521    0.342
       211  -9.7947    172.3357     68.3308   6.3356833303e+01   3.2818675131e+01    0.3079339    0.2685017  21.95  0.001071084    1.285    0.222
       212 -10.0930    172.0253     65.4626   6.2558108382e+01   3.3379299173e+01     0.426001    0.3590659 -73.90  0.002126887    1.310    0.237
       213 -10.3853    103.9503     77.6577   8.3366681112e+01   4.6986138526e+01    0.6094571    0.3447744 -32.38  0.002523556    1.934    0.483
       214 -11.4248    219.6375     66.5012   5.4808730974e+01   2.1338344534e+01    0.6470014    0.3739838  61.54  0.002160426    1.806    0.446
       215 -11.3797    233.6709     61.2078   5.1555140740e+01   1.8846909149e+01    0.8187559    0.4351693  60.77  0.003725221    1.978    0.494
       216  -9.1147    208.0225     68.4934   5.7086446191e+01   2.3837606889e+01    0.2250382    0.1457326  59.75  0.001029732    1.586    0.370
       217  -9.0478     69.6409     67.1623   9.1215060023e+01   5.5135342571e+01    0.2034127    0.1124651 -38.28 0.0004026467    1.706    0.414
       218 -10.8535     58.8182     63.1963   9.3851141105e+01   5.7487880020e+01    0.5434093    0.3595062 -58.96  0.002176326    1.647    0.393
       219  -8.7936     64.5342     62.5137   9.1537149420e+01   5.6837427795e+01    0.2327013    0.1830333  78.65 0.0008007162    2.017    0.504
       220 -10.4177     21.2292     65.4970   1.0879530146e+02   6.0854968147e+01    0.2395084    0.2016199  82.88 0.0005280138    1.485    0.327
       221  -9.5074     25.9360     65.4599   1.0698233645e+02   6.0502215244e+01    0.1985627    0.1327894 -49.90 0.0003010976    1.186    0.157
       222  -9.4770     53.1037     65.9675   9.6826693183e+01   5.7641245549e+01    0.2577411    0.1829323  44.17  0.001417727    1.727    0.421
       223 -10.1598    105.7423     64.1910   7.8412056193e+01   4.9282543294e+01    0.4353283    0.3404923 -13.88  0.002185846    1.396    0.284
       224 -10.0420    105.9263     57.3200   7.5968220163e+01   5.0503665055e+01    0.4839844    0.2199955 -51.51   0.00168875    3.063    0.673
       225  -9.8385    199.2486     63.4808   5.7115431284e+01   2.6807311177e+01    0.5498089    0.3015682  78.61  0.002090651    2.521    0.603
       226 -10.3833    159.1392     62.1003   6.4152693462e+01   3.7203086605e+01    0.5405551    0.2864185  43.71  0.002127077    1.999    0.500
       227  -9.3686    175.2169    246.7972   1.0138741832e+02  -2.2861241189e-01     0.169813     0.123796  22.04  0.001088036    1.347    0.258
       228  -9.0931    199.0817    244.5410   9.6752181724e+01  -3.6811800939e+00    0.1907656   0.09517343  39.39  0.001037337    1.623    0.384
       229 -11.1984    113.0500     49.9769   7.1276642368e+01   5.0232817165e+01    0.6695225    0.3615081  36.03  0.002781795    2.043    0.510
       230 -10.8977    127.6950    242.5066   1.0961817222e+02   7.9685828180e+00    0.3198018    0.1964249 -68.11  0.001867033    2.112    0.526
       231  -9.2294    132.2196     45.5751   6.4726214500e+01   4.6494266922e+01    0.2132445    0.1719055  19.58 0.0006582187    1.348    0.258
       232 -11.6619    145.9272     47.3241   6.2195066341e+01   4.2865224064e+01     1.113829    0.4440081 -24.94  0.003715047    3.124    0.680
       233 -10.6715    136.6227     56.1768   6.7316265435e+01   4.3756570820e+01    0.6598112    0.4481612   5.42  0.002310886    2.110    0.526
       234 -10.7142    134.4764     50.2823   6.5823203939e+01   4.5224976496e+01    0.4605698    0.3426273  89.52  0.002115017    1.853    0.460
       235 -11.6229    156.4951     52.9679   6.1805496777e+01   3.9341912053e+01     1.005869    0.7015802 -33.75  0.004725282    1.455    0.313
       236  -9.5881     67.9807    240.4936   1.2031132039e+02   1.7029553241e+01    0.1702609   0.09225058  43.65 0.0008006383    1.572    0.364
       237 -10.9102    148.3502    237.4787   1.0513804357e+02   5.4615482020e+00    0.4265344    0.1679884  46.04  0.001970501    2.126    0.530
       238 -10.7740    198.1195    232.4415   9.5104703732e+01  -1.9385524925e+00    0.3385439    0.2577477  37.68  0.002192816    1.174    0.148
       239  -9.7270     15.1354    233.6785   1.2891861987e+02   2.4467466348e+01    0.1914148    0.1214614 -84.86  0.001141534    1.393    0.282
       240 -10.0887    247.6081    231.6248   8.6233201347e+01  -9.3781206938e+00     0.207394    0.1313723 -33.07 0.0008803549    1.796    0.443
       241 -11.3536    155.9519     41.9138   5.8327683615e+01   4.1117821486e+01    0.4124737    0.3986056  53.81  0.001016724    1.011    0.011
       242 -11.5356    153.1059     36.0662   5.6953483668e+01   4.2643607839e+01    0.3101739    0.2836594 -60.94 0.0004536838    1.158    0.136
       243  -9.6291    187.8288     55.5683   5.6753710212e+01   3.0924456475e+01    0.2531314    0.2413038  22.95 0.0006559789    1.150    0.130
       244  -9.9899     66.9805     54.7702   8.8007437493e+01   5.8011637861e+01    0.3096099    0.1836649 -50.22 0.0009562603    1.720    0.419
       245 -10.1313    248.2482     52.2544   4.7659978306e+01   1.6853402269e+01    0.3251793    0.1802402 -54.77   0.00117198    1.773    0.436
       246  -9.9125    244.7285     51.0191   4.7754409928e+01   1.7807214315e+01    0.2821287    0.2052597 -77.24 0.0006567952    1.451    0.311
       247  -9.7596    237.2125     54.1653   4.9378640630e+01   1.9061014176e+01    0.2998973    0.2096015 -69.84 0.0007657445    1.527    0.345
       248 -10.7560    240.3858     50.5679   4.8133306794e+01   1.8848164348e+01    0.3898604     0.313202 -30.04  0.001441813    1.273    0.215
       249  -9.7697     59.6425     24.0157   7.8503517655e+01   6.4371998579e+01     0.249701    0.1653097 -28.47 0.0004594045    1.373    0.271
       250  -9.7545     60.6938     20.2976   7.6392887283e+01   6.4735870917e+01    0.3270765    0.2477431 -63.66  0.001351993    2.484    0.597
       251 -11.5634     60.4682     36.2300   8.3427416436e+01   6.2327799188e+01    0.3595145    0.2334146 -28.34 0.0005479738    1.401    0.286
       252 -11.2362     56.5788     31.1008   8.2832663712e+01   6.3744689332e+01     0.454593    0.3015618   8.80  0.002083551    1.668    0.400
       253 -11.5343     49.0853     30.0987   8.5497856532e+01   6.4955570017e+01    0.6489965    0.2931959  27.71   0.00201508    2.509    0.601
       254 -12.1496     60.9936     45.8337   8.6996187930e+01   6.0570229343e+01    0.9659628    0.4462246 -44.89  0.004387359    2.019    0.505
       255 -10.3259     63.2441     40.4097   8.4034581106e+01   6.1199325998e+01    0.2199243     0.213595   4.80 0.0005462771    1.268    0.211
       256  -9.8127    211.8726     53.2348   5.2413048844e+01   2.5227461169e+01    0.3435966    0.2026026  69.97  0.001544948    1.790    0.441
       257 -11.2238    201.6866     47.3903   5.2272392013e+01   2.8610599058e+01    0.8682808    0.5057066 -34.23  0.003933665    1.679    0.404
       258 -12.6874    119.7125     37.9218   6.5052481292e+01   5.0572284127e+01    0.8427998    0.6424559  89.25  0.004077872    1.847    0.459
       259 -10.2843     91.0556     47.7990   7.7092945874e+01   5.5142045802e+01    0.3456044    0.1946771 -38.17  0.001181659    1.719    0.418
       260  -9.7127      2.1399     48.5824   1.1240124856e+02   6.5594111069e+01    0.2122042    0.1702595 -34.33  0.001261495    1.193    0.162
       261 -10.1111     13.9586     46.5298   1.0680126276e+02   6.5351707132e+01    0.3797785    0.1401013 -37.24  0.001756323    2.533    0.605
       262  -9.8347     17.9710     41.7161   1.0359569429e+02   6.6037951533e+01    0.3201901    0.1998542 -18.44  0.001932674    1.678    0.404
       263 -10.9284    173.8216     48.0423   5.6932074271e+01   3.5646474062e+01    0.5809821    0.4176967  76.65  0.002758951    1.497    0.332
       264  -9.7712    176.6189     43.2947   5.5001974187e+01   3.5604578641e+01    0.3563242     0.247883  77.58  0.001254873    1.540    0.351
       265 -10.4397    139.2441     44.1649   6.2601524205e+01   4.4992650115e+01    0.4843634    0.2724526  34.96  0.001972508    2.099    0.524
       266  -9.5428    233.7203     44.6464   4.7444288043e+01   2.1202769455e+01    0.3278148    0.2257744  -2.55   0.00155707    2.207    0.547
       267 -10.3545    231.5145     39.2320   4.6354706684e+01   2.2450632144e+01    0.5127934    0.2746083 -71.75   0.00179191    2.386    0.581
       268  -9.8266    162.9270     43.9156   5.7635185138e+01   3.9047686135e+01    0.3118541     0.204342  50.54  0.001437497    1.482    0.325
       269  -9.0556    101.4968     44.4998   7.2588593464e+01   5.3595638691e+01    0.3168143    0.2207412 -57.69  0.001305015    1.981    0.495
       270 -10.0211     97.6927     41.3461   7.2530303135e+01   5.4878694180e+01    0.2853413    0.2410709 -78.28 0.0008617051    1.687    0.407
       271 -10.6335     92.9552     41.3710   7.4014028371e+01   5.5827694808e+01    0.5128744    0.3160011  43.96   0.00157463    1.625    0.385
       272  -9.5618      5.4133     42.4999   1.0942050740e+02   6.6672562801e+01    0.3940707    0.2404912 -50.20  0.001872014    1.211    0.174
       273 -10.3404    189.2693     40.6627   5.2201685652e+01   3.2708877230e+01    0.6627419    0.2388831 -24.58  0.001886841    3.449    0.710
       274  -9.6887     86.0000     30.9228   7.2030509159e+01   5.8764529428e+01    0.5152299    0.2725906 -13.28  0.002131918    2.583    0.613
       275 -10.7488     81.1903     39.8446   7.7287662666e+01   5.8302793165e+01    0.6112611    0.4147207  37.41  0.003031548    1.484    0.326
       276 -10.6502     77.6640     34.4256   7.6304612964e+01   5.9793108578e+01    0.3997255    0.2600173  38.13  0.001333662    1.538    0.350
       277 -10.1705     81.6413     31.4595   7.3701276507e+01   5.9513466579e+01     0.419645    0.2690492 -48.99  0.002067729    2.025    0.506
       278  -9.3042    193.4147     39.0835   5.1135844222e+01   3.1861074507e+01    0.2448436    0.1831358  54.21 0.0005618698    1.352    0.260
       279  -9.7742    182.6840     32.0366   5.0662198574e+01   3.5538542572e+01    0.2401773    0.1890453  46.81 0.0004234464    1.328    0.247
       280 -11.1494    176.8992     36.2976   5.2833232741e+01   3.6483384802e+01    0.4598641    0.3601261 -16.73  0.002202946    1.448    0.309
       281  -9.9227    171.7282     33.2378   5.2733223248e+01   3.8218614314e+01    0.3434449    0.2563564  64.00  0.001747004    1.270    0.213
       282  -9.6388     23.5639    231.8012   1.2742240972e+02   2.3931237087e+01    0.2105059   0.09027782  54.86 0.0008945293    1.768    0.434
       283 -10.2668    177.1001     30.0610   5.0912076682e+01   3.7228874430e+01    0.4439209    0.2329467  59.11  0.001777303    1.763    0.433
       284 -11.0566    183.2356     25.0010   4.8505632745e+01   3.6257506016e+01    0.6674421    0.3290061  51.56  0.002849083    2.010    0.502
       285  -9.6608    206.9658     36.9987   4.8706418971e+01   2.8710425659e+01    0.2174868    0.2026837 -83.73 0.0007147946    1.035    0.034
       286 -10.9640    139.3152     33.0831   5.8726450908e+01   4.6510343352e+01    0.5311611    0.4896771 -11.49  0.001819887    1.129    0.115
       287  -9.6606    132.8241     36.5809   6.1395215575e+01   4.7641087277e+01    0.3313334    0.2320814 -67.15  0.001510337    1.986    0.496
       288 -10.3431    242.5435    231.0304   8.6991450783e+01  -8.5857246028e+00    0.2731546    0.1137899  47.60  0.001208237    3.331    0.700
       289  -8.8287    189.9793    229.9747   9.6231044900e+01  -2.7110054146e-01     0.154438    0.1232233  30.25 0.0008382767    1.025    0.024
       290  -9.3248    108.2346    230.0314   1.1188649502e+02   1.3109085919e+01    0.1442554    0.1005542 -65.72  0.000880843    1.632    0.387
       291 -10.1482     31.1674     27.8440   9.2505749586e+01   6.7457586504e+01    0.2203423    0.1836958 -17.20 0.0004768696    1.094    0.086
       292  -9.9938    234.3206    222.9401   8.7042520561e+01  -6.3932237478e+00    0.1694151    0.1349473   5.10 0.0005846029    1.074    0.069
       293  -8.8285    209.3476    223.3104   9.1579440333e+01  -2.5112240755e+00    0.1309026     0.084147  12.45 0.0007045211    1.710    0.415
       294  -9.4913     10.1087    217.8740   1.2898430477e+02   2.7917186274e+01    0.1732581    0.1038632  69.87 0.0007350483    1.233    0.189
       295 -10.3445    165.2546    212.4530   9.8267303331e+01   6.6513876027e+00     0.296658    0.1794117  53.28  0.001335489    1.733    0.423
       296  -9.3961     94.4771     36.0086   7.1416798419e+01   5.6345988305e+01    0.2446788    0.1938192  64.27  0.001309329    1.605    0.377
       297  -9.2657    204.5074    208.4969   8.9956737719e+01   4.1239909950e-01    0.1307696    0.1111491  20.78 -2.242743e-05    1.011    0.010
       298 -12.2379    105.8822     32.9072   6.6827542886e+01   5.4388943134e+01    0.5771567    0.3391379  18.66  0.002126115    2.330    0.571
       299 -12.6816    114.3556     25.1434   6.1533388482e+01   5.3497993086e+01    0.7735375    0.3323596  49.83  0.000566802    2.095    0.523
       300 -10.5600    239.9906     32.6047   4.3862293960e+01   2.1351596820e+01    0.4330954    0.3431717  85.73  0.002567146    1.242    0.195
       301  -9.3977    216.1039     33.0316   4.6532640920e+01   2.6963528727e+01    0.2903322    0.1848561  13.33  0.001221878    2.820    0.645
       302  -9.5806     68.5130     33.0781   7.9044154971e+01   6.1574708972e+01    0.4129377    0.3411871  42.80  0.002498145    1.416    0.294
       303  -9.5260     66.5556     28.1621   7.7673482122e+01   6.2650722620e+01    0.3120018    0.1537926  27.43  0.001388367    2.394    0.582
       304  -9.7368    153.2320    207.8427   9.9968088687e+01   9.5693243535e+00    0.2458862    0.1619359  49.26  0.001086489    1.395    0.283
       305 -10.2299    189.5355     27.4951   4.8363774351e+01   3.4338829271e+01    0.4013321    0.2866355  25.02  0.001475808    1.856    0.461
       306  -8.7124    148.2929     32.3218   5.6632601953e+01   4.4354888599e+01    0.1501271    0.1067004  28.03 0.0004291956    1.611    0.379
       307  -9.8641    187.5164     31.5532   4.9816994303e+01   3.4354751027e+01    0.2643682    0.1965078  48.00 0.0005392471    1.411    0.291
       308  -9.4043    221.8240     29.6213   4.5011638730e+01   2.6004304035e+01    0.2168801     0.181686 -26.66 0.0005849283    1.316    0.240
       309 -10.7785     98.5106     27.4586   6.6739315660e+01   5.6707537367e+01    0.4259723    0.2602227 -40.76 0.0009409852    1.826    0.452
       310 -10.1641    230.5440     27.0363   4.3457996832e+01   2.4245757025e+01    0.3750917    0.2028042 -38.16  0.001202363    1.686    0.407
       311  -8.8090     41.1125     28.2602   8.8164312329e+01   6.6273788674e+01    0.3021342    0.1240955 -30.02  0.001297674    2.643    0.622
       312  -9.4844    250.5533     26.6235   4.1494079029e+01   1.9732575696e+01    0.2550297    0.1138549 -32.96 0.0006304376    2.065    0.516
       313  -9.7072     60.9977    206.9487   1.1875843429e+02   2.4336831801e+01      0.18676    0.1445569  71.01  0.000474897    1.034    0.033
       314  -8.5798    206.2323     25.6300   4.5735385147e+01   3.0331711070e+01    0.1455017   0.09110716 -56.09 0.0002752073    1.601    0.375
       315  -9.3500    238.5045    204.5378   8.3040662282e+01  -4.6610036560e+00    0.2500365    0.1146201 -33.23  0.001219288    2.194    0.544
       316  -9.2305     86.1560     23.8369   6.8974949917e+01   5.9704186024e+01    0.1793884    0.1366828  14.79 -0.0006383859    1.267    0.211
       317 -10.9341      4.5472    204.3811   1.2927311086e+02   3.1070007346e+01    0.4642368    0.1022252 -68.28  0.002060282    3.649    0.726
       318 -12.1752      4.7753    184.3104   1.2811625686e+02   3.5153017300e+01    0.6143227    0.3857317  77.64  0.004179549    1.226    0.185
       319  -9.7178     80.7549     19.3667   6.8761721956e+01   6.1322514775e+01    0.3234064    0.2000968  40.32 0.0009439518    1.518    0.341
       320 -10.6345    245.6677    200.9008   8.1122754522e+01  -5.3037178910e+00    0.2199991    0.1480585  21.52 0.0007792294    1.342    0.255
       321  -8.5462    207.2945    201.3231   8.8145778877e+01   1.0113616639e+00    0.1344555    0.0933969   6.80 0.0007018795    1.618    0.382
       322  -8.6192      1.3283    200.3008   1.2964286831e+02   3.2169656237e+01   0.09550998   0.07361627 -63.20 0.0004274707    1.642    0.391
       323 -10.3125    234.2183    197.0042   8.2390760379e+01  -2.9343137022e+00    0.3989326    0.2637636  18.36  0.001707398    1.469    0.319
       324  -8.7012     27.6588    199.3214   1.2466876800e+02   2.9838149664e+01    0.1264841   0.06451706  66.81 0.0007050349    1.722    0.419
       325  -9.2413    223.0419     22.0839   4.2987484992e+01   2.6632000291e+01    0.2068289    0.1760541 -73.83  0.000694364    1.043    0.041
       326  -8.7980     83.6480    195.8165   1.1291237607e+02   2.3495719779e+01    0.1702982    0.1110316 -81.83 0.0004468251    1.574    0.365
       327  -9.7721     74.1286     19.5411   7.1081711539e+01   6.2537493174e+01    0.2499593    0.1976433  28.50 0.0007067367    1.176    0.150
       328  -9.9674    169.8372    191.4770   9.3801516786e+01   9.4699017350e+00    0.3545244    0.2057221  29.70  0.001121607    1.870    0.465
       329  -9.8019    239.9152    184.6390   7.8993533270e+01  -2.1173042811e+00    0.2198865    0.1602703 -12.43 0.0006250878    1.284    0.221
       330 -10.0356    250.3888    178.9941   7.6070242650e+01  -3.0469112229e+00    0.3713336     0.113814 -31.44  0.001383275    3.245    0.692
       331  -9.3344    211.3218     18.8808   4.3382979558e+01   2.9862186595e+01    0.1801111    0.1656961 -59.99 0.0003862451    1.094    0.086
       332  -8.9517    194.4648     19.2305   4.5390268198e+01   3.4048887055e+01    0.1877372    0.1195539 -45.21 0.0005271971    1.547    0.354
       333  -9.9777    212.8602    181.3141   8.3271315376e+01   3.1571258024e+00    0.3069898     0.154171  22.31  0.001160127    2.999    0.667
       334  -9.1807    205.2275     17.4124   4.3654201893e+01   3.1541891561e+01    0.1915077    0.1212281  87.90 0.0006444824    1.589    0.371
       335  -9.6381    191.7796     16.6295   4.4986488785e+01   3.5021622667e+01    0.3922026    0.2271493  42.73  0.001802164    2.038    0.509
       336  -9.5891     27.8972    176.4176   1.2283640870e+02   3.4703218903e+01    0.2703865    0.1498574 -70.01  0.001566306    1.574    0.365
       337 -10.3453    186.3342     15.1181   4.5223345249e+01   3.6575481773e+01    0.2579738    0.2058723  72.71 0.0003842711    1.153    0.133
       338  -9.0135    174.2372     15.8081   4.7009706565e+01   3.9609515806e+01    0.1873067    0.1497996  45.58 0.0004906916    1.298    0.229
       339  -9.3021     28.0869     15.6154   8.8602446488e+01   6.9785035496e+01    0.1920563    0.1300722  35.70  0.001212649    1.859    0.462
       340  -8.2786      6.2939     16.3233   1.0020041012e+02   7.1542265928e+01    0.1192109   0.06165367 -29.85 0.0002319837    1.617    0.381
       341  -9.9881     52.1579    173.8734   1.1727252482e+02   3.2569237345e+01    0.4293787    0.1918017  89.42   0.00173507    3.012    0.668
       342  -9.5025    231.2798    175.3209   7.8652169764e+01   7.6704840105e-01    0.3439892    0.1084123  39.07  0.001236859    3.235    0.691
       343  -9.8986    247.5880    174.0616   7.5546700372e+01  -1.8705505111e+00    0.4723321    0.1784979  28.87  0.001590457    4.255    0.765
       344  -9.7456     39.2246    173.4049   1.2010490671e+02   3.4175812904e+01    0.2527461    0.1632264  58.02  0.001506759    1.430    0.301
       345 -10.6983     35.3810    170.1662   1.2063921854e+02   3.5319189534e+01     0.323914    0.2096888 -81.77  0.001578143    1.298    0.229
       346 -10.2192      8.9261    156.6894   1.2533953195e+02   4.0813203311e+01    0.3401333     0.135788 -67.36   0.00175827    2.004    0.501
       347 -11.7570      9.6995    166.7010   1.2593960147e+02   3.8526236730e+01    0.5085599    0.3598456  83.90  0.002191182    1.091    0.083
       348 -11.1407     14.0364    159.1107   1.2439686613e+02   3.9849198340e+01    0.3745237    0.2324519 -80.46  0.001368786    1.272    0.214
       349  -8.9554    197.8389    167.8463   8.3453695411e+01   8.3074254318e+00    0.1849135    0.1729707 -70.02 0.0006795675    1.311    0.237
       350  -9.9996    188.4651    165.3119   8.4827267593e+01   1.0636671077e+01    0.5564988    0.2273486 -30.97  0.001851231    3.407    0.706
       351  -8.6350    156.4793    166.4594   9.1941846224e+01   1.6865073687e+01    0.1460247    0.1387347  43.69 0.0001637681    1.005    0.005
       352  -8.4888    152.2706    166.6692   9.2926330263e+01   1.7660168646e+01     0.144133    0.1150121  86.53 0.0003525681    1.587    0.370
       353 -10.1681     18.7852    164.9839   1.2383764415e+02   3.8115860308e+01    0.2686079    0.2233852 -60.70  0.001541212    1.405    0.288
       354 -10.1800    205.0130    162.9941   8.1005452080e+01   7.7451942885e+00    0.2674939     0.199002  31.70 0.0005865342    1.319    0.242
       355  -9.5161     40.2814    162.6816   1.1875736662e+02   3.6492462880e+01    0.3727731      0.14094 -80.01  0.001506941    2.851    0.649
       356 -10.3416     27.9515    162.0421   1.2152406748e+02   3.7915761059e+01    0.3912323    0.1771397 -68.62  0.002014796    1.835    0.455
       357  -9.4959     79.2685    160.4135   1.0914322784e+02   3.2014619810e+01    0.2415082    0.1564908  88.71  0.001140188    1.741    0.426
       358  -9.5081    215.1364    158.3326   7.8048888707e+01   6.5555723176e+00     0.260152    0.1833747 -22.10 0.0008570204    1.451    0.311
       359  -9.4421    223.8155    156.8036   7.6100293106e+01   5.1240013574e+00    0.1805578    0.1694485 -53.34 0.0005591261    1.293    0.227
       360 -12.0923     22.4384    149.8649   1.2161195664e+02   4.1222198264e+01    0.6319175    0.3210815 -51.10  0.002254555    2.178    0.541
       361 -10.5906     15.3015    147.7387   1.2310017640e+02   4.2324845588e+01    0.3050733    0.2140924  51.16   0.00112739    1.479    0.324
       362 -11.8628     12.8422    139.7763   1.2293053441e+02   4.4352356897e+01    0.8190745    0.4098608 -85.89  0.004374463    1.739    0.425
       363 -10.4922    104.5642    154.0496   1.0183097225e+02   2.9430602685e+01    0.3610412    0.3312322 -82.36  0.002061627    1.037    0.036
       364 -10.8434     31.7325    153.3171   1.1975530710e+02   3.9546142086e+01    0.4406379    0.2834671  89.08  0.002569776    1.374    0.272
       365  -9.3446     74.7933    153.4095   1.0917466502e+02   3.4308881465e+01    0.2548298    0.2040489 -82.29 0.0007969785    1.148    0.129
       366  -9.3127     70.7429    151.5898   1.0991182994e+02   3.5312259084e+01    0.3330648     0.132687  36.96  0.001086209    2.594    0.614
       367 -11.9177      4.1643    147.7775   1.2570264409e+02   4.3179641712e+01    0.7216883    0.3691185 -85.03  0.003672811    1.562    0.360
       368 -10.6727      5.2076    141.6289   1.2494424687e+02   4.4496881884e+01    0.2360444    0.2101672 -54.45  0.001036955    1.385    0.278
       369 -12.5447      3.8083    137.0885   1.2488244108e+02   4.5629171513e+01    0.3101674    0.1969284 -67.14 0.0003984453    1.320    0.242
       370 -11.0254     62.9055    150.2330   1.1168599419e+02   3.6693197275e+01    0.4172015    0.3976907  31.85  0.001993276    1.291    0.225
       371 -11.0980     47.0679    148.1021   1.1537786378e+02   3.9136061796e+01    0.7007208    0.2845447 -68.11   0.00309967    2.135    0.532
       372  -8.8383     42.1807    148.6271   1.1666508239e+02   3.9556023674e+01    0.2048009     0.132978  11.31  0.001053788    2.448    0.591
       373  -9.7368    214.6820    150.9551   7.6509809416e+01   7.9206013386e+00     0.271897    0.2165594  51.58 0.0009547934    1.395    0.283
       374  -9.5593    234.3476    150.3757   7.2807632391e+01   4.1655457175e+00    0.2230155    0.1580419   4.33 0.0008645888    1.636    0.389
       375  -9.6901    239.8571    146.7066   7.1049499191e+01   3.7163387993e+00    0.2344637    0.1763067 -16.84  0.000635798    1.271    0.213
