#   1 NUMBER                 Running object number                                     
#   2 MAG_AUTO               Kron-like elliptical aperture magnitude                    [mag]
#   3 X_IMAGE                Object position along x                                    [pixel]
#   4 Y_IMAGE                Object position along y                                    [pixel]
#   5 X_WORLD                Barycenter position along world x axis                     [deg]
#   6 Y_WORLD                Barycenter position along world y axis                     [deg]
#   7 A_WORLD                Profile RMS along major axis (world units)                 [deg]
#   8 B_WORLD                Profile RMS along minor axis (world units)                 [deg]
#   9 THETA_WORLD            Position angle (CCW/world-x)                               [deg]
#  10 FWHM_WORLD             FWHM assuming a gaussian core                              [deg]
#  11 ELONGATION             A_IMAGE/B_IMAGE                                           
#  12 ELLIPTICITY            1 - B_IMAGE/A_IMAGE                                       
         1 -16.0052    177.9428     79.5654   3.8279908944e+01   2.9222159673e+01     3.400639     2.164649  31.36   0.01362422    2.197    0.545
         2 -17.9604    241.4642     53.9733   2.1599269421e+01   1.7593727690e+01     9.585422     5.852972 -30.75   0.04185025    1.745    0.427
         3 -14.5047    212.4995     25.8274   1.8193352443e+01   2.8637615718e+01     1.567809     1.102457 -73.51  0.006653163    1.385    0.278
         4 -15.7616    232.5859     32.5783   1.7554699958e+01   2.2749610393e+01     2.564113     1.301645 -21.34   0.01051235    2.848    0.649
         5 -12.1983    133.9846     28.2878   3.1856386340e+01   4.8516681648e+01    0.3062057    0.2103628 -27.34 0.0009299719    1.589    0.370
         6  -9.9982    206.9959     12.0243   1.5293783741e+01   3.1723730176e+01    0.2086112    0.1801457  88.98 0.0005107186    1.041    0.040
         7  -9.6276    208.5046      8.5072   1.4233102056e+01   3.1739497100e+01    0.1736514    0.1377757  -8.36 0.0009593284    1.725    0.420
         8 -11.0737    127.9892     10.0504   2.6742619096e+01   5.2100768827e+01     0.204755    0.1877863  46.78 0.0006501559    1.039    0.037
         9 -10.0599    224.4858      8.0969   1.2539269239e+01   2.7790731047e+01    0.2468376    0.1562334  60.01 0.0008781712    1.615    0.381
        10 -11.5848    158.6200      2.9363   1.8936692208e+01   4.5173181237e+01    0.2444615    0.2302763  75.76 0.0004784417    1.091    0.083
        11  -9.5605    132.3032    138.6481   6.3526104898e+01   2.7684410220e+01    0.1593169    0.1153059  85.38 0.0007040046    1.703    0.413
        12 -14.5846    197.9765     85.0871   3.5922602455e+01   2.3161754249e+01     2.438752    0.7279167  44.17  0.006339188    4.847    0.794
        13 -11.5769    248.5312    249.0239   6.0118074180e+01  -1.2293396004e+01    0.2386745      0.13966  34.25  0.001565512    1.364    0.267
        14 -14.0358    230.6467     72.2041   2.7382335139e+01   1.7330769484e+01    0.6919009    0.3544383  52.89  0.002232294    2.045    0.511
        15 -11.3499    243.0014    230.9938   5.8224072252e+01  -9.5080150962e+00    0.1550349    0.1416183  57.08 0.0005002545    1.624    0.384
        16 -12.2462     15.6111    149.0093   9.3970777690e+01   4.2485353733e+01    0.3291017    0.1529449 -62.90   0.00180237    1.896    0.472
        17 -13.7675     34.5341    150.9224   8.9762946624e+01   4.0241169002e+01     0.536581     0.459114  73.43   0.00152276    1.148    0.129
        18 -11.4142    133.8421    145.8391   6.4641163332e+01   2.5774313362e+01     1.097522    0.2694598 -56.24  0.002573982    6.263    0.840
        19 -12.0587    204.6589    136.0198   4.7050731654e+01   1.2155414685e+01    0.3547403    0.3100929 -56.82 0.0007697858    1.210    0.174
        20 -13.0242    202.5968    131.5855   4.6444385755e+01   1.3441462893e+01    0.4528205    0.3957056 -64.39  0.002394732    1.235    0.190
        21 -11.3295    219.3912    133.2476   4.3669105722e+01   9.4144303623e+00    0.3774459    0.2061282 -54.16 0.0009298759    2.296    0.564
        22 -12.7800    131.1943     90.1741   5.2024285676e+01   3.8505464109e+01     1.252113    0.2998437 -48.34  0.003220954    4.698    0.787
        23 -11.2782    136.0000    129.5928   6.0656211656e+01   2.8915121367e+01    0.6567609    0.1723754 -50.60  0.001839016    4.025    0.752
        24 -11.0423    135.1547    120.4889   5.8773066205e+01   3.1108576292e+01    0.5762258    0.2087158 -49.29  0.001860896    2.820    0.645
        25 -11.6950    134.7032    111.6648   5.6755128638e+01   3.3143094674e+01    0.6915446    0.2222997 -47.29  0.002152242    3.150    0.683
        26 -12.8827    135.0798    101.7728   5.4144894693e+01   3.5195107345e+01    0.8875521    0.3729144 -44.32  0.001951788    2.427    0.588
        27 -12.2169    248.7304    176.4974   4.7565312567e+01  -3.3173023407e+00    0.3419962     0.227996 -11.44  0.001852348    1.669    0.401
        28 -12.4394    161.3233    128.5700   5.4439613326e+01   2.3515214819e+01     0.489927    0.4139318  55.68  0.001813515    1.137    0.120
        29  -9.7599    207.2848    162.0121   5.2132700653e+01   6.9017587186e+00    0.1879406    0.1806777 -21.56  0.000241864    1.082    0.075
        30 -11.7166    172.8051    123.8405   5.0770596865e+01   2.1837347081e+01    0.4058619    0.2415702 -60.61  0.001598552    2.115    0.527
        31 -13.0905    245.1057    168.5225   4.6610200044e+01  -1.4997653024e+00    0.7414724     0.477833  62.83   0.00363223    2.313    0.568
        32 -12.3873    236.5177    172.4198   4.8861733153e+01  -5.2291966346e-01    0.2644177    0.2504988 -69.44  0.001673326    1.339    0.253
        33 -11.0002    212.3531    122.7955   4.2568700285e+01   1.2851705327e+01    0.2486863    0.2147219 -60.01 0.0006774546    1.218    0.179
        34 -12.6711    198.2354     99.7317   3.9623739766e+01   2.0431094802e+01    0.5405323    0.3794447  68.16  0.002068053    1.542    0.351
        35 -13.7248    205.0018    110.4131   4.0991772932e+01   1.6826871781e+01    0.8675347    0.5207507  42.67  0.003482985    1.794    0.443
        36 -12.1908    114.7938     95.3097   5.7810923460e+01   4.0937503968e+01    0.8681685    0.5025609  35.49  0.002058279    1.995    0.499
        37 -12.9572    126.9985    105.7597   5.7251050369e+01   3.6105972980e+01    0.8054587     0.487342 -61.54  0.003335268    1.916    0.478
        38 -12.7018    116.9474    102.4831   5.9087498168e+01   3.8932761906e+01    0.7900509    0.6126555  33.44  0.003878836    1.443    0.307
        39 -13.0033    122.9554     96.0723   5.5799062309e+01   3.9067461833e+01    0.6230145    0.3738151 -35.90  0.002604457    1.924    0.480
        40 -10.0059    176.2206    109.5541   4.6537598071e+01   2.3903808805e+01    0.3005731    0.1518283  55.10  0.001092225    1.995    0.499
        41 -12.1693    239.4443    217.8913   5.6670545321e+01  -7.3734811195e+00    0.2750063    0.2450101 -64.00  0.001375745    1.769    0.435
        42 -13.9181      3.5414    164.3400   9.7795766470e+01   4.0179758568e+01    0.8173234    0.3211744 -77.69  0.004408289    1.987    0.497
        43 -11.4913    149.4476    104.3438   5.1268888662e+01   3.1360729686e+01    0.3221843      0.31888  -2.57  0.000623918    1.113    0.102
        44  -9.8669    200.6650    182.3478   5.7412356515e+01   4.7386259654e+00    0.1925166    0.1567563  80.13  0.001034043    1.644    0.392
        45 -12.2113    167.3265    116.0555   5.0095432358e+01   2.4716389217e+01    0.3989255    0.3540124  -5.59  0.001862813    1.373    0.271
        46 -12.2840    200.9941    106.0062   4.0666379251e+01   1.8598893552e+01    0.4318456    0.2860691  41.59   0.00149764    1.641    0.391
        47 -11.7418    248.9225    211.2960   5.3931728287e+01  -8.0449376112e+00    0.3153497      0.20768  54.62  0.001786429    2.118    0.528
        48 -11.1911    143.0129     79.3329   4.5969466869e+01   3.7940653971e+01     0.221518    0.1966835  55.62  0.000481811    1.098    0.089
        49 -11.0163    127.4775     77.2152   4.9291373907e+01   4.1956757312e+01      0.51942    0.1908576 -50.16  0.001654348    3.199    0.687
        50 -11.8999     24.8307    164.8314   9.3316146352e+01   3.8142358717e+01    0.3072824    0.1989622  61.46  0.001954856    1.378    0.274
        51 -11.1836    179.9749     57.2296   3.1633561865e+01   3.2541778430e+01    0.2664725    0.2156768 -42.04 0.0008380708    1.272    0.214
        52 -13.8030    192.9378    155.4936   5.3609928156e+01   1.1098794264e+01     1.236581    0.8029627 -83.88  0.004661048    3.139    0.681
        53 -12.2644     65.7108    142.8457   8.1073584942e+01   3.8326359762e+01     1.853054    0.7417002  43.72  0.007949962    2.443    0.591
        54 -11.6457    192.1045     47.5063   2.6820893504e+01   3.0891904795e+01    0.3264346    0.2832982  79.95  0.000552898    1.069    0.064
        55 -13.8432     42.2510    147.7898   8.7562355297e+01   4.0112211930e+01    0.7596748    0.5292361  89.08  0.002661992    1.255    0.203
        56 -11.2047    160.4341     38.2975   2.9673535610e+01   4.0500957674e+01     0.266673     0.151126 -26.67  0.001135331    2.038    0.509
        57 -11.0714    190.0227     35.6490   2.3852469770e+01   3.3141821373e+01    0.2656664    0.2077164 -36.72 0.0006598232    1.362    0.266
        58 -11.0558    124.5080     37.4993   3.7268878022e+01   4.9499744698e+01    0.1421138    0.1336523  42.85 5.102644e-05    1.002    0.002
        59 -13.5314     48.5024    145.7092   8.5777036708e+01   3.9866406946e+01    0.6668676    0.4112793 -84.96   0.00194329    1.511    0.338
        60 -10.6097    166.0141     33.9362   2.7303017547e+01   3.9660428257e+01    0.2214065    0.2032466  79.42 0.0004196623    1.016    0.015
        61 -10.9814    159.7310     28.4638   2.6745837892e+01   4.2015962223e+01    0.2695089    0.2203892 -56.82 0.0006252433    1.298    0.230
        62 -11.8071    242.4658    207.9691   5.4447609411e+01  -6.5908957424e+00    0.2744033    0.1727208  47.20  0.001399799    1.700    0.412
        63 -10.6489    210.8644    155.8383   5.0167280606e+01   7.2420723566e+00    0.2312759    0.2184425  23.61 0.0004598245    1.017    0.017
        64  -9.7241    119.3205     18.3115   3.1673133981e+01   5.3231535384e+01    0.1437159   0.09542178  29.70 0.0007036974    1.648    0.393
        65 -15.5623    214.3393     77.9729   3.1288520363e+01   2.0330019564e+01     2.213691     1.439608  82.66   0.00972461    1.881    0.468
        66 -10.0211    189.9058     15.1369   1.8168348766e+01   3.5771388568e+01    0.2238163     0.170329 -74.86 0.0007947322    1.276    0.216
        67 -11.3957    250.0439    204.0198   5.2464448374e+01  -7.2989786485e+00    0.2503962    0.1928866 -42.30  0.001594247    1.635    0.388
        68 -12.4331    242.6777    200.6016   5.3104281772e+01  -5.6519410950e+00    0.4108033    0.3095276  67.04  0.001767844    2.192    0.544
        69 -12.1094    172.7626    150.4639   5.6758798206e+01   1.6454339940e+01     0.310922     0.251114 -20.55  0.001067679    1.538    0.350
        70 -10.3036    136.3132     10.3082   2.5164518836e+01   5.0052933615e+01    0.1433611   0.09359954  36.21 0.0003456218    1.625    0.385
        71 -11.9686    192.2307    194.0769   6.1191989571e+01   4.4152761780e+00    0.9112008    0.4624505 -64.94  0.002750445    6.080    0.836
        72 -12.4659    209.6861    186.9501   5.6547281743e+01   2.2390349006e+00    0.7565045      0.45353 -64.54  0.003094953    3.337    0.700
        73 -12.8730    216.7930    185.0137   5.4855007102e+01   1.2015358689e+00    0.4759828    0.4382142 -11.23  0.002995124    1.121    0.108
