#   1 NUMBER                 Running object number                                     
#   2 MAG_AUTO               Kron-like elliptical aperture magnitude                    [mag]
#   3 X_IMAGE                Object position along x                                    [pixel]
#   4 Y_IMAGE                Object position along y                                    [pixel]
#   5 X_WORLD                Barycenter position along world x axis                     [deg]
#   6 Y_WORLD                Barycenter position along world y axis                     [deg]
#   7 A_WORLD                Profile RMS along major axis (world units)                 [deg]
#   8 B_WORLD                Profile RMS along minor axis (world units)                 [deg]
#   9 THETA_WORLD            Position angle (CCW/world-x)                               [deg]
#  10 FWHM_WORLD             FWHM assuming a gaussian core                              [deg]
#  11 ELONGATION             A_IMAGE/B_IMAGE                                           
#  12 ELLIPTICITY            1 - B_IMAGE/A_IMAGE                                       
         1 -16.9364    168.5262     66.7923   2.9020118466e+02   6.0355309621e+00    0.7237942      0.34847  61.20   0.03948554    3.844    0.740
         2 -14.8607    198.9690     48.7920   2.8973852240e+02   6.0674285625e+00    0.3098494   0.06431554  39.50   0.01866174    4.549    0.780
         3 -14.9607    210.8645     39.2693   2.8954279335e+02   6.1086396468e+00    0.1540922   0.07233986  38.86   0.01362176    2.110    0.526
         4 -17.2758    242.3255      6.6445   2.8898038546e+02   6.3034175517e+00    0.1677069    0.1165768 -49.17   0.01796323    1.419    0.295
         5 -16.3717    199.4552      6.6191   2.8947916636e+02   6.5534573679e+00    0.2820342     0.113415  13.73   0.01863625    4.153    0.759
         6 -16.4968    249.3315     33.1450   2.8905846252e+02   5.9555904628e+00    0.3914114          nan -55.06   0.01568176    9.764    0.898
         7 -11.6800    133.8974      6.1962   2.9024069828e+02   6.9393747880e+00   0.02429245   0.01332971 -64.41  0.001410982    1.848    0.459
         8 -11.1973     57.4328      7.6955   2.9114225066e+02   7.3647395179e+00   0.01270361  0.006665044 -69.01 0.0008854986    2.082    0.520
         9 -12.2770     57.0506      2.5151   2.9111562052e+02   7.4270235627e+00   0.02599145   0.01366479  12.31  0.002228838    2.434    0.589
        10 -11.6737    160.1588     99.4416   2.9049459115e+02   5.7051289389e+00   0.01589493  0.009262925  60.47  0.001410447    2.324    0.570
        11 -10.3647    132.6134    140.8598   2.9106356815e+02   5.3837431226e+00   0.02424997  0.007501037 -71.63  0.001258796    6.337    0.842
        12 -11.4335    144.9724     97.1799   2.9065791733e+02   5.8194684773e+00   0.01502863   0.01260076 -33.32  0.000640585    1.237    0.192
        13  -9.3421    100.3928    139.4782   2.9143063539e+02   5.5862685379e+00  0.006579696  0.006269479 -43.38 0.0001839236    1.038    0.037
        14 -10.8555    132.1183     94.4766   2.9079147648e+02   5.9253688871e+00   0.01283381   0.01056685 -73.82 0.0003279294    1.268    0.211
        15 -15.3214     26.6644    207.2932   2.9269416251e+02   5.2233966290e+00    0.1687991   0.09318508 -26.13  0.006634682    2.620    0.618
        16 -12.4378    153.7072     89.8817   2.9051238983e+02   5.8535461870e+00    0.0290469    0.0219975 -36.22  0.003206409    1.392    0.282
        17  -9.1666    113.3258     95.2608   2.9101519821e+02   6.0251183230e+00  0.006717046   0.00497614 -22.13   0.00022489    1.559    0.359
        18 -11.1593    135.6451    128.5616   2.9095462621e+02   5.5090556508e+00   0.03712329   0.01288651 -72.14  0.002259654    4.700    0.787
        19 -10.8505    134.8669    120.7349   2.9091681161e+02   5.6044805334e+00   0.01795933   0.00882493 -64.03  0.001326931    2.058    0.514
        20 -11.8128    138.0558     86.3486   2.9067354908e+02   5.9853296735e+00   0.01550452   0.01422048  83.59  0.000908708    1.158    0.136
        21 -12.8194    150.7712     78.1598   2.9047626269e+02   6.0066523098e+00    0.0160169   0.01206944 -56.27 0.0008463088    1.298    0.230
        22 -11.0580    192.2199    194.0687   2.9068841799e+02   4.4201622938e+00   0.04535978   0.02132402  88.50  0.002277057    7.777    0.871
        23 -12.5541     67.6340    144.3164   2.9184131211e+02   5.7193405702e+00   0.03314829   0.01880045  53.88  0.002478601    2.163    0.538
        24 -11.7452    160.3685    128.1347   2.9066417004e+02   5.3707172751e+00   0.01901378   0.01592042 -83.22  0.001547512    1.292    0.226
        25 -12.5577    167.3010    113.8200   2.9049765292e+02   5.4967430805e+00   0.02436342   0.02104302 -22.73  0.002880952    1.224    0.183
        26 -11.8216    134.5329    107.6161   2.9084210117e+02   5.7587875214e+00   0.04822735   0.01166931 -62.78  0.003036103    4.100    0.756
        27  -9.9605    216.5391     63.5162   2.8962254963e+02   5.7944620150e+00   0.01252495  0.006508401  26.70  0.001142209    1.934    0.483
        28 -14.1832     54.3279    182.9870   2.9222715920e+02   5.3465836821e+00   0.04215898   0.03669359 -10.64  0.001442453    1.226    0.184
        29 -14.0572     60.3801    177.1302   2.9212172393e+02   5.3797610528e+00   0.04989739   0.04086679  19.11  0.002685172    1.252    0.201
        30 -10.2793    205.1771     65.2033   2.8976490349e+02   5.8409825550e+00   0.01309655   0.01125313  28.24  0.001524527    1.167    0.143
        31 -14.7620     64.2666    171.4509   2.9204256218e+02   5.4233597331e+00   0.09422193   0.06252772 -10.76  0.001861386    1.967    0.492
        32  -8.9491    111.3124    114.2961   2.9115268923e+02   5.8156743217e+00  0.006882711  0.004938768 -26.93 0.0002880266    1.598    0.374
        33 -11.4084    180.7382     51.3792   2.8996635384e+02   6.1434074291e+00    0.0207529   0.01628175 -78.17  0.001404519    1.381    0.276
        34  -9.9004    126.9564    110.9147   2.9095013949e+02   5.7643701019e+00   0.01069455  0.007677811  63.14 0.0007360619    1.659    0.397
        35 -10.2170    174.6180     36.8187   2.8995012764e+02   6.3478463612e+00  0.008862996  0.007567525 -72.42 0.0003665017    1.208    0.172
        36  -9.7963    189.7954     35.9907   2.8976836784e+02   6.2692184006e+00  0.008823214  0.008396368 -52.12 0.0004454912    1.039    0.037
        37 -12.7849     21.5532    182.2835   2.9260480740e+02   5.5436506161e+00   0.01704442   0.01355019  33.35  0.001941908    1.257    0.204
        38 -10.4062    170.0304     29.0845   2.8995707888e+02   6.4641908018e+00   0.01440542   0.00895911  89.25  0.001128522    2.256    0.557
        39 -10.8539     77.2220     29.7970   2.9104380748e+02   6.9939797418e+00  0.009354206  0.007615454 -25.82  0.000518053    1.325    0.245
        40 -10.2011    117.3284    109.6437   2.9105471685e+02   5.8348901380e+00  0.007171389  0.004947931  63.88 0.0007044879    1.781    0.438
        41 -10.0675    176.7204     21.7484   2.8983501559e+02   6.5103621372e+00  0.008280788  0.007217044  75.42  0.000228937    1.258    0.205
        42 -10.2941     53.5441     13.5414   2.9122275169e+02   7.3193997302e+00  0.006530755  0.006410275  67.19 -1.367073e-05    1.045    0.043
        43 -13.4441    183.2018     61.6384   2.8999930840e+02   6.0100811500e+00    0.0371064   0.01999576 -22.14  0.002936613    3.033    0.670
        44 -13.3344      6.3204    221.6535   2.9301646212e+02   5.1734925078e+00   0.06346253   0.04161678 -78.50  0.006362699    1.772    0.436
        45 -11.6902    121.4196    103.2040   2.9096845949e+02   5.8859968924e+00   0.01653515   0.01178398  72.19  0.001696632    1.759    0.432
        46 -10.7189    123.5236    100.4714   2.9092756578e+02   5.9055467799e+00   0.01166071  0.008255055  -9.09 0.0006325048    1.738    0.424
        47 -10.4171    139.9487    102.0622   2.9074571612e+02   5.7918989573e+00   0.01096796  0.007614785 -27.15 0.0005778953    1.683    0.406
