#   1 NUMBER                 Running object number                                     
#   2 MAG_AUTO               Kron-like elliptical aperture magnitude                    [mag]
#   3 X_IMAGE                Object position along x                                    [pixel]
#   4 Y_IMAGE                Object position along y                                    [pixel]
#   5 X_WORLD                Barycenter position along world x axis                     [deg]
#   6 Y_WORLD                Barycenter position along world y axis                     [deg]
#   7 A_WORLD                Profile RMS along major axis (world units)                 [deg]
#   8 B_WORLD                Profile RMS along minor axis (world units)                 [deg]
#   9 THETA_WORLD            Position angle (CCW/world-x)                               [deg]
#  10 FWHM_WORLD             FWHM assuming a gaussian core                              [deg]
#  11 ELONGATION             A_IMAGE/B_IMAGE                                           
#  12 ELLIPTICITY            1 - B_IMAGE/A_IMAGE                                       
         1 -14.7238    211.2389      6.2705   4.4046290615e+01   3.0100114467e+01     2.745007      1.77468  39.90   0.01118428    1.833    0.454
         2 -13.8053    174.0955     50.7367   6.2216973591e+01   3.4506420451e+01     1.838375     1.179373  34.14  0.005160838    1.820    0.451
         3 -14.2034    188.5176     37.0349   5.5705518027e+01   3.2602120104e+01     1.142055    0.9950039  49.34  0.004021331    1.193    0.162
         4 -13.5884    193.1610     30.6159   5.3115894135e+01   3.2171327100e+01    0.7696579    0.6219611  50.60  0.001723091    1.295    0.228
         5 -12.0244     48.2973      9.5777   7.9752375380e+01   7.0167415834e+01    0.4276308    0.2156594 -18.24   0.00170387    2.883    0.653
         6 -11.1656     71.5805    230.7055   1.1926991018e+02   2.1349366567e+01     0.287907    0.1831123  54.48  0.002052465    1.227    0.185
         7 -10.5850    249.2955    249.5816   9.1520891760e+01  -3.7350729820e+00    0.1699148   0.09009574   5.34  0.001215918    1.759    0.431
         8 -16.4749     73.2495    147.9581   1.1096352303e+02   3.6277609809e+01     7.384935     3.483945  65.61   0.02935953    3.143    0.682
         9 -10.8268      8.1230    192.8328   1.2943047094e+02   3.4362129832e+01    0.2137544   0.09486344  37.44  0.001054961    1.847    0.458
        10 -10.1013      1.4803    210.4155   1.3123577737e+02   3.1810726680e+01     0.101393   0.06882225  59.19  0.000116072    1.021    0.020
        11 -16.1286     57.1894    207.8821   1.2043743841e+02   2.6726302327e+01     3.588201     2.393134  58.87    0.0197232    1.204    0.169
        12 -11.2251    154.0550    186.0238   9.8389808413e+01   1.6582139296e+01    0.2542889    0.1883045 -56.81  0.001291997    1.777    0.437
        13 -12.2270    148.5763    185.8665   9.9449711479e+01   1.7495121932e+01    0.3638756    0.2521905  58.17  0.002077664    1.688    0.407
        14 -12.0771    153.0387    198.7232   1.0044317878e+02   1.4880455004e+01     0.454318    0.2117013 -49.28  0.002338366    2.746    0.636
        15 -11.7871     96.3303    200.5882   1.1192637423e+02   2.3004928041e+01    0.3639726    0.3124522   5.30  0.001165424    1.560    0.359
        16  -9.7610    164.3042    210.3000   9.9937277206e+01   1.1582294064e+01    0.1139816   0.07765318  15.08 0.0001943081    1.590    0.371
        17 -10.7262    159.9783    197.0869   9.8890872477e+01   1.4029039027e+01    0.1823035    0.1670542  44.49 0.0003739297    1.228    0.185
        18 -10.7478     81.7083    195.3447   1.1441263770e+02   2.5881109896e+01    0.2978422    0.2550544  26.37  0.002121646    1.365    0.267
        19 -11.3128     99.4499    180.8566   1.0903618987e+02   2.6004688375e+01    0.2248038    0.1937305  46.16 0.0005540699    1.067    0.063
        20 -10.0554     87.4494    203.2311   1.1399096124e+02   2.3762429138e+01    0.2015107    0.1826697  28.62 0.0008925623    1.308    0.236
        21 -10.8012    204.3677    176.2124   8.7400828083e+01   9.6570813807e+00    0.3689441    0.2250305 -38.07  0.001735961    1.910    0.476
        22  -8.9822    198.6404    177.3053   8.8596889549e+01   1.0456090075e+01    0.1120917   0.09675039  65.08 0.0007039527    1.728    0.421
        23 -12.2479    142.4893    175.1916   9.9043148539e+01   2.0191504094e+01    0.3725506     0.295252  51.38  0.002304449    1.239    0.193
        24 -18.4505     40.7973    245.6915   1.2552499304e+02   2.2507978338e+01     6.717139     1.858627  30.48   0.02799808    3.997    0.750
        25  -9.9794    185.2698    169.7544   8.9680574380e+01   1.3717016724e+01    0.2108279    0.1565109 -34.09  0.001272878    1.495    0.331
        26  -9.8323    163.0227    168.4617   9.3741837243e+01   1.7761051880e+01     0.203728     0.182943 -71.52 0.0006758795    1.473    0.321
        27 -12.4293    194.2150    196.2899   9.2532788584e+01   8.7855110830e+00     1.022409    0.8552053 -79.60  0.005904378    2.304    0.566
        28 -12.3522     97.5032    153.0657   1.0567407747e+02   3.1630205048e+01    0.5459496    0.4373503 -17.54  0.002993374    1.772    0.436
        29 -10.5789    187.9003    154.6348   8.6348651656e+01   1.5415274017e+01    0.4799874    0.1871792  37.99  0.001986704    2.447    0.591
        30 -10.1667    113.2171    151.3261   1.0163279193e+02   2.9420872521e+01    0.2462759    0.2042117  84.14 0.0008018619    1.353    0.261
        31 -11.6611    133.9713    145.6138   9.5782264594e+01   2.6867638798e+01     1.092385    0.2945518 -53.62  0.003085934    5.682    0.824
        32 -10.5682    174.3255    148.7014   8.7786486032e+01   1.8814085037e+01    0.2952585    0.2548406 -74.79  0.001545638    1.628    0.386
        33 -11.0236    143.9068    146.5935   9.3740303386e+01   2.4860844843e+01    0.3375821    0.2120701 -59.16  0.001617423    2.066    0.516
        34 -10.3643    114.5962    143.4177   9.9928895613e+01   3.0745264073e+01    0.3347511    0.2021269  74.89  0.001359719    2.914    0.657
        35 -11.1280     97.6085    193.9845   1.1095738029e+02   2.3948565837e+01    0.2773299    0.2195606 -26.70  0.001236546    1.851    0.460
        36 -11.7386    108.4933    139.1048   1.0064636811e+02   3.2668421377e+01     0.529938    0.3368194 -35.18  0.002528291    2.070    0.517
        37 -12.5363     96.8758    138.6150   1.0349039243e+02   3.4711435507e+01    0.2595673    0.2410063  59.76 0.0004757762    1.029    0.028
        38  -9.6683    128.2623    139.4262   9.5916732388e+01   2.9086012449e+01    0.2562414    0.1276318  38.53 0.0009522782    1.937    0.484
        39 -11.3998    106.0040    130.8625   9.9736450086e+01   3.4806214844e+01    0.3568151    0.3064207 -78.93  0.001195498    1.233    0.189
        40 -11.3027    103.3350    125.5074   9.9383653293e+01   3.6403873726e+01    0.2649899    0.2387923   5.71 0.0005910292    1.320    0.243
        41 -10.8580    135.8434    127.9346   9.1766719890e+01   2.9864224182e+01     0.573156     0.169284 -47.35  0.001862777    3.639    0.725
        42 -10.9437    115.4831    129.6561   9.7088109910e+01   3.3368926594e+01    0.3198159    0.2635465  -5.49 0.0006391751    1.578    0.366
        43 -10.1145    160.6617    127.7758   8.6160710974e+01   2.4946588900e+01    0.3167461    0.2213438 -53.35  0.001563235    1.711    0.416
        44 -10.6942    120.6233    123.1609   9.4438882785e+01   3.3741356007e+01    0.4316362    0.2558058 -18.69  0.001509771    3.746    0.733
        45  -9.7493    135.0000    119.9248   9.0184582521e+01   3.1580541827e+01    0.2297984     0.082546 -44.98 0.0007955648    2.895    0.655
        46 -10.0383    110.5931    118.8427   9.6084480928e+01   3.6515175299e+01    0.2177332    0.1870788  33.87 0.0003754947    1.201    0.167
        47 -11.7609     65.5471    114.0691   1.0787894853e+02   4.4924589077e+01    0.3633769    0.2463563 -54.87  0.001272617    1.470    0.320
        48 -10.2083    168.0619    112.9363   8.1117427352e+01   2.5970874291e+01     0.357556    0.2581442 -86.26   0.00144158    2.402    0.584
        49  -9.9873    135.0000    112.0407   8.8327529743e+01   3.3119987429e+01    0.3942999   0.08349459 -44.03  0.001042501    4.854    0.794
        50 -11.3736    119.2848    110.5530   9.1921170883e+01   3.6590673406e+01    0.5809193    0.3494057  58.54  0.002508268    1.966    0.491
        51 -10.2675    205.5051    110.1691   7.3408249811e+01   1.8496394142e+01    0.2932288    0.1876057  38.42 0.0008316052    1.566    0.361
        52  -9.8664    134.5874    105.2632   8.6745792795e+01   3.4533902475e+01    0.3581586    0.1438372 -41.19  0.001287261    2.576    0.612
        53 -10.1598     51.7178     90.7968   1.0793457520e+02   5.2249240118e+01    0.2731511    0.1729143  45.68 0.0009752009    1.654    0.396
        54 -12.1346    165.2063     65.5666   6.8507803945e+01   3.4544324550e+01    0.9178909    0.5601171 -46.69  0.000512019    1.744    0.427
        55 -12.7940    204.7664    199.4081   9.1210187852e+01   6.8110659341e+00    0.5730965    0.3335563   3.55  0.003193642    2.151    0.535
        56 -19.2506     17.9514    102.2535   1.2116922009e+02   5.2876229902e+01     17.87148    0.9361484 -74.59   0.02932839   16.992    0.941
        57 -11.6510    158.7070    236.1824   1.0414170191e+02   9.1880273631e+00    0.2880746    0.2256427  30.90  0.001973533    1.074    0.069
        58  -9.9560    168.9552    234.9183   1.0223936344e+02   7.9239528827e+00    0.1594599    0.1191288  29.82 0.0003731864    1.028    0.027
