#   1 NUMBER                 Running object number                                     
#   2 MAG_AUTO               Kron-like elliptical aperture magnitude                    [mag]
#   3 X_IMAGE                Object position along x                                    [pixel]
#   4 Y_IMAGE                Object position along y                                    [pixel]
#   5 X_WORLD                Barycenter position along world x axis                     [deg]
#   6 Y_WORLD                Barycenter position along world y axis                     [deg]
#   7 A_WORLD                Profile RMS along major axis (world units)                 [deg]
#   8 B_WORLD                Profile RMS along minor axis (world units)                 [deg]
#   9 THETA_WORLD            Position angle (CCW/world-x)                               [deg]
#  10 FWHM_WORLD             FWHM assuming a gaussian core                              [deg]
#  11 ELONGATION             A_IMAGE/B_IMAGE                                           
#  12 ELLIPTICITY            1 - B_IMAGE/A_IMAGE                                       
         1 -14.0718    184.3901     32.0914   6.7566030535e+01   3.5468030303e+01    0.9445617    0.8606142 -81.28  0.003163403    1.073    0.068
         2 -14.5279    191.0428     22.1367   6.4186890990e+01   3.5069646089e+01    0.8439345    0.7617896 -12.14  0.001278674    1.436    0.304
         3 -12.8880     49.8856      8.9077   9.1133312542e+01   6.6069353755e+01    0.3763577    0.2122996   5.81  0.002145887    1.951    0.487
         4 -10.1188     70.1651    228.4908   1.3618982778e+02   1.7933596110e+01     0.255817    0.1608884  76.33  0.001416496    1.545    0.353
         5 -16.3310    117.4203    239.6046   1.2808993271e+02   8.3299194732e+00     6.304564     3.206565  44.35   0.03106217    1.695    0.410
         6 -19.3441     22.0727    134.2338   1.3570124378e+02   4.5388115433e+01      19.6096     2.762673 -68.25   0.04848544    7.033    0.858
         7 -11.6185    115.1591    210.9006   1.2460618658e+02   1.4565818498e+01    0.2139194    0.1716657  74.35 0.0003002266    1.234    0.190
         8  -9.6110    165.3102    208.2929   1.1330965165e+02   5.9645966382e+00    0.1394487    0.1101806   3.85 0.0001987712    1.587    0.370
         9 -12.1085    176.5910    221.9934   1.1333561927e+02   1.3029897848e+00    0.2612308    0.2387748 -78.60  0.001093406    1.317    0.241
        10 -10.1859     92.6897    206.7570   1.2891022820e+02   1.9231223382e+01    0.2230589    0.1586865 -67.46 0.0007558824    1.385    0.278
        11 -12.4764    107.0446    204.2901   1.2540215192e+02   1.7407701727e+01    0.4558342    0.3277628 -26.00  0.002165989    2.251    0.556
        12 -12.2331     45.8789    203.8930   1.3853427151e+02   2.6547757084e+01    0.2363269    0.1906253  65.15 0.0004550296    1.156    0.135
        13 -13.4743     72.6023    195.7549   1.3185796444e+02   2.4814753012e+01    0.7776687    0.6126472 -80.81  0.003944499    1.143    0.125
        14 -11.8366     64.4701    192.7672   1.3327994642e+02   2.6662249960e+01    0.4222712    0.2873039  46.26  0.002333111    1.469    0.319
        15 -13.0956    196.0052    196.2774   1.0462706250e+02   2.5209459346e+00    0.9024357    0.6998617  79.51  0.004464803    1.940    0.485
        16  -9.9138     67.6027    235.4100   1.3738503543e+02   1.6866800948e+01    0.2430403     0.209237 -41.79  0.001578932    1.738    0.425
        17 -10.1576     41.4413    220.3986   1.4099025369e+02   2.3471889523e+01    0.2494664    0.1437147  63.49  0.001423478    1.541    0.351
        18 -12.6652     47.1978    216.6529   1.3952825560e+02   2.3562930444e+01    0.3843053    0.1948043  50.71  0.001016045    1.780    0.438
        19 -10.9128    102.0857    194.8855   1.2508869395e+02   2.0373827321e+01    0.2314839    0.1755508  74.32 0.0006775648    1.345    0.257
        20 -10.7044     81.6677    194.8932   1.2971568570e+02   2.3661644711e+01    0.2976344    0.1991098  36.88  0.001536603    1.622    0.384
        21  -9.9214     50.4595    213.4771   1.3857136240e+02   2.3840482014e+01    0.2565393    0.1218155  61.55 0.0008544333    2.137    0.532
        22 -11.8222    207.9912    185.4847   1.0005343534e+02   2.3099911408e+00    0.4014735    0.3021482 -11.59  0.001281234    1.526    0.345
        23 -11.6529    212.1774    181.3690   9.8383492737e+01   2.2979314197e+00    0.3851229    0.2444043 -15.29  0.001116086    2.167    0.539
        24 -10.5633    147.0046    185.9649   1.1324472673e+02   1.4145648318e+01    0.2325282    0.1786234  83.41 0.0004794441    1.623    0.384
        25 -11.3795    100.7200    186.3109   1.2404913586e+02   2.2593373995e+01    0.3990921     0.177976  45.28  0.001609322    2.177    0.541
        26 -11.2762     79.8922    185.8109   1.2882924671e+02   2.6059587505e+01    0.2627176    0.2197087 -58.65 0.0009078771    1.254    0.203
        27 -11.2750     91.3721    176.6974   1.2470009894e+02   2.6426390269e+01    0.4558741     0.265983  74.36  0.001846521    2.448    0.591
        28 -12.2572     83.0637    179.8349   1.2718798325e+02   2.6994489133e+01    0.4572773     0.259656 -44.00  0.002020643    2.161    0.537
        29 -12.3297     86.2012    174.8849   1.2565239500e+02   2.7691097915e+01    0.3721347    0.2843564 -46.47  0.001004676    1.452    0.311
        30 -10.5847     90.4980    183.9827   1.2607610993e+02   2.4832126288e+01    0.2658445    0.1761031  60.51 0.0007890125    1.559    0.359
        31 -10.8029     99.3658    180.8371   1.2347091281e+02   2.4112757341e+01    0.2608967    0.2127382  37.01 0.0008493646    1.338    0.253
        32 -10.6220    197.7038    176.0762   1.0019251848e+02   6.1207890430e+00    0.3745477    0.2496084 -67.41  0.001597006    2.244    0.554
        33 -11.9869    125.7632    173.2350   1.1577954035e+02   2.1151354794e+01    0.3496151    0.2080942  40.79  0.001516046    1.692    0.409
        34 -10.1166     71.5899    174.1400   1.2906114779e+02   3.0077674177e+01    0.2316541    0.1701049  57.28 0.0006553475    1.365    0.267
        35 -12.0624    181.7983    233.9786   1.1428493178e+02  -1.7131204578e+00    0.3833478    0.1818301  39.51  0.001595997    1.877    0.467
        36 -11.4852    137.9354    171.4145   1.1251788147e+02   1.9209130760e+01    0.2984144    0.2169587 -72.68 0.0008964031    1.603    0.376
        37 -10.6092     52.2342    208.7869   1.3773422959e+02   2.4648285501e+01    0.3282118    0.2653003 -84.21 0.0002373677    1.116    0.104
        38  -9.3321      1.6095    161.2104   1.4380018986e+02   4.0741717514e+01    0.1134203   0.07130515  64.12 0.0006824921    1.611    0.379
        39 -12.7694     98.2516    157.5814   1.1959155722e+02   2.9902175230e+01    0.6816909     0.429198 -34.09  0.002899089    2.149    0.535
        40 -11.8071    133.7340    144.5483   1.0781430550e+02   2.6315889970e+01     1.131412    0.2701866 -54.10  0.002550344    5.816    0.828
        41 -10.7842    174.5993    148.8732   9.9162446781e+01   1.6616211379e+01    0.2620127    0.1910395  53.38 0.0006273046    1.434    0.303
        42 -11.8927    145.0400    145.7601   1.0530649785e+02   2.3679011503e+01    0.3868779    0.2987659 -62.26  0.001626906    1.360    0.265
        43 -12.5179    108.8772    141.6092   1.1354961242e+02   3.1876848704e+01    0.6010486    0.3486004 -37.51  0.002433558    2.051    0.513
        44 -12.3514     97.3683    142.2211   1.1673790898e+02   3.3786823714e+01    0.2855357     0.265496 -36.98 0.0004120808    1.157    0.136
        45 -11.8275     78.6223    134.2878   1.2019353090e+02   3.8749450427e+01    0.3350311    0.1829419 -71.58  0.001348663    2.255    0.557
        46 -10.3317     82.8690    133.8643   1.1892732526e+02   3.8197779509e+01    0.1978444    0.1662029  80.34 0.0004078044    1.313    0.238
        47 -12.4927    116.0261    131.0486   1.0925370517e+02   3.3031434107e+01    0.5617613    0.3596721 -21.57    0.0016979    2.532    0.605
        48 -11.2178    160.2283    128.1677   9.7502465468e+01   2.4322675930e+01     0.303207    0.2848272 -73.07  0.001564512    1.071    0.066
        49 -12.0332    135.6148    123.1606   1.0223197924e+02   3.0845673126e+01    0.6830339     0.210677 -48.34  0.002025395    3.242    0.692
        50 -11.9934    104.7180    129.1943   1.1186526992e+02   3.5602835918e+01    0.5736578    0.4020835 -87.63  0.001703511    2.028    0.507
        51  -9.8849     76.2172    232.3246   1.3540546527e+02   1.6260609778e+01    0.5672727    0.1427267  36.66  0.001910576    4.375    0.771
        52 -11.0539    110.9713    120.0029   1.0794541153e+02   3.6576659947e+01    0.2275622    0.2204121 -59.23 0.0003691149    1.013    0.013
        53 -11.7379     68.5239    116.3350   1.1923949056e+02   4.4491158937e+01    0.2771662    0.2044304 -18.44 0.0008581782    1.712    0.416
        54 -10.7695    168.0901    112.9784   9.1901252169e+01   2.5773444814e+01    0.3907601    0.2652677 -66.65  0.001267937    1.851    0.460
        55 -11.5147     59.1283    213.9029   1.3686445372e+02   2.2604164757e+01    0.2436874    0.1677849  72.28            0    1.297    0.229
        56 -10.1935    205.3881    110.1167   8.3665463412e+01   1.7727089066e+01    0.2465104     0.209882  43.31 0.0006853436    1.291    0.225
        57 -12.0355     66.9646    104.8825   1.1705123392e+02   4.7338699814e+01    0.2873709     0.229178 -10.33  0.001575802    1.463    0.316
        58  -9.7269    152.3170     78.3310   8.6086897393e+01   3.6234774419e+01    0.1530325    0.1187738  15.15 0.0005385796    1.685    0.407
        59 -11.0874    175.9182     74.3035   8.0093197278e+01   3.1286694075e+01    0.3010855    0.2336268 -84.95 0.0007470558    1.459    0.315
        60  -9.1848     73.3189     73.3195   1.0640976941e+02   5.3038444975e+01    0.1405662   0.09845818 -11.83 0.0003469932    1.663    0.399
        61 -13.7250    173.6816     42.0220   7.1810838434e+01   3.6770573108e+01    0.7049831    0.6330018 -12.06  0.001142203    1.346    0.257
        62 -13.9503     63.3976    209.2087   1.3547282580e+02   2.3060173355e+01    0.8180524     0.659265  66.04  0.005124604    1.109    0.098
        63 -12.2788      2.2253    237.6073   1.4916188958e+02   2.4265783953e+01     0.185747    0.1566793  81.81  0.001389059    1.339    0.253
        64 -10.2851    216.5091     18.4849   6.0448955551e+01   2.9557046220e+01    0.1280517    0.1049822 -84.67  3.14537e-05    1.007    0.007
        65 -11.8869     58.4918    209.5229   1.3652553013e+02   2.3658903435e+01    0.3217582    0.2713102  56.32  0.001033566    1.223    0.182
