#   1 NUMBER                 Running object number                                     
#   2 MAG_AUTO               Kron-like elliptical aperture magnitude                    [mag]
#   3 X_IMAGE                Object position along x                                    [pixel]
#   4 Y_IMAGE                Object position along y                                    [pixel]
#   5 X_WORLD                Barycenter position along world x axis                     [deg]
#   6 Y_WORLD                Barycenter position along world y axis                     [deg]
#   7 A_WORLD                Profile RMS along major axis (world units)                 [deg]
#   8 B_WORLD                Profile RMS along minor axis (world units)                 [deg]
#   9 THETA_WORLD            Position angle (CCW/world-x)                               [deg]
#  10 FWHM_WORLD             FWHM assuming a gaussian core                              [deg]
#  11 ELONGATION             A_IMAGE/B_IMAGE                                           
#  12 ELLIPTICITY            1 - B_IMAGE/A_IMAGE                                       
         1 -10.0010    197.5907      7.0689   5.9178234585e+01   3.5116224783e+01    0.3815114    0.2489882 -73.31  0.002217267    1.467    0.318
         2  -9.3195    194.9046      2.1633   5.8342957951e+01   3.6223327722e+01     0.312787     0.186889  67.31  0.001798821    1.425    0.298
         3  -8.4690      2.2425    244.9564   1.4910864359e+02   2.2949108354e+01    0.1519161    0.1066883  82.28 0.0004044166    1.075    0.070
         4  -8.2824    101.7532    248.3847   1.3144063624e+02   9.1875651241e+00    0.4735345    0.1391372 -61.43  0.001802416    3.888    0.743
         5 -13.5028     12.6363    208.7623   1.4499826325e+02   2.9348303272e+01     4.085994      1.58129  44.23   0.02136877    2.366    0.577
         6  -8.5903    104.2638    209.1492   1.2588439117e+02   1.6883495080e+01    0.2880341     0.196622 -89.43  0.001424637    1.682    0.406
         7  -9.6824    102.0093    203.8010   1.2560524451e+02   1.8460739352e+01    0.4868486     0.281064  85.91  0.001971327    2.616    0.618
         8  -9.7694    123.9906    206.0006   1.2100875016e+02   1.4123847931e+01    0.2038267    0.1851861  64.79  0.001164104    1.003    0.003
         9 -12.9995     30.1333    234.2249   1.4365480088e+02   2.2053513749e+01    0.4137858    0.3248719  43.95  0.001959608    1.490    0.329
        10  -7.6994    159.7693    201.7628   1.1232308387e+02   8.3311786597e+00    0.1882557    0.1652395  81.00  0.000594608    1.283    0.221
        11 -16.7818     38.4429    246.7619   1.4310404025e+02   1.8523020421e+01      3.17238     2.601325  44.90  0.008906558    1.481    0.325
        12 -11.8704    245.6044    238.0816   1.0177498680e+02  -1.2520106429e+01    0.2531778    0.2137273  -4.99 0.0004778299    1.110    0.099
        13  -9.0749    101.7748    194.8714   1.2430325523e+02   2.0541649623e+01    0.3322129    0.2332337  80.92  0.001621681    1.612    0.380
        14  -8.9669     73.0983    192.4105   1.3055260726e+02   2.5680125431e+01     0.428569    0.1593364 -52.72  0.001189798    2.809    0.644
        15  -7.4047    126.6047    187.7422   1.1731344954e+02   1.7728515262e+01    0.1948462    0.1399736 -69.72 0.0002908331    1.518    0.341
        16  -8.3022    186.4171    231.7143   1.1196152012e+02  -2.1897698561e+00     0.246514    0.1307312 -49.58  0.001154816    2.226    0.551
        17  -8.8358    184.2487    214.9972   1.0950056451e+02   1.1635014441e+00    0.2637276    0.1410461 -42.04  0.001193796    1.994    0.498
        18  -9.4541     24.3819    182.6881   1.4033808511e+02   3.4026149231e+01     0.333864    0.2541112  55.74  0.001752004    1.334    0.251
        19  -7.9164     20.1572    183.5971   1.4134238154e+02   3.4237909659e+01    0.2126737    0.1260586  29.59 0.0006508689    2.102    0.524
        20 -10.1360     71.4964    177.1768   1.2876351040e+02   2.9549068723e+01    0.3477182    0.2593804 -53.15     0.001874    1.395    0.283
        21  -9.0386     15.2020    174.0038   1.4149195424e+02   3.6920118821e+01    0.4187036    0.2452763  60.62  0.002397372    1.724    0.420
        22 -10.0940     25.8254    174.0447   1.3911463588e+02   3.5895984828e+01    0.3058626    0.2085457  37.65 0.0007161224    1.673    0.402
        23  -9.9110     20.7433    173.4012   1.4019488862e+02   3.6544000266e+01    0.3494235    0.1856605  47.22  0.001016474    1.945    0.486
        24  -9.4939     89.5715    173.9905   1.2384131300e+02   2.7534713636e+01    0.3693813    0.2595585 -40.04   0.00152124    1.729    0.422
        25  -9.0273     92.6440    169.0358   1.2222654975e+02   2.8231468198e+01    0.3226437    0.2182985 -49.83 0.0008530434    1.512    0.339
        26 -10.4490     35.4734    172.4875   1.3671551012e+02   3.5254903315e+01    0.3876062     0.305862  63.83  0.001419115    1.255    0.203
        27  -8.0307    195.6093    169.3364   9.8125828708e+01   7.9084854949e+00     0.292008    0.1860292  41.04  0.001308279    1.602    0.376
        28  -9.2671     17.6563    168.0597   1.4033594948e+02   3.8078745519e+01    0.2229463    0.1709189 -76.91  0.001449605    1.067    0.063
        29  -8.8173     81.2896    161.5652   1.2379808116e+02   3.1883298086e+01    0.2866486    0.2612514  47.81  0.001014302    1.182    0.154
        30  -8.2068     83.7180    168.1459   1.2431335291e+02   2.9893824192e+01      0.31439    0.1522447  55.18 0.0008049587    2.467    0.595
        31  -9.3645     79.6487    165.9791   1.2497311438e+02   3.1055791015e+01    0.2759369    0.2422143  65.28  0.001183042    1.131    0.116
        32 -10.0039    148.0758    226.9498   1.1909642541e+02   5.4586940517e+00     0.662343    0.2665105  28.85  0.002058004    4.332    0.769
        33  -9.4413     23.4650    167.1783   1.3890106951e+02   3.7742143868e+01    0.2309676    0.1732326  76.91 0.0006324532    1.245    0.197
        34  -7.4741    112.3286    163.6797   1.1627512467e+02   2.6067786698e+01    0.1593259    0.1154381  78.47 0.0007047962    1.688    0.407
        35 -10.0975    158.2667    216.3637   1.1521223476e+02   5.6704887012e+00    0.2504284     0.248496  27.32  0.000199866    1.083    0.076
        36  -8.6540     14.8448    159.7491   1.4009733769e+02   4.0269789359e+01    0.3218863    0.2043528 -14.48  0.001696597    2.795    0.642
        37  -9.0577    250.0033    159.9089   8.5970831780e+01  -6.6085874595e-01     0.225914    0.1886036 -52.06 0.0003899247    1.260    0.206
        38  -8.7836    250.5976    155.0349   8.4864398388e+01   9.9172162835e-02    0.2413965    0.1195595 -39.71            0    1.774    0.436
        39  -7.8638     98.0197    160.0987   1.1922655476e+02   2.9498004914e+01    0.2210432    0.2050746 -84.27  0.000450611    1.004    0.004
        40  -9.4288    106.6804    158.6230   1.1671476444e+02   2.8324497318e+01     0.290014    0.2580475 -80.51 0.0002540699    1.093    0.085
        41  -8.2773     22.6359    156.7086   1.3788392206e+02   4.0292852929e+01    0.2955003    0.1040748 -57.76  0.001295661    2.325    0.570
        42  -8.6218     29.0031    156.8096   1.3633709967e+02   3.9662404222e+01    0.2113536    0.1777732 -33.88 0.0009089129    1.499    0.333
        43  -8.8801    101.7314    154.7832   1.1723092843e+02   3.0144291576e+01    0.4175318    0.1862608 -52.62  0.001371033    2.133    0.531
        44  -9.7552     87.3859    154.9647   1.2101810035e+02   3.2534649722e+01    0.3553531    0.2788909 -30.52 0.0008162087    1.583    0.368
        45  -7.7142     59.2391    156.5879   1.2865113824e+02   3.6259576613e+01    0.1739779    0.1379729  13.98 0.0009450038    1.675    0.403
        46  -8.3335    172.6971    153.9956   9.9686834749e+01   1.5957095261e+01    0.2377859    0.2182018  52.61 0.0003763802    1.102    0.092
        47  -8.0825    250.6322    150.0363   8.3819254090e+01   9.8343313316e-01    0.2008893     0.115885 -39.94            0    1.518    0.341
        48 -10.0306    219.2015    148.5912   8.8958873395e+01   7.2525850618e+00    0.2604848    0.2572658  75.84  0.000351002    1.092    0.084
        49 -10.9256     68.7281    143.6502   1.2389850387e+02   3.8138533299e+01    0.7258711    0.5463016 -87.94  0.002744375    1.441    0.306
        50  -8.4175     38.9860    147.7463   1.3255570126e+02   4.0814119389e+01    0.1551733    0.1154116  32.18  0.000487792    1.583    0.368
        51  -8.1167      3.9278    146.7981   1.4129712138e+02   4.4137459655e+01    0.1986585    0.1587311 -14.51 0.0007820639    1.753    0.429
        52  -8.5147    105.0858    143.5421   1.1401561629e+02   3.2268745157e+01     0.264114    0.2023481 -48.00 0.0003110503    1.286    0.222
        53  -8.1443     35.6670    142.8081   1.3269401555e+02   4.2348105702e+01    0.2512366    0.1813512  32.30  0.001460569    1.629    0.386
        54  -7.8296    109.1740    141.2297   1.1242057752e+02   3.2069758590e+01    0.2118544    0.1762962  82.46 0.0007052628    1.342    0.255
        55  -8.7643    101.0107    139.0956   1.1414717618e+02   3.4078082542e+01    0.2389461    0.2310016 -28.01 0.0003699649    1.121    0.108
        56  -7.3139     33.6585    136.3345   1.3224538080e+02   4.4097854894e+01    0.1350807   0.09062766  74.86 0.0007050888    1.757    0.431
        57  -8.6666    238.0109    130.4858   8.1703194292e+01   6.9236602296e+00    0.2538845    0.1881449 -42.38 0.0003485831    1.208    0.172
        58  -7.7571    166.5117    131.0057   9.5704672915e+01   2.2346535592e+01    0.2311645    0.2090657  54.14 0.0003652347    1.118    0.105
        59  -7.3245    223.6031    129.8270   8.3988082533e+01   9.9760092486e+00    0.2146904    0.1249307 -51.29 0.0009361702    1.709    0.415
        60  -9.6495     64.2413    130.7940   1.2268421365e+02   4.1876920850e+01    0.3398829    0.1677208  49.34  0.001416922    2.458    0.593
        61  -7.5505    105.5779    126.2134   1.0995150556e+02   3.6309210790e+01    0.2167266    0.1367005 -40.07 0.0004826752    1.661    0.398
        62  -7.2154     29.7161    126.2796   1.3173634462e+02   4.6853819581e+01    0.1216958   0.09075431  79.63 0.0002149174    1.514    0.339
        63  -7.4075     30.9750    122.2020   1.3069250082e+02   4.7693973993e+01    0.1463569    0.1043164  25.92  0.000339611    1.685    0.406
        64  -7.7676     34.3158    119.3469   1.2921506480e+02   4.8046050835e+01    0.1384587   0.08340751 -39.47 0.0007047838    1.722    0.419
        65  -7.0194     53.6684    117.7232   1.2313152686e+02   4.6332719934e+01    0.1363312     0.096778 -29.83 0.0003491266    1.600    0.375
        66  -7.2469      9.5581    115.5033   1.3580177099e+02   5.0940136846e+01    0.1229006   0.09610263 -64.76 2.537481e-05    1.011    0.011
        67  -7.6491    193.1221    106.9493   8.4191237811e+01   2.1177775408e+01    0.1931021    0.1785623 -11.18 0.0003488465    1.256    0.204
        68  -7.8543     47.2730     98.4138   1.2088802656e+02   5.1475672375e+01    0.1644664    0.1237009  40.56 0.0006468483    1.555    0.357
        69  -8.0341     73.9553     90.6666   1.1026964839e+02   4.9635557820e+01    0.1880729    0.1781719  -6.66 0.0004362003    1.071    0.066
        70  -8.6866    178.0528     84.6467   8.1453895495e+01   2.8954105444e+01    0.2464744    0.2085012 -37.15 0.0002692459    1.244    0.196
        71  -7.9390    140.8444     85.1091   8.9672403630e+01   3.7695064335e+01    0.2183289    0.2003784 -76.92 0.0002987439    1.162    0.140
        72  -9.7327    233.8553     74.9359   7.0083106878e+01   1.7625408047e+01    0.3045706    0.2467151 -52.00  0.000406078    1.134    0.118
        73  -9.1156    238.1009     71.1098   6.8699098790e+01   1.7321286718e+01    0.2643168    0.2357882  43.24 0.0008009827    1.458    0.314
        74  -7.1558    166.6578     69.6948   7.9698023739e+01   3.4301658527e+01    0.1495891    0.1138834  26.65 0.0007041399    1.684    0.406
        75  -8.3204    120.1006     68.3694   8.9957011480e+01   4.5325375337e+01    0.2430391    0.2010393 -44.37 0.0003052664    1.276    0.216
        76  -8.0352    235.5569     63.8389   6.7443705908e+01   1.9022712530e+01    0.2171648    0.1513578  78.10 0.0006954601    1.431    0.301
        77  -7.9913    176.6918     57.9871   7.4686422070e+01   3.3724409530e+01    0.1915424    0.1783038 -60.39 0.0003522198    1.107    0.097
        78  -9.3417    164.8467     51.7695   7.5127931060e+01   3.7524275244e+01    0.2987382    0.2550704 -79.27 0.0009816325    1.207    0.172
        79  -7.2041     79.6543     51.6981   9.6336669161e+01   5.5910825403e+01    0.1375445   0.09443078   6.64 0.0007039036    1.685    0.407
        80  -8.3620    150.0163     48.0619   7.6917729093e+01   4.1617592582e+01    0.2368638     0.162867  27.90  0.001135134    1.850    0.459
        81  -7.4729     95.3299     48.7033   9.0475813191e+01   5.3511248919e+01    0.1248685    0.1083034 -88.44 0.0002547554    1.637    0.389
        82 -10.1541    132.1463     45.8484   8.0042351979e+01   4.6100089412e+01    0.2248279     0.207304  46.48            0    1.009    0.009
        83  -7.7813    143.1399     42.1499   7.6566871489e+01   4.4046141753e+01    0.2041787    0.1721644  39.85 0.0004139583    1.185    0.156
        84  -9.8187    177.9801     37.2675   6.9039033674e+01   3.6316947584e+01    0.4319706    0.2890196 -86.28   0.00152847    1.655    0.396
        85  -9.0528    182.4861     34.9870   6.7780740798e+01   3.5520138107e+01    0.3092746    0.1943432 -81.15  0.001497422    1.851    0.460
        86  -9.6229    183.0776     29.9629   6.6424879668e+01   3.6000421523e+01    0.3630666    0.2857485  41.82  0.001272067    1.492    0.330
        87  -9.0242    227.4966     26.4296   6.0350694779e+01   2.6084682296e+01    0.3002978    0.2110298 -43.38  0.001131522    1.455    0.313
        88  -7.1695    172.4657     11.5759   6.3200801245e+01   4.0559320940e+01    0.1288045    0.1067007  74.41 6.041603e-05    1.028    0.027
        89  -7.1645    230.6804    247.3203   1.0606698227e+02  -1.1664139754e+01    0.1061766   0.09686672  59.18 0.0006981036    1.666    0.400
