#   1 NUMBER                 Running object number                                     
#   2 MAG_AUTO               Kron-like elliptical aperture magnitude                    [mag]
#   3 X_IMAGE                Object position along x                                    [pixel]
#   4 Y_IMAGE                Object position along y                                    [pixel]
#   5 X_WORLD                Barycenter position along world x axis                     [deg]
#   6 Y_WORLD                Barycenter position along world y axis                     [deg]
#   7 A_WORLD                Profile RMS along major axis (world units)                 [deg]
#   8 B_WORLD                Profile RMS along minor axis (world units)                 [deg]
#   9 THETA_WORLD            Position angle (CCW/world-x)                               [deg]
#  10 FWHM_WORLD             FWHM assuming a gaussian core                              [deg]
#  11 ELONGATION             A_IMAGE/B_IMAGE                                           
#  12 ELLIPTICITY            1 - B_IMAGE/A_IMAGE                                       
         1 -11.9681    246.6918     62.3331   3.9720573696e+01   1.7835669882e+01     2.140915    0.5689644 -42.17  0.008435824    2.881    0.653
         2 -11.6764    218.2490     28.0323   3.5238572961e+01   2.8333693443e+01     1.074432    0.5862909 -43.21  0.004824038    1.652    0.395
         3  -9.9364    128.2016     39.8561   5.1579020513e+01   4.7882350529e+01    0.4749889     0.396377 -82.90  0.002666171    1.368    0.269
         4 -11.5687    221.2036     11.1182   3.1359725826e+01   2.9664857312e+01     1.720646    0.6247739 -51.27  0.008167728    2.393    0.582
         5 -13.0961    244.4510     16.8605   3.0803689537e+01   2.4267906632e+01     1.915595     1.309316 -33.52   0.01246239    1.656    0.396
         6 -11.0057    147.2647     15.9982   4.0629008210e+01   4.6092993935e+01    0.8379468    0.2741701  64.52  0.003338506    2.558    0.609
         7  -9.8207     94.8639      8.7028   4.8151487702e+01   5.8874583095e+01    0.6812777    0.1636798 -23.29  0.002373811    4.730    0.789
         8  -9.8335     92.9565     15.1780   5.1154425622e+01   5.8688004684e+01    0.5147534    0.2952706  39.75  0.002701643    1.591    0.372
         9 -10.5431    230.1396      3.4060   2.9143067887e+01   2.8631436450e+01    0.6515511    0.3925556 -63.75  0.004078342    1.362    0.266
        10  -9.1208    114.0805     13.9645   4.5821232491e+01   5.4096954456e+01    0.3140798    0.2173923  46.26  0.001793006    1.297    0.229
        11  -9.7798    132.2039      9.7497   4.1084404504e+01   5.0259399717e+01    0.4031185    0.1790656 -65.54  0.001312489    5.108    0.804
        12  -9.2709     81.3288     10.3406   5.2356707490e+01   6.1594359878e+01    0.2591331    0.1580265   7.99  0.001367675    1.980    0.495
        13  -9.7882     74.4731      9.3616   5.3959684354e+01   6.3071030809e+01    0.2598047    0.1846821  23.73  0.001274775    1.318    0.241
        14  -9.4819     12.7045      9.1115   8.0873847290e+01   7.2662643360e+01    0.1880121    0.1358233  21.34  0.001080221    1.411    0.291
        15  -7.8133    161.3367      8.7183   3.6638758747e+01   4.3453461293e+01    0.1311973   0.08495083 -73.33 0.0004122715    1.620    0.383
        16  -9.0129    184.3821      5.4134   3.3267048371e+01   3.8395282554e+01    0.3377579    0.2451883 -44.15  0.002124278    1.412    0.292
        17  -8.3341    183.4803      1.5109   3.2407806014e+01   3.8970220345e+01    0.2003994    0.1033897  76.14 0.0006486687    1.667    0.400
        18  -9.1178    101.5500      6.5737   4.5803092615e+01   5.7584494320e+01    0.2856383    0.2136941  85.66    0.0016819    1.588    0.370
        19  -9.1019    149.0321      2.8485   3.6547294090e+01   4.6884095322e+01    0.2588718     0.143862 -80.93  0.001266662    2.106    0.525
        20  -8.8216    144.9261      1.4989   3.6692652468e+01   4.7964230908e+01    0.2642112    0.1391909  70.32  0.001369834    1.602    0.376
        21  -9.5650     47.3175      2.5375   6.0294181391e+01   6.8703959421e+01    0.4043296    0.2569288  59.54  0.002286407    2.250    0.556
        22  -8.0686    103.4768     41.5554   5.8224436484e+01   5.3276261364e+01    0.1375584    0.1256218  34.74 7.030008e-05    1.008    0.008
        23 -11.2546    187.4038    245.4284   8.6584342814e+01  -3.6393408764e+00    0.9233735    0.6239921 -14.51  0.005374488    1.601    0.375
        24 -10.7287    187.6768    232.1295   8.4417595757e+01  -1.5554199434e+00    0.8019497    0.5328364 -64.81   0.00391975    2.779    0.640
        25  -8.2143    175.6488    196.8390   8.0754044679e+01   6.7281546213e+00    0.1993502    0.1311479 -53.65 0.0009497576    1.760    0.432
        26  -7.5618    171.3129    197.6873   8.1853167451e+01   7.3041849487e+00    0.1354021    0.1143446  75.45 0.0002879933    1.634    0.388
        27 -10.0353    231.1328    188.9548   6.8276831791e+01  -8.1585557739e-01    0.5752653    0.2368544 -47.93  0.002327426    2.884    0.653
        28  -9.6435    227.9593    181.1707   6.7328072203e+01   9.9632450407e-01    0.6493447    0.4167991 -67.33  0.002653383    3.623    0.724
        29  -9.8543    221.3823    178.3991   6.7970409339e+01   2.5233705486e+00    0.3345339    0.2753985 -53.71   0.00193231    1.469    0.319
        30 -10.9817    211.6659    171.7259   6.8435066950e+01   5.3486481422e+00    0.7267655    0.4749137 -59.36  0.003388165    2.137    0.532
        31 -10.6524    204.5470    166.7198   6.8769067535e+01   7.5331167698e+00    0.7477121    0.2994263 -49.79  0.002699347    2.876    0.652
        32 -10.6148    237.9578    164.9122   6.2355781626e+01   2.2485212535e+00    0.4820871    0.2700243 -37.81  0.002439891    1.527    0.345
        33 -11.3161    238.2581    156.9513   6.0692578358e+01   3.5848074867e+00    0.6475464    0.3417069 -51.53   0.00294773    2.182    0.542
        34 -12.0766    232.1607    145.9763   5.9424075159e+01   6.5448897159e+00     1.473686     0.935228 -67.36  0.006476667    2.716    0.632
        35  -9.8190    249.2291    163.3150   6.0205689064e+01   7.8262937931e-01    0.3576185    0.2141779 -51.59  0.001827328    1.926    0.481
        36  -9.7617    194.3326    162.4057   6.9889721697e+01   1.0228904822e+01    0.4633338    0.2867325  64.63   0.00185457    2.801    0.643
        37  -8.6996    152.3705    157.7066   7.8155975678e+01   1.9321742175e+01    0.2435146    0.1918717  88.85  0.001112065    1.733    0.423
        38  -9.2330    141.5327    157.0884   8.0668645007e+01   2.1589136458e+01    0.2430122    0.2083159  37.69 0.0005762774    1.181    0.153
        39  -8.0601     23.1775    157.5934   1.1318030495e+02   3.9262220266e+01    0.1641113    0.1299078  -3.79 0.0009447015    1.691    0.409
        40  -7.7082     72.9968    156.2642   9.9036636567e+01   3.3773727215e+01     0.175243    0.1289775  34.83 0.0003232605    1.432    0.302
        41  -9.1130    128.4406    151.7686   8.2850156619e+01   2.5386564521e+01    0.3632289    0.2040454 -67.78   0.00129375    2.588    0.614
        42  -8.4441    152.2878    151.4874   7.6803961834e+01   2.0741339336e+01    0.4223883    0.1368995 -52.00  0.001223581    3.517    0.716
        43  -9.3017    128.4759    145.1858   8.1381846025e+01   2.6951128828e+01    0.4960932    0.1872482 -43.92  0.001604726    2.732    0.634
        44  -8.3636     58.9578    146.5222   1.0144285198e+02   3.8210019302e+01    0.2146836     0.145276  30.26  0.001040987    1.617    0.382
        45  -9.6213    192.0170    139.5090   6.5303549570e+01   1.5276256835e+01    0.6789379    0.3969307  68.44  0.002488164    3.151    0.683
        46 -11.8293    245.4682    127.9282   5.3578288873e+01   7.4319791226e+00     1.345395    0.6675633 -54.37  0.005894389    2.372    0.578
        47  -9.6691    216.2498    134.9944   5.9758298257e+01   1.1432431256e+01    0.3640578    0.2556641 -53.25  0.001844311    1.460    0.315
        48  -9.5933    166.4979    136.7638   7.0090269683e+01   2.1086915599e+01    0.7221246    0.3021313 -49.72  0.002501935    2.481    0.597
        49  -8.2891    113.0327    139.0732   8.4181171568e+01   3.1410449520e+01    0.2428214     0.232641 -62.70 0.0009142737    1.028    0.027
        50  -7.9993    154.5971    125.2282   7.0048191493e+01   2.6126923299e+01    0.2301522    0.1459962 -35.62  0.000958638    1.651    0.394
        51 -11.0241    223.0611    113.5463   5.3861794065e+01   1.4069215061e+01    0.8269035     0.543311 -57.36  0.004122653    1.603    0.376
        52  -8.6021     24.9658    117.9623   1.0731428475e+02   4.9163031546e+01    0.3046978    0.1489272  49.56  0.001321533    2.595    0.615
        53  -8.5498    171.8666    116.6180   6.4007795794e+01   2.4194175369e+01     0.272144    0.2088204 -31.31    0.0012118    1.354    0.261
        54  -9.7980    216.9854    139.0089   6.0511695160e+01   1.0541361446e+01    0.3946571    0.3049818 -85.38  0.001796754    1.891    0.471
        55 -10.4034    197.3996    108.5741   5.7019295676e+01   2.0236732840e+01    0.9773937    0.3023496 -47.59  0.003057542    3.343    0.701
        56  -7.5239     62.6445    113.2897   9.3735411209e+01   4.6195738334e+01    0.1473711    0.1118754  69.38 0.0007026754    1.680    0.405
        57  -9.9847    121.9138    109.1225   7.4252018029e+01   3.6708875576e+01    0.5774941    0.4269678 -58.51  0.001787811    1.456    0.313
        58  -9.0982    160.6333    108.6967   6.4448582902e+01   2.8316416610e+01    0.4601403    0.3024987 -62.79  0.001933221    1.873    0.466
        59  -7.6455    105.2818    108.6559   7.8914663999e+01   4.0179407042e+01    0.1554369    0.1239623 -87.36 0.0005216305    1.637    0.389
        60 -11.1894    240.7344     98.7789   4.8083689149e+01   1.3242864246e+01    0.8768816    0.6039847  72.35  0.004837852    1.786    0.440
        61 -10.4928    237.0058     95.1125   4.7790114361e+01   1.4561254398e+01     1.041405    0.1954907 -39.96  0.003118841    4.286    0.767
        62  -9.9739    234.9977     88.3237   4.6582962030e+01   1.6072945747e+01    0.5714819    0.4614658  13.23  0.003231287    1.859    0.462
        63  -8.3787     67.2611    101.1007   8.9209347939e+01   4.8501988289e+01    0.4026304    0.1669146 -50.47  0.001535966    2.176    0.541
        64  -9.5390     57.4544    100.3066   9.2449128500e+01   5.0060471865e+01    0.4460536    0.2791362 -64.27  0.002065547    1.681    0.405
        65 -10.6013    215.2095     96.0479   5.1106162609e+01   1.8758625948e+01    0.8039026    0.3558976 -45.43  0.002854931    2.022    0.505
        66  -9.9387    122.5425     98.0483   7.1020448729e+01   3.8999775627e+01    0.6034921    0.5051543  -3.07  0.002950663    1.415    0.293
        67  -8.9063    106.3474     98.1420   7.5696157507e+01   4.2342604963e+01    0.4199556    0.2755842 -30.71  0.001813572    1.721    0.419
        68  -8.8377    196.6937     94.4951   5.3734043649e+01   2.2995289566e+01    0.3363578    0.2238352 -76.43  0.001492577    2.046    0.511
        69 -10.2705    233.2469     46.3091   3.7727375337e+01   2.2792078016e+01    0.7854152    0.6391766   3.86  0.004696431    2.029    0.507
        70 -10.1041    248.2491     84.8832   4.4218365356e+01   1.4097496915e+01    0.8859697    0.3681035 -34.78  0.003859982    2.347    0.574
        71  -9.4560    242.3437     76.7348   4.3198006967e+01   1.6497702413e+01    0.4929027    0.2508559  73.03  0.002279656    2.520    0.603
        72 -10.4466    224.9832    239.2501   7.8416234388e+01  -7.8152872840e+00    0.7985229    0.4033761 -49.23  0.003861475    3.026    0.670
        73 -10.9039    234.4966     58.5031   4.0197644031e+01   2.0808805056e+01    0.7465005    0.4490835 -86.76  0.003117947    1.942    0.485
        74  -7.6031    124.2834     86.6442   6.7246839596e+01   4.0976643687e+01    0.1549726    0.1210237 -77.05 0.0006065827    1.666    0.400
        75  -8.7325    211.9963     83.4237   4.8651729918e+01   2.1603480496e+01     0.281363    0.1712252 -52.85  0.001007661    1.557    0.358
        76  -9.3241     84.0233     83.5318   7.8492444003e+01   4.9738314384e+01    0.2857943    0.2063829 -60.60   0.00125416    1.638    0.390
        77  -9.5048    153.1295     78.8167   5.7988279207e+01   3.5848479277e+01    0.6764522    0.2806631 -48.71  0.002379407    2.671    0.626
        78  -9.0091    141.8678     81.3153   6.1249674412e+01   3.8019892078e+01    0.2641357    0.2054916 -51.90 0.0006048367    1.326    0.246
        79  -7.6423    231.3591     81.3012   4.5517413660e+01   1.7936484697e+01     0.124416    0.1050488  11.66 0.0007037121    1.716    0.417
        80  -9.4846    180.8742     79.6835   5.2768018890e+01   2.9198039230e+01    0.4851651     0.310389 -74.79  0.001582632    2.154    0.536
        81 -10.3385    216.8967     74.1404   4.5805125275e+01   2.2080810189e+01     0.850392    0.3709377 -54.61   0.00341375    2.515    0.602
        82  -9.2154    214.8060     64.3661   4.3825784011e+01   2.4062104142e+01    0.4466101    0.2129537 -39.01  0.002035709    1.925    0.480
        83  -9.6064    106.0082     71.6303   6.7756019248e+01   4.7822389041e+01    0.6489833    0.4488564 -74.90  0.002725435    2.447    0.591
        84  -9.7504    147.2493     70.7562   5.6948575830e+01   3.8655098270e+01    0.5247188    0.3969184  66.44  0.002606529    1.374    0.272
        85  -8.1427     28.6724     68.3260   9.5220381498e+01   6.0575952373e+01    0.1211432     0.101609  71.91 0.0007050065    1.699    0.411
        86 -10.0348    200.9771     61.6053   4.5024867155e+01   2.7540724074e+01    0.7882475     0.322159 -49.86  0.003151445    2.441    0.590
        87  -8.1937    161.4746     66.4755   5.2799873785e+01   3.5995151948e+01    0.1442283    0.1374697 -89.41 2.277698e-05    1.008    0.008
        88  -7.8863     81.7659     66.1949   7.3694631716e+01   5.3619574809e+01    0.2137952    0.1565865  88.13 0.0009235754    2.617    0.618
        89  -7.4756     62.4759     64.5203   8.0161953758e+01   5.7188443458e+01    0.1393348    0.1231307 -12.96 3.321794e-05    1.015    0.015
        90  -9.2005      5.7832     70.6359   1.0558500596e+02   6.1742310020e+01    0.2564017    0.1465199  -9.10 0.0009344433    1.992    0.498
        91  -8.4629    107.9850     55.0082   6.1673288599e+01   5.0278375209e+01    0.2211047     0.213604  42.52  0.001095351    1.066    0.062
        92  -8.7953     17.5673     55.1449   9.6351854102e+01   6.4277370778e+01    0.2004243    0.1396347   0.76  0.001211945    1.476    0.323
        93  -8.6488     97.3289     48.3912   6.2433659745e+01   5.3593416197e+01    0.2903043    0.2509409 -54.19  0.001648348    1.373    0.272
        94  -9.9518    224.2003     43.8861   3.8122209759e+01   2.5008551758e+01    0.5923529    0.4286575  17.32    0.0030451    2.691    0.628
        95 -10.2108    233.8353    246.2458   7.7964233481e+01  -9.8843907848e+00    0.3441366    0.1742074  -5.88  0.001654682    2.687    0.628
        96  -9.9219    202.2570     44.3604   4.0700064591e+01   2.9749173276e+01    0.7949088    0.3960929 -75.34  0.003183242    2.958    0.662
        97  -9.3700    158.1178     45.1312   4.7357821357e+01   4.0021872452e+01    0.4862664    0.2370283 -59.22  0.001846353    2.937    0.659
        98  -8.4141     56.7767     45.4100   7.5519013347e+01   6.1531688299e+01    0.2450458    0.1198539  40.63  0.001132331    2.121    0.529
        99  -8.5976     85.3379     42.9350   6.4149833487e+01   5.6859499171e+01    0.1935335    0.1704446  -8.25 0.0008161005    1.117    0.104
       100  -9.5464    175.5187     43.1291   4.3997910927e+01   3.6128410275e+01    0.3863313     0.275062  72.11  0.002080755    1.333    0.250
       101 -10.5042    132.8090    247.6998   9.8097347318e+01   4.0244906565e+00    0.6072178    0.4027262  88.52  0.003008079    2.655    0.623
       102  -8.8336    147.8029    246.2080   9.4765494375e+01   2.0414044053e+00     0.212643    0.1301024  64.41 0.0009597178    2.863    0.651
       103  -8.4197    250.5678    243.6854   7.4632719223e+01  -1.1507570542e+01    0.2050511   0.09103261 -30.87  0.001123123    2.006    0.501
       104  -8.6996     42.3325     31.8074   7.6195000990e+01   6.5825177971e+01     0.330314    0.1855105  20.11  0.001723294    1.855    0.461
       105  -9.4179    146.3210     25.6618   4.3658567088e+01   4.5294625780e+01    0.3387413    0.1750501 -46.01    0.0015802    2.110    0.526
       106  -7.7955     60.5099     27.4913   6.6706601546e+01   6.3621461913e+01    0.1279303    0.1088443  11.83 0.0008104391    1.023    0.023
       107  -8.5315    184.6306     25.4898   3.8205740028e+01   3.6200384822e+01    0.2397837    0.1487197 -40.95  0.001249534    1.605    0.377
       108  -8.2258     32.7902     26.0074   7.8157618168e+01   6.7961794884e+01    0.1611908    0.1331663  39.15  0.001055705    1.613    0.380
       109  -9.5681    250.1044     45.1530   3.5917918691e+01   1.9600243316e+01    0.4841796    0.1593482 -38.48  0.002148811    2.563    0.610
       110  -9.0808    155.2825    241.6192   9.2555321453e+01   1.7079517779e+00    0.2403973    0.1678486 -33.07  0.001151208    1.620    0.383
       111 -10.3389    244.2100    237.0283   7.4619758179e+01  -9.8869412386e+00    0.2991155     0.237542   8.00  0.001881408    1.174    0.148
       112  -9.5272    132.3660    239.7259   9.7137583397e+01   5.5360171886e+00    0.2526592    0.1388118  43.15  0.001260019    1.638    0.389
       113  -9.8765    149.0112    235.2491   9.2949001474e+01   3.7949121423e+00    0.2921351     0.189413 -34.50  0.001545297    1.792    0.442
       114 -10.1910    130.1253    234.8757   9.6959743178e+01   6.7887154676e+00    0.3006335     0.193396 -55.99  0.001602434    1.782    0.439
       115  -9.0986    142.4118    234.8288   9.4300606160e+01   4.8944402402e+00    0.1730263    0.1214969 -35.60 0.0007411591    1.639    0.390
       116  -8.5860    139.2934    234.6585   9.4947292142e+01   5.4098210894e+00    0.1301412    0.0984616  64.90 0.0002713253    1.656    0.396
       117  -8.7121    250.3241     39.3384   3.4747312075e+01   2.0334170610e+01    0.2356388    0.1521734 -29.65  0.001381141    1.843    0.457
       118 -11.4726    246.1396    179.6488   6.3903642003e+01  -1.4732248902e+00     1.590926    0.3256204 -41.13  0.005095481    4.246    0.765
       119 -11.0742    248.5379    219.8771   7.0931605908e+01  -8.0145078496e+00     0.883005    0.5701425 -27.51  0.005535956    1.312    0.238
       120 -10.9375    247.0468    208.3901   6.9136443546e+01  -6.1332190853e+00    0.7207829    0.6362687 -36.93  0.004977466    1.462    0.316
       121 -11.3547    245.9161    200.0326   6.7798819090e+01  -4.7040804478e+00    0.8121201    0.6069148  -9.84  0.005074145    1.168    0.144
       122 -11.4979    225.0518    219.0629   7.4949151943e+01  -4.8231975514e+00    0.9780024    0.6379926 -45.83  0.005253141    1.831    0.454
       123  -9.7950    223.3599    207.8784   7.3247924120e+01  -2.8094108895e+00    0.3119931    0.2695811  -3.60   0.00202911    1.087    0.080
       124  -8.8022    156.6270    225.5410   8.9835834064e+01   4.3806785909e+00    0.2269539    0.1945036 -29.62 0.0006172839    1.237    0.191
       125  -8.0714     94.8465    222.5702   1.0316850290e+02   1.4664703826e+01    0.1974368    0.1070471  47.11 0.0004762936    1.690    0.408
       126  -8.0401     17.9861    215.4867   1.1940408970e+02   2.5905121164e+01    0.1658342    0.1087819  39.07 0.0003725491    1.522    0.343
