#   1 NUMBER                 Running object number                                     
#   2 MAG_AUTO               Kron-like elliptical aperture magnitude                    [mag]
#   3 X_IMAGE                Object position along x                                    [pixel]
#   4 Y_IMAGE                Object position along y                                    [pixel]
#   5 X_WORLD                Barycenter position along world x axis                     [deg]
#   6 Y_WORLD                Barycenter position along world y axis                     [deg]
#   7 A_WORLD                Profile RMS along major axis (world units)                 [deg]
#   8 B_WORLD                Profile RMS along minor axis (world units)                 [deg]
#   9 THETA_WORLD            Position angle (CCW/world-x)                               [deg]
#  10 FWHM_WORLD             FWHM assuming a gaussian core                              [deg]
#  11 ELONGATION             A_IMAGE/B_IMAGE                                           
#  12 ELLIPTICITY            1 - B_IMAGE/A_IMAGE                                       
         1 -14.5411    152.0350     57.7271   8.5719769094e+01   3.9500616768e+01     1.412246      1.17578  17.41 0.0009757208    1.278    0.218
         2 -14.8715    163.3028     42.9538   7.8598085112e+01   3.8865599952e+01     1.377699     1.048955 -13.73  0.003828874    1.370    0.270
         3 -14.6772    177.4363     10.3987   6.5847621281e+01   3.8977559621e+01       1.1356     1.112823  37.01  0.004075477    1.064    0.060
         4 -13.7708    194.4590      5.7095   6.2703459848e+01   3.5172885164e+01    0.9023211    0.4934932 -68.15  0.004151327    2.104    0.525
         5 -11.8638    189.9422     14.7966   6.5855058149e+01   3.5435979820e+01     0.242461    0.1975165 -23.67 0.0009091639    1.214    0.176
         6 -10.8913    138.7359    243.5495   1.2691992328e+02   9.8297673426e+00    0.1481644     0.139588 -25.68 0.0005916188    1.385    0.278
         7 -20.0028     74.8331    171.5178   1.3246978134e+02   3.0358554449e+01     15.91817      7.26527 -68.50   0.07440774    2.424    0.588
         8 -10.9975    113.1588    195.7928   1.2654711368e+02   2.0549310673e+01    0.4559017    0.2709216  -6.84  0.001914131    3.678    0.728
         9 -10.3238    151.0239    242.4943   1.2453471922e+02   8.4043465403e+00    0.1387553   0.07809595  14.42 0.0004902253    2.040    0.510
        10 -10.7960     28.8776    240.3844   1.4713053545e+02   2.2613092778e+01    0.1324998   0.08463979  41.12 0.0003770492    1.211    0.174
        11 -10.9182     21.6648    239.2413   1.4837622361e+02   2.3439071554e+01    0.1091506   0.08164352 -82.60 0.0006391388    1.515    0.340
        12 -12.4874    152.6062    184.2397   1.1631689933e+02   1.6649224541e+01    0.4402806    0.2683518 -64.73  0.002044179    3.008    0.668
        13 -10.5532    131.2791    236.7407   1.2759715889e+02   1.1695269857e+01    0.1161153    0.0972541 -31.80 0.0003085119    1.495    0.331
        14 -11.4787    199.6645    161.9083   1.0273680819e+02   1.2481275911e+01     0.532725    0.4072416  58.84  0.002936104    2.050    0.512
        15 -13.8375    204.4095    176.0902   1.0456261894e+02   9.7085076831e+00    0.8960932    0.5814508 -50.25  0.004685793    2.487    0.598
        16 -11.1312    202.3251    170.3094   1.0386501285e+02   1.0841944969e+01    0.2040753     0.156487   1.01 0.0005967304    1.137    0.120
        17 -11.6222    205.2666    169.0048   1.0307111193e+02   1.0556028033e+01    0.4137284    0.2733871 -40.69   0.00190911    1.811    0.448
        18 -10.9669    108.4743    182.5940   1.2586963163e+02   2.3612545669e+01    0.2341767    0.2038894  41.96  0.001510591    1.044    0.042
        19 -10.3503     30.3953    182.8708   1.4400164351e+02   3.2812719365e+01    0.1498815     0.148498  16.42 0.0005968795    1.296    0.229
        20 -12.3200    199.1713    178.8667   1.0604552395e+02   1.0138915166e+01    0.4389652    0.3167036 -60.28  0.002270116    2.811    0.644
        21 -13.2640    195.3093    168.7879   1.0489996620e+02   1.2190448535e+01    0.4304156    0.3514121 -13.04 0.0005912747    1.158    0.137
        22 -12.4348    192.9944    164.2722   1.0447556673e+02   1.3237733597e+01    0.4364081    0.2689635  30.31  0.002045925    1.484    0.326
        23 -13.1704    178.0776    170.8832   1.0868955062e+02   1.4694696690e+01    0.4712327    0.3965773 -30.10  0.002929567    1.303    0.233
        24 -14.2145    145.1280    169.3421   1.1544274504e+02   2.0389981414e+01     1.002519    0.5521308  59.12  0.003949298    3.342    0.701
        25 -10.5282     11.8929    173.9333   1.4771613875e+02   3.6185242832e+01    0.1437642    0.1293618 -78.94  0.001097515    1.258    0.205
        26 -12.0441    125.8387    171.8910   1.2026932532e+02   2.3018590682e+01    0.2744956    0.2645358 -76.11   0.00104095    1.205    0.170
        27 -10.6903     30.1847    232.6543   1.4658061993e+02   2.3738185092e+01     0.163249   0.08871845  37.88 0.0008095282    1.435    0.303
        28 -10.7305    165.5071    172.1049   1.1150920717e+02   1.6567769808e+01    0.1868892    0.1281782 -37.55  0.001025435    1.569    0.363
        29  -9.9967     13.5896    233.3190   1.4962495965e+02   2.5086131086e+01    0.1036213   0.08367059 -86.43 0.0005781784    1.408    0.290
        30 -10.8371     34.2285    169.7934   1.4222358427e+02   3.5166035589e+01    0.1978363    0.1782997  45.85 0.0005597306    1.162    0.140
        31 -13.6617    138.0742    171.1179   1.1733579975e+02   2.1217902594e+01    0.7440671    0.5258174  51.34  0.004035791    1.571    0.363
        32 -12.0256    230.3086    166.8410   9.8255487609e+01   6.9546524293e+00    0.2639696    0.1365791 -38.13  0.001360059    2.175    0.540
        33 -10.9500     25.4073    165.0907   1.4403179286e+02   3.6955909348e+01    0.1800389    0.1595785   0.76 0.0006355889    1.454    0.312
        34 -12.3361    129.0927    161.5799   1.1778238261e+02   2.4450793361e+01    0.4421827    0.2495289  25.94 0.0009251434    1.897    0.473
        35 -10.7624    190.6741    158.1454   1.0371724191e+02   1.4555476108e+01    0.3404696    0.1517974  27.94  0.001383703    2.582    0.613
        36  -9.6387     19.3101    158.2672   1.4509040249e+02   3.8935040912e+01    0.1059912   0.08541983 -44.43 0.0002816937    1.540    0.351
        37 -10.9898     22.8849    156.0700   1.4404685932e+02   3.9129175157e+01    0.2057714    0.1666175  24.96 0.0005218693    1.392    0.281
        38 -11.1632    138.7988    250.4450   1.2762367120e+02   8.9346714442e+00    0.1992707    0.1085444  26.95  0.001267531    1.492    0.330
        39 -12.8917    161.6672    153.4341   1.0878937789e+02   2.0380239112e+01    0.4041352     0.352496  64.62  0.001838967    1.521    0.342
        40 -10.3974     26.1331    228.3159   1.4715390695e+02   2.4823908217e+01   0.08030213   0.06098689 -76.88 0.0002322026    1.520    0.342
        41 -11.3307    174.3141    148.6927   1.0510409377e+02   1.8939136002e+01    0.2940427    0.2599002 -66.19  0.001129785    1.598    0.374
        42  99.0000     12.9339    242.5683   1.5001285262e+02   2.3662029346e+01    0.2471313   0.09970474 -59.01  0.001455671    3.572    0.720
        43 -11.8706     22.4580    221.0752   1.4755609015e+02   2.6379050485e+01    0.1680704    0.1268621 -67.30  0.001025938    1.619    0.382
        44 -11.4262      8.2217    137.8228   1.4669720002e+02   4.4310441774e+01    0.2783914    0.2428691 -24.79  0.001036201    1.468    0.319
        45 -10.4403    171.7901    138.3619   1.0342633172e+02   2.1161438546e+01    0.1949603    0.1231494  31.09 0.0004530431    1.554    0.356
        46 -11.3608     23.5295    215.4652   1.4711882732e+02   2.7263283714e+01     0.123073    0.1117039 -68.46 0.0009846356    1.427    0.299
        47 -12.4384    160.6705    127.7218   1.0346290193e+02   2.5178034694e+01    0.4139071    0.3211676 -51.50  0.001852011    1.518    0.341
        48 -11.5931    112.0292    214.2974   1.2897540203e+02   1.7575099818e+01    0.1712758    0.1530315  62.68 0.0005299849    1.247    0.198
        49 -10.8927    167.6741    112.6832   9.8262960613e+01   2.6490867481e+01    0.2865043    0.2232643 -81.14  0.001328148    2.098    0.523
        50 -13.3030    108.5049    208.6826   1.2908455738e+02   1.8968478284e+01    0.5084288    0.3693684  44.03  0.003080915    1.195    0.164
        51 -10.8086    205.3147    110.2599   9.0263490031e+01   1.9244016631e+01    0.2860323    0.1867678  38.20 0.0009445806    1.566    0.361
        52 -10.4556    130.7445    213.5836   1.2505380542e+02   1.5162279773e+01    0.1619116    0.1319849  74.18 0.0006446947    1.675    0.403
        53 -11.1157    116.4356    212.0535   1.2781145796e+02   1.7351989134e+01    0.2992689    0.1782384 -69.43  0.001021471    2.440    0.590
        54 -13.1795     11.3486    206.0649   1.4914728627e+02   2.9981217784e+01     0.380017    0.2272445  24.63   0.00218748    1.786    0.440
        55 -10.4166    153.4745    202.0769   1.1887500220e+02   1.3698851446e+01    0.1636189    0.1224288 -43.37  0.001028571    1.600    0.375
        56 -10.8694    104.5451    201.7124   1.2913673195e+02   2.0690431381e+01    0.2034393    0.1440903  34.74 0.0007307279    1.195    0.163
        57 -10.7217    144.3461     80.9340   9.4867160013e+01   3.7344012507e+01    0.2209044    0.1930664 -25.56 0.0005412516    1.113    0.101
        58  -9.8863    159.6728    247.7333   1.2355422002e+02   6.6625657983e+00    0.1079471   0.06740221  14.08  0.000286481    1.572    0.364
        59 -10.6037    133.9570    245.0424   1.2796097638e+02   1.0234813988e+01    0.1067006   0.09956528  14.60 0.0003512629    1.271    0.213
        60 -13.0918    167.4214     34.8686   7.5215907462e+01   3.8873624351e+01    0.4489994    0.3905265 -20.22 0.0008981557    1.140    0.123
        61 -11.0594     13.5029     59.9520   1.3634753789e+02   6.2876690843e+01    0.2052802    0.1716917  51.50 0.0004392823    1.398    0.285
        62 -10.4059    139.7618    200.4580   1.2147110995e+02   1.5955686766e+01    0.3135682    0.1767337  32.79 0.0009288452    1.494    0.331
        63 -10.5051    142.7106     33.1613   7.9062665012e+01   4.5388937190e+01    0.2455494    0.2023255  80.83 0.0008189786    1.365    0.268
        64 -12.3211    125.1018    242.5113   1.2935614450e+02   1.1682188144e+01     0.327312    0.1436719 -52.36  0.001878308    2.959    0.662
        65  -8.1888     16.4296    201.5872   1.4795438712e+02   3.0391735532e+01     0.101676   0.08605449  61.97 0.0002773315    1.115    0.103
