#   1 NUMBER                 Running object number                                     
#   2 MAG_AUTO               Kron-like elliptical aperture magnitude                    [mag]
#   3 X_IMAGE                Object position along x                                    [pixel]
#   4 Y_IMAGE                Object position along y                                    [pixel]
#   5 X_WORLD                Barycenter position along world x axis                     [deg]
#   6 Y_WORLD                Barycenter position along world y axis                     [deg]
#   7 A_WORLD                Profile RMS along major axis (world units)                 [deg]
#   8 B_WORLD                Profile RMS along minor axis (world units)                 [deg]
#   9 THETA_WORLD            Position angle (CCW/world-x)                               [deg]
#  10 FWHM_WORLD             FWHM assuming a gaussian core                              [deg]
#  11 ELONGATION             A_IMAGE/B_IMAGE                                           
#  12 ELLIPTICITY            1 - B_IMAGE/A_IMAGE                                       
         1 -14.8674    156.4186     50.8732   8.1628711046e+01   3.9685797447e+01      1.17628     1.119827 -31.99  0.003484813    1.118    0.106
         2 -14.9925    166.4136     20.5513   7.0928136482e+01   4.1107540391e+01     1.490845     1.019583 -85.16  0.005847531    1.684    0.406
         3 -14.1470    190.2498     14.4617   6.5904453570e+01   3.5900081420e+01    0.8631529    0.4544432 -88.11  0.003058807    2.300    0.565
         4 -14.2794    176.2547      5.0092   6.5228706525e+01   4.0275429743e+01     1.930194    0.6630539  81.85  0.005664188    5.159    0.806
         5 -10.5439     31.2684    247.3812   1.4768902445e+02   2.0145043630e+01    0.1031569   0.07242955  82.56 0.0001607316    1.104    0.095
         6 -12.5288    190.8124    249.2355   1.1928919457e+02  -4.9461887374e+00    0.3513558    0.2264288  37.19  0.002056731    1.284    0.221
         7 -13.5271    186.7470    242.7264   1.1906006473e+02  -3.2958683186e+00    0.4922347    0.2751292  47.39  0.001820493    1.623    0.384
         8 -12.5195    186.5267    236.9291   1.1819900627e+02  -2.3714829830e+00    0.2268276    0.1991389 -33.57  0.001103931    1.321    0.243
         9 -11.5043    140.5699    249.6927   1.2873945858e+02   3.5688333701e+00    0.4038804    0.2072989  47.78  0.002104434    1.595    0.373
        10 -20.5414     84.9567    179.8141   1.3053996401e+02   2.6964161555e+01     15.67299     6.764103 -63.20   0.06619036    2.234    0.552
        11 -11.7226     23.6097    190.8516   1.4478762687e+02   3.2368627071e+01    0.2096849    0.1433397 -61.76  0.001324429    1.534    0.348
        12 -11.8439     17.6086    187.7930   1.4568696454e+02   3.3629761915e+01    0.2841247    0.1569797 -74.26  0.001064089    1.451    0.311
        13 -12.6956    237.4480    186.0611   9.9208390779e+01  -3.3242379360e+00    0.4340532    0.1844932  36.11  0.001772303    2.515    0.602
        14 -10.2129     22.4657    184.9908   1.4449089427e+02   3.3756145570e+01    0.1650155   0.09307255 -77.25 -1.943439e-05    1.419    0.295
        15 -12.0247    202.9826    173.1642   1.0315506047e+02   5.5968395557e+00    0.4918712    0.2261527 -54.61  0.001709274    3.170    0.685
        16  -8.9469     12.7817    237.8221   1.5003204101e+02   2.3995411363e+01    0.1695303    0.1464652   6.12  0.001264633    2.415    0.586
        17 -13.6777    237.7208    174.7598   9.6838174789e+01  -1.4896334559e+00    0.5481212    0.3858513  64.76  0.002689497    2.090    0.522
        18 -12.3864    194.5855    172.2013   1.0466407007e+02   7.5115143321e+00    0.5536977    0.3794309 -60.16  0.002072367    1.831    0.454
        19 -12.4280    191.9989    164.2612   1.0350403812e+02   9.6150266385e+00    0.7698867     0.399207 -57.63  0.002817689    2.717    0.632
        20 -13.2190    189.2390    154.9774   1.0203809158e+02   1.2074103151e+01    0.5895401    0.5246214  14.65  0.001814907    1.220    0.181
        21 -12.6436    224.2890    173.3204   9.9024376188e+01   1.3112644193e+00    0.3482264    0.2279667 -33.58  0.001351198    1.507    0.336
        22 -12.5955    230.1559    167.0991   9.6608222741e+01   1.2727319292e+00     0.455877    0.2254593 -52.39  0.001767033    2.712    0.631
        23 -11.2067    207.2345    170.7383   1.0178984966e+02   5.1852991268e+00    0.3203871    0.2167343 -60.06  0.001020135    1.938    0.484
        24 -12.0125    240.0246    169.3064   9.5280383822e+01  -9.9048162137e-01    0.1941486    0.1765727  18.01 0.0004713567    1.099    0.090
        25 -11.3281    151.8875    239.4205   1.2522540393e+02   3.3320520464e+00    0.3124731    0.2741213  -7.80  0.001491609    1.495    0.331
        26 -10.6857     29.9672    163.9705   1.4079379082e+02   3.7682799018e+01    0.1840499    0.1441134 -78.75   0.00032209    1.056    0.053
        27 -12.6131    167.7522    156.1374   1.0696037610e+02   1.6517029915e+01    0.4213932    0.2940425  85.65  0.001722343    2.207    0.547
        28 -12.8671    196.5750    227.3283   1.1470320549e+02  -2.6428690273e+00    0.3510393    0.1987195 -31.34  0.001734522    2.135    0.532
        29 -11.8667    211.2578    238.1518   1.1372994554e+02  -6.7969162551e+00    0.2026059    0.1805492 -66.78  0.001032194    1.613    0.380
        30 -11.6792     23.1222    155.8605   1.4140372048e+02   4.0186175124e+01    0.2831925     0.200921 -50.94  0.001042259    1.544    0.352
        31 -13.0217    161.1391    152.0194   1.0753952913e+02   1.8840490052e+01    0.4077964    0.3608561  21.23  0.002074168    1.264    0.209
        32 -12.6992    173.9968    148.3319   1.0382138947e+02   1.6807440784e+01    0.5597205    0.3575847 -57.60  0.001738238    1.788    0.441
        33 -11.1072    207.6168    226.2538   1.1240581495e+02  -4.4194805018e+00    0.1715907     0.118906 -23.97 0.0008189483    1.630    0.386
        34 -10.0420     12.3306    138.3303   1.4187759815e+02   4.5063705741e+01    0.1434916     0.112106 -33.08 0.0008168297    1.658    0.397
        35 -11.1984     14.0771    133.6719   1.4088979227e+02   4.5976887157e+01      0.40179    0.1834456 -49.84  0.002091002    2.115    0.527
        36 -12.2226    207.5264    221.0942   1.1152337409e+02  -3.6051854345e+00    0.2701453    0.2096914 -43.25 0.0009018054    1.488    0.328
        37 -11.6148    170.3337    136.8563   1.0195862976e+02   2.0069300329e+01     0.269803    0.2146412  62.89  0.000492572    1.344    0.256
        38 -12.1200    192.6870    222.1637   1.1458034071e+02  -1.1168226695e+00    0.2364841     0.170631  47.17 0.0009937852    1.319    0.242
        39 -12.9955    160.5690    128.0163   1.0204142423e+02   2.4184567178e+01    0.5281628    0.3961931 -61.34  0.001599442    1.461    0.315
        40 -11.1184    217.6494    217.3987   1.0893548003e+02  -4.8105664892e+00    0.3571897    0.1767251 -48.18  0.001605425    2.605    0.616
        41 -12.0196    153.6707    125.2095   1.0296342767e+02   2.6353946040e+01    0.2745919    0.2171229  61.19 0.0009527217    1.336    0.252
        42 -12.6621     38.6707    115.9478   1.3175114039e+02   4.7856031442e+01     0.454157    0.2765431 -14.57  0.001363778    2.718    0.632
        43 -11.2727    231.3363    113.7499   8.4392845889e+01   1.0740648466e+01    0.2624991    0.2580131 -74.79 0.0008024173    1.066    0.062
        44 -11.5089    167.6564    112.7621   9.6568624107e+01   2.5767253295e+01    0.4155025     0.315698  88.11   0.00122328    1.704    0.413
        45 -10.9086     15.0115    218.2329   1.4844929425e+02   2.7561232200e+01    0.2017066    0.1000301 -78.43 0.0008590825    1.636    0.389
        46 -10.9947    205.3859    110.1101   8.8120334419e+01   1.7336671293e+01    0.3225191    0.2297816  48.35 0.0008542969    1.454    0.312
        47 -11.0327      9.6797    211.9729   1.4894469755e+02   2.9356082993e+01    0.1688739    0.0940553 -78.99 0.0003905653    1.431    0.301
        48 -11.2506     37.7555    102.4295   1.2945605787e+02   5.0988211561e+01    0.2460643    0.1839275  -8.07  0.001092614    1.703    0.413
        49  -7.1634     17.3835    213.3968   1.4770804533e+02   2.8289274811e+01    0.3009502    0.1246304  84.55  0.001501288    2.436    0.589
        50 -10.5584     16.8352    209.3781   1.4751730066e+02   2.9165561474e+01    0.1714983    0.1360863  54.86  0.001270456    1.388    0.280
        51 -11.5188    141.9076     83.0965   9.4457982791e+01   3.7715064817e+01    0.3638486    0.2287802 -29.56  0.001122736    1.784    0.440
        52 -13.1999     11.4924    206.0553   1.4822571573e+02   3.0383181112e+01    0.4132502    0.3058903  30.31  0.002750879    1.941    0.485
        53 -11.2098    222.9982    198.5528   1.0438091774e+02  -2.7618664038e+00    0.2029207    0.1728495 -22.10 0.0003395316    1.163    0.140
        54 -14.6578    146.5036     65.2954   8.8100979103e+01   3.9811407935e+01     1.174703     1.053657  49.40  0.001301774    1.076    0.071
        55 -13.4321    198.2604    245.5877   1.1734461940e+02  -5.6772366063e+00    0.4464811    0.3004359  57.51  0.002498715    1.843    0.457
        56 -13.6040    160.5003     41.9419   7.8175523375e+01   3.9947403558e+01    0.5094098    0.4891828 -26.82 0.0008364156    1.135    0.119
        57 -11.9113     15.7557    194.6889   1.4660355583e+02   3.2337231126e+01    0.1913801    0.1411214 -76.93 0.0005430771    1.227    0.185
        58 -11.6103     13.3664     59.9040   1.2794418163e+02   6.1780003238e+01    0.1865994    0.1661391 -47.98 0.0004418301    1.210    0.174
        59 -11.4805     37.7015    248.2867   1.4671815675e+02   1.9205993803e+01    0.1639343    0.1016966  78.79 0.0009207273    1.254    0.202
        60 -10.5570    157.9633    243.7105   1.2466574280e+02   1.5563999189e+00    0.2780815    0.1657836 -37.76   0.00107691    2.238    0.553
