#   1 NUMBER                 Running object number                                     
#   2 MAG_AUTO               Kron-like elliptical aperture magnitude                    [mag]
#   3 X_IMAGE                Object position along x                                    [pixel]
#   4 Y_IMAGE                Object position along y                                    [pixel]
#   5 X_WORLD                Barycenter position along world x axis                     [deg]
#   6 Y_WORLD                Barycenter position along world y axis                     [deg]
#   7 A_WORLD                Profile RMS along major axis (world units)                 [deg]
#   8 B_WORLD                Profile RMS along minor axis (world units)                 [deg]
#   9 THETA_WORLD            Position angle (CCW/world-x)                               [deg]
#  10 FWHM_WORLD             FWHM assuming a gaussian core                              [deg]
#  11 ELONGATION             A_IMAGE/B_IMAGE                                           
#  12 ELLIPTICITY            1 - B_IMAGE/A_IMAGE                                       
         1 -11.9302    177.8248     68.0152   8.3427135939e+01   3.1448985376e+01     1.699082    0.7515113 -51.50  0.005556413    3.071    0.674
         2 -10.2688    184.8214      4.1011   6.3292614214e+01   3.7708335641e+01     1.124647    0.5649745 -86.92  0.004653131    2.345    0.574
         3  -9.9483    224.5286      7.5117   6.0210923541e+01   2.7247376824e+01    0.4718769    0.2367954 -54.92   0.00221309    1.962    0.490
         4 -10.5398    200.3172     13.4882   6.4162595889e+01   3.2745086135e+01     1.755257    0.5808831 -60.69  0.003886903    8.569    0.883
         5 -11.1453    232.7820     16.2065   6.1583430317e+01   2.4319492140e+01    0.4778934    0.3483398  37.06  0.001416905    1.799    0.444
         6 -12.1397    219.6093     34.0682   6.7418517190e+01   2.5461816682e+01     2.587569    0.7181543 -50.62  0.007102645    5.173    0.807
         7 -12.2947    223.7211     24.0893   6.4408866706e+01   2.5636356021e+01     1.195485    0.9192373 -81.23  0.006715649    1.242    0.195
         8 -11.5484    220.1668     11.6666   6.1637380234e+01   2.7891606573e+01     1.663047    0.4010727 -52.61  0.004234549    6.631    0.849
         9 -11.6271    233.9894      5.9968   5.9053636865e+01   2.5118658054e+01    0.9135707    0.3393633 -57.57  0.003572043    2.988    0.665
        10 -10.2389    119.9562      9.3476   7.5483687958e+01   5.4029250666e+01    0.5616059    0.3828872  31.68  0.002927816    1.433    0.302
        11  -9.8267    172.4326      3.1427   6.4503297566e+01   4.1056128694e+01    0.5293564    0.2479169 -52.84  0.002165709    2.566    0.610
        12  -9.3200     10.9943      3.4621   1.1474231169e+02   7.3437495232e+01    0.1923378    0.1046305 -47.93  0.001170037    1.849    0.459
        13  -9.1924    176.2668      9.6843   6.5991285661e+01   3.9443052381e+01    0.4432533    0.1913815 -52.60  0.001671512    2.893    0.654
        14  -8.7272    249.3884      2.1152   5.7024620002e+01   2.1946154409e+01    0.2578091    0.1370751 -76.75  0.001213793    1.874    0.466
        15  -9.0036    123.9293    145.9870   1.1670504254e+02   2.8480429645e+01    0.2125248    0.2010826  57.67 0.0002925706    1.015    0.015
        16  -9.3353     55.5426    250.2109   1.4410787263e+02   1.8516483004e+01    0.1800936    0.1210888  46.32  0.000713099    1.327    0.246
        17  -9.3076     67.3124    144.3677   1.3102497280e+02   3.8248356496e+01    0.4847106    0.2865281  58.83  0.001658595    1.840    0.456
        18  -8.4136    188.9931    137.0363   9.9545779457e+01   1.6331405297e+01    0.2227396    0.2036992  15.07            0    1.074    0.069
        19  -8.0667    121.2915    130.9496   1.1416029279e+02   3.2311310741e+01    0.1948325     0.182802 -51.02 0.0001966835    1.095    0.087
        20 -10.2314    234.9161    129.4812   8.9037495659e+01   7.6262484893e+00    0.2797782    0.2510774  35.97 0.0004853327    1.151    0.131
        21  -9.0637    184.0862    123.6076   9.7337801580e+01   1.9950572426e+01    0.2763673    0.2179929 -49.30  0.000713932    1.372    0.271
        22  -7.4606    163.7757    120.9798   1.0119839884e+02   2.5189106503e+01    0.1917381    0.1304053 -39.81 0.0003213014    1.519    0.342
        23 -11.0593    243.8508    115.8320   8.4400779808e+01   7.9027327551e+00    0.6460875    0.2327181 -28.43  0.002261364    3.003    0.667
        24  -7.8334    200.6510    116.3272   9.2127238077e+01   1.7411032032e+01    0.1563694    0.1221768 -77.33 0.0007049106    1.757    0.431
        25  -7.8822    181.4610    114.5618   9.5610860948e+01   2.2267733741e+01    0.1545226    0.1501219  33.79 9.305571e-05    1.016    0.016
        26  -8.9280    167.8569    113.3026   9.8289626417e+01   2.5746887664e+01    0.2807343    0.2556513 -75.86 0.0004899811    1.235    0.190
        27 -10.3560    238.8449    110.9873   8.4051963591e+01   9.7076794303e+00    0.3957088    0.2939227 -61.62  0.001308545    1.713    0.416
        28 -10.0112    185.5182    109.3875   9.3410601447e+01   2.2258856392e+01    0.3619325    0.1567188 -34.27  0.001263189    2.445    0.591
        29 -11.2572    242.2631     83.3676   7.6892502580e+01   1.3194275824e+01    0.5071119     0.405569 -50.84  0.002788132    1.238    0.192
        30 -10.6880    245.3812     97.3944   7.9818334687e+01   1.0400488065e+01    0.7353526    0.1802394 -44.18  0.002046855    4.781    0.791
        31 -10.3720    186.2662     92.8425   8.8825298574e+01   2.5069060835e+01    0.5159627    0.2247662 -36.10  0.001846247    2.307    0.567
        32  -8.1007    150.0160     93.0033   9.6945414993e+01   3.3994882142e+01    0.2554238    0.1933678  12.69 0.0007814302    1.698    0.411
        33  -7.7434    136.0963     91.1523   9.9936767792e+01   3.7640524306e+01     0.215756    0.1859755  80.13 0.0009657803    1.357    0.263
        34  -9.4356    159.7384     83.6443   9.1909017751e+01   3.3378717788e+01    0.3303816    0.2704381   5.85  0.000922339    1.450    0.310
        35  -9.7307    163.6447     80.6163   9.0131300469e+01   3.2944800236e+01    0.3343058    0.2876004  83.20  0.001207353    1.315    0.239
        36  -9.2352    144.4227     80.8249   9.4725592031e+01   3.7673317846e+01    0.3304418    0.2670876 -40.43 0.0009460474    1.268    0.211
        37 -10.1694    243.5544    101.6382   8.1099237005e+01   1.0145873505e+01    0.3920118    0.2593074  62.36  0.001932043    1.753    0.429
        38  -8.9484    231.4570     79.3648   7.7449581823e+01   1.6259085435e+01     0.271982    0.1857658  65.36  0.001325652    1.583    0.368
        39  -9.4371    245.6592    249.4086   1.1028132062e+02  -1.0018173034e+01    0.2164078   0.08686561  40.85  0.001140696    2.170    0.539
        40  -9.9952    203.2977     43.5061   7.2067024875e+01   2.8405933534e+01    0.4057736    0.2755971  34.96  0.001353418    1.804    0.446
        41  -9.0874    201.8286     60.5586   7.7025240177e+01   2.6381169745e+01    0.3487676     0.208516 -67.98  0.001371527    2.356    0.575
        42  -9.2318    206.8539     65.5939   7.7606313642e+01   2.4345264818e+01    0.5379326    0.2717364 -60.37   0.00144011    3.042    0.671
        43 -10.4126    207.2508     60.7255   7.6217191394e+01   2.4971184117e+01     1.155949    0.5104387 -62.38  0.003013701    5.562    0.820
        44 -10.7038    197.0161     49.2902   7.4622566937e+01   2.9250407029e+01    0.6709234    0.4159178 -73.81 0.0005048614    2.167    0.539
        45  -8.6384    189.9376     66.9928   8.0859777069e+01   2.8467382160e+01    0.2191066    0.2136619  61.98 0.0002918446    1.017    0.017
        46  -9.8030    230.0430     62.1463   7.3306609597e+01   1.9132782261e+01    0.4237666     0.220286 -67.89  0.001524491    3.184    0.686
        47  -9.4825    186.0677     59.3152   7.9330556716e+01   3.0658606368e+01    0.2882928    0.2553908  59.10 0.0003529691    1.093    0.085
        48  -8.9262    144.2455     59.2047   8.7913260677e+01   4.1516966843e+01    0.3158424    0.2562383 -63.58  0.001165117    1.469    0.319
        49  -8.3823    228.3091    247.3436   1.1290810729e+02  -7.2880482178e+00    0.1207449   0.07087296  14.33 0.0007044442    1.697    0.411
        50  -9.3901     80.9935    247.4524   1.3952964054e+02   1.5632124449e+01    0.1729924   0.08531395  44.66 0.0005661643    1.565    0.361
        51 -10.8184      2.7047    235.4502   1.5199515368e+02   2.6785677493e+01    0.4227022    0.2386447 -71.69  0.002979925    1.893    0.472
        52 -10.5633      2.4051    230.7185   1.5186254223e+02   2.7633672963e+01    0.3189347    0.1778155 -84.60  0.001620907    1.551    0.355
        53  -9.1739    122.9991    238.9826   1.3105219772e+02   1.0755551738e+01    0.1662032    0.1373047  18.59 0.0004806081    1.580    0.367
        54  -9.6731    245.1602     54.3353   6.9495449494e+01   1.6684727931e+01    0.2368916    0.2272261  62.68 0.0003313153    1.152    0.132
        55  -7.5161    222.3053     73.6220   7.7344594706e+01   1.9302040240e+01    0.1583899    0.1056194 -61.94 0.0007027112    1.776    0.437
        56  -8.8587    130.7985     54.9943   8.9819870383e+01   4.5510667388e+01    0.2423781    0.2108401  48.74 0.0003347263    1.116    0.104
        57 -11.4958    179.4077     46.9544   7.6828062041e+01   3.4212031374e+01    0.5986789    0.3761844  -3.07  0.001840127    2.349    0.574
        58  -8.1414     33.3797    228.1992   1.4655137891e+02   2.4933017371e+01     0.141437    0.1110063 -82.05 0.0007244957    1.382    0.276
        59  -9.8265    154.2235     45.1250   8.1038028699e+01   4.1109629371e+01     0.296802    0.2015487 -85.99  0.001198266    2.076    0.518
        60  -7.2767    239.3304     44.3011   6.7730637208e+01   1.9369056223e+01    0.1334578    0.1039413  31.25 0.0003994933    1.648    0.393
        61  -8.6177    249.6416     49.7144   6.7893832736e+01   1.6286941139e+01    0.2297505    0.1536793  55.39 0.0007241073    1.621    0.383
        62 -10.2444    144.9199     41.3351   8.1748185783e+01   4.4045718026e+01    0.4075617    0.2366799  82.20  0.001501844    2.749    0.636
        63  -9.4113    187.1861     40.7609   7.3694579863e+01   3.2992038806e+01    0.4938805     0.258017 -55.63  0.001919211    2.385    0.581
        64  -8.0036    186.5003     36.5104   7.2549185283e+01   3.3724434190e+01    0.1477569    0.1373783  83.55 0.0004504304    1.021    0.020
        65 -10.6579    159.9129     69.7091   8.7666482776e+01   3.5794609938e+01    0.3950828    0.2921576 -16.69 0.0006319971    1.571    0.364
        66  -9.1108    246.1897     36.1426   6.5053325938e+01   1.8815683536e+01    0.1880033     0.180825  50.63 0.0007355699    1.225    0.184
        67  -8.0322    151.8672     70.3722   8.9700214965e+01   3.7721273997e+01    0.2225806    0.1370061  43.09 0.0005941269    1.622    0.383
        68 -10.4022    140.7480     31.6121   7.9269803361e+01   4.6396924947e+01    0.2642787    0.2450147  25.57 0.0002756096    1.077    0.072
        69  -8.8749    192.7213     23.3857   6.7852055065e+01   3.3657146399e+01    0.5750094    0.2497931 -64.04  0.001821837    3.969    0.748
        70  -8.9545    178.8703     24.3769   7.0072609239e+01   3.7213977911e+01    0.5650061    0.1990829  54.29  0.002052827    2.496    0.599
        71 -12.4090     22.4793    212.8547   1.4759320521e+02   2.8928947223e+01    0.7046862    0.4303819  66.00  0.002788649    1.252    0.201
        72  -8.7160     36.6191     20.8076   1.0940011780e+02   6.8235101891e+01    0.1660252    0.1025267 -46.37 0.0009501046    1.729    0.422
        73  -7.6719    171.6385     17.3114   6.8972588510e+01   3.9908570939e+01     0.153109    0.1023964 -69.37 0.0007041231    1.748    0.428
        74 -12.6487     40.8860    195.7488   1.4291684418e+02   3.0293211834e+01     0.882978    0.7875465 -61.31  0.006532533    1.483    0.326
        75  -9.9280    177.9982    200.2831   1.1471241683e+02   7.4642831147e+00    0.2025751    0.1926069   0.04 0.0002292349    1.169    0.145
        76  -8.2657    100.9677    175.9964   1.2755775784e+02   2.6103346320e+01    0.1868359    0.1647166  66.99   0.00112065    1.005    0.005
        77  -9.3780      6.5069    154.3333   1.4700352634e+02   4.2280248321e+01    0.1615024    0.1017431  31.62 0.0006295038    1.861    0.463
        78  -8.6425      8.8445    148.3762   1.4601490411e+02   4.3394547744e+01    0.1284413    0.1104825  -1.24 0.0004244309    1.693    0.409
