#   1 NUMBER                 Running object number                                     
#   2 MAG_AUTO               Kron-like elliptical aperture magnitude                    [mag]
#   3 X_IMAGE                Object position along x                                    [pixel]
#   4 Y_IMAGE                Object position along y                                    [pixel]
#   5 X_WORLD                Barycenter position along world x axis                     [deg]
#   6 Y_WORLD                Barycenter position along world y axis                     [deg]
#   7 A_WORLD                Profile RMS along major axis (world units)                 [deg]
#   8 B_WORLD                Profile RMS along minor axis (world units)                 [deg]
#   9 THETA_WORLD            Position angle (CCW/world-x)                               [deg]
#  10 FWHM_WORLD             FWHM assuming a gaussian core                              [deg]
#  11 ELONGATION             A_IMAGE/B_IMAGE                                           
#  12 ELLIPTICITY            1 - B_IMAGE/A_IMAGE                                       
         1 -13.8395    138.8873     25.2411   7.7397668580e+01   4.7640289274e+01     5.444757     1.093885  50.25  0.002726993    3.879    0.742
         2 -14.6151    180.5763     78.5096   8.5942666890e+01   2.8997473467e+01     8.485005     2.288068 -44.92   0.01593083    4.488    0.777
         3 -12.9807    239.3518     36.4101   6.5814936355e+01   2.0372089847e+01     1.221972    0.8226803  74.91  0.002941693    1.491    0.329
         4 -14.0420    166.8064     55.2767   8.1734087633e+01   3.6327316461e+01     4.782218     2.385258  82.83   0.01285318    5.006    0.800
         5 -14.0919    222.3645     35.1514   6.7375578772e+01   2.4640305329e+01     2.722254     1.252505 -40.31  0.009839629    2.023    0.506
         6 -13.6791    192.4092      7.9092   6.3509588750e+01   3.5363306092e+01     2.875881    0.8500962  68.36   0.01023003    2.852    0.649
         7 -12.7280    231.9012     60.3674   7.2611326101e+01   1.8942607544e+01     1.299617     0.551078 -36.09  0.003037561    2.152    0.535
         8 -14.7183    241.3997     91.4012   7.8961529947e+01   1.2175914061e+01     7.160141     1.874185 -31.75    0.0220681    3.731    0.732
         9 -13.7542    217.3101      3.3090   5.9806992206e+01   2.9448894250e+01     2.880303    0.5839453  72.11  0.008944382    4.262    0.765
        10 -14.2454    244.5630     18.6830   6.1129136037e+01   2.1266228390e+01     1.085037    0.5634428 -52.00  0.003656473    1.777    0.437
        11 -12.7388    212.3184     46.1052   7.1520461136e+01   2.5744177501e+01    0.8656536     0.801979  33.81   0.00298025    1.210    0.173
        12 -13.3851    206.3027     60.9565   7.6427517118e+01   2.5178261098e+01     4.098422     1.744467 -60.54   0.01045859    5.754    0.826
        13  -9.6220    115.8048     12.4145   7.7645214731e+01   5.4736052611e+01    0.3236485    0.2198512  53.62  0.001264418    1.310    0.237
        14 -11.2330    120.2831      8.8589   7.5219749367e+01   5.3994958300e+01    0.6320448    0.4786265 -54.06  0.001456992    1.666    0.400
        15 -13.0340    248.8027      4.5159   5.7594332720e+01   2.1831204057e+01     1.005268    0.7139911 -65.04  0.006123694    1.221    0.181
        16  -9.6157    146.1888      8.1429   6.9975312833e+01   4.7513391430e+01    0.3053196    0.2283924 -28.70  0.001405075    1.483    0.326
        17 -10.0177    140.2967      7.7111   7.0844434903e+01   4.9075651392e+01    0.3428248     0.189754 -39.33  0.001518443    2.038    0.509
        18 -10.2469    134.5121      8.5810   7.2220941916e+01   5.0476037927e+01     0.364158    0.1955712 -43.14  0.001623655    2.213    0.548
        19  -8.8541     56.6674      5.3250   9.2858701819e+01   6.7574695460e+01    0.1080371   0.09919199 -53.48 0.0007050936    1.709    0.415
        20 -10.6703     18.2184      4.1124   1.1092867049e+02   7.2714891132e+01    0.1989215    0.1484713 -44.58  0.001379658    1.613    0.380
        21  -9.2361    144.4662    126.9560   1.0731373132e+02   2.8326975418e+01    0.2164312    0.1366041 -69.86 0.0008087797    2.473    0.596
        22  -9.2424     55.7520    250.0682   1.4406362686e+02   1.8513971300e+01    0.1688831    0.1141326  54.52  0.000378242    1.125    0.111
        23 -11.7448    225.4374    121.0688   8.8697575373e+01   1.0992788758e+01    0.8458163    0.3209994  52.71  0.003051114    2.797    0.643
        24  -9.7665    151.8947    120.8443   1.0398503255e+02   2.7943636729e+01     0.412274      0.21073  25.78  0.001220971    3.806    0.737
        25 -10.6482    167.9946    113.7681   9.8379613647e+01   2.5623319309e+01    0.4189539    0.3305826 -55.52  0.001328085    1.411    0.291
        26 -11.0752    134.6488    111.5645   1.0595104973e+02   3.3743187601e+01    0.7531301    0.3058803 -45.07   0.00261043    2.508    0.601
        27 -11.2162    197.6770    106.2769   9.0145153618e+01   1.9894537461e+01    0.4227946    0.2887739  39.36  0.001536625    1.514    0.340
        28 -13.2301      8.6045    208.8205   1.4986015009e+02   3.1040451461e+01    0.7639292    0.5307527  75.37  0.004050492    1.036    0.034
        29  -8.5294    158.6862    142.3466   1.0749334868e+02   2.2036203992e+01    0.1556084    0.1222263  87.90 0.0007047076    1.716    0.417
        30  -9.2016     53.5231    205.5336   1.4120331582e+02   2.6840360991e+01    0.1195348   0.09152136  69.50 6.151262e-05    1.022    0.021
        31 -10.3327     69.6639    145.3219   1.3056065690e+02   3.7708597791e+01    0.3376271     0.255075  81.92  0.001168561    1.340    0.254
        32  -9.9702    148.0796     97.2036   9.8618943248e+01   3.3630991709e+01     0.375303    0.2837654  12.47  0.001120949    1.712    0.416
        33  -9.3238    134.5126     94.3189   1.0126887275e+02   3.7364785856e+01    0.2715443    0.2329622  59.45 0.0007009332    1.220    0.180
        34 -10.7479    158.5520     88.6728   9.3654400638e+01   3.2742084774e+01    0.5926057    0.3825592  23.95  0.002309506    2.140    0.533
        35  -9.6912    214.2707     88.9428   8.2604906845e+01   1.8834949071e+01    0.3196704    0.2576025 -81.86   0.00158461    1.499    0.333
        36  -9.9769    188.9635    136.9692   9.9536226522e+01   1.6350396561e+01    0.2314495    0.2153735  16.83 0.0003535611    1.037    0.036
        37 -10.1493    142.1705     85.8446   9.6804213523e+01   3.7260011549e+01    0.3263509    0.2858425 -50.64 0.0009555498    1.202    0.168
        38 -12.0526    194.5612     59.9198   7.8038342159e+01   2.8353007483e+01     1.033268    0.4793737  35.36  0.003316289    3.489    0.713
        39  -8.8254    206.7144     82.5900   8.2220621453e+01   2.1712574781e+01    0.2493709    0.1855689  84.17 0.0006891737    1.649    0.394
        40  -9.1511    202.8503     80.3567   8.2291110839e+01   2.3036836803e+01    0.2380096     0.201025 -73.23 0.0007898648    1.321    0.243
        41 -11.7368    156.8595     77.7952   9.0824359662e+01   3.5158171860e+01    0.4529556    0.3812715 -51.38 0.0006788722    1.269    0.212
        42  -8.2626    140.2979     78.2972   9.4988323042e+01   3.9140155128e+01    0.1573858    0.1217212  14.20  0.000286855    1.572    0.364
        43 -14.0439     40.5217    184.0667   1.4201469421e+02   3.2738348398e+01     1.597718      1.24378 -24.47   0.00162425    2.222    0.550
        44  -9.3094    151.8145     70.8283   8.9854984587e+01   3.7655304303e+01    0.3058331    0.2125626 -29.70 0.0008076691    1.522    0.343
        45 -10.3909     66.4806    144.0316   1.3119018395e+02   3.8437506718e+01    0.4073904    0.2959749 -85.49  0.001145519    1.361    0.265
        46  -9.3790    133.7665    146.2284   1.1431356484e+02   2.6476888260e+01    0.4410014    0.1280368 -51.18  0.001314386    3.807    0.737
        47 -10.5982    144.3457     59.4865   8.7982108132e+01   4.1445841476e+01    0.4555143    0.2860092 -50.15 0.0007543253    1.856    0.461
        48  -9.1626    132.3065     64.6643   9.2689665024e+01   4.3519208873e+01    0.1546378    0.1226627 -74.73 0.0004293135    1.672    0.402
        49  -8.5357     36.3835     62.2811   1.2414918077e+02   6.0465597678e+01    0.1747434    0.1090448 -64.91 0.0006614982    1.665    0.399
        50  -8.9637    123.9951    145.6930   1.1662841578e+02   2.8531850060e+01    0.1989436    0.1775446  48.58 0.0002905774    1.074    0.069
        51 -11.1240    245.9711     54.2067   6.9371251033e+01   1.6517332425e+01    0.3947321    0.3189443  81.73 0.0009694695    1.287    0.223
        52  -9.3692    134.0022     60.2215   9.0773425071e+01   4.3873209063e+01    0.2173107    0.1220922  51.87  0.000887294    1.721    0.419
        53  -9.1075    116.0484     59.5118   9.5390503118e+01   4.8174463509e+01    0.2712781     0.206408 -53.26 0.0008149983    1.537    0.350
        54  -8.4681     72.5715     58.4605   1.0916535581e+02   5.6699111161e+01     0.136896     0.122543 -21.91 0.0001349326    1.011    0.011
        55  -9.3858    130.6685     54.9631   8.9842592636e+01   4.5547031876e+01    0.2068473    0.1887439 -22.36 0.0002768564    1.123    0.110
        56 -13.4376     51.3275    175.0320   1.3880261274e+02   3.3408652314e+01     1.097433     1.038786  47.99  0.002690742    1.318    0.241
        57  -9.4314    194.1756    197.1664   1.1092872640e+02   4.9422871513e+00    0.3160628    0.1584282 -58.18  0.001087085    4.780    0.791
        58  -9.9266    178.0451    200.0121   1.1465637969e+02   7.4994178729e+00    0.1977615    0.1692794  34.80  0.001189117    1.020    0.020
        59  -9.4894    148.7223    131.4284   1.0733823832e+02   2.6456489704e+01    0.3409654    0.2258827  86.12   0.00125071    2.807    0.644
        60  -9.9059    203.7023     36.9838   7.0206480936e+01   2.9150095748e+01    0.3459434    0.2193183 -65.32 0.0009453124    1.807    0.447
        61  -8.3759    206.7006     33.7177   6.8915009813e+01   2.8785198366e+01    0.1400535    0.1058084  37.62  0.000314124    1.547    0.353
        62  -8.9674    186.6940     30.3142   7.0695211529e+01   3.4440648022e+01    0.2406283    0.1960602 -70.27 0.0005824032    1.273    0.215
        63  -8.9571    192.1793    144.1705   1.0053418019e+02   1.4324148456e+01    0.2196053    0.1935489  18.02 0.0003706645    1.114    0.103
        64 -10.8779    179.9759     23.8223   6.9742868537e+01   3.6982564930e+01    0.6243344    0.3977057  68.43  0.002307122    1.445    0.308
        65  -9.1397    101.0025    176.0090   1.2755156085e+02   2.6094936208e+01    0.1851601     0.165112  65.31  0.001116503    1.021    0.020
        66  -7.9843    192.6974     22.2503   6.7531169083e+01   3.3791232954e+01    0.1417749    0.1008143 -72.51 0.0002306648    1.500    0.333
        67 -10.1707    234.7823    174.1660   9.8789213087e+01   8.5429181311e-01     0.329383    0.2062499  39.20  0.001203576    1.509    0.337
        68  -9.7063    215.8664    168.6190   1.0114509731e+02   5.2635103850e+00    0.3198341    0.2247509  57.42  0.001156392    1.785    0.440
        69  -9.3131    211.9164    166.2922   1.0141836358e+02   6.4119803110e+00    0.3552541    0.2360007  67.27  0.001171121    2.514    0.602
        70 -12.1650    241.0587    245.8011   1.1049605731e+02  -9.0002046793e+00      1.52188    0.3036502  36.49  0.005602572    4.110    0.757
        71 -13.4279    241.5113    222.0897   1.0655486055e+02  -6.4940530064e+00     1.627137     1.012751  23.84  0.009844216    1.325    0.245
        72  -7.8420    121.4406    130.5560   1.1403282320e+02   3.2368967597e+01    0.1475851    0.1447784  55.84 8.598829e-05    1.033    0.032
        73  -8.5636     33.7817    228.1566   1.4647879564e+02   2.4895986845e+01     0.128776    0.1105473  84.94 0.0004844606    1.334    0.250
        74  -9.2319    164.4910    128.5530   1.0290966520e+02   2.3514090565e+01    0.2578998    0.2347043  48.73 0.0007351768    1.074    0.068
        75 -10.2877    160.1705    127.8391   1.0374091712e+02   2.4638817509e+01    0.3629552    0.3231397 -79.45   0.00158723    1.295    0.228
