#   1 NUMBER                 Running object number                                     
#   2 MAG_AUTO               Kron-like elliptical aperture magnitude                    [mag]
#   3 X_IMAGE                Object position along x                                    [pixel]
#   4 Y_IMAGE                Object position along y                                    [pixel]
#   5 X_WORLD                Barycenter position along world x axis                     [deg]
#   6 Y_WORLD                Barycenter position along world y axis                     [deg]
#   7 A_WORLD                Profile RMS along major axis (world units)                 [deg]
#   8 B_WORLD                Profile RMS along minor axis (world units)                 [deg]
#   9 THETA_WORLD            Position angle (CCW/world-x)                               [deg]
#  10 FWHM_WORLD             FWHM assuming a gaussian core                              [deg]
#  11 ELONGATION             A_IMAGE/B_IMAGE                                           
#  12 ELLIPTICITY            1 - B_IMAGE/A_IMAGE                                       
         1 -11.2556     51.9617    106.8570   5.1003968320e+01   4.9482117381e+01     4.681131     1.469911 -67.87   0.01205057    4.264    0.765
         2 -13.2995     69.3816    145.2281   5.2250536762e+01   3.6808785390e+01     2.505366     1.476474  78.11  0.006038435    2.589    0.614
         3 -12.6880    208.2334     49.5124   3.5800168584e+02   2.7838722509e+01    0.9677215    0.9433931 -61.64   0.00492774    1.259    0.206
         4 -11.8539    246.9831     16.2520   3.4821529871e+02   2.4555880971e+01     0.753602    0.4134248 -39.18  0.004990563    1.389    0.280
         5 -12.8205    220.1451     39.9386   3.5480227660e+02   2.6733481867e+01    0.7269112    0.6937162 -27.20  0.002464836    1.348    0.258
         6  -9.1195    116.4689     12.5112   3.5804858586e+02   5.3531275720e+01    0.2648121    0.2114726 -71.55  0.001257317    1.211    0.174
         7 -10.7500    120.2477      9.4032   3.5635118371e+02   5.2872482163e+01    0.4456511    0.3907604  89.36  0.001405866    1.004    0.004
         8 -10.4752      8.1653      9.1057   4.0467789442e+01   7.7441392089e+01    0.3242558    0.1500318  33.80  0.001182188    2.101    0.524
         9 -10.3768      3.7972      5.0961   4.1893759407e+01   7.8633476029e+01    0.3101958    0.2200235 -10.13   0.00190163    1.355    0.262
        10  -9.6986    144.0010      6.6968   3.5266937888e+02   4.7204738641e+01     0.192497    0.1573014  88.89  0.001182683    1.086    0.079
        11  -9.8792    132.7834    204.3748   4.4736556375e+01   1.3965429462e+01    0.2296285    0.1447835   0.56  0.001067952    2.013    0.503
        12  -9.0085    237.4760    249.9675   3.1909926941e+01  -4.5531710309e+00    0.1401642   0.07833559 -28.95 0.0005459713    1.558    0.358
        13  -8.1589    103.4783    250.4889   5.6971725577e+01   9.4590586908e+00    0.1206045   0.09604885  23.38 1.384152e-05    1.018    0.018
        14  -9.4305     75.3951    249.1409   6.2986982110e+01   1.2872883893e+01    0.3471416    0.1924308 -44.35  0.001917778    2.336    0.572
        15 -14.7724     34.2302    191.1576   6.8426975284e+01   2.9523093165e+01     8.096667     2.485473  57.32   0.01777672    4.357    0.770
        16  -8.7758     90.8569    200.9038   5.4350215485e+01   2.0449860717e+01    0.4471145     0.137734 -50.50   0.00161444    3.439    0.709
        17  -8.4831     83.7223    199.6243   5.6015516968e+01   2.1677665449e+01    0.2128852    0.1561503  78.52 0.0005908398    1.689    0.408
        18  -9.2040    192.3265    193.9207   3.0825777409e+01   7.6717925539e+00    0.6140776    0.3050136 -59.23  0.001780501    8.360    0.880
        19  -8.9156     80.5538    191.3328   5.5808018364e+01   2.3945649582e+01    0.3967956    0.2133013 -51.40  0.001783372    2.007    0.502
        20  -9.6050     67.1979    191.4027   5.9410473645e+01   2.5674042393e+01    0.2374384    0.2100753  60.26 0.0003151206    1.103    0.093
        21 -12.8762     12.1976    218.7013   7.5723019536e+01   2.5336526483e+01    0.6902503    0.3805702  41.57 0.0008118816    1.433    0.302
        22 -14.9097      8.6195    208.8739   7.6186371795e+01   2.7790989478e+01     2.240504     1.714901 -83.90  0.007991238    1.352    0.261
        23  -9.4337    181.0468    179.0300   3.0317509027e+01   1.1651034925e+01    0.4121333    0.1767485 -45.73  0.001684736    2.370    0.578
        24 -13.9691      5.2907    248.0456   7.8301447763e+01   2.0012773415e+01    0.6114312    0.3814826  37.55  0.001970795    1.227    0.185
        25 -15.9053      6.3994    233.3808   7.7612835826e+01   2.2778198575e+01     6.718611     1.746227  18.88   0.02093949    4.501    0.778
        26  -9.4536    104.0077    172.6142   4.6780619600e+01   2.4813618165e+01    0.4395399    0.3491049  55.35  0.002302495    1.367    0.269
        27  -8.5400    123.0125    174.0003   4.2132207802e+01   2.1522955937e+01    0.1741857    0.1599485  18.49 0.0006029077    1.029    0.028
        28 -10.9481     61.3898    167.7538   5.8147711458e+01   3.2146640791e+01     0.451909    0.4099763   0.24   0.00130487    1.230    0.187
        29 -11.0878     66.5232    163.2717   5.5984081521e+01   3.2591633005e+01    0.5789879    0.3721806  10.54  0.001173497    1.942    0.485
        30  -9.7015    110.5303    167.9570   4.4257467359e+01   2.4839375640e+01    0.3012311    0.2389307 -64.13 0.0007100797    1.400    0.286
        31  -8.0863    111.7213    164.6947   4.3362369363e+01   2.5383246973e+01    0.1981722    0.1723164  78.61 0.0002297951    1.361    0.265
        32 -13.5705     12.3981    241.1583   7.6543948471e+01   2.0723511354e+01    0.4698993    0.3490418  74.70  0.003256069    1.313    0.238
        33 -11.9536     76.0267    155.5199   5.1905320623e+01   3.3195812461e+01     1.424877    0.8099903  76.08 0.0005309607    2.965    0.663
        34 -12.3228     63.7218    150.3318   5.4905509338e+01   3.6293395332e+01    0.8114581    0.5286642  29.46  0.001138503    1.521    0.343
        35 -10.0501     94.7705    248.7676   5.8692798144e+01   1.0748671280e+01    0.3762096    0.1890037  12.98  0.001812479    2.349    0.574
        36 -11.0972     36.1485    160.9126   6.5095147698e+01   3.6903890582e+01     1.198244    0.5785165  66.55  0.004252633    2.539    0.606
        37  -8.3555    106.7343    156.1661   4.3127741641e+01   2.8163398288e+01    0.2379486     0.193112 -85.75  0.001186907    1.504    0.335
        38  -8.6343     54.1265    156.0620   5.8808611973e+01   3.6076420638e+01    0.2456395     0.156629  60.61 0.0006726419    1.705    0.413
        39  -9.6475     40.0793    154.6171   6.3132029352e+01   3.8130187452e+01     0.600184    0.2364285  48.19  0.002197512    2.596    0.615
        40 -10.2307    133.8721    145.1676   3.3862646063e+01   2.5893596161e+01     1.257828    0.2987582 -51.53  0.003310353    4.948    0.798
        41 -11.1712     84.0103    148.9754   4.8345279254e+01   3.3616529958e+01    0.7031401    0.4924074 -29.22  0.003175555    1.782    0.439
        42  -8.6813    144.9217    147.3273   3.1700781765e+01   2.3456334209e+01    0.2301134    0.1938734 -55.11 0.0003317603    1.266    0.210
        43  -9.3735     46.3408    146.1256   5.9974443009e+01   3.9661169364e+01    0.4866823    0.2958921  10.14  0.002089455    2.055    0.513
        44  -9.0141     28.3005    142.4095   6.5652802065e+01   4.2629271223e+01     0.393717    0.2050037 -61.88  0.001716964    1.819    0.450
        45  -9.7072     42.5474    139.6833   6.0363385083e+01   4.1840112536e+01    0.4820396    0.2655725  52.90  0.001596914    1.931    0.482
        46 -10.0882     98.8263    137.1822   4.1584648583e+01   3.4045059593e+01    0.5094737    0.3755556  -4.43  0.002264206    1.865    0.464
        47 -11.0562     86.1771    135.8272   4.5142195038e+01   3.6562728199e+01    0.3013434    0.2859111 -50.29 0.0003918921    1.071    0.066
        48 -11.5176    237.5561    165.4795   1.8505881554e+01   6.1894070764e+00    0.4051929    0.1990198 -30.16  0.002285789    1.680    0.405
        49  -8.2502     18.7499    135.3812   6.8249528864e+01   4.5404987320e+01    0.1803977    0.1378429   1.88 0.0003144845    1.532    0.347
        50 -10.5453    236.9875    108.1650   7.6617631625e+00   1.4546515040e+01    0.5965821    0.1795385 -47.03  0.002314732    3.458    0.711
        51 -11.1723    243.4047    123.3755   9.8976854775e+00   1.1427834583e+01    0.7131084    0.2172426 -47.42  0.002688583    3.983    0.749
        52  -9.1307    109.4825    128.1896   3.6517342172e+01   3.4242455482e+01    0.2900237    0.2560554  28.13  0.000855413    1.171    0.146
        53  -9.1587    135.9972    126.2734   2.9120833596e+01   2.9547481190e+01    0.5590094     0.235668 -57.92  0.001739417    3.616    0.723
        54  -9.4970     73.9104    126.5452   4.7208339568e+01   4.0958196225e+01    0.2856229    0.2278566  71.07 0.0003364011    1.407    0.289
        55  -9.9043     96.3246    124.4401   3.9521577353e+01   3.7595295754e+01    0.3058224    0.2693555   1.44  0.000898625    1.293    0.227
        56  -8.0270    115.6639    123.6857   3.3740128092e+01   3.4098486580e+01    0.1569483    0.1219055  -7.54 0.0007046759    1.691    0.409
        57  -9.6358     42.4281    120.8709   5.7460277455e+01   4.6960136475e+01     0.340284    0.1953733  47.69 0.0004932089    1.818    0.450
        58  -9.4782     72.4975    203.5204   5.9366990561e+01   2.2269338619e+01    0.2452833    0.2132751  56.68 0.0005543712    1.131    0.116
        59  -8.4554     85.1021    118.5932   4.1713389813e+01   4.1076016313e+01    0.3167953    0.1902611  81.79  0.001028596    3.399    0.706
        60  -8.5803    106.4953    118.0518   3.4962745349e+01   3.7190392773e+01    0.2146952    0.2037011  46.65 -2.706814e-05    1.060    0.057
        61  -8.9307    228.8407    113.2853   9.6794495500e+00   1.5052859407e+01    0.3506055    0.1473238 -50.07  0.001447274    2.645    0.622
        62  -9.8956     44.6720    130.3309   5.8199743456e+01   4.4117442735e+01    0.2703578    0.2203806  63.04 0.0008953515    1.246    0.197
        63  -9.9986     34.2565    111.6619   5.9075454440e+01   5.0413775408e+01    0.5889987    0.2268538  46.05  0.002036234    2.884    0.653
        64  -8.4866     62.7587    112.6140   4.8143435245e+01   4.6359455561e+01    0.2192915    0.1358403  43.86 0.0004427063    1.636    0.389
        65  -8.0961     64.0196    106.2175   4.6190217218e+01   4.7824061220e+01    0.2029803    0.1257737  32.57 0.0003874167    1.643    0.391
        66 -10.2931     32.5294    157.5353   6.5889532262e+01   3.8166807832e+01     0.465046    0.2896746  26.45  0.001601843    1.597    0.374
        67  -9.4899     33.8200     96.7172   5.6421473625e+01   5.4506042837e+01    0.2869804    0.1826226  76.08  0.001223975    2.029    0.507
        68  -9.1829    244.4921     89.4639   3.1024073426e+00   1.6017657500e+01    0.1182622   0.09004609 -41.49  9.57754e-05    1.011    0.011
        69 -10.4424     96.1896    165.4508   4.7702662255e+01   2.7688935447e+01     0.845017    0.5075188  14.80 0.0003083377    2.146    0.534
        70  -7.9668    144.6737     88.5187   1.7457344132e+01   3.5357454900e+01    0.1461783    0.1312185 -46.59 0.0001156127    1.069    0.065
        71  -8.1139    234.4851     86.4926   3.5140947617e+00   1.8024635284e+01    0.1226547   0.09346467 -45.55 2.005783e-05    1.066    0.062
        72  -7.9207    161.4846     86.4679   1.3609033458e+01   3.2038017601e+01    0.1433938    0.1309345 -56.92 0.0008095603    1.016    0.015
        73 -10.7904      3.2777     80.4964   6.8047395713e+01   6.1395903431e+01    0.7810604     0.275645 -80.29  0.002813926    2.923    0.658
        74  -8.2160    188.2527     66.0634   4.2155673962e+00   2.9610198539e+01    0.1842047    0.1473045 -46.41 0.0003432341    1.091    0.084
        75 -11.9333    197.6242     56.4806   7.4059048680e-01   2.9040615747e+01    0.6959026     0.648408  58.18  0.002055319    1.309    0.236
        76  -9.5796     72.0320    242.3891   6.3184386248e+01   1.4469250792e+01    0.4028862    0.2001383 -56.42  0.001840407    2.371    0.578
        77  -8.0053    141.6295     42.1895   4.2616498715e+00   4.3708305416e+01    0.1781252    0.1342721 -22.48 0.0002075116    1.549    0.354
        78  -8.5408      8.7640     57.4657   6.0467157569e+01   6.6979769061e+01    0.3495417   0.08177286  28.01  0.001175891    3.749    0.733
        79  -7.8600     97.9693     33.0007   9.7672967920e+00   5.5801265974e+01    0.1737622    0.1468964  65.01 0.0003229921    1.104    0.095
        80  -7.8870     81.9744     31.4435   1.3526460695e+01   5.9900064791e+01    0.1981004    0.1315723  58.61 0.0001155713    1.415    0.293
        81  -7.9735    213.1541     24.8298   3.5191329555e+02   2.9859095070e+01     0.140675    0.1293938 -40.64            0    1.294    0.227
        82 -14.6388     44.5925    182.1218   6.4723862897e+01   3.0602120777e+01     9.517203      4.38112  76.68   0.03519208    3.150    0.683
        83  -9.2766     12.4331     17.7970   4.2226450762e+01   7.5378451930e+01    0.1822333    0.1060688 -36.40 0.0009494608    1.671    0.402
        84  -7.7063     97.4322     16.4662   3.0296835289e+00   5.7943368486e+01    0.1364764    0.1236871  79.94 0.0001189516    1.024    0.023
        85  -7.8278     79.5309    244.4823   6.1673982750e+01   1.3241448902e+01    0.1233761   0.09835213  34.03 0.0001129961    1.028    0.027
        86 -13.3550     12.0567    247.8939   7.6851450444e+01   1.9461885152e+01    0.3859938    0.3241855  41.03   0.00122674    1.140    0.123
        87 -10.4458    141.9423    229.7410   4.6319334248e+01   8.2989838071e+00    0.2898844    0.1992081  36.96  0.001758605    1.445    0.308
        88  -9.8305    151.9679    226.8481   4.3840769178e+01   7.5327087821e+00    0.2727354    0.1781196 -42.83 0.0007984101    1.673    0.402
        89  -7.5258    201.3226    222.6702   3.3837017989e+01   2.3495181465e+00   0.09526738   0.09084661  31.22 0.0007049433    1.696    0.410
