#   1 NUMBER                 Running object number                                     
#   2 MAG_AUTO               Kron-like elliptical aperture magnitude                    [mag]
#   3 X_IMAGE                Object position along x                                    [pixel]
#   4 Y_IMAGE                Object position along y                                    [pixel]
#   5 X_WORLD                Barycenter position along world x axis                     [deg]
#   6 Y_WORLD                Barycenter position along world y axis                     [deg]
#   7 A_WORLD                Profile RMS along major axis (world units)                 [deg]
#   8 B_WORLD                Profile RMS along minor axis (world units)                 [deg]
#   9 THETA_WORLD            Position angle (CCW/world-x)                               [deg]
#  10 FWHM_WORLD             FWHM assuming a gaussian core                              [deg]
#  11 ELONGATION             A_IMAGE/B_IMAGE                                           
#  12 ELLIPTICITY            1 - B_IMAGE/A_IMAGE                                       
         1 -10.0361     24.3234     16.6186   1.0394395725e+02   6.8490176491e+01    0.2674983    0.2226793   9.30 0.0006308737    1.314    0.239
         2  -9.6604     63.9545     14.3665   8.7555094966e+01   6.3387929865e+01    0.3673237    0.2023809  26.51 0.0007624101    1.730    0.422
         3  -9.1110     74.4410     13.7961   8.3974895285e+01   6.1653831843e+01    0.3271963    0.2172777   9.52  0.001415118    1.530    0.347
         4  -8.7009     80.1393     12.7164   8.1861247376e+01   6.0727242683e+01    0.2431458    0.2189436   9.18 0.0009752685    1.166    0.142
         5  -8.2321    134.3827     13.5623   6.9638721390e+01   4.9289442017e+01    0.3109512    0.1323424  41.18  0.001112058    2.523    0.604
         6  -9.9796     31.7269     10.7178   9.8206665923e+01   6.8380343548e+01    0.3256213    0.1792052 -14.98  0.001082891    1.746    0.427
         7  -7.6956    172.5540     12.0374   6.3306979787e+01   4.0492573985e+01    0.1683651    0.1258023 -35.01 0.0004000786    1.536    0.349
         8  -8.6509     97.3615     11.9262   7.6956233574e+01   5.7465148962e+01    0.2395396    0.1483936  46.21 0.0006749033    1.343    0.256
         9  -8.0281    105.8658     10.6963   7.4505629525e+01   5.5821555194e+01    0.2028534    0.1591748  12.21   0.00106845    1.343    0.255
        10 -10.6273     20.2992      8.7857   1.0238725558e+02   6.9885343791e+01    0.2112293    0.1484432   4.33 0.0003099046    1.138    0.121
        11  -8.2138      2.0763      8.3321   1.1091364159e+02   7.1566199339e+01    0.1769745    0.1304263 -46.88  0.001325638    1.882    0.469
        12  -8.6375    128.1694      7.8004   6.8999668115e+01   5.1212179346e+01    0.1790861    0.1254041  41.89 0.0004154081    1.331    0.249
        13  -8.2251     39.5582      7.9449   9.3762263908e+01   6.7693554334e+01     0.197261    0.1234341  22.33  0.001112201    1.361    0.265
        14  -8.2286    119.1784      6.8388   7.0398105516e+01   5.3290377486e+01    0.1807536      0.11956  42.93   0.00056314    1.340    0.254
        15  -8.4806     76.3880      6.9368   8.0695895355e+01   6.1941647389e+01    0.2382075    0.1417487  41.28   0.00087338    1.387    0.279
        16  -7.8851     84.6467      5.8717   7.7985221934e+01   6.0492950707e+01    0.1763177    0.1228624  33.66  0.001117923    1.202    0.168
        17  -9.8280     49.0552      4.6910   8.8694824772e+01   6.6678434650e+01    0.2338661     0.155213  12.58 0.0003963583    1.302    0.232
        18  -8.7092    110.8550      4.0657   7.1161179609e+01   5.5318151605e+01    0.2846538    0.1629429 -29.30  0.001354726    2.013    0.503
        19  -7.9418     92.2942      4.7343   7.5596152582e+01   5.9096911644e+01    0.2321797     0.123548  11.91   0.00115467    2.477    0.596
        20  -8.6548     68.9065      3.7546   8.1644877930e+01   6.3547964507e+01    0.2604855    0.1451108   1.59  0.001453387    2.069    0.517
        21  -8.7843     56.4672      4.4258   8.5952193865e+01   6.5562640917e+01    0.2545213    0.1495381  22.83  0.001313626    1.533    0.348
        22  -8.4338     12.5123      4.7716   1.0423780370e+02   7.1134774388e+01    0.2048026    0.1654622  14.28  0.001586585    1.440    0.306
        23  -8.6514    125.1589      3.9363   6.8342908776e+01   5.2204925868e+01    0.1893227    0.1535161  48.21 0.0007104325    1.081    0.075
        24  -7.5177    153.5607      3.4480   6.3631937484e+01   4.5753702314e+01    0.1260341    0.1034599  65.53 8.342713e-06    1.040    0.039
        25  -7.8181    182.1776      2.1998   5.9706354308e+01   3.9173601831e+01    0.1840161    0.1386045  65.67  0.000516217    1.194    0.163
        26  -7.8894    143.1382      2.1329   6.4800210750e+01   4.8275774981e+01     0.183205    0.1391258  53.39 0.0003124267    1.165    0.142
        27  -7.6768      3.0235      1.1620   1.0728405640e+02   7.2400995695e+01    0.1228586   0.06185313  20.25 0.0003484587    1.867    0.464
        28  -8.6207    195.4323    236.1579   1.1090999392e+02  -4.4615687883e+00    0.2742729    0.1809323  15.14 0.0009178333    1.744    0.427
        29  -7.9376    248.8535    250.3468   1.0330215031e+02  -1.4606913355e+01    0.1688466   0.09009758  24.50 0.0008451772    1.737    0.424
        30  -9.2732    213.0148    250.4835   1.0988219046e+02  -9.4716318652e+00    0.3352785    0.1060165  37.96  0.001374975    2.784    0.641
        31  -9.3190    210.6064    245.4047   1.0950570705e+02  -8.3569497942e+00    0.3734855     0.140793 -37.54    0.0016271    2.924    0.658
        32 -10.2836    201.1352    248.6973   1.1185680293e+02  -7.3545648729e+00    0.5532699     0.276704  21.94  0.002345721    2.563    0.610
        33  -8.2709    123.5308    250.4881   1.2741734457e+02   5.2601706603e+00    0.2735485    0.1104062  40.54  0.001201258    2.138    0.532
        34  -7.6116     48.5067    249.9993   1.4156920231e+02   1.6607820208e+01    0.1395096    0.0890683 -51.44 0.0006806683    2.287    0.563
        35  -8.4837    161.8738    234.2672   1.1737283263e+02   1.6441890624e+00    0.2460091    0.1675293  26.92 0.0007091818    1.540    0.351
        36  -6.9150    138.3119    234.7160   1.2230201357e+02   5.6935685441e+00    0.1353036   0.09571748  66.04 0.0003725539    1.574    0.365
        37  -8.0637    195.0284    229.0163   1.0977649211e+02  -3.2105839914e+00    0.2126641    0.1504661   5.22 0.0007289823    1.698    0.411
        38  -8.9477    186.1682    227.8689   1.1136075082e+02  -1.4843310934e+00    0.3777843    0.2124397 -19.91  0.001547522    2.997    0.666
        39  -7.5125    158.3606    228.8571   1.1724423940e+02   3.2592220733e+00    0.1788301    0.1253932 -35.37 0.0005164713    1.703    0.413
        40  -7.7624    124.0032    230.0000   1.2460734441e+02   9.0972042515e+00    0.2246381   0.06969924  40.42 0.0005356584    2.889    0.654
        41  -8.3879    237.2808    226.4161   1.0121076289e+02  -9.6259827581e+00     0.288049    0.1664938 -44.45  0.001518838    1.990    0.497
        42  -7.9104    175.0164    228.4454   1.1373201082e+02   3.7315696418e-01    0.2074231    0.1211595  36.90 0.0005789893    1.561    0.359
        43  -7.2815     16.6965    228.3102   1.4564623585e+02   2.4781204673e+01    0.1222483   0.06453968  69.87 0.0007017762    1.609    0.378
        44  -8.6364    247.5917    225.5879   9.9198303620e+01  -1.1025875686e+01    0.3604912    0.2096834  37.48  0.002011867    1.747    0.428
        45  -7.7708    230.4614    226.4487   1.0247563727e+02  -8.5894940147e+00    0.1273987    0.1080248   4.38 8.679137e-05    1.002    0.002
        46  -7.6012     70.1926    226.0520   1.3523897084e+02   1.8535854365e+01    0.1608817    0.1432967  24.18 0.0007835823    1.558    0.358
        47  -7.8450    223.6753    224.9594   1.0348143768e+02  -7.2926934620e+00    0.1798606    0.1478759 -15.52 0.0009925601    1.150    0.130
        48  -8.0196    199.6425    223.5059   1.0789307088e+02  -3.0680245877e+00    0.2708231    0.1709599   9.17  0.001254717    2.185    0.542
        49  -7.7872    206.6044    222.6355   1.0635936648e+02  -4.1086710804e+00     0.203094    0.1456823   2.12  0.000787322    1.599    0.375
        50  -7.9350    216.5645    220.2489   1.0398677053e+02  -5.3809391684e+00    0.2238252    0.1544368 -25.13 0.0008347607    1.486    0.327
        51  -8.3722    182.4460    219.8967   1.1074211231e+02   5.9159567302e-01    0.2637973    0.1771278  23.36 0.0009543505    1.621    0.383
        52  -7.8009    130.5809    220.2265   1.2178354966e+02   9.9253418852e+00    0.1761444    0.1318857 -44.05 0.0004423972    1.557    0.358
        53  -8.3354    240.6787    218.5420   9.9154425151e+01  -8.9452289811e+00    0.2842618    0.1665784  44.32  0.001494528    1.942    0.485
        54  -8.4443    227.6353    218.0363   1.0147177134e+02  -6.8270493087e+00    0.2310345    0.1748712  17.49 0.0007259776    1.252    0.201
        55  -8.1224    203.0278    217.1917   1.0608360956e+02  -2.5687974649e+00    0.3221747    0.2004977 -13.65  0.001043418    2.254    0.556
        56  -7.8104    173.6372    218.8305   1.1238464222e+02   2.3802174011e+00    0.2574699   0.09603083  38.57 0.0008271394    2.534    0.605
        57  -9.8264    158.8141    216.7638   1.1516299312e+02   5.4911700275e+00    0.2535491    0.2370001 -41.16 0.0004410958    1.167    0.143
        58  -8.6706    193.3802    215.5325   1.0772383594e+02  -5.7769968771e-01    0.3257501    0.2023401  23.28 0.0009854207    1.826    0.452
        59  -7.7402    179.4076    214.8162   1.1047388221e+02   2.0791518822e+00    0.1874359    0.1294806 -30.55 0.0004943382    1.651    0.394
        60  -7.5609     83.5079    215.4786   1.3125153451e+02   1.8841889201e+01    0.1325109    0.1179943  76.56 8.152886e-05    1.086    0.079
        61  -8.1109    122.1152    213.1287   1.2254077328e+02   1.2918744931e+01    0.2084113    0.1902756  24.39 0.0007453173    1.272    0.214
        62  -8.2939    248.2381    211.8714   9.6556083545e+01  -9.0614026378e+00    0.2509012    0.1496518   9.02  0.001236821    2.150    0.535
        63  -7.1441    169.3867    212.3055   1.1213820031e+02   4.4052820470e+00    0.1474193    0.1084746   6.40 0.0001571395    1.801    0.445
        64  -8.0804    233.1161    211.2360   9.9180185020e+01  -6.6114184003e+00    0.1984724    0.1568671   3.67 0.0004424432    1.208    0.172
        65  -7.7148    186.2684    210.3968   1.0824732027e+02   1.6488626563e+00    0.1883893    0.1263844  46.37 0.0006538621    1.481    0.325
        66  -7.4950     54.6472    210.6862   1.3678557703e+02   2.4057150808e+01    0.1186536   0.09848715 -39.81 0.0007045732    1.732    0.423
        67  -7.3507    132.6462    209.7153   1.1968284917e+02   1.1750674417e+01    0.1388643    0.1134453   4.35 0.0004258488    1.664    0.399
        68  -8.0252    162.9207    208.0865   1.1277511146e+02   6.4469525883e+00    0.2270363    0.1736079   3.47 0.0006266076    1.729    0.421
        69  -8.0877    226.4710    204.5848   9.9159299314e+01  -4.4197324972e+00    0.3027917    0.1065659 -28.14 0.0008090978    5.975    0.833
        70  -7.8131    117.3125    205.3770   1.2240640818e+02   1.5456503354e+01    0.2618033    0.1323425  36.78 0.0008901864    2.027    0.507
        71  -7.1097     86.2873    204.6873   1.2924513857e+02   2.0825568230e+01    0.1423713   0.09499937  73.92 0.0003533139    1.582    0.368
        72  -7.7262    237.2031    203.5930   9.6973013972e+01  -6.0219262378e+00    0.1831214      0.11533  24.91 0.0009436861    1.680    0.405
        73  -8.1382    250.2941    199.1112   9.3766605244e+01  -7.3645808973e+00    0.2518586    0.1461233 -37.72  0.001321078    1.592    0.372
        74  -7.8913    196.2869    200.4222   1.0430385857e+02   1.6702833368e+00    0.2621631    0.1310468  36.45 0.0009991134    2.003    0.501
        75  -7.7768    184.8078    200.2278   1.0665000880e+02   3.8587957956e+00    0.2324164    0.1093133  31.44 0.0008704343    2.517    0.603
        76  -8.1743    243.8777    197.5091   9.4590342244e+01  -6.0937946221e+00     0.254331    0.1423222 -17.62  0.001145662    2.292    0.564
        77  -7.5849    222.4873    198.6042   9.8758188764e+01  -2.7107508563e+00    0.1354762     0.120864   1.57 9.209848e-05    1.032    0.031
        78  -8.1139    192.9603    194.3018   1.0379910292e+02   3.4619332680e+00    0.3084458    0.1895132 -24.78  0.001342096    2.069    0.517
        79  -7.4211      1.5042    194.4705   1.4608534611e+02   3.3511280795e+01    0.1171599   0.08762516 -88.91 0.0003887436    1.044    0.042
        80  -7.5329    150.4936    193.4303   1.1285486123e+02   1.1880400634e+01    0.1480124    0.1383867  58.37 0.0004565651    1.032    0.031
        81  -7.0550    124.3436    193.3264   1.1882110418e+02   1.6879390720e+01    0.1458147    0.1187074  -9.17 0.0003651287    1.741    0.426
        82  -7.3219    133.3571    192.3248   1.1656339183e+02   1.5417076775e+01    0.1491897    0.1192916  -5.15 0.0007044975    1.773    0.436
        83  -7.7551     90.3310    192.2933   1.2656119919e+02   2.3043815191e+01    0.1325371    0.1131673 -22.49 0.0003015883    1.632    0.387
        84  -7.9675    215.9738    205.5026   1.0134785709e+02  -2.7859543667e+00    0.2037124    0.1269839  34.92  0.001017584    1.571    0.363
        85  -7.4163    246.6217    189.6822   9.2571291857e+01  -5.2358960200e+00    0.1401667   0.09460738  -0.90 0.0007026531    1.813    0.448
        86  -8.5679    166.2522    197.1682   1.1005199355e+02   8.0304017699e+00    0.2543637    0.1908055  28.07 0.0007645683    1.412    0.292
        87  -7.6995    161.9525    189.7728   1.0959166347e+02   1.0418960393e+01    0.2025058    0.1193839  41.20 0.0006562756    1.643    0.391
        88  -7.8066     64.8647    189.3985   1.3203544554e+02   2.7571125692e+01    0.1779894    0.1329391  21.62 0.0009478592    1.829    0.453
        89  -7.4040    179.5074    188.4352   1.0548210417e+02   7.2321284997e+00    0.1460687    0.1393812  19.50 0.0001158021    1.026    0.025
        90  -7.4159    149.4804    185.5093   1.1158846142e+02   1.3808459737e+01    0.1492269    0.1437109  60.02 0.0008102935    1.003    0.003
        91  -7.8274    130.8049    183.2153   1.1549963016e+02   1.7968139637e+01    0.1998191    0.1796963   2.65 0.0004898524    1.355    0.262
        92  -7.3886    183.7937    180.4058   1.0293897362e+02   8.0264266602e+00    0.2095689    0.1382324  30.90 0.0008342584    1.657    0.396
        93  -7.7284    156.9124    180.5635   1.0891980760e+02   1.3413973919e+01    0.2113703     0.133362  18.55 0.0008059356    2.472    0.596
        94  -7.7572     96.6118    178.2339   1.2283002323e+02   2.5343441038e+01    0.1926741    0.1300891 -51.69 0.0002958817    1.514    0.339
        95  -7.1848     68.6684    178.6465   1.2965982009e+02   2.9601504678e+01    0.1389108    0.1036899 -36.30 0.0007045862    1.782    0.439
        96  -7.3341    121.6806    177.6695   1.1664362342e+02   2.0989810816e+01    0.1493448    0.1213321 -14.98 0.0005819386    1.690    0.408
        97  -7.8065     47.2088    175.6039   1.3434808288e+02   3.3162148914e+01    0.1619117    0.1315914  17.91 0.0003602616    1.671    0.401
        98  -7.7973    148.6693    174.6704   1.0963779213e+02   1.6390400160e+01    0.1554847    0.1234606  -5.41 0.0007051727    1.716    0.417
        99  -8.0242    183.7995    171.8055   1.0114319550e+02   9.8086585249e+00    0.2591476    0.1688535  -1.80 0.0009547118    2.859    0.650
       100  -7.0623    143.6861    169.6588   1.0979073745e+02   1.8539635214e+01    0.1559239    0.1242525  -9.63 0.0007047268    1.703    0.413
       101  -7.9969    198.5419    166.9814   9.7017145253e+01   7.7912552156e+00    0.2093949    0.1275003 -20.11  0.000807188    2.426    0.588
       102  -8.4230    177.0668    166.9962   1.0157876118e+02   1.2218287850e+01    0.2417332    0.1885455  -4.13 0.0008795282    1.680    0.405
       103  -7.9269    168.8450    163.7144   1.0269779802e+02   1.4653266935e+01    0.2472692    0.1952926  18.11  0.001157772    1.534    0.348
       104  -7.5055    122.5496    162.5741   1.1349167354e+02   2.4397633231e+01    0.1528329    0.1445266  84.92 0.0002055537    1.017    0.017
       105  -8.8681    250.3597    158.8569   8.5694628949e+01  -5.3689965738e-01    0.5714024     0.141349 -39.64  0.001834134    3.614    0.723
       106  -7.6169    205.4958    158.5243   9.3777374578e+01   8.0786360529e+00    0.1478829    0.1410988 -26.67  0.000810139    1.014    0.014
       107  -7.4339    169.3326    151.3282   9.9839145497e+01   1.7268683761e+01    0.1602197    0.1260374  -1.01 0.0002160656    1.717    0.418
       108  -8.9908    219.8507    148.9983   8.8928177197e+01   7.0424703569e+00     0.220978    0.2111332  47.90 0.0004453938    1.126    0.112
       109  -8.1034    133.3285    147.8950   1.0765318264e+02   2.5723171090e+01    0.2262448    0.1983912 -50.09 0.0008074988    1.134    0.118
       110  -7.5569    160.5002    159.5422   1.0369141967e+02   1.7341205919e+01     0.152804    0.1524697  42.77 0.0008089801    1.031    0.030
       111  -9.4204     67.1744    144.5890   1.2449448865e+02   3.8126455292e+01    0.4823851     0.319827  68.37  0.002295834    1.873    0.466
       112  -7.9342     40.8089    140.3886   1.3094132915e+02   4.2391592459e+01    0.1680804    0.1293667   2.49 0.0008981233    1.770    0.435
       113  -8.1581     13.9664    140.1742   1.3800994536e+02   4.4925627704e+01    0.1963237    0.1208183 -35.26   0.00108339    2.036    0.509
       114  -7.6149    244.3407    138.3381   8.2368522216e+01   4.2547474898e+00    0.1411041    0.1070217  -4.16 0.0007050301    1.765    0.433
       115  -7.3150    182.3240    138.3434   9.3975331970e+01   1.7221050158e+01    0.1597345     0.125435  -0.50 0.0007050634    1.734    0.423
       116  -7.8316    139.3481    138.3128   1.0394288371e+02   2.6693272911e+01     0.160721    0.1279105  -2.21 0.0007046398    1.717    0.418
       117  -8.0144      4.1786    134.5849   1.3983878400e+02   4.6934531561e+01    0.1479518    0.1130614 -15.40 0.0009652502    1.770    0.435
       118  -8.6199    238.5657    130.7672   8.1674098927e+01   6.7620069534e+00    0.2657021    0.2146069  -5.55 0.0005295478    1.575    0.365
       119  -7.3579    166.9547    131.4854   9.5720619486e+01   2.2142409718e+01    0.2253331    0.1559138  49.71 0.0004021912    1.467    0.318
       120  -8.4791     24.3512    129.3561   1.3372724413e+02   4.6608449095e+01    0.3473915    0.1621543 -29.80  0.001385452    3.720    0.731
       121  -7.4370    132.6468    124.7028   1.0234303887e+02   3.1232866306e+01    0.1590892    0.1266318   0.96  0.000703482    1.692    0.409
       122  -9.7918     13.3671    120.3244   1.3543817869e+02   4.9575329344e+01    0.5069234    0.1830437 -39.50  0.002033073    3.522    0.716
       123  -8.0037    118.7781    119.2780   1.0463585266e+02   3.5343373919e+01     0.309729    0.1907575  20.77  0.001164373    2.523    0.604
       124  -7.7694    101.0165    118.6544   1.0939724066e+02   3.8909000950e+01    0.2427935    0.1291301  17.10 0.0007050277    4.458    0.776
       125  -7.9930    142.0262    111.7958   9.6669773478e+01   3.2035408888e+01    0.2660612    0.1885286  15.56  0.001088137    2.095    0.523
       126  -7.9003     84.9250    121.5543   1.1471339164e+02   4.1009755555e+01    0.2027004    0.1312829   4.64 0.0008077837    2.627    0.619
       127  -9.3586      2.9592    109.2978   1.3678539454e+02   5.2749443084e+01    0.3944724    0.1842285 -33.87  0.001998651    2.526    0.604
       128  -8.2608    133.7833    107.0567   9.7495608923e+01   3.4871006305e+01    0.3774242    0.2111887 -33.27  0.001460577    2.105    0.525
       129  -7.7270    123.7992    107.4015   1.0020065274e+02   3.6939619074e+01    0.2183025    0.1449914  32.47 0.0009399682    1.705    0.414
       130  -9.5216     15.4327    104.7022   1.3229760309e+02   5.2968001537e+01     0.482699    0.2238306 -31.78  0.002263126    2.703    0.630
       131  -7.6846    109.3167    106.3353   1.0388859638e+02   4.0109398250e+01    0.1551961    0.1190134  -9.31 0.0007047979    1.695    0.410
       132  -8.0025     94.2348    103.1903   1.0740804389e+02   4.3608944825e+01    0.2824336    0.1743844  22.55    0.0012012    2.113    0.527
       133  -9.9710      8.8037     96.5680   1.3292993459e+02   5.5205293629e+01    0.4270124    0.2176758  -9.33  0.002159908    2.869    0.651
       134  -7.5184     64.6438    101.7137   1.1611331857e+02   4.8586105204e+01    0.1417396    0.1004778 -20.58 0.0003079269    1.674    0.403
       135  -7.8270    129.9787     97.0073   9.5740928097e+01   3.7798021242e+01    0.2451493    0.1896869   8.49  0.001123428    1.705    0.414
       136  -9.4885     19.0588     93.1084   1.2896463550e+02   5.5257825821e+01    0.3126487    0.1632054 -48.42  0.001708475    1.533    0.347
       137  -8.8314     44.2598     92.1582   1.2039568572e+02   5.3173247647e+01    0.3760499     0.208805 -25.79  0.001751395    2.284    0.562
       138  -7.4750     57.2124     91.9995   1.1606569724e+02   5.1685092277e+01    0.1765768   0.09797425 -51.57 0.0002283078    1.615    0.381
       139  -8.0952    110.8809     90.7957   9.9152918105e+01   4.3068329038e+01    0.4641549    0.1972118  31.12  0.001438849    3.743    0.733
       140  -8.1959     96.5616     90.3102   1.0316820951e+02   4.5918370644e+01    0.3843466    0.2222682  18.11  0.001468706    2.794    0.642
       141  -7.7159    140.3970     86.4918   9.0172225581e+01   3.7536523463e+01    0.2828884    0.1924462  -5.38 0.0008597922    2.417    0.586
       142  -8.2629     69.0096     85.7728   1.1051505849e+02   5.1386780718e+01    0.3591361    0.1083091  39.25  0.001257882    3.532    0.717
       143  -7.6301    178.3821     84.8256   8.1436559552e+01   2.8842551042e+01    0.1974677    0.1446816 -27.54 0.0001765838    1.591    0.371
       144  -9.3326     35.6711     82.0278   1.2083068126e+02   5.6197320633e+01    0.5850644    0.2613831 -30.22  0.002466931    2.885    0.653
       145  -7.9758    126.6444     83.6712   9.2818324092e+01   4.1150528500e+01    0.2328676    0.1777439   7.16   0.00108694    1.713    0.416
       146  -8.0141     21.2982     83.7343   1.2622054648e+02   5.7089349160e+01    0.2019976    0.1046153 -33.80 0.0009203279    1.926    0.481
       147  -8.6255     88.5734     79.0322   1.0229567919e+02   4.9589784010e+01    0.4373441    0.2230482  24.35  0.001678232    2.836    0.647
       148  -9.9408      8.2170     77.3335   1.2937182325e+02   5.9314464203e+01    0.4405691    0.1859111 -36.23  0.001809118    2.249    0.555
       149  -7.8662    184.3726     78.2153   7.8594245958e+01   2.8567107174e+01    0.2086002    0.1303694 -50.04  0.000348437    1.614    0.380
       150  -8.9052     48.7654     76.8862   1.1489005426e+02   5.5845376163e+01    0.3533307    0.2545508   3.18  0.001895717    1.548    0.354
       151  -9.1476    234.0850     75.3388   7.0141264141e+01   1.7509324261e+01    0.2456912    0.1973007 -50.30 0.0002951999    1.154    0.134
       152  -7.3421    119.7078     76.6002   9.2558062089e+01   4.3960994264e+01    0.1535269    0.1134724   1.96 0.0004503006    1.800    0.444
       153  -7.7562    106.5125     76.4940   9.6173934366e+01   4.6705307166e+01    0.3213782    0.1153027  32.33 0.0008104877    5.711    0.825
       154  -9.9535     24.2962     73.1722   1.2264775569e+02   5.9019252659e+01    0.8468905    0.3092398 -30.16  0.003093974    4.211    0.763
       155  -8.3045     23.1757     69.1877   1.2203750110e+02   5.9901334512e+01    0.2061721    0.1597205 -36.45 0.0004329934    1.041    0.039
       156  -8.0850     74.8388     74.6494   1.0535508966e+02   5.2710615549e+01    0.2057532    0.1594399  10.83 0.0005092709    1.374    0.272
       157  -8.8459     61.6937     67.4168   1.0757286323e+02   5.6013703728e+01     0.437794    0.1505325 -40.55  0.001435585    2.746    0.636
       158  -9.4871     65.6301     61.1348   1.0420911927e+02   5.6580484159e+01    0.3984565     0.284169 -18.46 0.0001006827    1.405    0.288
       159  -8.7690    238.8367     70.8949   6.8559964969e+01   1.7196775307e+01    0.1952937    0.1929293  72.95  0.001251989    1.298    0.230
       160  -8.2178     80.5630     68.1959   1.0148745028e+02   5.2979936123e+01    0.2264083    0.1829454   6.66 0.0004540865    1.263    0.208
       161  -8.7199     83.8039     63.9543   9.9090129180e+01   5.3178286379e+01    0.3799372    0.2413239  15.91  0.001717506    1.983    0.496
       162  -8.8939     43.9985     67.8021   1.1399229840e+02   5.8164319723e+01    0.3262372    0.1675341  18.92  0.001598601    2.309    0.567
       163  -9.6821     17.6846     62.1889   1.2225508101e+02   6.1682958138e+01    0.4011848    0.1892419 -41.22  0.001564871    1.696    0.410
       164  -8.8283     52.0103     61.2523   1.0907667349e+02   5.8423175189e+01    0.2818367    0.1889429 -10.71  0.001559871    1.635    0.388
       165 -10.7050     38.9909     57.1933   1.1263331826e+02   6.0674109642e+01    0.3590825    0.2129373 -26.42 0.0003487447    1.628    0.386
       166  -9.0015     33.4992     60.5033   1.1573473103e+02   6.0636838055e+01    0.3196371    0.2109851  32.24  0.001409848    1.755    0.430
       167  -7.9271    106.0822     67.6442   9.3561466904e+01   4.8370843240e+01    0.2493852    0.1497227  -0.57 0.0009037504    3.308    0.698
       168  -9.0391      2.1260     45.6218   1.2390140876e+02   6.5746663474e+01    0.2348148     0.210241 -39.63  0.001490583    1.289    0.224
       169 -10.1665     17.2605     38.9462   1.1544548565e+02   6.5851101230e+01    0.8049083    0.1868721 -34.97  0.002592298    5.724    0.825
       170  -9.5404      2.2568     55.5148   1.2650230959e+02   6.3936306771e+01    0.5824745    0.1928332 -45.04  0.002978304    2.123    0.529
       171  -9.5319      8.3266     49.0004   1.2230399254e+02   6.4769773942e+01    0.3116741    0.1797345 -34.85 0.0008549016    1.373    0.272
       172  -9.2253     11.5444     46.5487   1.2026095470e+02   6.4988981247e+01    0.2093063    0.1799461 -40.21 0.0006137802    1.251    0.201
       173  -7.4564    111.4676     58.4502   8.9148263661e+01   4.8785670202e+01    0.1408961    0.1272061  20.83 0.0002621205    1.060    0.057
       174  -7.8697     99.5042     54.9937   9.1369374742e+01   5.1749516282e+01    0.2013014    0.1319142 -31.73  0.001021584    1.564    0.361
       175  -9.3586     74.7436     50.7525   9.7621656522e+01   5.6882263022e+01    0.3525621    0.2310045  -4.09 0.0007411712    1.853    0.460
       176 -10.3180     45.1963     49.1295   1.0762881253e+02   6.1358553092e+01    0.2799912    0.2010811  -6.02 0.0006620337    1.340    0.254
       177  -8.1432    118.0924     50.9580   8.5010444070e+01   4.8512140805e+01    0.2926848     0.184914  67.85  0.001218673    2.039    0.510
       178  -9.3268     37.6863     42.2990   1.0818680351e+02   6.3340336485e+01     0.319028    0.1956474  19.20  0.001914511    1.645    0.392
       179  -9.7489     24.4329     47.3369   1.1522013199e+02   6.3831332169e+01    0.5058619     0.229414   7.82  0.002371844    3.103    0.678
       180  -8.6660     31.3333     44.0999   1.1135534214e+02   6.3722613383e+01    0.2373635     0.150466  10.47 0.0008450904    1.616    0.381
       181  -7.7369    106.8870     48.1880   8.7043869376e+01   5.1281685436e+01    0.1858249    0.1447837  21.90 0.0002544688    1.310    0.236
       182  -7.7503     51.2864     47.3316   1.0471147825e+02   6.0888257376e+01    0.1277977   0.08310965 -11.60 0.0003270986    1.619    0.382
       183  -7.6187    132.5603     45.5247   7.9849574132e+01   4.6049647317e+01    0.1380318    0.1261151  44.39  4.36254e-05    1.024    0.023
       184  -9.0828     43.3577     40.6524   1.0536740737e+02   6.2938954629e+01    0.3750642    0.1797687 -38.21   0.00198155    1.890    0.471
       185  -8.3415     94.7014     42.4202   8.8502886442e+01   5.4525704684e+01    0.4437352    0.1147897  47.47  0.001516696    3.531    0.717
       186  -7.9502    123.0022     40.9031   8.0588998274e+01   4.8821695366e+01    0.2246331    0.1491543  26.63 0.0009151751    1.749    0.428
       187  -9.7537     83.4785     39.9809   9.1012345148e+01   5.6956971901e+01    0.2964329    0.2040354  23.96 -0.0001675501    1.428    0.300
       188  -8.5540      3.8057     40.1676   1.2159162632e+02   6.6598819112e+01     0.254383    0.1340033 -60.66  0.001465111    2.209    0.547
       189  -8.7534    106.2644     37.0074   8.3455832609e+01   5.2920163277e+01    0.3548454    0.2004676  26.76  0.001628847    2.167    0.538
       190  -8.4929     92.1853     36.8709   8.7289932258e+01   5.5750746778e+01    0.2634924    0.1665702  37.41 0.0007595268    1.449    0.310
       191  -9.6744     96.0489     33.2944   8.4928569003e+01   5.5450337084e+01    0.2820864    0.2124545   7.74 0.0002927274    1.397    0.284
       192  -9.5229     54.6403     36.5668   9.9572418725e+01   6.2070042089e+01    0.2891863    0.1993359  20.14 0.0009221605    1.360    0.265
       193  -9.0855     38.0127     35.4446   1.0557965497e+02   6.4363044691e+01    0.2894486    0.1835357   5.00  0.001139528    1.604    0.377
       194  -8.6059     70.6600     35.8573   9.3651928422e+01   5.9724976013e+01    0.3094044    0.1433676  28.97   0.00139448    2.428    0.588
       195  -7.4319    143.8227     34.1831   7.4063423350e+01   4.4891589769e+01    0.1793793    0.1445846  38.05 0.0003622019    1.270    0.213
       196  -8.5538     76.6900     33.7279   9.0882971429e+01   5.8988482927e+01     0.218302    0.1676218  35.16 0.0009154936    1.216    0.178
       197  -9.0328      7.7351     33.6698   1.1780510322e+02   6.7427293847e+01    0.3392646    0.1747185   5.96  0.001521701    2.099    0.524
       198  -7.8286    105.3699     31.7705   8.1901194159e+01   5.3748436592e+01    0.1710916    0.1207187 -11.21 0.0008496993    1.595    0.373
       199  -8.7021     82.1497     32.0755   8.8558225724e+01   5.8231283580e+01    0.1956712    0.1474987  15.34 0.0003242712    1.260    0.206
       200  -9.2169    127.8199     30.2412   7.6114970618e+01   4.9049376805e+01    0.2248261    0.1907316  35.52 0.0002041081    1.141    0.123
       201  -8.0511     89.0392     30.8083   8.6035440778e+01   5.7109625377e+01    0.2211701    0.1232948  27.16  0.001077197    1.973    0.493
       202  -8.8928      1.5712     29.4963   1.1916548542e+02   6.8501279523e+01     0.289306   0.09725487 -47.37  0.001294988    2.255    0.556
       203  -8.0404    112.9679     29.7956   7.9341159913e+01   5.2375978931e+01    0.2178407    0.1517744  32.88  0.001201893    1.404    0.288
       204  -8.1726    227.7514     26.7196   6.0386121963e+01   2.5991463765e+01    0.2630484    0.1718477 -34.55  0.001493983    1.745    0.427
       205  -9.0769     61.7993     26.9658   9.3314174513e+01   6.2295295688e+01    0.2520798    0.1542407  11.00 0.0008907095    1.797    0.444
       206  -8.7813     57.4695     25.3411   9.4217753490e+01   6.3158998240e+01    0.2759353    0.1675278  35.57  0.000963604    1.538    0.350
       207  -7.5068    123.8524     27.1072   7.5972852668e+01   5.0294316930e+01    0.1800161    0.1377394  32.44 0.0004970067    1.304    0.233
       208  -9.6944     71.4861     26.0400   8.9672080456e+01   6.0834323426e+01    0.4066308    0.2182277  39.51   0.00170251    1.682    0.405
       209  -8.9811     48.1381     25.8341   9.7887254735e+01   6.4432146477e+01    0.3452087    0.1494681  27.79  0.001122085    2.421    0.587
       210  -7.6311    102.3398     25.3014   8.0440530268e+01   5.5112501704e+01    0.1362697   0.08539826  27.74 0.0002880298    1.670    0.401
       211  -9.4020     83.7346     22.0236   8.4350431401e+01   5.9113476957e+01    0.4538765    0.1937948  39.86  0.001248507    2.104    0.525
       212  -8.4090     92.2066     20.9493   8.1561109155e+01   5.7610920543e+01    0.2721365    0.1894296   5.36  0.001293413    1.567    0.362
       213  -7.5704    130.5416     21.5927   7.2839951608e+01   4.9376232822e+01    0.1309286     0.111281  52.67 0.0001495607    1.020    0.020
       214  -9.9184      8.8286     20.0596   1.1240074243e+02   6.9432574871e+01    0.2327246    0.1651906  12.29 0.0003418696    1.404    0.288
       215  -8.3033     12.4891     18.5075   1.1008626747e+02   6.9355617961e+01    0.1799144    0.1216909  -8.09 0.0005555849    1.204    0.170
       216  -7.7351    117.0093     20.2309   7.5231574462e+01   5.2533590217e+01    0.1690858   0.09420609  56.39 0.0003221032    1.563    0.360
       217  -8.0346     45.7617     19.9930   9.6444255501e+01   6.5488651807e+01    0.1410605   0.08541593 -26.93  0.000467068    1.550    0.355
       218  -7.9499    111.6770     19.6638   7.6240256507e+01   5.3744100409e+01      0.13664   0.08437003  29.95 0.0006126786    1.713    0.416
       219  -8.6509    218.3410    247.6719   1.0841778344e+02  -9.8798024630e+00    0.1791661    0.1233981 -38.46   0.00107376    1.627    0.385
       220  -7.8517    127.8104     16.8149   7.1884698345e+01   5.0472753773e+01    0.1887746    0.1481387  44.94 0.0003309745    1.145    0.126
       221  -8.6030    219.0177    244.4729   1.0775726114e+02  -9.5208476073e+00    0.2129126    0.1538963  -0.04 0.0007903383    1.407    0.289
       222  -7.8366     18.3301    248.3000   1.4665758169e+02   2.0588052969e+01   0.09431052   0.08131963 -66.44  0.000256623    1.645    0.392
       223 -10.0486    192.6408    244.6195   1.1284846278e+02  -5.3541947571e+00    0.4097659    0.2798408  -2.79  0.001905252    1.891    0.471
       224  -8.6405     50.6370     14.9795   9.2510302198e+01   6.5385805942e+01    0.2345385    0.1298521  25.47 0.0008764758    1.672    0.402
       225  -8.3787    146.5683     14.0784   6.7686111612e+01   4.6423463454e+01    0.2245309    0.1463803  51.87 0.0003819377    1.360    0.264
       226  -9.6551    156.8250    245.6044   1.2011411442e+02   5.1212183948e-01    0.3099148    0.2268714  -4.57   0.00164993    2.012    0.503
       227  -8.0914     74.1526    247.6409   1.3666026117e+02   1.3536017059e+01    0.1693925    0.1074887  35.30 0.0009505092    1.777    0.437
       228  -8.7695     88.8764     12.9825   7.9528244564e+01   5.9049326644e+01    0.2976621    0.1302443  42.71 0.0009120998    1.930    0.482
       229  -8.7428    234.5706    246.5113   1.0521848232e+02  -1.2114760881e+01    0.1693254    0.1022305 -23.92 5.390928e-05    1.682    0.405
       230  -9.6305    163.3808    244.9385   1.1870112782e+02  -4.9228132226e-01    0.2453722    0.1775489 -78.62  0.001305854    2.086    0.521
       231  -7.8074    157.9785     11.5185   6.5195287153e+01   4.3989691955e+01    0.1834057    0.0991272 -86.23 0.0006581888    2.479    0.597
       232  -9.6185    176.2140    243.6758   1.1594319486e+02  -2.4611681862e+00    0.3111564    0.2197955  -6.69  0.001650829    1.942    0.485
       233  -8.2069    243.0128    243.9628   1.0325685190e+02  -1.2963144955e+01    0.2003392    0.1241323   3.43  0.001130495    1.742    0.426
       234  -7.8812     42.8256    244.3653   1.4214277231e+02   1.8450371905e+01    0.1489769    0.1042933  37.48 0.0009446112    1.688    0.408
       235  -8.9848    224.9540    242.7847   1.0636036201e+02  -1.0176683255e+01    0.2053313    0.1713947 -27.77 0.0003496999    1.301    0.231
       236  -8.1304     95.5437    243.5349   1.3210879732e+02   1.1106570669e+01    0.1278193    0.1073187  63.04 0.0001236455    1.044    0.042
       237  -8.1903    201.5700    240.7219   1.1046901186e+02  -6.2016392649e+00    0.2356916    0.1205493 -36.07  0.001151956    2.161    0.537
       238  -7.6847     25.8323    241.1689   1.4491522176e+02   2.1144694288e+01    0.1413682    0.1178922  89.21  0.000452899    1.276    0.216
       239  -8.9367    241.9821    237.4086   1.0230794481e+02  -1.1912516298e+01    0.3037131    0.2069943  -0.26  0.001829225    1.450    0.310
       240  -9.9213    247.1910    238.7794   1.0161365306e+02  -1.2838456984e+01    0.3131711    0.2403793   0.38 0.0005922829    1.100    0.091
       241  -8.1461    248.5001    233.0223   1.0036840708e+02  -1.2221155938e+01    0.1722645    0.1390121  -7.98 0.0006615865    1.064    0.060
       242  -8.9942    151.1258    249.4507   1.2180420149e+02   8.1539550019e-01     0.295657    0.1739747  33.30 0.0009472376    1.627    0.385
       243  -9.3736    170.7326    239.6141   1.1640765972e+02  -8.3924444554e-01    0.2752267    0.2280243   1.88  0.001643749    1.374    0.272
       244  -7.5450    122.3099    239.3049   1.2622419127e+02   7.5607618680e+00    0.1219301    0.1039954   5.59  0.000618654    1.611    0.379
       245  -8.0625     79.8189    238.3699   1.3463469892e+02   1.4552017304e+01    0.1699572    0.1121074  36.80 0.0008149211    1.634    0.388
       246  -7.6406    148.4880    237.5028   1.2061395967e+02   3.3979357166e+00    0.1340758    0.1178815  40.75 9.691997e-06    1.047    0.045
       247  -7.4655    112.6802    237.6364   1.2796809736e+02   9.4979207277e+00    0.1242362    0.1051525  -8.13 0.0007040802    1.777    0.437
       248  -8.1892    232.3811    235.6815   1.0375770389e+02  -1.0261074406e+01    0.1618827    0.1504783  63.98 0.0006744604    1.617    0.381
       249  -9.9112    188.8152    234.7609   1.1199036531e+02  -3.1149680058e+00    0.3020936    0.2626032  61.08   0.00169592    1.390    0.280
