#   1 NUMBER                 Running object number                                     
#   2 MAG_AUTO               Kron-like elliptical aperture magnitude                    [mag]
#   3 X_IMAGE                Object position along x                                    [pixel]
#   4 Y_IMAGE                Object position along y                                    [pixel]
#   5 X_WORLD                Barycenter position along world x axis                     [deg]
#   6 Y_WORLD                Barycenter position along world y axis                     [deg]
#   7 A_WORLD                Profile RMS along major axis (world units)                 [deg]
#   8 B_WORLD                Profile RMS along minor axis (world units)                 [deg]
#   9 THETA_WORLD            Position angle (CCW/world-x)                               [deg]
#  10 FWHM_WORLD             FWHM assuming a gaussian core                              [deg]
#  11 ELONGATION             A_IMAGE/B_IMAGE                                           
#  12 ELLIPTICITY            1 - B_IMAGE/A_IMAGE                                       
         1 -11.9852      7.4879     53.6969   8.4663405344e+01   6.6694212807e+01    0.6742601     0.114564 -52.82  0.002283001    3.952    0.747
         2 -11.1158     92.1225     47.1357   4.5297838929e+01   5.3995830040e+01    0.5835809    0.1979544 -36.13  0.002200443    3.300    0.697
         3 -10.8928     40.9009     13.9702   4.9889417867e+01   6.8568119071e+01    0.1966726    0.1451455  36.75 0.0003026851    1.090    0.082
         4 -10.8079    161.9882    224.9532   6.8970112788e+01   4.9499187363e+00    0.3702877    0.2195072 -12.73  0.001783822    1.948    0.487
         5 -10.1645     99.1062    224.9937   8.4031907011e+01   1.3122224546e+01     0.216371    0.1958116  13.55 0.0005624257    1.008    0.008
         6 -10.3695     59.5833    222.7853   9.4147921381e+01   1.8537660940e+01    0.1920692    0.1335675  89.60 0.0009158142    1.715    0.417
         7 -10.9802    126.3204    220.5589   7.6544266981e+01   1.0477859327e+01    0.2584795    0.2325968  65.83 0.0007227529    1.446    0.308
         8 -10.3450    143.8551    217.0904   7.1798598997e+01   8.8459248325e+00    0.2024255    0.1927714  33.63  0.001224616    1.276    0.216
         9 -10.0583     23.4012    216.1157   1.0317436924e+02   2.3952891355e+01    0.2307563    0.1416303  30.57 0.0006943571    1.511    0.338
        10 -10.3364     76.5745    212.2260   8.8307255425e+01   1.8999834215e+01    0.2745505    0.1477613 -69.56  0.001155761    2.171    0.539
        11 -10.3950    116.6476    210.3044   7.7371646862e+01   1.4041341615e+01    0.2247093    0.1710619  61.85  0.001105387    1.771    0.435
        12 -10.0456     99.1838    205.7905   8.1255243728e+01   1.7520265946e+01    0.2514459    0.1475362  62.80 0.0009490186    2.834    0.647
        13 -11.0776    186.1333    204.2611   6.0467015509e+01   5.7887950237e+00    0.2290862    0.1820062  43.11  0.001354862    1.650    0.394
        14 -11.9061    165.2060    202.1207   6.4444721208e+01   8.9722822612e+00    0.5135814    0.4046268 -81.34  0.002654302    2.136    0.532
        15 -12.6593    163.8030    194.3287   6.3369117198e+01   1.0736384356e+01    0.5002062    0.4021774  77.44  0.002590266    2.068    0.516
        16 -12.8448    178.1385    196.6950   6.0753914693e+01   8.2727752479e+00     0.424269    0.3049614 -21.18  0.001904167    1.315    0.240
        17  -9.9533     88.4784    197.9843   8.3007953572e+01   2.0890964382e+01    0.2078351    0.1319858  83.38 0.0008102129    2.579    0.612
        18 -10.6467    112.6618    195.4156   7.5987957207e+01   1.8034700804e+01    0.4775163     0.162414 -50.21  0.001471104    2.817    0.645
        19  -9.8327     66.3081    193.9818   8.8774884553e+01   2.4854358871e+01    0.2357875    0.1186863  85.28 0.0007037745    4.180    0.761
        20 -10.1799    206.4733    191.5034   5.4410918442e+01   5.5406187044e+00    0.1274611    0.1040196 -26.91 0.0001725118    1.031    0.031
        21 -11.0043    172.4886    190.4750   6.0809001076e+01   1.0275374152e+01    0.2410315    0.1278384 -56.14  0.001035904    2.329    0.571
        22 -11.4132    124.8693    196.9995   7.3081224356e+01   1.5863291503e+01    0.3603093    0.3220097  39.04  0.001991059    1.216    0.178
        23 -10.7721    139.1156    189.0462   6.8118467375e+01   1.5506313367e+01    0.3027364     0.204095 -67.95   0.00136046    2.055    0.513
        24  -9.9481    192.5898    187.8264   5.6309181470e+01   8.0091681421e+00    0.1839058    0.1145369 -51.85 0.0009437309    1.724    0.420
        25 -10.2808    129.2677    188.1338   7.0400797623e+01   1.7216817482e+01     0.275896    0.1883789  56.50  0.001056087    2.010    0.502
        26 -10.6170    165.8452    186.5625   6.1508949882e+01   1.2022808008e+01    0.2674304    0.1872989 -63.05  0.001206534    1.892    0.472
        27 -11.7430     95.1477    184.0456   7.8884629176e+01   2.3390988794e+01    0.6765569    0.4643376  88.03  0.002847106    2.199    0.545
        28 -11.1150    120.2148    183.8764   7.1968770866e+01   1.9602076531e+01    0.4638956    0.1848822 -61.11  0.001480361    3.437    0.709
        29 -11.0119    204.7664    184.6029   5.3492816984e+01   6.9938628186e+00    0.1585559    0.1202011  41.41 0.0009504695    1.663    0.399
        30  -9.9737    183.3141    184.6409   5.7530929096e+01   9.8898920254e+00    0.1266425    0.1076845 -80.28 0.0007043212    1.749    0.428
        31 -10.9871    174.9318    183.5124   5.9020870658e+01   1.1309931448e+01    0.2560144    0.1920698 -58.57  0.001275825    1.596    0.374
        32 -11.2062      1.6876    181.7666   1.0664988208e+02   3.4483933292e+01    0.2804338     0.136505 -60.02   0.00125734    1.917    0.478
        33 -10.8137    138.1093    178.6940   6.6440107949e+01   1.7970532032e+01    0.2621732     0.203477 -58.55  0.001105285    1.429    0.300
        34 -10.8584    192.9869    178.1593   5.4471635414e+01   9.7704232657e+00    0.1982457    0.1586485  70.81  0.001094901    2.027    0.507
        35 -11.5561    147.9619    179.5729   6.4236059222e+01   1.6218166287e+01    0.3351168    0.2504676 -66.97  0.001443886    1.726    0.421
        36 -10.7122    149.0080    197.8264   6.7335942844e+01   1.2138968892e+01    0.3229635    0.2039917 -67.30  0.001399657    2.436    0.589
        37 -11.4054     77.5254    175.2695   8.2597776169e+01   2.8196881362e+01    0.4635434    0.2782792  63.70  0.001772039    2.443    0.591
        38  -9.9968     73.5799    175.2363   8.3795461063e+01   2.8759304240e+01    0.2267272    0.1824459 -20.46  0.001098408    1.360    0.264
        39  -9.9784    159.4707    174.9743   6.0721474152e+01   1.5396475960e+01    0.1948375    0.1270676 -70.94 0.0008097809    2.551    0.608
        40  -9.9798    105.5130    174.5121   7.4253670434e+01   2.4167247443e+01    0.1514496     0.147902  19.48 0.0001450868    1.064    0.060
        41 -11.4365    177.4399    170.5455   5.6058890406e+01   1.3520759153e+01    0.3404994    0.2384638 -55.19  0.001417512    1.556    0.357
        42 -10.7880    134.7404    170.5833   6.5709729162e+01   2.0352141386e+01    0.3185034    0.1905675 -64.15  0.001299434    2.202    0.546
        43 -10.9539    149.8887    168.9336   6.1722185107e+01   1.8227467466e+01    0.3332529    0.2138466 -61.68   0.00148731    1.928    0.481
        44 -11.5762    121.8016    167.8566   6.8515193283e+01   2.3130747329e+01    0.6304106    0.3557286 -61.13  0.002533749    2.098    0.523
        45 -10.4836    168.2055    168.6361   5.7595856762e+01   1.5340558832e+01    0.2866834    0.2206624 -72.68  0.001228681    1.814    0.449
        46  -9.8767     55.0000    168.9924   8.8642677512e+01   3.2865510017e+01    0.2523737   0.08558881 -64.81 0.0008020723    2.940    0.660
        47 -10.4283    109.4933    185.6445   7.5159523109e+01   2.0835717524e+01    0.2978833    0.2132316  76.85   0.00126038    2.161    0.537
        48 -12.1239    139.3898    163.9558   6.3235833526e+01   2.1077477224e+01    0.6314967    0.3343578 -62.43  0.002371047    2.619    0.618
        49 -10.2983    192.4220    165.2496   5.2156803547e+01   1.2297084843e+01    0.1900451     0.114911 -51.61 0.0009496086    1.658    0.397
        50 -10.7448     79.5433    163.0718   7.9855618255e+01   3.1089325333e+01    0.5060937    0.2878667 -89.32  0.001642237    3.464    0.711
        51 -11.0301    213.8258    163.8278   4.8189645555e+01   9.5089022246e+00    0.1696949    0.1388461 -54.95 0.0008711845    1.341    0.254
        52 -11.1025    147.7210    163.3847   6.1120182613e+01   1.9799989844e+01    0.3059308    0.2347869  72.77  0.001453386    1.923    0.480
        53 -11.6242    144.4059    159.6128   6.1137385272e+01   2.1193537528e+01    0.2789457     0.252438 -61.18 0.0002916229    1.207    0.172
        54 -10.6592     22.1626    162.0009   9.8443758190e+01   3.8232978117e+01    0.4768714     0.236546 -28.02  0.001574055    2.702    0.630
        55 -10.8789     15.1956    163.9907   1.0094277253e+02   3.8263018706e+01    0.2499208    0.2032563  15.09 0.0007903185    1.316    0.240
        56 -11.4004    205.9965    162.0044   4.9149496747e+01   1.0927966108e+01    0.2844818    0.1635935 -60.99  0.001310289    2.514    0.602
        57 -11.3392    177.6531    159.6682   5.3895331363e+01   1.5655795000e+01    0.4326357    0.2023962 -53.28   0.00177565    2.332    0.571
        58 -10.4024    178.3398    155.3174   5.2895365000e+01   1.6410398358e+01    0.2095629    0.1534425 -12.23 0.0005603086    1.654    0.395
        59 -10.7068     92.8599    159.5668   7.5101712907e+01   2.9933273690e+01    0.4303266    0.3058023 -87.25  0.001548173    1.994    0.498
        60 -10.9344     94.8835    154.1864   7.3421243479e+01   3.0969591390e+01    0.3021887    0.2256813 -10.87 0.0008962985    1.618    0.382
        61 -11.6728    197.0929    157.1739   4.9772060091e+01   1.3121892600e+01    0.3024327    0.1692067 -47.27  0.001278577    1.599    0.375
        62 -11.6632    188.8067    156.6898   5.1173598434e+01   1.4481161974e+01    0.4383674    0.2131962 -47.84  0.001993233    1.878    0.468
        63 -12.9870    189.1684    148.8083   4.9556647978e+01   1.5932565968e+01    0.6383727    0.3296218 -52.48  0.002917872    1.970    0.492
        64 -10.4717    105.5322    157.1906   7.0885782126e+01   2.8442861441e+01    0.4286327    0.2622534 -71.40  0.001664467    2.284    0.562
        65 -10.5864    157.6811    155.3219   5.7202004259e+01   1.9851148573e+01    0.3262843    0.2184033 -56.79  0.001517026    1.619    0.382
        66 -10.8412    119.5216    154.8756   6.6492302726e+01   2.6601197387e+01    0.4114151    0.2614869 -81.79  0.001484167    2.972    0.664
        67 -10.2665     49.6982    154.7367   8.8164290169e+01   3.7374204287e+01    0.3093322    0.1838342  82.65  0.001102288    2.478    0.596
        68 -11.7265    204.8952    154.1313   4.7853440159e+01   1.2520652127e+01    0.1988441    0.1659249 -57.03  0.001239643    1.288    0.224
        69 -11.3516    133.2144    152.1282   6.2324973530e+01   2.4828194481e+01     0.498972    0.2949441 -66.63  0.001937984    2.437    0.590
        70 -10.7297     81.3144    153.4643   7.7487781262e+01   3.3326497720e+01    0.3812321    0.2481228 -81.09  0.001521854    2.150    0.535
        71 -11.4442    167.8268    156.4012   5.5241617416e+01   1.7916599794e+01    0.4304709    0.2584777 -52.78  0.002013463    1.694    0.410
        72 -10.3824    162.5997    149.9008   5.5011558038e+01   2.0144404419e+01    0.2871022    0.1733693 -57.76  0.001282143    1.884    0.469
        73 -10.0585    128.1722    158.2794   6.4905574086e+01   2.4296916201e+01    0.2830725    0.2055633 -81.59  0.001227595    2.054    0.513
        74 -12.1564    200.1141    147.8012   4.7443160108e+01   1.4401147979e+01    0.3645145    0.1638535 -44.21  0.001659482    1.898    0.473
        75 -10.4244     39.0966    146.8924   9.0583248688e+01   4.0728342727e+01    0.3467244    0.1993351  61.07  0.001361432    2.319    0.569
        76 -11.0031    175.8572    145.5683   5.1407472208e+01   1.8755981481e+01    0.2902577    0.1736653 -58.31  0.001251434    1.936    0.483
        77 -12.4803    148.9952    142.8499   5.6525014866e+01   2.4044535009e+01    0.8342301    0.3658995 -53.45  0.003096334    2.475    0.596
        78 -11.6658    107.1558    143.8829   6.7607690771e+01   3.1421935756e+01    0.7464315    0.4656284 -73.33  0.002868877    2.399    0.583
        79 -10.9590     67.8534    152.8467   8.1738801345e+01   3.5491756832e+01    0.4623031    0.3287854  86.82  0.001917785    1.864    0.464
        80 -11.1971     55.5576    144.2458   8.4335903893e+01   3.9474212291e+01    0.5945233    0.3469086 -86.40  0.002213366    2.550    0.608
        81  -9.9821     13.3177    145.6765   9.9553622038e+01   4.3400514190e+01    0.1511649    0.1014644  59.15 0.0003175959    1.669    0.401
        82 -11.6593    165.8408    142.7210   5.2827684596e+01   2.1057407960e+01    0.4530759    0.1877986 -51.76  0.001706757    2.518    0.603
        83 -11.5724    124.6840    141.2240   6.2160993064e+01   2.8871034163e+01    0.7084908    0.3441928 -60.18  0.002503577    2.681    0.627
        84 -10.8523     87.8034    142.2948   7.3141904921e+01   3.5154720400e+01    0.6197411    0.2147885 -58.51  0.001884723    3.217    0.689
        85 -11.1129    182.1518    140.4574   4.9160852072e+01   1.8690812511e+01    0.3656515     0.179752 -50.30  0.001613361    1.951    0.487
        86 -13.3345    190.8642    136.3079   4.6753348365e+01   1.8017048514e+01    0.5370819    0.4425724 -38.12  0.003240154    1.091    0.084
        87 -12.3878    192.7703    129.4320   4.5035437468e+01   1.8970494625e+01    0.4367405    0.2103041 -41.30   0.00187268    1.847    0.459
        88 -10.6248    138.5627    137.2511   5.7754902043e+01   2.7183499405e+01    0.2877193    0.1423316 -51.84  0.001127473    2.054    0.513
        89 -11.1287    162.7650    135.6808   5.1963739889e+01   2.3040305778e+01    0.3041306     0.185401 -53.92  0.001406664    1.673    0.402
        90 -10.6581     38.7278    135.1671   8.8773377736e+01   4.3953796101e+01    0.2443359    0.1922901  86.93  0.001190624    1.467    0.318
        91 -11.3743    179.6445    132.7240   4.8025186321e+01   2.0611871500e+01    0.4098027    0.2123377 -52.05  0.001837912    1.912    0.477
        92 -10.5701    112.7226    132.3336   6.3409233101e+01   3.3156800314e+01    0.3558834    0.2491675 -63.98  0.001581847    1.660    0.398
        93 -11.4591    143.1690    129.9856   5.5018937421e+01   2.7882467035e+01    0.5650845    0.2345712 -46.70  0.002109288    2.311    0.567
        94 -11.3967    131.8627    129.2817   5.7594870870e+01   3.0204099688e+01    0.7420274    0.3055668 -52.94  0.002598929    2.636    0.621
        95 -11.7044     83.1545    130.5119   7.2050143744e+01   3.8901848760e+01     0.693786    0.3293068 -63.25  0.002402879    2.646    0.622
        96 -11.3354    172.2921    137.0621   5.0335586738e+01   2.1057995413e+01    0.4541109    0.2184195 -56.78  0.001783959    2.560    0.609
        97 -11.9626    168.7504    128.2431   4.9145697888e+01   2.3434798499e+01    0.4522693     0.246918 -47.81  0.002066854    1.701    0.412
        98 -11.3491    152.9522    127.6573   5.2284580722e+01   2.6504509905e+01    0.6281019    0.2202413 -50.05  0.002140954    2.926    0.658
        99 -10.7746    212.4808    128.9716   4.1848830756e+01   1.5844557538e+01    0.1822902   0.09274444 -59.27 0.0008098564    2.512    0.602
       100 -12.2747     99.1713    124.3274   6.5499746122e+01   3.7565704335e+01     1.029239    0.4466001 -51.83  0.003699173    2.338    0.572
       101 -10.7196     72.7551    127.6793   7.4930180392e+01   4.1321499248e+01    0.4927212     0.221796 -63.84  0.001667361    2.755    0.637
       102 -11.1837     12.1620    127.5174   9.7655234881e+01   4.8411331608e+01    0.5086988    0.2327362 -88.38   0.00184536    2.904    0.656
       103 -10.9395     22.7918    136.3107   9.4884282663e+01   4.5203739951e+01    0.7044464    0.3233318 -86.17  0.002460178    3.003    0.667
       104 -11.6780    117.7235    123.4454   5.9918094000e+01   3.4237563124e+01     0.704445    0.3773271 -55.46   0.00269189    2.046    0.511
       105 -11.4109     58.8802    122.6857   7.8793392290e+01   4.4700028804e+01    0.7106515    0.4057042 -89.35  0.002282689    3.726    0.732
       106 -12.0470    188.9006    122.6468   4.4293082915e+01   2.0879220045e+01    0.4104465    0.1807233 -45.91  0.001492163    2.004    0.501
       107 -11.7598     43.0018    120.6316   8.4400705345e+01   4.7330313244e+01    0.9209812    0.4465792 -82.29  0.002830973    3.984    0.749
       108 -11.3248     28.8937    122.2803   9.0271089231e+01   4.8426216506e+01    0.5581018    0.2872466  82.54  0.001841793    3.665    0.727
       109 -11.8517    203.0958    121.5006   4.1790304953e+01   1.8659852611e+01    0.2205868    0.1610486 -58.82  0.001265528    1.341    0.254
       110 -11.2799    194.8822    120.8103   4.2933248219e+01   2.0172612006e+01    0.3182887    0.1472648 -51.43  0.001419485    2.084    0.520
       111 -11.4560    172.5289    119.9549   4.6620976920e+01   2.4338971200e+01    0.4030718     0.206658 -48.71  0.001808872    1.823    0.451
       112 -11.5560    158.5747    119.7655   4.9313307740e+01   2.7019277854e+01    0.4399253    0.2461428 -47.20  0.001993846    1.686    0.407
       113 -12.2188    141.7535    116.6550   5.2250044020e+01   3.0945475022e+01    0.8571431    0.3043324 -49.20   0.00293021    2.871    0.652
       114 -11.5598    130.5360    116.9840   5.5011555847e+01   3.3117291570e+01     0.573528    0.2892174 -54.25  0.002246595    2.183    0.542
       115 -11.0087     70.6352    118.2208   7.3484411893e+01   4.4032739336e+01    0.4239734    0.2001632 -60.18  0.001539862    2.382    0.580
       116 -11.2198      2.5392    114.7052   9.9710825447e+01   5.2414833914e+01    0.7909879    0.2914049 -82.87  0.002679962    3.420    0.708
       117 -10.4761    209.3107    117.6630   4.0114430099e+01   1.8296556636e+01    0.1283232    0.0879728 -67.38 0.0007044602    1.685    0.406
       118 -11.7514    186.0473    114.7265   4.3113631876e+01   2.2825484652e+01    0.3814352    0.1753243 -46.07   0.00171009    1.935    0.483
       119 -11.6992    108.9124    111.7769   5.9495074274e+01   3.8560652718e+01    0.8947027    0.3498542 -52.79  0.003008092    2.857    0.650
       120 -12.0795    193.0176    113.9339   4.1817020003e+01   2.1720384668e+01    0.3550592     0.181792 -44.03  0.001722708    1.708    0.415
       121 -12.0371    180.3728    123.4286   4.5935381670e+01   2.2247929342e+01    0.4750065    0.2232756 -44.15  0.002102193    1.908    0.476
       122 -11.7041     78.5401    110.7932   6.8863287086e+01   4.4501257298e+01    0.7626557    0.3825133 -66.96  0.002527457    3.247    0.692
       123 -11.5739    122.3980    110.3428   5.5443580509e+01   3.6160308598e+01    0.5824754    0.2722238 -43.70  0.002257331    2.155    0.536
       124 -11.7621     92.4628    109.2307   6.3820283455e+01   4.2323432233e+01    0.9969676    0.3297727 -50.90  0.003154414    3.147    0.682
       125 -11.4935    174.8382    109.9606   4.4012135023e+01   2.5769636629e+01    0.4223792    0.2029493 -44.72  0.001882644    1.897    0.473
       126 -11.6146    159.3164    110.2645   4.6994837646e+01   2.8720503304e+01    0.4737042    0.1797253 -42.31  0.001780567    2.533    0.605
       127 -11.5315     66.3198    108.7206   7.2725383067e+01   4.7049875173e+01    0.6278409    0.2989362 -61.56  0.002280012    2.547    0.607
       128 -11.4387     14.1464    109.0326   9.3997576005e+01   5.3166086013e+01    0.5303682    0.2979697 -75.55  0.002359288    1.907    0.476
       129 -11.8428    183.1255    108.0276   4.2172240851e+01   2.4561305191e+01    0.3337036     0.176482 -43.81  0.001601241    1.701    0.412
       130 -10.8356    133.2755    108.0293   5.2147899888e+01   3.4417788861e+01     0.377179    0.1972492 -47.79  0.001574985    1.900    0.474
       131 -12.1741    196.9786    107.2666   3.9833459083e+01   2.2178859008e+01    0.3045469    0.1532366 -49.70  0.001290805    1.780    0.438
       132 -12.0669    204.9911    104.4957   3.8115331282e+01   2.1244622030e+01    0.2714745    0.1496819 -28.54  0.001271717    2.438    0.590
       133 -11.8418    139.7828    102.4655   4.9260455133e+01   3.4180472787e+01    0.6000788    0.2810005 -41.12  0.002418346    2.164    0.538
       134 -11.9787     44.5311    100.6103   7.9286964674e+01   5.2205743646e+01    0.8234906    0.4963713  78.65  0.002851692    3.681    0.728
       135 -10.8732     43.7785     92.4023   7.7516102919e+01   5.4268519683e+01    0.2920257    0.2245131   3.09  0.001103081    1.329    0.247
       136 -12.6607     21.9185     99.2739   8.8762036196e+01   5.5029583423e+01     1.082792    0.5338542 -81.46  0.003951333    3.159    0.683
       137 -11.5764    166.7711    102.4302   4.3777578439e+01   2.8705738419e+01    0.4107656    0.1679539 -41.66  0.001653964    2.332    0.571
       138 -12.1553    150.1554    100.3561   4.6514152155e+01   3.2441581676e+01    0.8183988    0.2349164 -45.18  0.002679574    3.359    0.702
       139 -12.3347    189.2270    106.2030   4.0799559328e+01   2.3757626467e+01    0.3729361    0.1690991 -45.13  0.001698637    1.943    0.485
       140 -11.8612    128.6686    100.1570   5.1276276854e+01   3.6946385536e+01    0.5520109    0.2880044 -44.51  0.002327641    1.918    0.479
       141 -10.5050      6.4397    102.2132   9.6176630813e+01   5.5437468488e+01    0.3142024    0.1358494 -82.51  0.001142377    3.066    0.674
       142 -11.6389    176.0402    100.3277   4.1676646375e+01   2.7268032612e+01    0.3206444    0.1964884 -38.91  0.001619775    1.599    0.375
       143 -11.1234    159.7225     98.9434   4.4285090436e+01   3.0749599919e+01    0.3752225    0.1779473 -41.73  0.001606583    2.040    0.510
       144 -12.4307    108.2960     95.8255   5.5468129287e+01   4.2062090713e+01    0.8378722    0.4399417 -51.77  0.003419008    2.077    0.519
       145 -11.6467     81.7680     97.7600   6.4282760896e+01   4.6896308137e+01    0.6148655    0.2442227 -51.63  0.002153629    2.705    0.630
       146 -13.9100    215.8382     96.3519   3.5085237336e+01   2.0715633381e+01    0.6581874    0.2143329 -40.89  0.002805837    2.652    0.623
       147 -11.1561     94.5158     96.0042   5.9614519626e+01   4.4821213798e+01    0.4012892    0.2589023 -59.39  0.001760611    1.853    0.460
       148 -10.6080     95.4916     92.0071   5.8192027175e+01   4.5457402181e+01    0.3130784    0.2387222   5.81  0.001476862    1.702    0.413
       149 -12.3453     63.4501     92.6362   6.9533222119e+01   5.1264459939e+01     1.026987     0.394728 -51.60  0.003669186    2.676    0.626
       150 -14.7773    235.4266     92.9258   3.2200704857e+01   1.8077153300e+01    0.8267904    0.4392777 -60.51  0.004673316    1.909    0.476
       151 -11.2576    188.4928     92.0153   3.7897822685e+01   2.6302145119e+01    0.2031254    0.1149593 -42.37  0.001038018    1.611    0.379
       152 -11.3920    138.8191     90.1706   4.6385954526e+01   3.6699565125e+01    0.4927225    0.2531677 -41.07  0.002131763    1.976    0.494
       153 -10.2177     57.9968     91.9980   7.1501312419e+01   5.2289876928e+01    0.2201753    0.2054456  11.37            0    1.033    0.032
       154 -10.9713    158.2037     90.1608   4.2493093268e+01   3.2626918639e+01    0.3121143    0.1575057 -38.83  0.001377731    2.020    0.505
       155 -12.0111      5.2955     88.2034   9.4201448771e+01   5.9015166705e+01    0.7375471    0.1846962 -52.04  0.002650813    2.852    0.649
       156 -11.5570    196.6055     90.2059   3.6360470357e+01   2.5084227773e+01    0.1785457    0.1105019 -35.36 0.0007425597    1.685    0.406
       157 -11.2616     34.6377     86.7093   8.0054836494e+01   5.6752879939e+01    0.8114447    0.2651076 -54.32  0.002894911    2.822    0.646
       158 -10.8927    193.0000     87.9938   3.6397379801e+01   2.6109681045e+01    0.2125235   0.06440718 -41.12 0.0008051316    2.961    0.662
       159 -11.1010    151.2103     87.7830   4.3244237321e+01   3.4502010839e+01     0.257085    0.1666801 -46.74  0.001286538    1.497    0.332
       160 -11.8026     86.1221     85.7605   5.9387207177e+01   4.8596734122e+01    0.4367217     0.298621 -59.08  0.001728318    1.761    0.432
       161 -11.1838    179.5814     84.8799   3.7680578892e+01   2.9193476031e+01    0.3216335   0.09400086 -47.99  0.001144153    3.299    0.697
       162 -12.1700    124.9287     87.4141   4.8843071397e+01   4.0179629061e+01    0.7937143    0.3817199 -32.97  0.003037701    2.670    0.626
       163 -11.6196    164.8806     92.6350   4.1863778146e+01   3.0827839912e+01    0.3356991    0.1861661 -42.09  0.001596426    1.729    0.422
       164 -12.4802     48.3601     81.1860   7.2405456924e+01   5.6165781289e+01     0.840749    0.3459532 -48.28  0.003274306    2.396    0.583
       165 -11.7050    104.4502     80.6115   5.2277286749e+01   4.5829777768e+01    0.6904551    0.2800825 -43.01  0.002598787    2.587    0.613
       166 -11.5474    141.0859     81.4811   4.3683501876e+01   3.7755456226e+01    0.4184135    0.2055456 -40.89  0.001813194    2.065    0.516
       167 -10.5286    170.6077     82.1777   3.8476166250e+01   3.1431098712e+01    0.1862584    0.1218845 -32.58 0.0009553165    1.738    0.424
       168 -11.2503    158.5318     81.2368   4.0294686555e+01   3.4080970918e+01     0.324698    0.1304622 -38.27  0.001295328    2.581    0.613
       169 -11.2736     24.2272     79.5081   8.3050820764e+01   5.9565289985e+01    0.4681891    0.2627118 -77.36  0.001907131    2.850    0.649
       170 -11.8742     26.6234     72.2653   7.9876483434e+01   6.0934783645e+01    0.7235678    0.3206361 -17.58  0.002195218    4.677    0.786
       171 -10.5490     74.2661     78.5259   6.1298533329e+01   5.2332437941e+01    0.4933858    0.1695968 -51.27  0.001604231    3.559    0.719
       172 -11.9527    177.0605     91.8014   3.9613500234e+01   2.8540347710e+01    0.3032936    0.1803261 -39.18   0.00153488    1.650    0.394
       173 -10.5574    184.0000     75.9737   3.5074543065e+01   2.9735802523e+01    0.2076247   0.06591675 -40.07 0.0008010555    2.933    0.659
       174 -12.1739    193.4852     96.4780   3.8110317876e+01   2.4631635686e+01    0.2797698     0.171649 -71.88  0.001381524    2.125    0.529
       175 -11.4607    128.2988     72.1853   4.3937559823e+01   4.2119204374e+01    0.5892768    0.3078129 -31.04  0.002495085    2.418    0.586
       176 -11.0294    174.8491     76.4533   3.6508582793e+01   3.1488326300e+01     0.221487    0.1495226 -40.13  0.001222587    1.475    0.322
       177 -10.8484    140.4888     73.4916   4.1737919999e+01   3.9227388424e+01    0.2836616    0.1331159 -40.07  0.001215917    2.183    0.542
       178 -10.6482     10.0191     74.3407   8.8866021853e+01   6.1997321302e+01    0.1887655    0.1559245  -5.53 0.0003373719    1.132    0.117
       179 -12.1668    211.7906     75.1029   3.1416349056e+01   2.4659292667e+01    0.2146623    0.1602333 -30.12  0.001357417    1.625    0.384
       180 -11.5957     82.0128     71.5492   5.6413814005e+01   5.2157401399e+01    0.4180632    0.2660781 -61.89   0.00184319    2.232    0.552
       181 -11.5496     81.6216     67.1968   5.5150292654e+01   5.3021842955e+01    0.4661098    0.3109196 -17.20  0.002139345    2.072    0.517
       182 -11.1382    119.2811     78.6649   4.7825499879e+01   4.2986832121e+01    0.3843917     0.201571 -40.79   0.00166863    2.000    0.500
       183 -10.3265    115.6243     71.0033   4.6554308431e+01   4.5110739860e+01    0.3139417    0.1353512 -40.26  0.001250413    2.456    0.593
       184 -11.5244    183.8365     95.5856   3.9372343550e+01   2.6588753769e+01    0.2293894    0.1411863 -48.29  0.001116657    1.458    0.314
       185 -10.8133    162.8416     70.2958   3.6944312058e+01   3.4929909818e+01    0.2423946    0.1579746 -30.09  0.001248852    1.855    0.461
       186 -11.0513    105.6604     69.4820   4.8665869129e+01   4.7549631402e+01    0.4384498    0.1756919 -35.42  0.001612863    2.984    0.665
       187 -11.2573     94.7670     68.2575   5.1359155563e+01   5.0104276422e+01    0.6725307    0.1901975 -42.14  0.002175592    3.778    0.735
       188 -10.2939    170.5013     69.9932   3.5684041333e+01   3.3378385336e+01    0.1677473    0.1172373 -11.33 0.0008103474    2.529    0.605
       189 -11.3446     50.9914     67.0624   6.6830811872e+01   5.8680408556e+01    0.6930668    0.2315729 -54.07  0.002212075    4.207    0.762
       190 -11.1349    189.4427     75.2877   3.4184276907e+01   2.8779050753e+01     0.238115    0.1151582 -37.10   0.00114118    2.102    0.524
       191 -10.9927    147.3177     65.4656   3.8380558548e+01   3.9005630220e+01    0.3925675    0.2369483 -17.96   0.00168647    2.934    0.659
       192 -12.0743    203.8042     65.2530   3.0346917831e+01   2.7532455565e+01    0.2369867    0.1561415 -36.08  0.001424506    1.614    0.381
       193 -10.7140    121.8419     63.4854   4.2942043545e+01   4.4953927458e+01    0.4454012    0.2028936 -32.61   0.00180381    2.686    0.628
       194 -10.6752    235.3291     65.3265   2.7238890998e+01   2.2035255594e+01   0.09507523    0.0861701 -12.55 0.0004804182    1.704    0.413
       195 -10.9171    138.5483     64.2168   3.9679450222e+01   4.1124574022e+01    0.3200853    0.1346814 -36.09  0.001306964    2.614    0.617
       196 -11.1397     17.8939     63.0872   8.1678016932e+01   6.3817441664e+01     0.404868    0.1249915 -43.38  0.001502962    2.961    0.662
       197 -10.9377    110.1597     60.6679   4.4863598830e+01   4.7996255806e+01    0.4560233    0.2583807 -21.85   0.00191017    2.730    0.634
       198 -11.1996    150.1702     78.9935   4.1269806304e+01   3.6225578422e+01    0.3328696    0.1909796 -42.07  0.001599199    1.733    0.423
       199 -10.5279    100.1933     57.3492   4.6408611127e+01   5.0713980096e+01    0.5756491    0.1810631 -37.24  0.002011495    3.549    0.718
       200 -11.1677     73.1921     56.2106   5.4353051241e+01   5.6592832073e+01    0.7790397     0.240038 -38.13  0.002666787    3.719    0.731
       201 -10.3958     24.9757     57.0610   7.5981659457e+01   6.4296756307e+01    0.3280138    0.1378319 -39.47  0.001382287    2.387    0.581
       202 -10.1462     17.0220    244.3336   1.0665537711e+02   1.7961769977e+01    0.1818635    0.1422395  40.17 0.0006353263    1.113    0.102
       203 -11.9325     45.2175     49.5465   6.3196883997e+01   6.2827009566e+01     0.422658    0.2402287 -30.32 0.0005511739    1.988    0.497
       204 -10.9454     53.6805     50.5444   5.9842559651e+01   6.1215489478e+01      0.52266    0.1565825 -45.70   0.00179948    3.934    0.746
       205 -10.1417    105.4925     50.9908   4.3050316739e+01   5.0485993014e+01    0.1992283    0.1361912 -36.92  0.001044412    1.624    0.384
       206 -10.3582     30.8534     51.0366   7.0778065971e+01   6.4710687324e+01    0.1954789    0.1622985  85.98  0.001079161    2.021    0.505
       207 -10.9224     83.2585     41.0788   4.5759630542e+01   5.6757924272e+01    0.4929623    0.2730381  -5.55  0.001780417    4.288    0.767
       208 -10.5891     84.7337    226.9796   8.8007144466e+01   1.4514610696e+01      0.26472      0.11327  52.34 0.0008912478    3.532    0.717
       209  -9.5344     23.6583     46.6936   7.3023066314e+01   6.6433186341e+01    0.1391593   0.08878069 -10.25 0.0007042242    1.686    0.407
       210 -10.2767    113.2765     42.9056   3.8763578923e+01   4.9839666806e+01    0.3842366    0.2260934  -1.00  0.001454892    4.137    0.758
       211 -10.7687    122.7549     42.2127   3.6623705031e+01   4.7779313235e+01    0.3600532    0.2061237  -7.65  0.001408001    3.957    0.747
       212 -10.5070     63.0009     48.7802   5.5430074299e+01   5.9780865984e+01    0.3254867    0.1701053 -27.17  0.001417365    2.482    0.597
       213 -10.6350     16.9071     41.9394   7.5083245994e+01   6.8086752471e+01    0.4587713     0.118797 -43.56  0.001683758    3.601    0.722
       214 -11.3388      4.8426     39.9329   8.1752198606e+01   6.9625570694e+01     0.432536    0.1767696 -64.71  0.001685063    4.012    0.751
       215 -10.1756    105.9877     38.3309   3.8946663648e+01   5.2074824287e+01    0.2486563    0.1519951 -15.72     0.001192    2.430    0.588
       216  -9.6598    130.3358     46.3209   3.6359222772e+01   4.5526698077e+01    0.1314653   0.09708581  34.81 0.0003742455    1.707    0.414
       217 -10.5113     27.6383     29.0314   6.3559399665e+01   6.8836594112e+01    0.3135985    0.1378205 -21.81  0.001128908    4.285    0.767
       218  -9.2684    110.6466     24.6914   3.3687069379e+01   5.2590697787e+01    0.1320178   0.08506055  41.06  0.000704325    1.720    0.419
       219 -11.7097     62.4607     69.4220   6.2857142463e+01   5.6273907020e+01    0.9286764    0.2007187 -41.37  0.002470132    5.546    0.820
       220  -9.8896     50.6622     15.6519   4.6636711654e+01   6.6535150405e+01    0.1342545   0.08039882  26.23    0.0007047    1.784    0.440
