#   1 NUMBER                 Running object number                                     
#   2 MAG_AUTO               Kron-like elliptical aperture magnitude                    [mag]
#   3 X_IMAGE                Object position along x                                    [pixel]
#   4 Y_IMAGE                Object position along y                                    [pixel]
#   5 X_WORLD                Barycenter position along world x axis                     [deg]
#   6 Y_WORLD                Barycenter position along world y axis                     [deg]
#   7 A_WORLD                Profile RMS along major axis (world units)                 [deg]
#   8 B_WORLD                Profile RMS along minor axis (world units)                 [deg]
#   9 THETA_WORLD            Position angle (CCW/world-x)                               [deg]
#  10 FWHM_WORLD             FWHM assuming a gaussian core                              [deg]
#  11 ELONGATION             A_IMAGE/B_IMAGE                                           
#  12 ELLIPTICITY            1 - B_IMAGE/A_IMAGE                                       
         1 -13.1877     66.9700    143.7516   1.2488797960e+02   3.8414554185e+01      2.74632     1.309622 -84.65  0.003154453    5.342    0.813
         2 -14.2276    203.3429     20.4334   6.2000464586e+01   3.2343949768e+01      2.27617     1.483738  26.59   0.01107746    2.773    0.639
         3 -11.4584      2.4921     14.1866   1.1343784969e+02   7.0847105319e+01    0.2759498    0.2063831 -24.65  0.001529557    1.145    0.127
         4 -11.0475      2.0352      5.2553   1.0990050576e+02   7.2083398353e+01    0.4271583    0.1333719 -41.00  0.002283009    2.708    0.631
         5 -12.7172    122.7484    248.1492   1.2779250948e+02   6.0173445647e+00    0.8871856    0.2984084  43.13  0.003647264    2.472    0.595
         6 -10.8857    162.8624    249.4161   1.2006998885e+02  -9.6438152718e-01    0.3478552    0.1923896  53.92  0.001706536    1.957    0.489
         7 -12.1583    108.2432    246.1692   1.3039189989e+02   8.7634323383e+00    0.5343688    0.3163949  59.83  0.001811637    1.607    0.378
         8 -12.7117    100.9163    248.1737   1.3204357840e+02   9.5559492377e+00    0.7418363    0.5118942  75.18  0.004357757    1.463    0.316
         9 -11.2297     92.8113    249.5390   1.3374361835e+02   1.0563717382e+01    0.3501487    0.3265853  14.33  0.001184423    1.546    0.353
        10 -12.0529     89.3242    244.9507   1.3392178806e+02   1.1983458894e+01    0.5628738    0.2980068  71.84  0.001990539    2.296    0.564
        11 -14.5775     29.4678    244.9586   1.4486170965e+02   2.0148015199e+01     11.12388      3.02141  31.99   0.01686321    7.113    0.859
        12 -11.4369     54.4247    230.1388   1.3914371998e+02   2.0021235738e+01    0.3934833    0.2266935  71.93  0.002179989    1.625    0.385
        13 -11.2275     22.3430    236.2398   1.4549912245e+02   2.2706262228e+01    0.2917292    0.1878978 -64.26  0.001250907    1.733    0.423
        14  -9.9708     27.7099    233.5905   1.4436754177e+02   2.2632219623e+01    0.2841191    0.1165311  71.86  0.001328068    2.635    0.620
        15  -9.4156     42.5125    231.9103   1.4154410310e+02   2.1194745096e+01    0.1693387    0.1008436 -77.12 0.0004689575    1.509    0.338
        16 -10.0395    249.5960    230.3994   1.0046697899e+02  -1.1907588236e+01    0.2218617    0.1016528 -48.23 0.0009618123    3.354    0.702
        17 -11.2634     20.3238    229.8604   1.4541640131e+02   2.4229037453e+01    0.4282396    0.2019784  42.28  0.001482202    2.026    0.506
        18 -12.7653     38.0859    225.6782   1.4185119944e+02   2.3043746344e+01    0.3546911    0.3116845 -77.70 0.0008079891    1.363    0.267
        19 -11.3353    151.2009    228.8910   1.1934446734e+02   4.6945874375e+00    0.3967717    0.2114633  40.07  0.001862833    1.689    0.408
        20 -15.4237     53.0428    208.2591   1.3725753306e+02   2.4941074902e+01     10.79301     4.046016  68.54   0.03079662    6.204    0.839
        21 -13.9915     45.5490    216.4778   1.3959470665e+02   2.4090698772e+01     1.158895    0.7214829  65.47  0.006013527    1.419    0.295
        22 -10.8746     26.8708    215.7844   1.4315888312e+02   2.6463026896e+01    0.3778726    0.1645856  84.36  0.001515009    2.498    0.600
        23 -12.0964      3.2918    248.4740   1.4939788775e+02   2.2352311845e+01    0.7220517    0.4987687  66.58  0.004522914    1.141    0.123
        24 -10.8320    227.8321    204.1130   9.9553705464e+01  -4.4921470895e+00    0.3182011     0.236373 -55.83 0.0007894035    1.776    0.437
        25 -10.6878     26.5174    203.7190   1.4221338217e+02   2.9138892149e+01    0.2538784    0.1566883  69.87 -0.0001107353    1.434    0.303
        26 -10.4555    194.4960    197.9855   1.0490536926e+02   2.5609268893e+00    0.3556801    0.2083669 -62.71  0.001430388    2.752    0.637
        27 -11.0028      1.5502    240.2403   1.4924218381e+02   2.4117772314e+01    0.5097895    0.1552499 -75.55  0.002290983    2.673    0.626
        28 -11.6189     64.2670    193.0575   1.3308112098e+02   2.6898589183e+01    0.3862531    0.2524559 -45.47  0.001412241    1.949    0.487
        29  -8.4801    181.5229    192.4519   1.0653096490e+02   6.1204085302e+00    0.1435671    0.1378906  28.74 0.0002421571    1.013    0.013
        30 -11.7430     69.6565    185.8813   1.3090814517e+02   2.7822134930e+01    0.3060297    0.2518287 -50.82 0.0008142977    1.398    0.285
        31 -11.0936     79.1644    174.1143   1.2691531412e+02   2.9228788005e+01    0.2626095      0.23945 -73.12  0.000385348    1.108    0.098
        32 -13.3097     66.3586    171.5366   1.2963443404e+02   3.1726691478e+01    0.5266262     0.284725 -45.47  0.001661193    2.205    0.546
        33 -10.4247    105.3638    173.2333   1.2036560815e+02   2.5111489520e+01    0.4613174    0.1607395  49.60  0.001492651    3.237    0.691
        34 -12.1845     86.1144    165.5202   1.2377437427e+02   3.0226244822e+01     1.008068    0.5920551  59.46  0.004443585    1.963    0.491
        35 -10.8442    245.8073    249.5955   1.0446437600e+02  -1.3961422890e+01    0.2718373     0.138593  39.59  0.001500306    1.970    0.492
        36  -8.9235     46.2907    170.3060   1.3429421784e+02   3.4623694882e+01    0.1267293   0.09359524 -46.32 0.0004219439    1.575    0.365
        37 -15.2477     10.0163    206.6737   1.4565148042e+02   3.0192640920e+01     10.82718     1.116506 -73.91  0.009887835    7.964    0.874
        38  -9.8089     99.0151    149.8041   1.1750214596e+02   3.1894843339e+01    0.2899233    0.2318629 -45.47 0.0007238039    1.289    0.224
        39  -9.2554    101.8288    145.8709   1.1595000932e+02   3.2350949403e+01     0.339709    0.1916431 -35.55  0.001313423    2.375    0.579
        40 -12.1022     87.7577    148.8442   1.2028096417e+02   3.4031764103e+01    0.2989306     0.251821 -43.16  0.000547009    1.263    0.208
        41 -11.1303     38.8527    146.7164   1.3285781349e+02   4.1138220717e+01    0.2855883    0.2087779  43.03  0.001104225    1.530    0.346
        42 -11.9807     25.8773    138.1823   1.3501725990e+02   4.4452708880e+01    0.4438026    0.2337976  56.66  0.002173342    2.366    0.577
        43  -9.5748    110.2604    135.7142   1.1148292623e+02   3.3237529344e+01     0.299136    0.2156142 -17.35  0.001283053    2.045    0.511
        44 -10.5808     97.5725    132.5992   1.1421778057e+02   3.6300283422e+01    0.2833898    0.2370977 -25.14  0.001046975    1.393    0.282
        45  -8.4995    116.3099    128.3718   1.0814623907e+02   3.3796711739e+01    0.1603101    0.1221207 -16.24 0.0007033626    1.772    0.436
        46  -9.1994    107.1659    122.8416   1.0928899052e+02   3.6849473044e+01    0.2069004    0.1965774 -81.09 0.0002847429    1.065    0.061
        47 -10.9562     32.4811    119.9268   1.3028572369e+02   4.8137805403e+01    0.2914342    0.1418107 -62.82  0.001416371    1.695    0.410
        48 -12.4685    140.3544    248.5081   1.2437471606e+02   3.0018841457e+00    0.6392587    0.3503676  51.76  0.003234234    1.691    0.409
        49  -9.6058    204.5091    110.8195   8.3649319455e+01   1.7816911300e+01    0.4042763    0.2239709  34.62  0.001524465    2.657    0.624
        50 -11.1100    168.0331    113.0004   9.1532348129e+01   2.5865481416e+01    0.3669835    0.3078656 -80.57 0.0007550729    1.327    0.246
        51 -10.8572    242.3428     93.8129   7.3660653197e+01   1.2588899058e+01    0.1980574    0.1679247 -73.98   0.00114766    1.132    0.116
        52 -11.3118      1.8920     90.0550   1.3436493593e+02   5.7075252298e+01     0.412387    0.1261727 -67.03  0.001779763    2.735    0.634
        53 -11.5018     99.2727    237.0419   1.3108420450e+02   1.1981314812e+01    0.3533163    0.2362402  83.37 0.0008759493    1.636    0.389
        54 -11.4138    190.4057    249.4213   1.1470803814e+02  -5.5525305997e+00    0.5714225    0.1566898  35.77  0.001988835    3.639    0.725
        55 -10.8900    189.8820     15.3538   6.2351625004e+01   3.6087677434e+01    0.2156038     0.196182 -34.38 0.0007068671    1.337    0.252
        56 -11.6494     51.8742    236.2546   1.4017435242e+02   1.9095757525e+01    0.4634088     0.255282 -87.35  0.001785531    1.746    0.427
        57  -8.8956    108.7636     42.5247   8.5136095971e+01   5.1777159169e+01    0.1741809    0.1263833  62.81 0.0007868099    1.559    0.359
