#   1 NUMBER                 Running object number                                     
#   2 MAG_AUTO               Kron-like elliptical aperture magnitude                    [mag]
#   3 X_IMAGE                Object position along x                                    [pixel]
#   4 Y_IMAGE                Object position along y                                    [pixel]
#   5 X_WORLD                Barycenter position along world x axis                     [deg]
#   6 Y_WORLD                Barycenter position along world y axis                     [deg]
#   7 A_WORLD                Profile RMS along major axis (world units)                 [deg]
#   8 B_WORLD                Profile RMS along minor axis (world units)                 [deg]
#   9 THETA_WORLD            Position angle (CCW/world-x)                               [deg]
#  10 FWHM_WORLD             FWHM assuming a gaussian core                              [deg]
#  11 ELONGATION             A_IMAGE/B_IMAGE                                           
#  12 ELLIPTICITY            1 - B_IMAGE/A_IMAGE                                       
         1 -12.5357     85.0623     24.4076   1.4110777455e+01   6.0411609198e+01    0.2657421    0.2359907  83.63 0.0005942081    1.172    0.147
         2 -12.1354     92.3196      8.2962   4.7385406424e+00   6.0359987297e+01    0.2516013     0.192425  36.79  0.000558011    1.386    0.278
         3 -10.8395     55.4748      8.8950   1.6085211376e+01   6.9299901390e+01    0.1769841    0.1322744 -23.07 0.0003111381    1.448    0.310
         4 -12.3733     72.0920      6.9002   9.1417436802e+00   6.5592343475e+01    0.2327636    0.1982941 -84.11 0.0004078566    1.311    0.237
         5 -10.9210    114.0241      6.2010   3.5989950827e+02   5.4880285946e+01    0.1888341    0.1597338  82.32  0.001093787    1.045    0.043
         6 -10.9203     89.4860      3.0089   2.8487139359e+00   6.1556592968e+01    0.1823676    0.1376124 -20.12 0.0004454384    1.506    0.336
         7 -11.2100     25.1685      1.9463   2.7667833549e+01   7.6258743728e+01    0.2215762    0.1609569  38.44 0.0008664944    1.274    0.215
         8 -11.8867      1.3708      2.0968   4.9713914581e+01   7.9487629014e+01    0.1640493    0.1048752 -46.29 0.0003311376    1.503    0.335
         9 -10.6778      4.4156      1.4259   4.5850821233e+01   7.9304154458e+01    0.1869589    0.1078919  21.89 0.0001090734    1.647    0.393
        10 -10.9275    147.0475    245.2973   5.1665584232e+01   5.5976531188e+00     0.163478    0.1188999  23.11 0.0004331286    1.072    0.067
        11 -10.8220    171.2520    250.0692   4.7555377470e+01   2.0543239470e+00    0.2274577    0.1122491   8.47  0.001145553    2.502    0.600
        12 -12.5957    139.4582    247.5673   5.3468217159e+01   6.1990184951e+00    0.3436984    0.2565772 -53.64  0.001858825    1.828    0.453
        13 -11.1712    124.9117    250.0460   5.6728712215e+01   7.6138216879e+00    0.1780064    0.1417203  19.94  0.000666203    1.060    0.057
        14 -11.7144    114.7557    249.0175   5.8739246393e+01   9.0169680057e+00    0.3319443    0.2525398  58.07  0.001742997    1.635    0.388
        15 -10.9064    119.9602    248.7810   5.7622849336e+01   8.4142825095e+00    0.1844192   0.09315501  21.34 0.0009680935    1.807    0.447
        16 -12.2569     56.9909    249.1479   7.1176184694e+01   1.5812848315e+01    0.3612105    0.2038913  28.63  0.001132039    1.443    0.307
        17 -12.0287     49.6501    248.0726   7.2699755750e+01   1.6802075695e+01    0.2814381    0.2220775 -77.23  0.001708143    1.550    0.355
        18 -11.3485     50.5219    243.4339   7.2229106644e+01   1.7541978177e+01    0.1964881    0.1492425  35.10 0.0006588168    1.095    0.087
        19 -15.3189     26.3481    183.2589   7.4252311386e+01   3.2735724060e+01     1.388261     1.060999 -54.63  0.008105336    1.530    0.347
        20 -14.6011     34.6705    247.0513   7.5879738603e+01   1.8549879526e+01     1.945049    0.5069884  32.23  0.008750776    2.523    0.604
        21 -14.4988      4.1386    182.8102   8.0273461986e+01   3.4792103829e+01    0.9996605    0.6205795  88.53  0.004321675    1.510    0.338
        22 -13.8005     12.6034    216.0010   7.9481927354e+01   2.6726911661e+01    0.7898251    0.4390246 -42.38  0.004041348    2.832    0.647
        23 -13.8853     19.1191    204.0821   7.7373125708e+01   2.8679277035e+01    0.6489818    0.4619149 -22.33  0.003310368    2.082    0.520
        24 -12.8148      6.0554    191.2357   8.0112302521e+01   3.2694002340e+01     0.384415    0.2274299  14.63 0.0007261878    1.921    0.480
        25 -14.2362     13.0338    188.6227   7.8168488197e+01   3.2708078659e+01     1.214856    0.3386949 -60.88  0.004489426    3.822    0.738
        26 -13.9427      5.1016    212.3381   8.1118655020e+01   2.8144587412e+01    0.7252303    0.4656354  63.42  0.004532622    1.298    0.230
        27 -14.4228      4.7935    201.1038   8.0806769495e+01   3.0588080339e+01    0.8377703    0.6057095  13.79  0.005187834    1.599    0.374
        28 -14.5288      2.4225    221.7980   8.2027084869e+01   2.6414663881e+01    0.9271979    0.2792865 -83.45  0.004099076    3.410    0.707
        29 -16.0861     16.2759    227.5541   7.9085964956e+01   2.4041871242e+01     1.475737        1.355  87.03   0.01106845    1.299    0.230
        30 -15.7678      4.5840    244.7478   8.2174899047e+01   2.1798756741e+01    0.9414298    0.6322456  37.01  0.006610834    1.193    0.161
        31 -13.7930     11.7523    237.3485   8.0437679562e+01   2.2550120754e+01    0.2971089    0.2347372  65.16  0.001416051    1.172    0.146
        32 -11.2798    132.0227    245.3247   5.4731599425e+01   7.4505656973e+00    0.1677306    0.1237722  23.84  0.001115282    1.050    0.048
        33 -11.9983    126.9506    242.4521   5.5460163474e+01   8.5258344905e+00    0.2595417    0.1581019  46.73 0.0008696307    1.782    0.439
        34 -11.5582    117.3974    241.5307   5.7382863699e+01   9.8754642666e+00     0.197178    0.1715787   8.79 0.0006444392    1.167    0.143
        35 -10.4872     94.3066    242.6791   6.2505261099e+01   1.2566923781e+01    0.1237285   0.07627564  50.75 0.0006115701    1.639    0.390
        36 -10.3841     76.2649    242.3197   6.6451681514e+01   1.4810089113e+01     0.108495   0.08746069  -6.53 0.0004457633    1.554    0.357
        37 -11.2681    167.9783    241.4954   4.7066931382e+01   3.5840309898e+00    0.1757547   0.09187748  27.93 0.0007263455    1.543    0.352
        38 -11.7707    143.1630    242.4071   5.2098992412e+01   6.5006759696e+00    0.2190369    0.1890294 -31.54 0.0008973637    1.394    0.283
        39 -10.4710    180.6165    240.4239   4.4534120824e+01   2.2244008157e+00    0.1132384   0.08537038   8.00 3.924911e-05    1.023    0.022
        40 -10.9474    100.4865    240.4492   6.0934159976e+01   1.2179038144e+01     0.124147   0.09662346  31.87 -2.845231e-05    1.018    0.017
        41 -12.3819     39.9420    221.8080   7.3303177414e+01   2.2843377275e+01    0.3376443    0.2053855  22.32  0.001891178    1.619    0.382
        42 -13.6806     35.6081    230.9522   7.4847048728e+01   2.1479591516e+01    0.6200781    0.3136912 -83.42  0.002863829    2.261    0.558
        43 -12.9982     69.1538    235.8148   6.7519289295e+01   1.6824192792e+01    0.3735366    0.2333022  47.17 0.0004544256    1.364    0.267
        44 -12.5686     73.1007    231.6510   6.6272743419e+01   1.7125192503e+01    0.3771578    0.2934749 -37.65 0.0009540065    1.668    0.400
        45 -10.5094    175.5579    238.5352   4.5225348335e+01   3.0760176169e+00    0.1151121   0.08942828  12.93     9.75e-05    1.056    0.053
        46 -11.5523    210.0954    235.6860   3.8620960202e+01  -5.2675324671e-01    0.1928422    0.1480664 -39.50  0.001180943    1.834    0.455
        47 -10.4707     79.4517    237.4872   6.5332258909e+01   1.5288176972e+01    0.1256748   0.09647068  39.86 -3.931124e-05    1.061    0.058
        48 -11.2824    137.8863    236.1958   5.2423710391e+01   8.1098945142e+00    0.1787537    0.1377742  35.31 0.0004526793    1.240    0.193
        49 -11.2478    103.5949    236.2550   5.9820710688e+01   1.2501363987e+01    0.1463283    0.1131814 -36.47 0.0002714089    1.582    0.368
        50 -11.1677     47.5342    235.8651   7.2425173072e+01   1.9270331916e+01    0.2076626    0.1245382  46.50 0.0009422255    1.322    0.244
        51 -12.0681    165.5887    234.3886   4.6578935859e+01   4.8690318032e+00    0.2103075    0.1719612  27.48 0.0001824165    1.264    0.209
        52 -11.4374    121.5509    235.0150   5.5753953922e+01   1.0404176938e+01    0.1490477     0.123247 -48.47  0.000315393    1.499    0.333
        53 -13.0519    243.1991    233.3517   3.2974386770e+01  -3.6756749038e+00     0.206633    0.1499985  -2.91 0.0005315617    1.101    0.091
        54 -10.4863    113.3111    234.3265   5.7470210972e+01   1.1583750785e+01    0.1221862   0.08702462  -2.59 0.0007040664    1.661    0.398
        55 -12.4046     61.5966    230.7856   6.8855245344e+01   1.8652931068e+01    0.5097287    0.1674797 -74.54  0.002043915    4.161    0.760
        56 -11.5741     57.1291    233.9569   7.0116674014e+01   1.8564381729e+01    0.3617943   0.08263522  38.09  0.001443288    2.778    0.640
        57 -12.2745    181.7135    231.0285   4.3020971207e+01   3.3523220236e+00    0.4373075    0.2763557  53.81  0.002226063    3.341    0.701
        58 -10.9093    158.5297    233.4842   4.7852487905e+01   5.8857823702e+00    0.1209466   0.09462662  14.37 0.0001098268    1.006    0.006
        59 -14.7468      6.0812    234.0290   8.1565570889e+01   2.3686568169e+01    0.5105443    0.4372162  50.09  0.002995216    1.169    0.144
        60 -11.5759    223.0000    231.9924   3.5937752824e+01  -1.4757519025e+00     0.158166   0.05262971 -36.12 0.0005978201    2.901    0.655
        61 -10.2835     52.2949    232.2841   7.1106489585e+01   1.9426960407e+01    0.1084904   0.09056094  -5.10 0.0001746297    1.541    0.351
        62 -10.8299    216.5756    231.4879   3.6920169975e+01  -7.2741690748e-01     0.110174    0.0802704   0.03 5.491118e-05    1.012    0.012
        63 -12.0839    195.3126    229.0678   4.0242174210e+01   1.9851813971e+00    0.3237508    0.2201383   1.24  0.002178699    1.259    0.206
        64 -11.9333    155.4822    227.4864   4.7652162045e+01   7.1735690203e+00    0.2498728    0.1391835  16.41  0.001330365    1.779    0.438
        65 -12.6066    127.6663    227.2171   5.3484175155e+01   1.0893486416e+01    0.2266416    0.1808228  28.53  0.000285735    1.065    0.061
        66 -11.4153    138.2945    227.0107   5.1168311785e+01   9.5125038889e+00    0.1647204    0.1463884  10.29  0.000527147    1.126    0.112
        67 -12.7700    116.9921    225.8954   5.5675778578e+01   1.2543084267e+01     0.347876    0.2179546  56.78 0.0005473318    2.104    0.525
        68 -12.1712    106.3721    226.3718   5.8121485251e+01   1.3869568302e+01    0.2806816    0.2048311 -14.85   0.00157603    1.725    0.420
        69 -12.3164     81.0294    225.0609   6.3834023174e+01   1.7389117120e+01    0.4506035    0.2885049 -29.04  0.002364901    2.298    0.565
        70 -12.7642     49.8544    215.5428   7.0486330369e+01   2.3036991976e+01    0.3702438    0.2796715  27.14  0.001466898    1.253    0.202
        71 -13.1563     49.4074    221.4263   7.1024555820e+01   2.1884750204e+01    0.5295528    0.3516478 -35.82  0.002925301    2.191    0.544
        72 -12.9377    149.8917    229.5555   4.9077306547e+01   7.5848209449e+00    0.3485132    0.2348675  35.84  0.001330902    1.377    0.274
        73 -11.6783    100.4094    224.7205   5.9297953860e+01   1.4953379473e+01    0.2311073    0.1447223  31.56 0.0003953737    1.300    0.231
        74 -12.5518    160.8568    222.7824   4.5902663776e+01   7.1866566596e+00    0.3830257    0.1791778  36.52  0.001953558    1.926    0.481
        75 -11.9607     92.3732    223.7426   6.1051346076e+01   1.6185432696e+01    0.2772692    0.1954962   1.89   0.00154687    1.753    0.430
        76 -13.7711    123.9331    220.5453   5.3460290852e+01   1.2536301124e+01    0.5173169    0.3644522  68.58   0.00274265    2.225    0.551
        77 -12.1266     57.4767    220.8613   6.9052054065e+01   2.1075184759e+01    0.3453915    0.1971221 -47.59  0.001023577    2.300    0.565
        78 -12.1502    190.1340    220.0987   3.9848629361e+01   3.8202112887e+00    0.2033541    0.1462058   7.34 0.0003431485    1.154    0.134
        79 -11.8618    193.5177    217.4734   3.8828005824e+01   3.7626344230e+00     0.168861   0.09651845 -24.03 0.0007698988    1.734    0.423
        80 -11.4422    238.7508    220.4001   3.1709347713e+01  -1.7774104063e+00     0.144334   0.08065551  15.45 0.0008338359    1.616    0.381
        81 -10.5251    197.3069    220.2751   3.8571469683e+01   2.9146406510e+00    0.1170106   0.07318765   0.48 0.0002166475    1.548    0.354
        82 -12.7979     76.3651    219.3124   6.4386236059e+01   1.9088376339e+01    0.5490804    0.2268624  39.84  0.001606403    1.925    0.481
        83 -12.1398    165.7671    219.0518   4.4374347314e+01   7.1064193127e+00    0.2168655    0.1468687  19.15 0.0002089962    1.260    0.207
        84 -12.7508    145.0691    216.4820   4.8286392444e+01   1.0319190755e+01    0.3596307    0.2810989  56.27  0.002167718    1.727    0.421
        85 -13.1828    140.8785    210.6226   4.8351582782e+01   1.1895246203e+01    0.5418748    0.2702495 -61.22  0.002346156    3.334    0.700
        86 -12.7137    129.1340    217.2251   5.1865572604e+01   1.2398949476e+01    0.3779938    0.1746742  27.76 0.0008106141    1.922    0.480
        87 -11.8140     62.1897    216.2781   6.7535776347e+01   2.1443944112e+01    0.3533434    0.1754377  58.46  0.001189766    2.202    0.546
        88 -11.8919    225.9431    216.2970   3.3083854557e+01   8.9372951244e-02    0.1809057    0.1404884  -9.03 0.0003527951    1.135    0.119
        89 -11.3119    205.1355    217.0969   3.6697247236e+01   2.3940778890e+00    0.1756487    0.1240031  -0.59 0.0004310911    1.180    0.152
        90 -11.3776    138.1918    216.8461   4.9820982004e+01   1.1209005080e+01    0.1876867    0.1563156  36.18 0.0005704995    1.211    0.174
        91 -12.8949    107.7392    214.6996   5.6425235685e+01   1.5819714848e+01    0.3375168    0.2678539 -81.12  0.001465363    1.666    0.400
        92 -11.5591    233.2207    214.1850   3.1600321700e+01  -4.5477240061e-01    0.2068697    0.1246196  -7.10 0.0008305009    1.473    0.321
        93 -11.9946     84.4170    214.3378   6.1942756500e+01   1.9035436687e+01    0.4950759    0.2407997  45.82  0.002354925    1.875    0.467
        94 -12.8692    173.8066    219.5682   4.2863059754e+01   5.9734298103e+00    0.2960119    0.2104949 -39.35  0.001439992    1.595    0.373
        95 -12.0237    156.5283    213.9107   4.5498020490e+01   9.1590313150e+00    0.2022594    0.1252676 -49.66 0.0005111409    1.983    0.496
        96 -11.7784    134.0858    214.0791   5.0337490731e+01   1.2255613720e+01    0.2007001    0.1472522  55.83  0.001134025    1.755    0.430
        97 -10.8559    248.3257    213.6808   2.9236833687e+01  -1.9904500680e+00   0.08809988   0.07848883 -19.55 0.0004903754    1.678    0.404
        98 -11.0864     75.9838    212.4154   6.3799520742e+01   2.0515604116e+01    0.3065737    0.1332367  62.15  0.001094241    3.920    0.745
        99 -12.2764     42.7875    211.7154   7.1944422815e+01   2.4626553331e+01    0.5107093    0.2795071  17.38   0.00253042    2.043    0.511
       100 -12.3330     52.8753    209.6896   6.9282568116e+01   2.3915865411e+01    0.4541377    0.2395778  35.49  0.001793605    1.538    0.350
       101 -14.1656     35.8696    204.6369   7.3188682640e+01   2.6893439659e+01    0.5424189    0.4021454  86.26  0.001562039    1.380    0.275
       102 -11.5389     47.7402    206.8759   7.0348032631e+01   2.5106957090e+01    0.2601177    0.1928659  68.69  0.001105905    1.318    0.241
       103 -10.9707    209.6606    211.3307   3.5008440044e+01   2.6146237668e+00   0.09700461   0.09293105  40.59 0.0007051772    1.741    0.426
       104 -12.3750    170.8662    209.9655   4.1982276624e+01   7.8167606388e+00    0.3121662    0.2161846  52.38  0.001115975    2.160    0.537
       105 -11.2634     96.9053    210.0287   5.8433685393e+01   1.8208715238e+01    0.2591946    0.1812355 -75.87  0.001131106    1.850    0.459
       106 -10.8896     59.6740    210.9890   6.7697337660e+01   2.2838270537e+01    0.1661041    0.1558646  61.35 0.0004948356    1.145    0.127
       107 -12.9209    161.6227    207.7632   4.3512616384e+01   9.4431984700e+00    0.4390277    0.3004214 -63.13  0.001117171    2.434    0.589
       108 -11.4318     90.7771    210.0787   5.9926579831e+01   1.9034650086e+01    0.1942299    0.1589295  55.86 0.0005655783    1.244    0.196
       109 -12.1818    180.2876    207.3774   3.9729103552e+01   6.9352861063e+00    0.2608736    0.1911147  25.91 0.0004956648    1.240    0.194
       110 -12.9583     27.3189    206.5181   7.5456476078e+01   2.7358949707e+01    0.3050158     0.263264 -52.34  0.000502319    1.455    0.313
       111 -11.9335     93.0500    217.2204   6.0186112949e+01   1.7332008730e+01    0.4454875    0.1320539  34.48  0.001472359    2.583    0.613
       112 -11.6527    104.3901    205.8876   5.6111303000e+01   1.7978344567e+01    0.2613191    0.1971374  39.00  0.001505712    1.167    0.143
       113 -12.8014    145.1666    200.9861   4.5964429944e+01   1.2954884820e+01    0.4205686    0.3527644  73.78  0.001767072    1.762    0.432
       114 -11.3780    113.3151    205.3424   5.3901459953e+01   1.6810369518e+01    0.1348966   0.09792551  -8.13  0.000442004    1.709    0.415
       115 -10.7378     89.2988    204.6577   5.9658723084e+01   2.0330828137e+01    0.2514428    0.1851687  70.05  0.001016616    1.614    0.380
       116 -12.5442     83.8337    200.5839   6.0551762139e+01   2.1924173623e+01    0.8483148    0.5296768 -65.41  0.004402269    1.847    0.458
       117 -11.9092     91.9582    193.6214   5.7616670208e+01   2.2260691185e+01     0.366474    0.3020099  47.87  0.001788953    1.142    0.124
       118 -10.7121     91.4010    189.5164   5.7218286279e+01   2.3221066684e+01    0.2235896    0.1234822  32.55  0.000178969    1.598    0.374
       119 -12.3084     91.5125    199.1806   5.8439185430e+01   2.1154167389e+01    0.4043044    0.2895386 -26.20  0.001445286    1.822    0.451
       120 -11.9323    225.7666    204.0581   3.1161391126e+01   1.6478501867e+00    0.1605553    0.1348757 -12.80 0.0006338383    1.269    0.212
       121 -10.8736    110.4500    202.4863   5.4199908800e+01   1.7777749512e+01    0.1348786    0.1170037  27.86 0.0001014913    1.011    0.011
       122 -11.4792    213.1139    200.7296   3.2699574823e+01   3.6176450784e+00    0.1885445    0.1729452  30.42 0.0008284377    1.565    0.361
       123 -12.4068    135.9095    199.1637   4.7752022268e+01   1.4654677586e+01    0.3867444    0.2786127 -86.18  0.001914705    2.511    0.602
       124 -11.2922    138.3106    196.7035   4.6827087918e+01   1.4746075872e+01     0.189363    0.1457353   4.68 0.0004477815    1.335    0.251
       125 -13.4574    121.8715    197.7287   5.0795205945e+01   1.7022044891e+01    0.5068181    0.3402024 -41.17  0.002707987    1.664    0.399
       126 -11.1894     45.0054    199.8613   7.0494739221e+01   2.6949319988e+01    0.2453099    0.1563228  27.98  0.001317907    1.449    0.310
       127 -12.8533    177.2701    198.1039   3.8810377340e+01   8.7838813036e+00    0.3596524    0.3277965  49.81  0.002389303    1.515    0.340
       128 -12.9773    172.6421    195.7504   3.9337188219e+01   9.8214794247e+00    0.2506592    0.2183923  -9.44  0.000540111    1.106    0.096
       129 -12.6406    149.5300    196.9319   4.4369378876e+01   1.3022293861e+01    0.3089336    0.2249856 -63.01  0.001683576    1.957    0.489
       130 -11.9501     37.2141    191.1538   7.1869834204e+01   2.9775396492e+01    0.4760923    0.1298398 -72.89  0.001704513    3.736    0.732
       131 -11.7757     37.8196    196.7181   7.2128011151e+01   2.8443211255e+01    0.4153914      0.16813  37.63  0.001876029    1.949    0.487
       132 -12.6957     32.8322    195.7390   7.3366422983e+01   2.9190722227e+01    0.3256033    0.2081652 -61.52  0.001780192    1.757    0.431
       133 -12.3182    192.7003    194.5717   3.5276060593e+01   7.1758229881e+00    0.3337022    0.2277963   7.27  0.001194155    1.422    0.297
       134 -11.2172    102.3153    196.3402   5.5358647388e+01   2.0193355718e+01    0.1375819     0.102426 -11.20 0.0006455742    1.704    0.413
       135 -10.9294    212.3095    193.6851   3.1653763246e+01   4.6911696008e+00   0.09878497   0.09584741 -45.76 0.0003584332    1.632    0.387
       136 -11.4565    160.5369    192.5013   4.1282101887e+01   1.2145538666e+01    0.2778138    0.1685908 -51.36  0.001420086    2.015    0.504
       137 -12.8651    132.7303    191.8323   4.7341292123e+01   1.6505560574e+01    0.3957441    0.2657213 -22.28  0.002003378    1.825    0.452
       138 -10.6855     64.2567    193.2760   6.4825219830e+01   2.6105583057e+01    0.1210021    0.1029633 -19.63 0.0002318514    1.464    0.317
       139 -12.9232    110.5409    188.5678   5.2195591091e+01   2.0565101478e+01    0.3120916    0.2668954 -75.80  0.001163615    1.405    0.288
       140 -11.8003     51.0969    190.4753   6.8073083436e+01   2.8362216558e+01    0.3371673    0.1742017  40.23  0.001611162    1.624    0.384
       141 -10.4079     42.6677    191.2940   7.0416092051e+01   2.9145616001e+01    0.1455273   0.08173332  54.14 0.0007025112    1.636    0.389
       142 -11.2413    174.7246    188.9631   3.7767375856e+01   1.0624864843e+01    0.1758876    0.1515212  -5.66 0.0003657065    1.055    0.052
       143 -12.1725    197.5777    188.0654   3.3264456420e+01   7.4802933851e+00    0.2421495    0.1669636  29.06 0.0006759432    1.406    0.289
       144 -11.9852    121.4840    187.5493   4.9340490409e+01   1.9083734764e+01    0.2068594    0.1595627  -1.11 0.0005810222    1.478    0.324
       145 -13.8383    126.6256    185.4517   4.7762942945e+01   1.8696761208e+01    0.7382119    0.3301958  44.81  0.002689604    2.311    0.567
       146 -11.1536    103.8231    188.2417   5.3842222430e+01   2.1653286438e+01    0.2663414    0.1818089  13.36  0.001311195    1.672    0.402
       147 -11.3325    227.6118    186.2070   2.7870896423e+01   3.7723217205e+00    0.2288916    0.1380348 -10.26  0.001359766    1.658    0.397
       148 -11.0948    209.3195    186.2963   3.0888389189e+01   6.1342469328e+00    0.1239989   0.08002519  -2.40 0.0002426781    1.614    0.380
       149 -12.3074    156.1645    186.1108   4.1130216918e+01   1.3930363372e+01    0.2104688    0.1659368   0.23 0.0005944674    1.263    0.208
       150 -11.6619    186.0651    187.2886   3.5264592332e+01   9.2343220116e+00    0.2005402     0.158843 -19.56 0.0003581249    1.159    0.137
       151 -11.8823    163.5311    184.9492   3.9360936994e+01   1.2995096420e+01    0.2350584    0.1738373  45.54 0.0007496839    1.538    0.350
       152 -13.0232    134.3266    182.0792   4.5371384599e+01   1.8136884576e+01    0.2911759    0.2744756  27.62 0.0004297775    1.098    0.090
       153 -12.9813    137.7811    177.2842   4.3733779685e+01   1.8515989762e+01    0.4078886    0.3198349  80.20  0.001124304    1.933    0.483
       154 -12.4089    105.1423    182.9717   5.2723723122e+01   2.2569977909e+01    0.2871534    0.2031419 -55.35 0.0006091803    1.563    0.360
       155 -12.2043     94.7271    181.7641   5.5265413803e+01   2.4421753370e+01    0.5083022    0.2274053 -58.35  0.002101798    2.446    0.591
       156 -10.5026     54.2991    184.6939   6.6637413567e+01   2.9313270709e+01    0.1454468   0.08943718  57.19 0.0004582042    1.591    0.372
       157 -10.4904    101.3061    183.3481   5.3771928665e+01   2.3078223878e+01     0.142423     0.106857 -14.47 0.0007042486    1.701    0.412
       158 -13.1440    154.9755    177.2070   3.9820709896e+01   1.5730343259e+01    0.3796855    0.2882688 -59.11  0.001101196    1.696    0.410
       159 -12.8451    116.1156    178.3859   4.9201503115e+01   2.1813301067e+01    0.3537284    0.2296963  21.49  0.001226661    1.620    0.383
       160 -11.6277     49.0098    178.6388   6.7508210264e+01   3.1381891892e+01    0.2299447    0.1812287 -50.85 0.0006856948    1.462    0.316
       161 -11.5687    171.7158    178.0556   3.6440453746e+01   1.2915328640e+01    0.2109579    0.1730361  20.44 0.0004195191    1.130    0.115
       162 -11.5996    191.3601    177.1730   3.2458918539e+01   1.0060661567e+01    0.1731543    0.1117346 -44.63 0.0007796569    1.706    0.414
       163 -13.6192    128.6652    175.7484   4.5644396926e+01   2.0317993818e+01     0.469175    0.3662198  50.69  0.001155818    1.383    0.277
       164 -12.5083    132.2275    168.9879   4.3577095368e+01   2.1101107354e+01    0.3735965    0.3276105 -62.96  0.001417321    1.328    0.247
       165 -12.2391     64.0692    176.4994   6.2994061271e+01   2.9998942458e+01    0.4647714    0.2688191  13.31  0.002007889    2.218    0.549
       166 -11.6164    241.4806    175.9361   2.3985008683e+01   3.4170857713e+00    0.2042027    0.1329661  11.15 0.0006785286    1.583    0.368
       167 -10.9533    214.4356    176.5110   2.8284550780e+01   6.8557525426e+00    0.1219303   0.09835355 -10.69 4.409597e-05    1.009    0.009
       168 -14.1185     22.6140    195.6319   7.6029812889e+01   3.0231496771e+01    0.7716631    0.6123338   5.61  0.004703713    1.546    0.353
       169 -12.1930    106.8569    175.1159   5.1050265895e+01   2.3996584182e+01    0.3086403    0.1920696  30.93 0.0008050954    1.501    0.334
       170 -13.4774     80.8668    172.5836   5.7729085074e+01   2.8574128434e+01    0.6666098    0.2892724  37.72  0.001941367    2.015    0.504
       171 -13.6734     89.7371    169.8677   5.4844898061e+01   2.7870004569e+01    0.6564289     0.375804  52.71  0.002861097    1.897    0.473
       172 -12.5187    144.1828    172.7623   4.1437921531e+01   1.8340521944e+01    0.3670641    0.1997566  54.98  0.001472633    2.748    0.636
       173 -11.6008    145.2003    169.1850   4.0545340563e+01   1.8864736163e+01    0.2005206    0.1713578  24.49 0.0003479263    1.092    0.084
       174 -14.1135     16.2027    167.8357   7.6109358096e+01   3.7407376838e+01    0.6759659    0.5813405  42.70  0.003839662    1.126    0.112
       175 -12.3589      3.2360    160.0051   7.9500055597e+01   4.0373321553e+01    0.3193477    0.2383488  52.99 0.0008389014    1.177    0.150
       176 -13.6293      3.8960    166.5329   7.9622450383e+01   3.8711987785e+01     0.538967    0.2987871  58.52  0.002001229    1.582    0.368
       177 -12.4993      7.1887    163.6279   7.8513573137e+01   3.9182029040e+01    0.2622496    0.2441157  40.69 0.0005688148    1.167    0.143
       178 -11.9927    197.8282    170.5235   3.0048212232e+01   1.0146403614e+01    0.2480176    0.2146104  10.97  0.000926135    1.119    0.107
       179 -12.2699    153.3396    170.1829   3.8892462067e+01   1.7305961193e+01    0.2497897    0.2101801  43.83 0.0006878826    1.277    0.217
       180 -11.3008     63.0836    170.7546   6.2573449683e+01   3.1506387199e+01    0.2276538    0.1685308  51.77  0.001089708    1.261    0.207
       181 -12.5471     53.4403    170.5232   6.5363471220e+01   3.2805923251e+01    0.3095569    0.2307494 -56.58 8.811746e-05    1.461    0.316
       182 -11.8910    122.6888    168.3079   4.5816068422e+01   2.2856280571e+01     0.212045    0.1825417 -78.33 0.0003255802    1.415    0.293
       183 -13.3181    118.3295    167.3874   4.6761759889e+01   2.3787555990e+01    0.4286678    0.3681036  39.01  0.001133902    1.104    0.094
       184 -12.9893    152.9550    165.0259   3.8001414205e+01   1.8348536390e+01    0.3528456    0.2996002  45.16  0.001261817    1.270    0.213
       185 -12.5306    199.2337    164.3737   2.8634086762e+01   1.0904540355e+01    0.2387168    0.2004714 -42.75 0.0006311624    1.360    0.265
       186 -12.4964    111.1663    163.8512   4.8004233835e+01   2.5767511031e+01    0.4381567    0.2864447 -37.80  0.002039803    1.746    0.427
       187 -13.2028     91.8335    162.6263   5.3102653251e+01   2.9227912435e+01    0.5153736    0.3384489  25.65  0.001008532    1.559    0.359
       188 -10.9080     78.2861    165.3190   5.7410405204e+01   3.0675556367e+01    0.1422604    0.1120214 -22.98 0.0001830833    1.592    0.372
       189 -13.1476     13.4937    161.9700   7.6537007848e+01   3.9095396909e+01    0.5905001    0.1856754  40.48  0.001761759    2.543    0.607
       190 -12.6445    127.3138    166.3550   4.4303897398e+01   2.2481568897e+01    0.4469959    0.2760164  14.89  0.001670512    2.131    0.531
       191 -12.8674     47.1264    162.4285   6.6335055677e+01   3.5582847856e+01      0.70991    0.3508225 -23.49  0.002079713    5.473    0.817
       192 -12.6590     47.7487    156.5466   6.5454855816e+01   3.6995610644e+01    0.2588159    0.2405066  71.97 0.0004240609    1.038    0.036
       193 -11.2266    141.7232    162.9825   4.0182154213e+01   2.0685098368e+01    0.1911791    0.1751205 -21.59 0.0003311635    1.097    0.088
       194 -13.1604    169.2888    159.6364   3.3440071147e+01   1.6559674451e+01    0.4576812    0.3198684 -57.43  0.002319689    1.858    0.462
       195 -11.4778     40.1808    161.6129   6.8372188172e+01   3.6592132677e+01    0.1891554    0.1334052  12.20 0.0004965458    1.649    0.394
       196 -11.6241    192.4756    159.5388   2.8913877597e+01   1.2742095036e+01    0.2025151    0.1804087 -10.29 0.0005829305    1.046    0.044
       197 -11.6497    190.3983    156.1888   2.8633560354e+01   1.3631925686e+01    0.3075908    0.1192149 -42.52 0.0009190636    2.510    0.602
       198 -12.4496     25.8583    159.1985   7.2558076060e+01   3.8693186717e+01    0.3853513    0.2027037 -80.68  0.001445608    1.875    0.467
       199 -11.6114    250.0723    158.1700   1.9614889071e+01   4.6774691178e+00    0.1890644    0.1275888 -25.18  0.000531543    1.156    0.135
       200 -12.4962    104.9758    158.5506   4.8727404199e+01   2.8007969181e+01    0.4757694    0.2826439  59.15  0.001609229    2.211    0.548
       201 -11.7213     69.0318    158.9837   5.9217761893e+01   3.3567544766e+01    0.2172678    0.2062663  44.85 0.0003086942    1.052    0.050
       202 -12.4910    133.3873    156.9788   4.1020586056e+01   2.3380978030e+01    0.4433415    0.2962357  59.57   0.00200192    1.968    0.492
       203 -12.3681     32.0385    157.3150   7.0464857908e+01   3.8558870444e+01    0.2438489    0.1802125 -49.42 0.0007859214    1.529    0.346
       204 -11.6524    213.1139    156.8752   2.4830517420e+01   9.9637030054e+00     0.179105    0.1604596 -35.00 0.0005124264    1.268    0.211
       205 -12.1602    118.5985    157.0727   4.4794393188e+01   2.5984041453e+01    0.2961089     0.217145  24.67  0.001149919    1.401    0.286
       206 -11.6853    113.1034    156.8242   4.6203052515e+01   2.7000987107e+01    0.2319609    0.1943506  58.93  0.001206974    1.288    0.223
       207 -12.1990    141.3920    155.5415   3.8801647543e+01   2.2243830940e+01    0.2408538    0.2284897  -0.45 0.0002121289    1.025    0.024
       208 -13.7660     82.3071    152.0964   5.4120451935e+01   3.3267968509e+01    0.6692932    0.3822667 -34.83  0.002652845    2.437    0.590
       209 -11.2011     20.2655    154.5534   7.3919728468e+01   4.0394613159e+01    0.2489408      0.15929  48.73  0.000769268    1.421    0.296
       210 -14.3717     11.6947    143.1238   7.5804790090e+01   4.4056825113e+01    0.9568013    0.5362233 -50.16  0.004548704    1.975    0.494
       211 -13.3963     20.3271    138.2694   7.2480605395e+01   4.4627662653e+01    0.6394253     0.281754  75.98  0.002421293    2.730    0.634
       212 -12.8178      4.1582    154.2487   7.8922790025e+01   4.1752640376e+01    0.4317832    0.2929573  20.85  0.001776515    1.566    0.362
       213 -12.4588     67.3702    153.4895   5.8910707658e+01   3.5174751548e+01    0.3737174    0.1959904 -35.99  0.001009865    2.850    0.649
       214 -12.6245     53.0355    153.4718   6.3401391400e+01   3.7122563581e+01    0.3876458    0.1940105  44.78  0.001611949    1.873    0.466
       215 -11.0098     99.2780    153.6677   4.9432025195e+01   3.0104609294e+01    0.1505718     0.113923  70.88 0.0002763809    1.604    0.376
       216 -12.3361      4.9977    149.9983   7.8423681284e+01   4.2773265836e+01    0.2672026    0.2343732  38.93 0.0008236683    1.169    0.144
       217 -11.4942    154.1832    150.8712   3.4904784831e+01   2.0862105685e+01    0.1989971    0.1928759  81.21 0.0003939952    1.210    0.173
       218 -12.0796     27.9710    150.1473   7.1068878006e+01   4.0811777532e+01    0.3354929    0.2523363  -8.31  0.001433035    1.698    0.411
       219 -12.2406    109.7924    149.0308   4.5605466667e+01   2.9349035512e+01    0.4845338    0.2675831  40.02  0.001441234    1.715    0.417
       220 -12.3356     96.3397    149.0628   4.9423671357e+01   3.1692394779e+01    0.2725684    0.2280273  43.66 0.0003168562    1.138    0.121
       221 -11.2270    146.7659    149.0229   3.6208047553e+01   2.2583269771e+01    0.2049809    0.1803774 -34.10 0.0006414165    1.138    0.121
       222 -11.1856     19.9683    148.6251   7.3527670480e+01   4.1948506224e+01     0.197316    0.1699369  -0.22 0.0004460723    1.378    0.274
       223 -12.2981     53.6105    143.8011   6.1874995738e+01   3.9540487948e+01    0.3124922    0.1665322  81.98 0.0002897905    2.683    0.627
       224 -11.8955    157.3004    145.4508   3.3077926223e+01   2.1342602499e+01    0.2911086    0.2287476  15.79 0.0007543721    1.379    0.275
       225 -11.1773    232.7827    145.1722   1.9564998271e+01   8.7913557564e+00    0.1623756     0.120645  -7.92 0.0003985389    1.317    0.241
       226 -11.5886    171.4370    145.6103   3.0129517802e+01   1.8732582749e+01    0.2659963    0.1230405  54.89 0.0009627703    3.329    0.700
       227 -12.4510    103.1810    143.6190   4.6391861019e+01   3.1785819385e+01    0.5932531    0.3504971  66.76  0.002179882    2.762    0.638
       228 -11.3055    186.9906    143.9812   2.6772291142e+01   1.6270046163e+01    0.1975067    0.1780446 -18.09  0.001210023    1.021    0.020
       229 -11.7264    142.9686    143.1652   3.5858623254e+01   2.4480359879e+01    0.4243422    0.2554234 -25.98  0.001157443    2.176    0.540
       230 -13.2695     75.4913    150.8733   5.5989695142e+01   3.4628310452e+01    0.4999142    0.3271629  56.38  0.001591435    1.632    0.387
       231 -12.1951      2.5172    141.8996   7.8751569447e+01   4.5020174448e+01    0.3831991    0.1940187  62.72  0.001788464    1.870    0.465
       232 -10.7298    178.9968    142.4973   2.7972377391e+01   1.7936932862e+01    0.1842049    0.1230962  68.51 0.0008106632    2.591    0.614
       233 -11.5094    150.8674    141.4565   3.3655527924e+01   2.3329933769e+01    0.2334953    0.1979183 -38.37 0.0002736427    1.173    0.147
       234 -12.2566     48.2768    141.5150   6.3325530872e+01   4.0817031596e+01    0.4317729    0.2360912  23.86  0.001383612    1.919    0.479
       235 -12.6795     94.4794    139.6064   4.8142256320e+01   3.4284925855e+01    0.3656353    0.3147339 -30.15  0.001871387    1.298    0.229
       236 -11.4038     78.4792    141.5218   5.3440699380e+01   3.6500043983e+01    0.1495641    0.1449478  47.78 0.0001628038    1.036    0.035
       237 -12.4322     59.9789    140.4910   5.9260146707e+01   3.9539724756e+01    0.3056154    0.1899773 -49.33  0.001365754    1.721    0.419
       238 -12.4429     72.3758    139.1257   5.4960443237e+01   3.8066118555e+01    0.2498069    0.2105844  21.00 0.0005740001    1.263    0.208
       239 -12.6228     40.5025    137.7242   6.5455027535e+01   4.2743850474e+01    0.4202619    0.2749843  44.92 0.0006066705    1.459    0.315
       240 -12.6591     45.5479    135.7703   6.3439037141e+01   4.2664808870e+01    0.4555759     0.311141  86.66  0.001250932    1.581    0.368
       241 -13.0882     52.5087    136.3169   6.1121233314e+01   4.1640555513e+01    0.3392012    0.3139015 -54.88 0.0009869831    1.143    0.125
       242 -12.6192     60.0393    135.5284   5.8426848715e+01   4.0821197716e+01    0.2923512    0.2202529 -79.30 0.0005695131    1.384    0.277
       243 -10.8718    183.7979    137.2081   2.5927557140e+01   1.8005869323e+01    0.1817685    0.1478426  -8.89 0.0002834552    1.272    0.214
       244 -10.8559    171.2877    137.3255   2.8379237570e+01   2.0276739182e+01    0.1419283    0.1059194  -4.84 0.0006063405    1.609    0.378
       245 -13.4380    123.3354    134.7981   3.8946825391e+01   3.0036632034e+01    0.5133666    0.3483462  32.69  0.001196702    1.514    0.339
       246 -12.3021     68.1242    137.0641   5.5985297034e+01   3.9242772467e+01    0.2329407    0.2145965  59.57 0.0006835459    1.040    0.039
       247 -11.0717     31.8788    136.9038   6.8339275071e+01   4.3897076174e+01    0.2202396    0.1826803 -44.29  0.001043314    1.338    0.253
       248 -11.8243    174.8503    134.2966   2.7005517694e+01   2.0164744775e+01    0.2642551    0.1912374 -31.08 0.0008390339    1.338    0.252
       249 -12.4107     86.4115    134.8077   4.9656205554e+01   3.6860956117e+01    0.3116894    0.2747929  21.40 0.0008618836    1.195    0.163
       250 -10.8137     25.5576    135.5091   7.0386480752e+01   4.4887328486e+01    0.1426145    0.1269693  73.21 0.0001439218    1.032    0.031
       251 -11.2238    210.2676    134.0013   2.0696650757e+01   1.3949872635e+01    0.1826886    0.1530446 -26.08 0.0005739847    1.030    0.029
       252 -10.7643    196.5289    134.4992   2.3064731571e+01   1.6208269423e+01    0.1324248    0.1184312 -27.10 0.0008095302    1.047    0.045
       253 -13.1201     18.1124    131.1909   7.2573147046e+01   4.6691829125e+01    0.4843705    0.2403405  29.26 0.0009373018    1.950    0.487
       254 -12.5256     77.8705    132.8706   5.2004133552e+01   3.8779660357e+01    0.2992555     0.259217 -13.26   0.00046745    1.361    0.265
       255 -12.2419     81.6964    130.3405   5.0254991361e+01   3.8779973360e+01    0.3014988     0.220838  78.02  0.001355309    1.692    0.409
       256 -12.6416     83.5265    127.4850   4.9068319873e+01   3.9182453793e+01    0.3024769    0.2709381 -21.08  0.000849655    1.262    0.208
       257 -12.4765     50.0730    130.4926   6.1050478572e+01   4.3493998908e+01    0.3107878    0.2272557  29.88 0.0009694768    1.374    0.272
       258 -11.3984     46.0045    128.5057   6.2185586189e+01   4.4536150473e+01    0.2219232    0.1410966  31.16 0.0008203501    1.553    0.356
       259 -12.1886    104.9474    129.9011   4.2977766383e+01   3.4693927458e+01    0.2286526     0.219243  55.46  0.000305287    1.028    0.028
       260 -10.5250     34.4796    130.4554   6.6613553417e+01   4.5342558836e+01    0.1442915    0.1333766  74.79 8.358458e-05    1.009    0.009
       261 -10.8781    247.0237    130.0000   1.4727003956e+01   8.8675732469e+00    0.1609072   0.06742265  48.02 0.0008060175    2.967    0.663
       262 -11.3049    130.3806    128.7144   3.5727763163e+01   2.9977671979e+01    0.2379797    0.2177154  82.48 0.0005093648    1.222    0.182
       263 -11.7994    122.4094    128.3870   3.7736903018e+01   3.1640871423e+01    0.2998386    0.2553147 -24.41 0.0008049272    1.290    0.225
       264 -11.8277    110.3359    128.6378   4.1134184244e+01   3.3956256066e+01    0.3375387    0.2246587  86.19   0.00128348    2.590    0.614
       265 -12.9792     56.8895    127.8699   5.8199694101e+01   4.3270006302e+01    0.4172778     0.224438  41.94   0.00174326    1.793    0.442
       266 -13.3592     10.4284    126.1655   7.4880320685e+01   4.8617926273e+01    0.5207341    0.2101599  52.95  0.002055119    2.545    0.607
       267 -11.3519    177.7065    126.8460   2.4788654647e+01   2.0966856228e+01    0.2851759    0.1521776  34.28  0.001223829    2.236    0.553
       268 -11.2897     41.5333    125.8801   6.3401517056e+01   4.5776155374e+01    0.4289925    0.1440787 -70.20  0.001424014    3.012    0.668
       269 -11.7879      1.4001    127.6692   7.8249273441e+01   4.8800874806e+01    0.2575074    0.1182268 -87.73   0.00111833    2.023    0.506
       270 -12.1447     26.6560    125.6193   6.8850800023e+01   4.7425412812e+01    0.2717855    0.2178202 -51.36  0.000716324    1.301    0.231
       271 -11.6375    125.2881    123.4378   3.5805368319e+01   3.2154390743e+01    0.3281656    0.2647786  60.78  0.001606313    1.358    0.264
       272 -10.9580    121.6216    124.1816   3.6960935146e+01   3.2733544482e+01    0.2565321    0.1939089 -30.81 0.0004136702    1.483    0.326
       273 -13.2821     75.8642    123.6917   5.0809573500e+01   4.1442755381e+01    0.5501962    0.3740144 -83.06 0.0003991809    1.843    0.457
       274 -13.1261     73.8305    114.0308   4.9400143941e+01   4.4245332249e+01    0.5496162    0.3330447 -38.90 -0.0006383859    1.950    0.487
       275 -11.9214     77.5231    113.1019   4.7891887155e+01   4.3844289707e+01    0.2787611    0.2163495 -65.42 0.0002895635    1.335    0.251
       276 -13.4202     78.4389    119.0421   4.8930206173e+01   4.2185929511e+01    0.4537657    0.4371209   4.71  0.001714328    1.112    0.101
       277 -13.0585     82.1989    115.9308   4.6948050878e+01   4.2307121472e+01    0.5511102     0.304136 -57.75  0.001049503    1.860    0.462
       278 -10.6599     49.6085    124.1311   6.0164892369e+01   4.5242165870e+01     0.192193    0.1318595 -54.36 0.0002334742    1.463    0.317
       279 -12.3697    193.6143    122.0673   2.0851222003e+01   1.8804669147e+01    0.2134611    0.1953567  72.82  0.001302405    1.318    0.241
       280 -11.2726    179.0362    121.9334   2.3418110968e+01   2.1586811481e+01    0.2098453     0.192078 -21.51 0.0004537776    1.039    0.037
       281 -11.4798    189.0068    121.2774   2.1467367317e+01   1.9797105441e+01     0.181428    0.1738251   4.77 0.0003273563    1.091    0.084
       282 -11.6323    105.1695    121.3912   4.0952954393e+01   3.6653480249e+01    0.3810799    0.1973598  53.51  0.001399633    2.286    0.563
       283 -11.8072    100.7932    119.3789   4.1789610275e+01   3.7983396096e+01    0.3360564    0.1518295  36.18  0.001197009    2.276    0.561
       284 -13.3718     11.2344    111.3784   7.3147424021e+01   5.2517192839e+01    0.4860641    0.4173585   3.30  0.001783861    1.318    0.241
       285 -12.7612      4.2239    112.3868   7.6030387602e+01   5.2689288651e+01    0.3174786    0.2205486 -70.28 0.0008692014    1.310    0.236
       286 -13.7884     13.3457    119.3943   7.3155131381e+01   5.0216642061e+01    0.5476127    0.3811432  16.97   0.00164742    1.571    0.364
       287 -13.0462      8.7009    117.8967   7.4785440208e+01   5.0941287587e+01    0.3836913    0.2561619  -0.23  0.001420194    1.799    0.444
       288 -10.5308    227.3408    119.2569   1.5127708987e+01   1.3384876994e+01    0.1180662   0.08894086   2.72 0.0002489205    1.582    0.368
       289 -10.3460     46.4068    119.4475   6.0544642917e+01   4.6900721296e+01    0.1514568    0.1341121  71.06            0    1.116    0.104
       290 -11.8945     29.3960    117.9013   6.6797690221e+01   4.9236167648e+01    0.3999483    0.1841088 -57.69 0.0008697659    2.028    0.507
       291 -10.9717    116.9482    117.9617   3.6733263753e+01   3.5076039800e+01    0.2316515    0.1865429  86.57 0.0003198797    1.552    0.356
       292 -11.8854     22.8292    118.1066   6.9364772485e+01   4.9796190571e+01    0.2236499    0.1778543  63.73 0.0005722112    1.239    0.193
       293 -11.5809     93.5070    116.4838   4.3366774122e+01   4.0080792361e+01    0.2301752    0.2147402  38.15 0.0006796803    1.066    0.062
       294 -11.8929     96.5284    115.9815   4.2289721098e+01   3.9621935272e+01    0.2872121    0.2246359   8.91 0.0005503836    1.624    0.384
       295 -12.4562     99.8508    113.1908   4.0565672220e+01   3.9635904876e+01     0.300295    0.2689373 -16.49  0.000381657    1.262    0.207
       296 -10.9487    196.5419    115.4440   1.8876709273e+01   1.9360901784e+01    0.1340134    0.1201318 -29.87 8.127911e-05    1.008    0.008
       297 -10.4370    188.3031    115.2779   2.0221253629e+01   2.0953081467e+01    0.1327722    0.1041651   3.07 0.0002067895    1.546    0.353
       298 -10.5580    125.6096    115.5062   3.3773881756e+01   3.3820063898e+01    0.1508336    0.1474801 -65.80 0.0008000645    1.035    0.034
       299 -12.6232     67.8703    114.1779   5.1561621332e+01   4.5194008193e+01    0.3407149     0.248126 -54.84 0.0006949345    1.371    0.271
       300 -13.9211     62.4834    111.2856   5.2906058762e+01   4.6794482879e+01    0.9615804    0.3292233 -56.49  0.003206304    2.750    0.636
       301 -10.8421    201.6906    114.2994   1.7795094550e+01   1.8591906428e+01    0.1295149    0.0992865 -63.84 0.0002525409    1.599    0.375
       302 -11.9692    115.0385    113.3110   3.6103000001e+01   3.6516360118e+01    0.3190079    0.2750795 -28.49  0.001594044    1.264    0.209
       303 -11.4447    108.4596    111.9676   3.7656823788e+01   3.8181945056e+01    0.2959828    0.2134491  59.65 0.0007186758    1.549    0.354
       304 -10.7818     36.4240    109.9532   6.2785752651e+01   5.0635419227e+01    0.1896156    0.1145334  72.48 0.0004757458    2.036    0.509
       305 -12.0098     20.2800    110.1053   6.9345660671e+01   5.2171832906e+01    0.3150205    0.1988457  27.07 0.0006363573    1.627    0.385
       306 -11.6094     76.5521    107.5663   4.6909381565e+01   4.5406722347e+01    0.2780018    0.2055279  73.44 0.0004703417    1.676    0.403
       307 -11.1098    139.6847    107.1732   2.8101918287e+01   3.2555480499e+01    0.2650443    0.2103322  61.39 0.0009611533    1.360    0.265
       308 -11.3533    121.8733    107.1088   3.2604925368e+01   3.6438735734e+01     0.227812    0.2064635 -86.04   0.00116431    1.194    0.163
       309 -12.2902     11.9917    104.8142   7.2101115624e+01   5.4227707236e+01    0.3354774    0.2357029 -37.13  0.001283076    1.551    0.355
       310 -11.5670    104.0748    103.3641   3.6708343889e+01   4.1063554400e+01    0.3683298    0.2811912  -8.34  0.001617324    1.833    0.454
       311 -11.7593     78.5568    101.9973   4.4789444889e+01   4.6430372588e+01    0.3128736    0.2106248  52.93  0.001234682    1.590    0.371
       312 -12.0560     55.9475    101.3063   5.3183215838e+01   5.0381852057e+01    0.2712083    0.2190672 -63.95 0.0005383115    1.226    0.184
       313 -12.2898     57.8584     97.6407   5.1545744369e+01   5.1038843525e+01    0.3255572    0.2671967  36.78 0.0008610957    1.221    0.181
       314 -10.8536     28.3379    101.3930   6.4676147359e+01   5.3785016501e+01    0.3374185    0.1574784  51.47  0.001297169    2.490    0.598
       315 -10.5988    184.6716    101.6491   1.7623515913e+01   2.3986301216e+01    0.1423281    0.1079041   3.91  0.000704811    1.766    0.434
       316 -13.0499      6.1065     99.8497   7.4036025595e+01   5.5929410230e+01     0.427538     0.268436  39.45  0.001809696    1.639    0.390
       317 -10.5762    219.0118     99.9941   1.2120336786e+01   1.7658588188e+01    0.1512625    0.1306494 -36.83  0.000971408    1.019    0.019
       318 -10.8455     85.7804    100.1811   4.1774796345e+01   4.5509268211e+01    0.2146353    0.1883029 -13.43   0.00082566    1.322    0.244
       319 -11.5168    115.6458     98.8749   3.2082486976e+01   3.9581207259e+01    0.2999842    0.2220824  83.11 0.0003842244    1.834    0.455
       320 -12.5454     93.9474     98.5821   3.8595379487e+01   4.4262806630e+01    0.4048127    0.2854475  50.79 0.0008829782    1.440    0.306
       321 -11.0773    190.6700     98.3484   1.5843399863e+01   2.3318756014e+01    0.1441048    0.1006983 -65.19 0.0005185282    1.763    0.433
       322 -10.8806     68.5223     98.5129   4.7589467721e+01   4.9079898952e+01     0.152845    0.1493925  77.04 0.0002145436    1.012    0.012
       323 -10.1965    118.2608     95.6949   3.0459803963e+01   3.9685604879e+01    0.1522066    0.1218372 -82.57 0.0002613224    1.520    0.342
       324 -10.8827      1.3085     93.8108   7.5501193575e+01   5.7789781754e+01    0.1876168    0.1058755 -69.17 0.0003555231    1.551    0.355
       325 -13.1151     77.5909     92.3979   4.2535696196e+01   4.8951908791e+01    0.4500908    0.2388463  48.39  0.001699684    1.986    0.496
       326 -12.5007     74.0014     90.2587   4.3265404370e+01   5.0139347645e+01    0.3142332    0.2504088  21.50  0.001024591    1.395    0.283
       327 -12.4502     63.1520     92.5258   4.8114939305e+01   5.1489103264e+01    0.2806222    0.2206831 -59.38 0.0007584488    1.273    0.214
       328 -11.3508    121.5007     90.3897   2.8054741294e+01   4.0065292245e+01    0.2932881    0.2394881 -70.28 0.0007311107    1.372    0.271
       329 -11.0380     27.9140     90.7926   6.2940611053e+01   5.6654559178e+01    0.2913893     0.162974 -12.30  0.001156083    2.595    0.615
       330 -12.4441      3.3132     88.3494   7.3986756820e+01   5.9138163835e+01    0.4200087    0.2286806 -81.40  0.001980134    1.709    0.415
       331 -11.1897    125.2386     87.2118   2.6144292887e+01   3.9851844943e+01     0.301339    0.2448927  -2.11   0.00142051    1.613    0.380
       332 -12.3163     54.8042     85.5016   4.9669572756e+01   5.4593480125e+01    0.5206744     0.428249  -0.45  0.002614278    1.412    0.292
       333 -11.0579    134.6548     84.0967   2.2909764387e+01   3.8263984964e+01     0.210158    0.1884995 -39.99 0.0003877773    1.130    0.115
       334 -12.2033     95.1184     83.3906   3.3733444118e+01   4.7463465410e+01    0.3368412    0.2527101 -45.99 0.0009160372    1.356    0.263
       335 -11.7771     79.1832     83.0078   3.9166769126e+01   5.0862001231e+01    0.2762834    0.2116687 -55.73 0.0009072518    1.343    0.255
       336 -11.1028    183.6581     83.3016   1.3237032483e+01   2.7231136988e+01    0.1446171     0.101734 -68.13 0.0007038094    1.675    0.403
       337 -11.9288    215.7536     81.4899   8.3774675144e+00   2.0977707204e+01    0.2535297    0.1670972 -47.74 0.0006097844    1.348    0.258
       338 -10.3386    144.4863     82.5424   2.0242241225e+01   3.6244135178e+01    0.1494546    0.1435816 -74.55 0.0001721708    1.006    0.006
       339 -12.1660     88.4677     79.5469   3.4751045111e+01   4.9736343549e+01    0.4063828    0.2686071 -36.03  0.001350851    1.683    0.406
       340 -12.3469     65.9743     81.7257   4.3903538530e+01   5.3653154337e+01    0.3040403    0.1924543 -40.75   0.00131287    1.691    0.408
       341 -12.0651      9.3920     78.9574   6.9735103179e+01   6.1272782460e+01    0.5659887     0.219881 -83.64  0.002065848    2.941    0.660
       342 -12.1026    111.5855     77.7677   2.6929497784e+01   4.4929445977e+01     0.440207    0.2995223 -75.22  0.001556984    2.120    0.528
       343 -10.7405      4.5267     79.4865   7.2260837265e+01   6.1409736254e+01    0.1351941    0.1224255 -69.32 0.0001431994    1.008    0.008
       344 -11.0066     55.9652     78.3686   4.7117779415e+01   5.6169957352e+01    0.2095426     0.187495  19.84 0.0006565272    1.154    0.134
       345 -12.1054    102.3160     77.0173   2.9418779126e+01   4.7221641258e+01     0.259722     0.218881  42.36 0.0003989361    1.190    0.160
       346 -11.9481     86.6887     74.0694   3.3570299518e+01   5.1308947530e+01    0.3664962    0.2064129 -47.81   0.00149724    1.818    0.450
       347 -11.2133    105.8714     73.1643   2.7085614539e+01   4.7185037438e+01     0.239266     0.210834  85.34 0.0005987148    1.220    0.180
       348 -10.9349     44.9849     73.3685   5.0642215668e+01   5.9070324891e+01     0.202378    0.1848494  38.23 0.0005104369    1.122    0.109
       349 -11.0594     79.3472     70.3009   3.4941963955e+01   5.3672992092e+01    0.4572872    0.2111065 -35.48  0.001572087    2.790    0.642
       350 -13.1001     54.8948     69.1163   4.4673225618e+01   5.8552693835e+01    0.3976097    0.3200105 -10.57 0.0006554862    1.457    0.314
       351 -12.6620     60.9495     68.2895   4.1692043960e+01   5.7695133648e+01     0.528974    0.3674234 -80.17  0.002003949    2.113    0.527
       352 -11.7249      3.0206     71.9698   7.1943770277e+01   6.3440294564e+01    0.2328432    0.1321151 -41.40 0.0006775831    1.708    0.414
       353 -11.1828    194.0000     70.9940   8.6308191118e+00   2.6916493916e+01    0.2283096     0.070136 -34.20  0.000803189    2.948    0.661
       354 -11.1671    154.5417     68.3437   1.4110835388e+01   3.6324615725e+01    0.2367265    0.1803387 -26.25  0.001178581    1.450    0.310
       355 -11.3586     71.7367     68.7144   3.7330628035e+01   5.5563530922e+01    0.3743072    0.2438457   9.52  0.001435067    2.583    0.613
       356 -10.8820    121.1320     68.1791   2.1274202671e+01   4.4491897702e+01    0.2108039    0.1748757 -69.23  0.000562001    1.297    0.229
       357 -11.9741     48.9274     66.8679   4.6714143113e+01   6.0043646529e+01    0.4347262    0.2639907  26.85  0.001935772    1.746    0.427
       358 -10.4911    228.2996     66.6716   3.6583668519e+00   2.0667523654e+01    0.1302951   0.07738763 -56.15 0.0002945364    1.640    0.390
       359 -10.9174     39.1792     65.0439   5.0957638156e+01   6.1900168165e+01    0.1928305     0.179263 -48.97 0.0004019466    1.056    0.053
       360 -10.2762    164.7015     64.3137   1.1185712846e+01   3.4547497406e+01    0.1496854    0.1028779 -66.07 0.0002479674    1.606    0.377
       361 -11.4907     46.5895     62.6627   4.6429963304e+01   6.1388183235e+01    0.2828083    0.1747138  35.32 0.0007517189    1.616    0.381
       362 -11.1140      8.6921     63.3153   6.7272053787e+01   6.5346011569e+01    0.1870566    0.1694444 -86.10  0.000786269    1.146    0.127
       363 -10.9536    136.3444     61.6819   1.5664513608e+01   4.1878215146e+01    0.1596482    0.1122657 -73.98 0.0006917522    1.721    0.419
       364 -10.6594    123.7960     61.5903   1.8444578156e+01   4.5010600023e+01    0.2025801    0.1431386  70.57 0.0002974556    1.506    0.336
       365 -10.8017     21.1977     61.2331   5.9592246767e+01   6.4896886718e+01     0.174541    0.1567245  73.70 0.0004268985    1.256    0.204
       366 -11.7870     14.2936     59.8944   6.3244720824e+01   6.5817200780e+01    0.4050445    0.2389151   6.62  0.001952903    1.879    0.468
       367 -11.0518     43.2274     54.0389   4.5022949538e+01   6.3864128368e+01    0.3065251    0.1939012  22.10 0.0009082123    1.733    0.423
       368 -11.7645     41.4703     58.5606   4.7599351143e+01   6.3103642283e+01    0.3774765    0.2826754 -28.31  0.001914717    1.433    0.302
       369 -12.6285     37.1260     54.6916   4.8540238246e+01   6.4608512671e+01    0.7071289    0.3068456 -45.24  0.002815045    2.268    0.559
       370 -10.6771    197.3091     58.2973   5.0306393572e+00   2.8032452747e+01    0.1229315    0.1034652  19.24 0.0002410369    1.594    0.373
       371 -12.9044    153.4158     56.9855   1.0947353721e+01   3.8406272029e+01    0.3113622    0.2634191 -47.67 0.0004880218    1.141    0.123
       372 -11.5958    179.7508     56.0465   6.6572823579e+00   3.2264992212e+01    0.2158487    0.1871636  87.90 0.0003357429    1.150    0.130
       373 -12.1366    110.2577     55.8340   1.9860928551e+01   4.9361869823e+01    0.2759902    0.2010881  66.41  0.001299541    1.401    0.286
       374 -10.0561     54.4795     56.5649   4.0375726966e+01   6.1450889056e+01    0.1435457    0.1401352  37.81 6.741151e-05    1.063    0.059
       375 -11.3451    150.9821     50.9858   9.5380133772e+00   3.9911254961e+01    0.2188487    0.2013803 -70.34 0.0003595821    1.019    0.018
       376 -12.5807    113.5523     50.9627   1.7253493952e+01   4.9359160983e+01    0.4827334    0.1836054  51.66  0.001701108    2.478    0.596
       377 -12.1134    106.6405     51.0314   1.9076219286e+01   5.1073729171e+01    0.3343585    0.2085559  56.21 0.0005912535    1.530    0.346
       378 -13.4644     30.0283     49.8764   5.0825417545e+01   6.6640072920e+01    0.3571851     0.317783 -77.82  0.001653433    1.296    0.228
       379 -11.4722    173.2496     49.9351   5.8567798671e+00   3.4646352676e+01    0.2703359    0.1761121 -73.11  0.001312871    1.703    0.413
       380 -12.1642     99.5421     49.5298   2.0496234732e+01   5.3075349865e+01    0.3103175    0.2591037 -80.94  0.001091713    1.352    0.260
       381 -10.9345     16.2860     49.9654   5.9300455714e+01   6.8072987603e+01     0.186922    0.1571447 -52.35  0.000318935    1.113    0.101
       382 -12.2156    194.3776     44.2388   1.7945734204e+00   3.0561213592e+01    0.2484061     0.197135 -64.22 0.0002181611    1.132    0.117
       383 -10.9594     49.5265     43.9863   3.7624547803e+01   6.4944423326e+01    0.2157445    0.1769057  32.64 0.0005059008    1.186    0.157
       384 -11.7299    167.0849     41.9184   4.4040530453e+00   3.7217592830e+01    0.2053259    0.1828465 -67.92 0.0003153819    1.008    0.008
       385 -12.8354    155.0550     41.2464   5.8965064000e+00   4.0271340081e+01     0.292546    0.2560211 -87.52 0.0004711426    1.066    0.062
       386 -12.5844    120.4014     39.5735   1.1518979257e+01   4.9354772275e+01     0.370471    0.3159879  26.84   0.00160966    1.385    0.278
       387 -13.4412     34.5007     40.3595   4.4322247262e+01   6.8116988677e+01    0.4788706     0.318678  39.45  0.002193525    1.554    0.356
       388 -10.8106     13.4925     40.4898   5.8065402497e+01   7.0525600630e+01    0.1334769    0.1181176 -30.93 0.0001875795    1.013    0.013
       389 -11.7820     80.0443     36.8854   2.1422525176e+01   5.9830338448e+01    0.3821276    0.2169568 -36.09  0.001036675    1.861    0.463
       390 -11.2598      2.6562     41.9772   6.6154440546e+01   7.0924284660e+01    0.2476094    0.1798054  65.11  0.001373162    1.729    0.422
       391 -11.9475     88.7015     36.0518   1.8238202571e+01   5.7884559654e+01    0.2604638    0.2383594 -37.36 0.0007704017    1.163    0.140
       392 -12.0362     85.6059     33.8202   1.8223376701e+01   5.8971662622e+01    0.2056615    0.1961066 -47.01 0.0007355899    1.119    0.106
       393 -11.8535     22.7579     37.5493   5.0571872139e+01   7.0248918228e+01    0.1926438    0.1179755  37.39 0.0009555767    1.738    0.425
       394 -11.9807      9.3736     36.6724   5.9677556011e+01   7.1728262160e+01    0.2422578    0.1916733  30.09 0.0007806343    1.376    0.273
       395 -11.7176     42.1097     33.7370   3.6783849785e+01   6.8222302800e+01      0.24612    0.1931739 -29.11 0.0003291489    1.290    0.225
       396 -11.5016     34.4890     33.9790   4.1376837331e+01   6.9411903557e+01    0.1939616    0.1733858 -21.31 0.0004055029    1.070    0.066
       397 -12.5714     30.5653     31.6473   4.2701670456e+01   7.0453322883e+01    0.2452042    0.2357111  18.09 0.0008577493    1.144    0.126
       398 -10.7700     20.2744     33.6335   5.0598302995e+01   7.1371142746e+01    0.1265323    0.1046028  73.14 0.0007004491    1.671    0.402
       399 -11.0846     14.5137     33.4650   5.4678603506e+01   7.2004595428e+01    0.1336905    0.1147836 -24.82 1.210353e-05    1.047    0.045
       400 -11.1083    136.4716     31.5234   5.6568779877e+00   4.6274224255e+01     0.143705    0.1303932 -87.44 4.244899e-05    1.002    0.002
       401 -11.5449      3.6519     30.3607   6.1846022728e+01   7.3548435093e+01    0.2711447    0.1746164 -15.22  0.001486702    1.561    0.359
       402 -12.1906     81.9274     28.8263   1.7125541107e+01   6.0584012239e+01    0.2264108    0.1827412  37.32 0.0003490317    1.245    0.197
       403 -12.0696     75.8035     29.0296   1.9265495328e+01   6.2017968036e+01    0.2150792    0.1925534 -74.37 0.0005888183    1.274    0.215
       404 -12.0618     45.1301     25.4384   3.0763824577e+01   6.9143684005e+01    0.3160341    0.2038556 -26.92   0.00157202    1.702    0.412
       405 -11.2814      1.6357     25.9339   6.1899597397e+01   7.4654194258e+01    0.1771773    0.1440639 -51.15 0.0006263839    1.144    0.126
       406 -10.8492    237.4211    249.4874   3.6153600519e+01  -4.8390842211e+00    0.1017922   0.06949618  -0.75 -1.944712e-05    1.019    0.019
       407 -12.1374     70.2437     21.4430   1.7468274041e+01   6.4373406764e+01    0.2390113    0.2153487  -2.16 0.0006129427    1.188    0.158
       408 -10.6211    133.2998     21.6637   2.7477486420e+00   4.8272310060e+01    0.1507729   0.09587852 -63.55 0.0007034431    1.658    0.397
       409 -11.4371    138.5707     19.4869   1.2359703033e+00   4.7142224003e+01    0.2348517    0.2054427  84.59 0.0003983764    1.043    0.041
       410 -10.9424     92.6703     19.2362   9.6721731304e+00   5.9129345043e+01    0.1888367    0.1356013 -11.92 0.0009434976    1.676    0.403
       411 -12.1554     74.2595     24.6492   1.7673023129e+01   6.2998009146e+01    0.3113618    0.2225092  54.59 0.0009012395    1.290    0.225
       412 -11.5841    101.9874     15.4960   5.8993131047e+00   5.7138728697e+01    0.2214342     0.191662  19.25  0.001251071    1.335    0.251
       413 -10.7250     65.8181     15.8625   1.6110642147e+01   6.6115262594e+01    0.1839119    0.1623599 -89.90 0.0006679451    1.311    0.237
       414 -10.7019     86.2636     12.6200   8.1981358771e+00   6.1483749122e+01    0.1420426   0.09994752 -60.87  0.000698294    1.679    0.404
       415 -11.6814    190.1224    249.0141   4.3956202403e+01   5.1176967168e-02    0.1590024    0.1175279   6.95  0.001178319    1.027    0.026
       416 -11.8297     69.0773    247.5942   6.8442278864e+01   1.4724726872e+01    0.3489994    0.1650571  58.64  0.001751595    2.473    0.596
       417 -11.5468    178.1021    247.2184   4.5908195519e+01   1.6329333711e+00    0.1687119     0.116476   7.95 0.0003514535    1.173    0.147
       418 -11.6866     99.3327    246.8666   6.1810427217e+01   1.1251855043e+01    0.2228413    0.1432222  24.69 0.0004731457    1.293    0.227
       419 -11.0295    213.9928    245.9903   3.9420593495e+01  -2.1508610761e+00    0.1328926    0.1147227  25.34  0.001055278    1.712    0.416
       420 -10.9556    163.2341    246.4201   4.8618176476e+01   3.4807303487e+00    0.1641669     0.086231  34.83 0.0009514481    1.672    0.402
       421 -11.4520    205.9691    244.2468   4.0534299151e+01  -1.1027290728e+00    0.1722916    0.1270282  -9.12 0.0004319075    1.173    0.148
