#   1 NUMBER                 Running object number                                     
#   2 MAG_AUTO               Kron-like elliptical aperture magnitude                    [mag]
#   3 X_IMAGE                Object position along x                                    [pixel]
#   4 Y_IMAGE                Object position along y                                    [pixel]
#   5 X_WORLD                Barycenter position along world x axis                     [deg]
#   6 Y_WORLD                Barycenter position along world y axis                     [deg]
#   7 A_WORLD                Profile RMS along major axis (world units)                 [deg]
#   8 B_WORLD                Profile RMS along minor axis (world units)                 [deg]
#   9 THETA_WORLD            Position angle (CCW/world-x)                               [deg]
#  10 FWHM_WORLD             FWHM assuming a gaussian core                              [deg]
#  11 ELONGATION             A_IMAGE/B_IMAGE                                           
#  12 ELLIPTICITY            1 - B_IMAGE/A_IMAGE                                       
         1 -11.2904      9.5173     24.6265   1.2224632208e+02   7.0318281049e+01    0.4146718    0.2480781 -46.89  0.002689427    1.309    0.236
         2 -11.7097     60.9351     23.7210   9.7977773871e+01   6.4653797298e+01    0.4360858    0.2338086 -47.86  0.002066244    2.483    0.597
         3 -10.4943     19.5603     16.5288   1.1372891071e+02   7.0938357768e+01    0.3595462      0.15316 -35.69 0.0009235871    1.980    0.495
         4 -12.4082     26.1600     13.5855   1.0894641181e+02   7.0764844990e+01    0.2914027    0.2143135   6.69 0.0003668789    1.296    0.228
         5 -10.5440     35.0856     21.4174   1.0818065853e+02   6.8558554904e+01    0.4793429    0.1921878 -41.55  0.002339521    2.180    0.541
         6 -10.7373      4.3949     20.1161   1.2326340077e+02   7.1449635922e+01    0.3887467    0.1123038 -47.37   0.00190597    2.340    0.573
         7 -10.9797    216.3274     16.8893   6.2465995545e+01   2.8887169762e+01     0.757643     0.180496  53.45  0.002335703    4.570    0.781
         8 -11.8633    131.0760     14.1889   7.3636476252e+01   5.1036265836e+01    0.5396481    0.2898371  35.43  0.001743723    2.054    0.513
         9 -11.3658    119.8382     11.5675   7.4960004008e+01   5.4039261958e+01    0.2858367    0.2322795  24.10 0.0002705827    1.231    0.187
        10 -11.0405     75.0713      5.1676   8.4053714774e+01   6.4432774831e+01    0.3683477    0.1985486 -16.74  0.001022913    1.905    0.475
        11 -11.3086     78.4754      9.6705   8.5099683585e+01   6.3305521426e+01    0.3685262     0.224352  48.17   0.00163312    1.558    0.358
        12 -11.7277     81.3806      6.0612   8.2488000593e+01   6.3102197871e+01    0.2758172    0.2171771  10.51 0.0002156014    1.170    0.145
        13  -9.7621      3.1505     10.0900   1.1992374446e+02   7.3256964459e+01    0.2127221    0.1317132 -76.31 0.0009841843    4.042    0.753
        14  -9.9793    107.8224      9.7154   7.6942241251e+01   5.7041585531e+01    0.2001748    0.1578863  35.11   0.00072604    1.150    0.130
        15 -10.2688     60.9448     10.8616   9.1881746345e+01   6.6361030393e+01    0.3611588    0.2197969  65.93  0.001602495    3.532    0.717
        16 -10.3787     23.0588      9.2694   1.0845169607e+02   7.1738489766e+01    0.1871839    0.1277671 -27.78 0.0003987442    1.180    0.153
        17 -11.1113    129.4511      7.5895   7.1499845770e+01   5.2069640283e+01    0.3445068    0.2213406  89.60 0.0008686085    1.971    0.493
        18  -9.5500     37.2063      8.5730   1.0095856146e+02   7.0196173719e+01    0.1513932   0.09644107  16.37 0.0003671777    1.543    0.352
        19 -10.4678      9.4414      7.0527   1.1490104510e+02   7.3305372368e+01    0.2961697    0.1387009 -34.24   0.00130467    1.708    0.414
        20  -8.9028     66.7128      5.2664   8.6950609454e+01   6.5985055835e+01    0.1039626   0.09860417 -54.51 0.0002681844    1.497    0.332
        21  -9.2046     58.4863      5.4705   9.0116950872e+01   6.7399686053e+01    0.1239702    0.1005937   8.84 9.466575e-05    1.009    0.009
        22  -9.9303    115.5409      4.4395   7.3060679853e+01   5.5719893068e+01    0.2614705    0.1326831 -17.68  0.001208292    2.178    0.541
        23 -10.2755    135.8339      4.1495   6.9087518177e+01   5.0782458313e+01    0.1950631    0.1422898  40.36  0.001057282    1.326    0.246
        24 -10.3210    129.8936      3.8727   7.0034288651e+01   5.2285823257e+01    0.1794245    0.1539484 -80.72 0.0003859152    1.306    0.234
        25  -9.5700    120.5176      4.4986   7.2060895420e+01   5.4524076911e+01    0.1336331     0.121083  53.00 -7.493988e-05    1.050    0.047
        26  -9.3570    100.6276      3.7594   7.6167314223e+01   5.9220764232e+01    0.1583353    0.1199358 -24.71 0.0004072645    1.429    0.300
        27 -10.7172     91.8044      3.9032   7.8497193157e+01   6.1141362302e+01    0.2111029    0.1731094  32.52  0.000360912    1.050    0.048
        28 -11.6276     27.0547      3.2668   1.0321715324e+02   7.2153699876e+01    0.3845671    0.2187688  38.48  0.002111304    2.110    0.526
        29 -10.7113     31.0197      2.5073   1.0076571765e+02   7.1779283954e+01    0.2480015    0.1914605  50.47  0.001333488    2.144    0.534
        30 -10.1108     18.7321      3.9305   1.0805786093e+02   7.2954220431e+01    0.1531565     0.111668 -22.74 0.0003094592    1.083    0.076
        31  -9.4775    124.4322      1.4174   7.0114620428e+01   5.3831204840e+01    0.1322145    0.1184309  57.90 1.845461e-05    1.050    0.047
        32  -9.4730      6.6688    227.3015   1.4969894476e+02   2.7487756189e+01    0.1130857   0.05113604  63.90 0.0004718979    1.650    0.394
        33 -11.2988    247.7704    249.7764   1.0879289215e+02  -1.0584433244e+01    0.4379533    0.1743384  29.65  0.002320844    2.159    0.537
        34 -11.2062    250.5381    243.9148   1.0743167708e+02  -1.0365644396e+01    0.3786612    0.2097718 -31.81  0.001040221    2.046    0.511
        35 -11.3957    179.5135    243.5256   1.1971282877e+02   4.2154464077e-01    0.2361295    0.1287687  46.27  0.000951939    1.587    0.370
        36  -9.3802    168.6383    250.6901   1.2262981153e+02   1.1961293013e+00    0.1199021   0.08007476  19.39 0.0007040631    1.745    0.427
        37  -9.9407    127.9957    249.5235   1.2986384356e+02   7.7906165127e+00    0.1635261     0.148086  75.44    0.0012219    1.247    0.198
        38  -9.8133     72.7038    250.2267   1.3978675007e+02   1.5750598269e+01    0.1321293    0.1218939  63.74  0.001047714    1.412    0.292
        39 -12.6962     19.3635    247.9106   1.4853883035e+02   2.2557934061e+01    0.7972522    0.1571199  51.71  0.003874662    3.035    0.670
        40 -11.6214     27.8673    246.2416   1.4709109111e+02   2.1925403743e+01    0.3639721    0.1497558 -82.26  0.002180445    2.310    0.567
        41 -10.7897      6.1866    244.9936   1.5049442442e+02   2.4402215023e+01    0.2650906     0.126577  72.49 0.0008961679    1.563    0.360
        42 -11.8011      8.6915    241.8322   1.4997628069e+02   2.4700390129e+01    0.3865244    0.1609325  67.38  0.002437367    1.830    0.454
        43 -10.6819     11.0385    250.2915   1.4994568774e+02   2.3016271493e+01    0.2635427    0.1149419  40.84  0.001723688    2.021    0.505
        44 -10.4263    144.0117    226.5247   1.2409162024e+02   8.8437509736e+00    0.1938567    0.1042523  42.85 0.0004101106    1.519    0.342
        45 -10.4207     66.4602    226.3345   1.3902535304e+02   2.0805443125e+01    0.2568445    0.1282617  44.90  0.001079602    1.656    0.396
        46 -10.6117    180.9324    224.1926   1.1665382526e+02   2.9157176678e+00    0.1983763      0.17899 -18.64 0.0006633006    1.280    0.219
        47 -10.2844     81.3907    224.6454   1.3604685886e+02   1.9054764931e+01    0.2248303    0.1555859  79.36 0.0008670375    1.369    0.270
        48 -11.9408    156.0724    241.5017   1.2375419318e+02   4.5140732156e+00    0.3124039    0.1948171  33.56  0.001145017    1.440    0.306
        49 -10.7420     13.0585    222.1682   1.4838112595e+02   2.7811281693e+01    0.1742279    0.1316835  81.48 0.0004013541    1.164    0.141
        50 -11.2598    141.3927    221.3983   1.2391655644e+02   1.0141121224e+01    0.2794796    0.2102521  20.83  0.001262983    1.616    0.381
        51  -9.2860     51.4853    222.5565   1.4151818036e+02   2.3446896063e+01    0.1155326   0.08770613  68.07 0.0001243615    1.026    0.026
        52 -10.3482    174.0400    219.9823   1.1732905651e+02   4.7370224406e+00    0.2015028    0.1652098  39.19 0.0006373433    1.037    0.036
        53  -9.3178     21.7115    220.3117   1.4677418157e+02   2.7278515778e+01    0.1151483   0.05777922  66.59 0.0002987451    1.582    0.368
        54  -9.6932    250.2882    219.0879   1.0338380696e+02  -7.6053248722e+00    0.1635693     0.127326  -0.31 0.0008388095    1.108    0.098
        55 -10.9449    123.3701    221.5219   1.2749711409e+02   1.3139486727e+01    0.2551414    0.2066071  51.81 0.0009452219    1.019    0.019
        56 -10.3903    191.5363    217.0006   1.1351410141e+02   2.1563102760e+00    0.2394404    0.1868877 -21.64  0.001267268    1.453    0.312
        57 -10.0721    194.6615    215.3101   1.1264744225e+02   1.8651294290e+00    0.2013512    0.1448351  50.33 0.0006296717    1.463    0.317
        58  -9.6370     50.3350    218.3075   1.4141226760e+02   2.4401247137e+01   0.09712566   0.09055919 -45.73 0.0006020537    1.673    0.402
        59 -10.7705     10.1036    217.1053   1.4864668633e+02   2.9053374895e+01    0.2608633    0.1394482  58.53 0.0009687326    1.421    0.296
        60  -9.3118     37.5530    217.4596   1.4373528479e+02   2.6087140606e+01    0.1135218   0.08498658  71.74 0.0001394413    1.025    0.024
        61  -9.9908     24.5875    216.9326   1.4606842606e+02   2.7619485363e+01    0.2400093   0.09390464  53.74  0.001334477    1.993    0.498
        62 -10.5655    201.6051    215.9842   1.1145645849e+02   5.7632319053e-01    0.2431358    0.1621083  30.52  0.001396168    1.301    0.231
        63 -10.1828    234.7853    216.6088   1.0559010251e+02  -4.9496797720e+00    0.1671135    0.1027158  44.78 0.0009459462    1.726    0.421
        64  -9.5394    137.1723    215.6337   1.2396919082e+02   1.1855848343e+01    0.1905371    0.1078028  34.46 0.0009440718    1.749    0.428
        65 -10.3150    208.9709    212.1520   1.0944492549e+02  -1.3480058110e-01    0.1993998    0.1730462  -1.10 0.0004942389    1.150    0.130
        66  -9.7582    170.4107    213.1914   1.1698387893e+02   6.4440952670e+00    0.1595557    0.1275523 -62.36 0.0009327094    1.614    0.380
        67  -9.7426    142.7935    213.4013   1.2252390707e+02   1.1275508617e+01    0.1817827    0.1104151  34.82 0.0005152105    1.583    0.368
        68 -10.8624     20.6576    211.6280   1.4647215819e+02   2.9054584117e+01    0.2884652    0.1379046  70.26 0.0008917036    1.766    0.434
        69  -9.3938    212.9012    211.8981   1.0867879969e+02  -7.6497067541e-01    0.1584565    0.1430226  41.85 0.0005432342    1.301    0.231
        70 -11.8033      4.4840    207.4488   1.4917187769e+02   3.1433610133e+01    0.3994561    0.2192149  69.47  0.002703517    1.379    0.275
        71 -10.0158    222.9094    200.9212   1.0491333784e+02  -9.2725372496e-01    0.2759029    0.2031487  89.86  0.001238321    3.631    0.725
        72 -10.3010    205.9942    201.2352   1.0809187818e+02   1.9675790264e+00    0.1882485    0.1338867  -6.87 0.0007795888    1.625    0.385
        73  -9.1346     34.6556    200.7473   1.4310728876e+02   2.9727808764e+01   0.09513732   0.08875386 -53.67 0.0002509942    1.582    0.368
        74 -10.5149    227.1933    196.7448   1.0337511581e+02  -1.0700130507e+00    0.2609117    0.1813444   2.63 0.0009306562    1.529    0.346
        75 -11.8281    192.2129    194.9030   1.0960012672e+02   5.4464860325e+00     0.328757     0.281767 -62.42  0.001942423    1.528    0.345
        76  -9.4698    238.5315    201.4516   1.0224628596e+02  -3.5961904171e+00     0.127429    0.1017259  10.72 0.0001596671    1.051    0.048
        77 -11.4890    215.4798    194.1687   1.0502974149e+02   1.3396051673e+00    0.3362902    0.1780535 -34.36  0.001648007    2.001    0.500
        78 -10.2813    163.2969    191.1844   1.1478807141e+02   1.1506916722e+01    0.2646316    0.1213299 -39.16  0.001086056    2.650    0.623
        79  -9.6874    202.7952    195.9820   1.0774979680e+02   3.3394802064e+00    0.1822231     0.163072   7.77 0.0005685173    1.076    0.071
        80  -9.7320    250.4586    190.0303   9.8080536386e+01  -4.0106281346e+00    0.1820934    0.1116354 -28.67 0.0005102557    1.566    0.361
        81  -9.4757    205.6015    190.2336   1.0615052907e+02   3.7223016417e+00     0.173549    0.1228431 -20.67 0.0005069337    1.547    0.354
        82 -10.7065    225.6317    188.9788   1.0219361743e+02   3.1237192741e-01    0.3112897    0.1573284  14.18  0.001087973    4.037    0.752
        83 -10.5592    232.2734    191.3763   1.0146355647e+02  -1.1805273973e+00     0.268525    0.1720366   7.70  0.001396843    1.799    0.444
        84 -11.7589     16.3743    183.6848   1.4554551872e+02   3.5142516511e+01    0.4335858    0.1892837  87.77  0.002271685    2.095    0.523
        85  -9.4660     61.6293    184.8141   1.3607036122e+02   2.9811961829e+01    0.1824716    0.1049116 -84.82 0.0009537637    1.735    0.424
        86 -11.5681    248.2741    182.7826   9.7048512451e+01  -2.6779787122e+00    0.4796688    0.2381156  20.65  0.002053044    2.803    0.643
        87  -9.9340    236.4949    182.4787   9.9005714462e+01  -6.4073863527e-01     0.130853    0.1120665   6.59 0.0007517061    1.009    0.009
        88 -10.4226    168.1452    184.2823   1.1254453114e+02   1.1832625757e+01    0.4847581    0.2416465  62.24  0.001626702    3.830    0.739
        89 -11.3736    224.2683    178.4102   1.0038037956e+02   2.1315945467e+00    0.2826662    0.2517341   1.69 0.0005273873    1.046    0.044
        90 -10.1360    188.6095    180.7021   1.0766638554e+02   8.4986752307e+00    0.1482652    0.1029352  13.82 0.0007011581    1.790    0.441
        91 -10.3385      2.1415    180.1230   1.4818280812e+02   3.7140933070e+01    0.1862663    0.1269771  66.45 0.0005095422    1.200    0.166
        92 -11.4761    244.4261    177.8084   9.6718790370e+01  -1.3383543247e+00    0.3354785    0.1709621 -19.26  0.001520275    2.314    0.568
        93  -9.3901     36.0679    178.5122   1.4101345042e+02   3.4255775886e+01    0.1584157     0.108575  44.25 0.0005508026    1.471    0.320
        94 -10.5817    200.0173    176.7105   1.0462074717e+02   6.9662666351e+00    0.2004175    0.1678475  29.36 0.0006344448    1.097    0.088
        95  -9.4825     70.2011    177.6026   1.3333146287e+02   3.0224576296e+01    0.1559473    0.1222637  32.41 0.0004797291    1.515    0.340
        96  -9.7837    183.3282    173.3261   1.0729991330e+02   1.0834257164e+01    0.1472407     0.108442   8.66 0.0003447919    1.701    0.412
        97  -9.4610     59.6124    171.7718   1.3505597756e+02   3.2942691245e+01    0.1834542    0.1079798 -84.04 0.0009475354    1.672    0.402
        98  -9.6786     74.4963    171.4956   1.3156653211e+02   3.0973191090e+01    0.1329698    0.1146594  79.58 -6.506815e-05    1.015    0.015
        99  -9.7847      4.5176    167.9926   1.4695498661e+02   3.9512656181e+01    0.1804166   0.08784018 -81.28  0.001044325    1.626    0.385
       100  -9.7163    210.0036    166.3188   1.0057712345e+02   6.7569515301e+00    0.1989108    0.1701672  28.34 0.0004816772    1.097    0.089
       101  -9.1872     21.6669    166.6786   1.4314532747e+02   3.8307894507e+01    0.1121607   0.08111753 -51.97 0.0007049772    1.701    0.412
       102 -10.5787     52.2186    163.7955   1.3584521409e+02   3.5669905221e+01    0.4228653    0.2352978 -33.58  0.001720104    3.927    0.745
       103  -9.7299      9.9645    165.2876   1.4560301128e+02   3.9650719257e+01    0.1537455    0.1211079  78.71 0.0003031919    1.078    0.072
       104  -9.0492    229.4887    164.5441   9.6615367178e+01   3.3044069380e+00    0.1379474    0.1197923   4.78  0.000173942    1.048    0.046
       105 -11.2844    247.9535    158.9484   9.2279965801e+01   7.7652474380e-01    0.4259443    0.2112429 -34.22  0.002012237    1.885    0.469
       106 -10.4803     36.3062    161.3184   1.3931526350e+02   3.8042766451e+01    0.4087884    0.1350684 -67.62  0.001783612    2.523    0.604
       107  -9.3793    200.0548    162.7748   1.0176532549e+02   9.3416783112e+00    0.1856775    0.1129648  45.03 0.0004027544    1.591    0.372
       108 -10.2692     41.0142    165.0708   1.3860938194e+02   3.6685711315e+01    0.2029662    0.1198244  69.97 0.0005025956    1.648    0.393
       109  -9.8131    238.3393    158.3452   9.3767931154e+01   2.6141553313e+00    0.1447069   0.09740191   6.47 -5.541354e-05    1.780    0.438
       110  -9.4132      8.0786    158.2567   1.4550146734e+02   4.1341509480e+01    0.1215701   0.09669503  39.39 0.0005896633    1.493    0.330
       111 -10.8389     22.2270    156.1376   1.4209756249e+02   4.0600950282e+01     0.335418    0.2382227  50.50  0.002195485    1.414    0.293
       112  -9.4428    178.6114    155.6874   1.0464592539e+02   1.5067558218e+01    0.1573418    0.1138251  11.64 0.0007014136    1.828    0.453
       113  -9.2185    235.6533    154.7018   9.3454080198e+01   3.6796564789e+00    0.1424728   0.09895018   9.83  0.000703562    1.679    0.404
       114  -9.5105    216.9963    155.0000   9.6857031871e+01   7.2604821660e+00    0.2343298   0.07808599  46.74 0.0008096163    2.992    0.666
       115 -10.0211    205.2708    152.2434   9.8479618227e+01   1.0115159694e+01    0.2608403    0.1772162 -31.45  0.001265051    1.499    0.333
       116  -9.9819    197.4900    153.5274   1.0029062443e+02   1.1503703637e+01    0.1448285    0.1369855  16.23 0.0001612712    1.008    0.008
       117  -9.3502    151.6687    153.3255   1.1009813170e+02   2.1192651572e+01     0.154211    0.1174419  82.05 0.0005356372    1.707    0.414
       118  -8.7689     23.6982    152.6739   1.4142610050e+02   4.1247008691e+01    0.1798931   0.09573445 -60.55 0.0006271852    1.757    0.431
       119 -10.4462    178.3002    151.3967   1.0378143579e+02   1.5954149924e+01    0.3229024    0.2623118  64.82  0.001633159    1.394    0.283
       120  -9.3920     46.1697    151.1449   1.3578691320e+02   3.9286756458e+01     0.178098    0.1271643  72.23  0.000395626    1.328    0.247
       121  -9.4070     92.9758    148.0197   1.2341148213e+02   3.3495206067e+01    0.1744615    0.1591498  81.52 0.0009249382    1.013    0.013
       122  -9.3481    233.5279    146.9943   9.2149974038e+01   5.3038853154e+00    0.2123976    0.1285966 -32.07  0.001024312    1.573    0.364
       123 -10.2706    207.0209    145.9760   9.6750313455e+01   1.0849638100e+01    0.2217591    0.2092943  16.54 0.0006849971    1.026    0.025
       124 -10.7808      8.0874    145.2579   1.4447048369e+02   4.4224826720e+01    0.2006881    0.1343354  41.68  0.001319423    1.630    0.386
       125 -11.0376      4.1274    142.2293   1.4516411696e+02   4.5192318197e+01      0.30192    0.1675789 -58.22  0.001811082    1.745    0.427
       126 -11.6523      3.7698    136.0351   1.4473316640e+02   4.6604951309e+01    0.5045624    0.1936133 -56.12  0.001799478    2.449    0.592
       127 -11.6980      9.1188    136.7825   1.4347453928e+02   4.6056552301e+01    0.2121907    0.1665296 -73.40 0.0002582416    1.147    0.128
       128  -9.8702     37.5269    142.2863   1.3687545418e+02   4.2284743071e+01    0.2029269    0.1113436  32.10  0.001065716    2.066    0.516
       129 -10.1645    212.2655    141.5898   9.4764361623e+01   1.0513976237e+01    0.4147004    0.2119238  30.06  0.001562289    2.670    0.626
       130 -10.5586    236.1382    138.6748   8.9863070603e+01   6.1227207765e+00    0.2473345    0.2175826 -43.23 0.0005739112    1.219    0.179
       131 -11.0489     57.6201    138.5899   1.3110680791e+02   4.0857587638e+01    0.3181656    0.2063642  71.57 0.0006200081    1.703    0.413
       132  -9.0244     16.6700    139.6883   1.4186958852e+02   4.4810304031e+01    0.1176702   0.07847222 -50.39 0.0003198296    1.671    0.401
       133  -9.2666     44.3208    137.9669   1.3454675733e+02   4.2570009003e+01     0.220094   0.09248241  89.56 0.0007046848    4.413    0.773
       134 -10.2313     21.8955    136.1405   1.4017543088e+02   4.5186895032e+01     0.193088    0.1384616  75.92 0.0008269156    1.294    0.227
       135  -9.9425    138.3047    135.2856   1.0932788186e+02   2.7830417501e+01    0.2829541    0.1826524  34.49 0.0007551552    1.709    0.415
       136  -9.9055     79.9827    133.4706   1.2419753867e+02   3.8968684871e+01     0.196805    0.1372725  40.21 0.0005051733    1.504    0.335
       137 -12.1673     36.5804    130.8280   1.3564572239e+02   4.5061433624e+01    0.3905786    0.2888289 -77.55  0.001843737    1.140    0.123
       138  -9.8664     73.9402    129.4881   1.2512088900e+02   4.0810868528e+01    0.2172299    0.1731828 -65.56 0.0005713159    1.152    0.132
       139  -9.6058     40.9217    135.5505   1.3511929940e+02   4.3504856046e+01    0.1694711    0.1263223  33.92  0.001012307    1.550    0.355
       140  -9.5749     29.0255    130.7047   1.3766604111e+02   4.5815169263e+01    0.1625081    0.1413433 -81.08  0.001095056    1.086    0.079
       141  -9.4702     60.0773    128.5260   1.2881432411e+02   4.2932355505e+01    0.1787475     0.131195  40.58 0.0004021841    1.468    0.319
       142  -9.5491      1.7595    126.3959   1.4438648481e+02   4.8907786480e+01    0.1959141    0.1068365  65.38  0.001124519    1.878    0.468
       143 -10.3526    219.6078    124.4810   8.9448486240e+01   1.1901155944e+01    0.2649076    0.2348304 -10.74 0.0005802047    1.128    0.113
       144 -10.3911    249.6311    130.0499   8.5754532071e+01   4.8479114405e+00    0.2503257    0.2319284 -50.41  0.001126186    1.223    0.182
       145 -11.5380     10.4002    122.5233   1.4172175384e+02   4.9212874631e+01    0.4234354    0.2718752 -23.39  0.002472014    2.336    0.572
       146 -11.4960     17.8659    116.1327   1.3890739646e+02   5.0139807126e+01    0.3003372    0.2430435 -72.21  0.001277033    1.054    0.052
       147 -12.1667     16.7343    108.5284   1.3823896037e+02   5.1981616276e+01    0.3200854    0.3130366 -46.53 0.0005564509    1.263    0.208
       148 -10.1156     20.0019    112.6969   1.3784425711e+02   5.0771968695e+01      0.18324    0.1722492  86.89 0.0005150925    1.188    0.158
       149  -9.6220    221.5459    120.0163   8.8046271784e+01   1.2242971106e+01    0.2247044    0.1375234 -33.73 0.0007791075    1.568    0.362
       150  -9.9511    179.1908    116.3845   9.5293122434e+01   2.2562751062e+01     0.246236    0.2135825 -22.81 0.0006495426    1.219    0.180
       151  -9.8028     54.5862    117.5886   1.2847078062e+02   4.6213235889e+01    0.2230277    0.1364789  23.38   0.00110738    2.070    0.517
       152 -10.1430    101.3380    116.3176   1.1464239002e+02   3.9426890707e+01    0.1494954    0.1181601 -14.35 0.0007048829    1.704    0.413
       153  -9.4099     86.2948    116.6365   1.1900454406e+02   4.1947570986e+01    0.1499159    0.1091976  84.90 0.0007030657    1.711    0.416
       154 -11.4216     35.9943    110.9655   1.3285513178e+02   4.9791651059e+01    0.5506804    0.2562219 -64.36  0.001823841    1.771    0.435
       155 -10.7823     66.8186    113.0160   1.2396109922e+02   4.5722287172e+01    0.2015213    0.1904144  76.63 0.0002671725    1.104    0.094
       156  -9.3133    106.6590    110.6978   1.1178404717e+02   3.9722798383e+01    0.1503866      0.12013  -8.39 0.0005140349    1.675    0.403
       157  -9.9218     42.4999    110.4690   1.3080933661e+02   4.9256475773e+01    0.1307746    0.1115907 -71.00 0.0001235417    1.005    0.005
       158  -9.6418    167.4727    108.9982   9.5922566946e+01   2.6775544171e+01    0.2360475    0.1545406 -39.63 0.0005789734    1.538    0.350
       159 -10.2908    242.1891    108.3780   8.1934828574e+01   9.7468233229e+00    0.1854102    0.1365769  69.62 0.0006022592    1.675    0.403
       160 -11.9385     62.0910    106.9048   1.2412599817e+02   4.7795901929e+01    0.3566293    0.2114497 -53.22 0.0004793646    1.511    0.338
       161  -9.3031    133.2997    107.3661   1.0371000092e+02   3.4980308591e+01    0.1596345    0.1249634  -4.77 0.0007033345    1.730    0.422
       162 -11.1918     23.2810    106.9285   1.3605435770e+02   5.1852710293e+01    0.2105527    0.1907855 -80.54 0.0004911128    1.120    0.107
       163 -10.2916      6.3854    106.2005   1.4098858026e+02   5.3206004661e+01     0.251379    0.1547772 -70.22 0.0008359051    1.255    0.203
       164 -10.7856      2.7621    105.0391   1.4191161176e+02   5.3682910943e+01    0.2265118    0.1477634 -84.20 0.0004199845    1.284    0.221
       165  -9.8985    223.3298    103.9807   8.3852216886e+01   1.4558371721e+01    0.2108319    0.1760639 -35.93 0.0005263872    1.130    0.115
       166  -9.5648     93.3369    104.2749   1.1402507836e+02   4.3622839452e+01    0.1437531    0.1153912 -11.35 0.0004392733    1.607    0.378
       167 -11.2614     70.3775    102.6735   1.2062636037e+02   4.7650591768e+01    0.3730053    0.2396122  21.44 0.0008365033    2.004    0.501
       168 -10.5939     10.4394    102.3242   1.3928895176e+02   5.3837176760e+01    0.2222274    0.1699559  72.55  0.001481741    1.375    0.273
       169 -10.6546    247.8062    102.1891   7.9660954972e+01   9.5511844538e+00    0.1899032    0.1605145   3.96 0.0007496538    1.337    0.252
       170  -9.8712    120.2256    101.2098   1.0553014218e+02   3.9118265854e+01    0.2502956    0.1696699  -1.16  0.000794175    2.696    0.629
       171 -10.2908     91.6207    101.1881   1.1375479379e+02   4.4625323623e+01    0.2089956     0.127954 -42.57 0.0003782066    1.640    0.390
       172 -10.0375     36.3097    101.3880   1.3110899335e+02   5.2003024022e+01     0.254493     0.147756  37.20  0.001360729    1.944    0.486
       173 -10.6029     27.6706    100.9116   1.3375188977e+02   5.2889155326e+01    0.1931648    0.1700139  54.79 0.0006449637    1.297    0.229
       174 -10.8605      3.6099    100.5702   1.4112574589e+02   5.4647023113e+01    0.2731141    0.2098681  82.32  0.001110176    1.271    0.213
       175 -11.1597     50.4793     99.2725   1.2617614228e+02   5.1008781303e+01    0.2238266    0.2011199 -71.50 0.0003454651    1.060    0.056
       176 -10.7090     63.7414     98.4638   1.2174914472e+02   4.9547352457e+01    0.4718654    0.1947522  26.91  0.001803181    3.210    0.689
       177 -10.5873     38.6385     96.2385   1.2939245179e+02   5.2974173110e+01    0.2288153    0.2066251  -7.02  0.001060108    1.319    0.242
       178 -10.5097     20.4940     97.5141   1.3546545536e+02   5.4243683515e+01    0.2959027    0.1077916 -72.58   0.00125807    2.519    0.603
       179  -9.9801      3.2184     85.8068   1.3927150961e+02   5.7990472696e+01     0.266798     0.166075  26.58  0.001688703    1.991    0.498
       180 -11.0671      8.3305     94.8980   1.3892328778e+02   5.5658513568e+01    0.2733987     0.169098 -60.11 0.0003194104    1.292    0.226
       181 -11.0287     10.8691     91.1677   1.3756549638e+02   5.6349330531e+01    0.2867269    0.1760623  14.56  0.001389816    2.109    0.526
       182 -10.5914      7.0936     88.8531   1.3844675730e+02   5.7096407563e+01    0.1796456    0.1508143  89.14 0.0003232355    1.206    0.171
       183 -10.3596      1.4891     94.0803   1.4095802986e+02   5.6226054159e+01     0.252514   0.07673017 -66.43  0.001160504    2.278    0.561
       184 -10.2805    109.2979     93.2418   1.0638924548e+02   4.3083228448e+01    0.3419368    0.1330883 -48.59 0.0008683949    2.553    0.608
       185 -10.0368    227.1597     93.2129   8.0577782524e+01   1.5470161161e+01    0.2049407    0.1935341  -1.68  0.000395158    1.129    0.114
       186  -9.4162    171.3559     91.2982   9.0250188705e+01   2.9248029878e+01    0.1625989    0.1227958  19.85 0.0001878232    1.701    0.412
       187 -10.9129     96.3272     90.3938   1.0943010656e+02   4.6192171996e+01    0.3380364    0.2173743  -9.97  0.001283322    2.902    0.655
       188  -9.8201     21.2811     91.3551   1.3418787770e+02   5.5596321140e+01    0.1301966   0.07364248 -45.98 0.0004467859    1.660    0.397
       189 -10.0320     49.4397     88.0058   1.2403655651e+02   5.3723319681e+01    0.2457095    0.1695732 -71.10 0.0005824449    1.477    0.323
       190 -10.5825     46.2740     83.7812   1.2413130484e+02   5.5033909950e+01    0.3157099    0.2483068  87.52  0.001832729    1.531    0.347
       191  -9.3599     46.3066     79.3860   1.2305177278e+02   5.6014770320e+01    0.1362349    0.1167367 -48.43  0.000839654    1.020    0.020
       192 -10.3568    113.3348     86.8531   1.0337860436e+02   4.3618008017e+01     0.262384    0.2072054  56.44 0.0006585869    1.363    0.266
       193 -10.1690     23.5146     86.2106   1.3251206850e+02   5.6597811156e+01    0.2999864    0.1326376 -33.36  0.001293242    3.106    0.678
       194  -9.3300    176.3660     86.1750   8.7764582224e+01   2.8946555214e+01    0.2074136    0.1412491 -46.95 0.0001951053    1.495    0.331
       195 -11.1060    118.3101     82.9480   1.0079818714e+02   4.3371124720e+01    0.3875554    0.3053916 -15.54  0.001634154    1.506    0.336
       196 -12.5388     72.1084     78.9865   1.1395843399e+02   5.2737090248e+01    0.4545713    0.3676548 -31.58 0.0004912772    1.227    0.185
       197 -11.1587     77.6887     71.9239   1.0995096228e+02   5.3361602771e+01    0.3322251    0.2775208  71.47 0.0006331966    1.551    0.355
       198 -11.1465     23.5938     79.5586   1.3118578192e+02   5.8090517884e+01    0.3657928     0.214954 -67.11   0.00157325    1.465    0.317
       199 -11.7029     19.7300     81.7939   1.3298514151e+02   5.7875747205e+01    0.3205909     0.245469  71.75 0.0003526848    1.556    0.357
       200 -10.8848     15.5781     81.5186   1.3438072007e+02   5.8223365251e+01    0.3280271    0.1394228 -53.41  0.001668447    1.834    0.455
       201  -9.6169    133.1320     81.8825   9.6477052973e+01   4.0274468555e+01    0.2150996    0.1865788  -2.33  0.001066971    1.313    0.239
       202 -10.9482     85.2673     80.8927   1.1015850890e+02   5.0208893849e+01    0.3233495    0.2307676 -44.31 0.0008952304    1.315    0.240
       203  -9.7924    126.0239     80.4790   9.7924458382e+01   4.2169289277e+01    0.2185983     0.204955 -40.00 4.801824e-05    1.062    0.059
       204 -12.4767      4.4675     76.5251   1.3740308286e+02   5.9986735548e+01    0.6107883    0.3426136 -43.10  0.001560481    1.659    0.397
       205 -11.1864    150.9065     78.5407   9.1085024463e+01   3.6670352851e+01     0.291085    0.2636527 -72.51 0.0004054869    1.184    0.156
       206  -8.8922     81.3219     79.2505   1.1095944985e+02   5.1223137516e+01    0.1372011    0.1077566  -8.42 0.0002604203    1.535    0.349
       207 -10.1759      2.4161     71.7765   1.3733540603e+02   6.1131157292e+01    0.2379754      0.13628 -52.72   0.00114778    1.381    0.276
       208 -11.1971    108.3212     75.6469   1.0140238888e+02   4.6944583156e+01    0.3856661    0.2806056 -11.11  0.001178564    1.802    0.445
       209 -12.4345     61.9993     72.8235   1.1568296600e+02   5.5516102364e+01    0.6355184     0.427037 -28.14    0.0019428    1.642    0.391
       210 -10.4012     54.6872     72.2901   1.1815624739e+02   5.6585965524e+01    0.2252935    0.1874965 -87.36 0.0004063273    1.510    0.338
       211 -10.0539    121.5886     76.2035   9.7798459690e+01   4.3996815656e+01    0.2157659    0.1447369 -29.20 0.0007301599    1.631    0.387
       212 -10.6400     40.5009     72.9452   1.2352909931e+02   5.8051617398e+01    0.3065838    0.2201349 -71.49 0.0009043084    1.489    0.328
       213 -10.9674     36.9296     67.6838   1.2350086794e+02   5.9549009013e+01    0.4030434    0.2335108 -52.82  0.001828662    1.429    0.300
       214 -10.3468    145.6451     72.5858   9.0493581407e+01   3.9048151578e+01    0.3379903    0.1742162 -55.34  0.001183713    2.659    0.624
       215  -9.5314    102.3288     73.2946   1.0244733334e+02   4.8625730606e+01    0.1491341    0.1149201   1.59 0.0004055687    1.630    0.386
       216 -11.8175     48.7859     70.6112   1.1984560345e+02   5.7656790557e+01    0.3620787    0.3135431 -10.35  0.001162835    1.235    0.190
       217 -10.3881     50.7208     67.6695   1.1829277408e+02   5.8057638617e+01    0.2557559    0.1707724 -33.38 0.0006840466    1.481    0.325
       218 -11.2378     26.0491     69.2293   1.2802417365e+02   6.0179948547e+01    0.5135036    0.2979306 -74.88  0.002494036    1.928    0.481
       219 -10.9123     21.3881     65.8856   1.2902255189e+02   6.1263982081e+01    0.2623352    0.1819912  20.05  0.001282507    1.724    0.420
       220 -10.9857    152.7136     71.7753   8.8601408481e+01   3.7449607138e+01    0.4205947    0.2686432  24.44  0.001648042    2.268    0.559
       221 -10.5723    116.0458     71.4594   9.7827069462e+01   4.6128803676e+01    0.2818504    0.2206743 -37.19 0.0005772604    1.267    0.211
       222 -10.0748    175.0355     70.8763   8.3622971866e+01   3.1960536395e+01    0.2241731    0.2222769  69.77 0.0004006021    1.033    0.032
       223 -10.9683     64.4141     59.9522   1.1079482240e+02   5.7835170698e+01    0.4328713    0.1870545  40.16  0.001850567    2.547    0.607
       224 -11.1145     68.9805     67.2034   1.1149307523e+02   5.5695457750e+01    0.4900315    0.2348658 -40.81  0.001570075    1.983    0.496
       225  -9.3761     71.7191     61.6943   1.0872833635e+02   5.6387625580e+01     0.221538    0.1298396 -41.06 0.0001907926    1.575    0.365
       226 -10.5286     70.2129     58.7563   1.0827584315e+02   5.7199455032e+01    0.4147899    0.1783281 -38.75  0.001703001    2.276    0.561
       227 -10.1721    159.7628     69.4226   8.6321028465e+01   3.6092639447e+01     0.302027    0.1529677  61.50  0.001129282    2.128    0.530
       228 -11.2749    130.3225     65.9520   9.2163297124e+01   4.3917592851e+01    0.6985971    0.2830012 -39.12  0.002494672    2.460    0.594
       229 -11.0958     95.9990     66.8469   1.0230076973e+02   5.1132100387e+01     0.515759    0.3713183   3.83  0.002418361    1.860    0.462
       230 -11.0741     42.8908     65.9303   1.2075013984e+02   5.9314596691e+01    0.3820361     0.260532 -69.04  0.002102168    1.657    0.397
       231 -11.4482     31.1372     66.2514   1.2534758915e+02   6.0395076660e+01    0.2763951     0.214128 -65.58 0.0004507725    1.255    0.203
       232 -10.1746      6.6565     67.8958   1.3506971397e+02   6.1760709031e+01    0.1796465    0.1379631 -36.29 0.0006724315    1.296    0.228
       233 -11.4741      2.2212     63.8482   1.3598086667e+02   6.2856896719e+01    0.5141115    0.2080349 -69.67  0.002611042    2.046    0.511
       234 -11.3126    141.0580     63.8399   8.8805343891e+01   4.1714099693e+01    0.4440295    0.2801919  38.31 0.0004819004    1.719    0.418
       235 -10.6599    120.7311     63.7839   9.3988672942e+01   4.6515537415e+01    0.5940781    0.3514653   0.19  0.001892695    3.957    0.747
       236 -10.5558    105.9412     64.4534   9.8442478430e+01   4.9599691175e+01    0.3321371     0.203319 -42.81  0.001028979    1.624    0.384
       237 -11.3455     83.7140     62.5170   1.0484787429e+02   5.4233579846e+01    0.4374949    0.3378763 -63.07  0.001414966    1.598    0.374
       238 -10.6601     86.0235     58.2754   1.0260729668e+02   5.4629495457e+01    0.2710193     0.225911 -49.53 0.0005987177    1.275    0.216
       239 -10.5171     76.9701     65.3834   1.0810740151e+02   5.4812534804e+01     0.296641    0.1661902  49.40  0.001327116    2.171    0.539
       240 -10.4862    174.0536     63.6922   8.1685418308e+01   3.3399260599e+01    0.3212903      0.24375 -58.77   0.00138898    1.432    0.301
       241  -9.3825    165.6926     64.6892   8.3634296033e+01   3.5382895491e+01    0.1563897    0.1193999  22.77 0.0002380774    1.618    0.382
       242 -10.3482     51.6758     62.5661   1.1640989936e+02   5.9010395524e+01    0.2496904    0.1913328 -25.49 0.0007584934    1.294    0.227
       243 -11.3874     10.8201     62.5229   1.3237897393e+02   6.2686334135e+01    0.2274548    0.1896834 -48.85 0.0004236799    1.083    0.076
       244 -11.0470     57.8387     58.7059   1.1284054044e+02   5.9003093218e+01    0.3362173    0.2293569 -35.12  0.001335912    1.352    0.260
       245  -9.9185     38.5050     58.5078   1.2031639997e+02   6.1328613358e+01    0.2327098    0.1389577  -9.98  0.001153986    2.321    0.569
       246 -11.2591     27.2324     61.4041   1.2562019980e+02   6.1764587346e+01    0.3792638    0.1997994  18.02  0.002016192    2.303    0.566
       247 -10.4347     32.9838     60.4865   1.2308542774e+02   6.1453196457e+01     0.311937    0.1887176 -16.47   0.00162284    2.100    0.524
       248  -9.5268     93.1753     61.1407   1.0126278585e+02   5.2762693519e+01    0.1857153    0.1690597 -66.54 0.0004103472    1.287    0.223
       249 -10.1701     18.4467     59.9693   1.2876496764e+02   6.2740656964e+01    0.2799615    0.1557042 -79.38  0.001293106    2.357    0.576
       250  -9.4506    184.0471     61.0000   7.9057396462e+01   3.1252425593e+01    0.2453771   0.08479203  60.05 0.0006037527    2.851    0.649
       251  -9.4840     56.2880     62.3172   1.1458801480e+02   5.8477648876e+01    0.1347523    0.1206827 -41.12 0.0002212296    1.070    0.066
       252 -10.3948    137.7174     55.1885   8.6746241121e+01   4.3977112483e+01    0.3586834    0.2213645 -24.75  0.001543997    1.821    0.451
       253 -11.1689    134.7739     49.6156   8.5552106564e+01   4.5579680287e+01    0.3817219    0.2809531 -70.04  0.001293352    1.806    0.446
       254 -10.5799    122.7219     56.6071   9.1006402996e+01   4.7312897656e+01    0.3588766    0.2380174  88.67  0.001392217    2.750    0.636
       255 -10.3459    113.6233     57.2728   9.3732940330e+01   4.9250743364e+01    0.3893327    0.1846927  45.70  0.001548443    2.081    0.519
       256  -9.6536     80.8617     57.1369   1.0395712108e+02   5.5758106465e+01    0.1835574    0.1529926  -7.34 0.0003564014    1.231    0.188
       257 -10.2788     45.7782     57.5555   1.1713840485e+02   6.0736659189e+01    0.2943303    0.1182657  34.12  0.001303565    2.749    0.636
       258 -10.8520     98.9579     55.8890   9.7589983988e+01   5.2588639457e+01    0.4456262    0.2061757  39.64  0.001270682    2.271    0.560
       259 -12.3078    127.8434     52.1599   8.8135613619e+01   4.6847447029e+01    0.4289366    0.3257463 -25.75 0.0007085453    1.376    0.273
       260 -11.6924     38.4228     51.7071   1.1824999062e+02   6.2718321930e+01    0.5894135    0.3491393 -34.76   0.00323263    1.566    0.361
       261 -10.7947     44.7705     51.4550   1.1556652347e+02   6.2072528744e+01    0.2115185    0.1825745   1.26 0.0004901408    1.203    0.169
       262 -11.3265     46.1514     47.1053   1.1350889751e+02   6.2753301323e+01    0.2658305    0.1829422 -45.34 0.0002541938    1.297    0.229
       263 -11.3716      4.3341     52.7865   1.3284088492e+02   6.5093983283e+01    0.4280356    0.1960066 -33.20  0.002308879    2.209    0.547
       264 -11.2103     13.0926     49.7911   1.2839930586e+02   6.5218134649e+01    0.3915632    0.1543785 -51.64  0.001885991    1.851    0.460
       265 -12.2342      9.4599     45.4150   1.2881415354e+02   6.6329079932e+01    0.4524019    0.3121917 -28.16  0.001445467    1.380    0.276
       266 -10.0540      7.0031     40.9732   1.2870085593e+02   6.7358737041e+01    0.2130031    0.1262976 -56.86 0.0007604045    1.346    0.257
       267 -10.3523     87.1254     52.6304   1.0021608134e+02   5.5459218339e+01    0.2087075     0.174365  53.04  0.001154586    1.376    0.273
       268 -10.8727     73.9297     51.9217   1.0452428237e+02   5.7899213230e+01    0.3885424    0.3513222  22.25  0.001624973    1.147    0.128
       269  -9.5420    157.8075     52.1642   8.1325539466e+01   3.9398246165e+01    0.2070738    0.1728847  27.92 0.0003431647    1.323    0.244
       270 -11.2546     51.5416     47.7342   1.1153717426e+02   6.1965604754e+01    0.4279485     0.179919 -52.26  0.001834124    2.476    0.596
       271 -10.6559    114.7765     49.5560   9.0667153568e+01   5.0287676470e+01    0.3296517    0.2486265  -9.80  0.001631455    1.509    0.337
       272  -9.6805     83.1836     51.3650   1.0108017925e+02   5.6405046009e+01    0.1935749    0.1610269 -21.64 0.0005636545    1.141    0.124
       273 -11.0367    101.6211     47.9913   9.3892887710e+01   5.3394695378e+01    0.4508703    0.3212555  21.59  0.001937946    1.593    0.372
       274  -9.7962     99.0060     44.2846   9.3292019770e+01   5.4538811660e+01    0.2005212    0.1768456  25.75 0.0006388542    1.089    0.082
       275 -11.6883    143.4557     46.4724   8.2489014433e+01   4.3904085677e+01    0.4644994     0.346704  52.63  0.001681143    1.275    0.216
       276 -10.8868    137.7728     43.4768   8.2733145552e+01   4.5762183426e+01    0.3877555    0.2597539 -83.38 0.0009014107    2.285    0.562
       277  -9.2888    217.4573     48.4412   7.0511484067e+01   2.4632109921e+01    0.1440985    0.1283738 -68.62 3.093307e-05    1.041    0.039
       278 -10.5037    157.6960     45.5186   7.9210619012e+01   4.0411873499e+01    0.2718689    0.1371089 -30.64   0.00108656    2.071    0.517
       279  -9.3753     81.2735     46.7017   9.9989363575e+01   5.7565503462e+01    0.1250546     0.109416 -70.72 0.0001915371    1.529    0.346
       280 -10.3562     22.8620     46.2137   1.2314312375e+02   6.5243788142e+01    0.1649431    0.1394109 -49.28 0.0004907876    1.137    0.120
       281  -9.5582    233.3566     45.2563   6.7778022758e+01   2.1232282983e+01    0.1862735    0.1145145 -42.29 0.0004595506    1.474    0.322
       282 -10.6841    122.8718     44.0827   8.6535679977e+01   4.9278764592e+01    0.3815046    0.2972728  14.74  0.001160995    1.452    0.311
       283 -10.1036    163.1601     42.6212   7.7238961832e+01   3.9405786120e+01    0.2062146     0.185386 -57.29 0.0006061523    1.150    0.130
       284 -10.6450     64.0661     41.4925   1.0424874275e+02   6.1330489398e+01    0.2630944    0.1871438 -35.61 0.0009531169    1.291    0.225
       285 -10.9817     70.0217     36.9172   1.0016320333e+02   6.1146076939e+01    0.4771477    0.2637005 -12.76  0.001984613    2.788    0.641
       286  -9.4786     52.4281     42.4278   1.0922282945e+02   6.2831857144e+01     0.128324    0.1083054 -21.65 4.747931e-05    1.016    0.016
       287  -9.9998     23.8337     41.5396   1.2123261783e+02   6.6083138216e+01    0.1829422    0.1514514 -60.81  0.001245523    1.337    0.252
       288 -10.2835    226.4125     40.3427   6.7342203197e+01   2.3546004419e+01    0.2557544    0.2104561 -66.95 0.0005203015    1.126    0.112
       289 -10.4624     95.4271     40.2424   9.2835891123e+01   5.5908569302e+01    0.3548741    0.2349911  69.03  0.001192664    2.300    0.565
       290 -10.4228     96.6120     37.1781   9.1264079007e+01   5.6130740356e+01    0.2943062    0.2003275   1.53 0.0008585235    1.818    0.450
       291 -10.1668     44.0365     39.5980   1.1165210839e+02   6.4404060104e+01    0.2946699     0.157389 -45.97  0.001077485    1.678    0.404
       292  -9.3620    235.5990     40.4829   6.6359495744e+01   2.1341549859e+01    0.1343879    0.1210632 -59.86 0.0002319991    1.047    0.045
       293 -10.6014    159.1522     39.3115   7.6922160044e+01   4.0901846046e+01    0.2691062    0.2071612 -40.80 0.0002715962    1.348    0.258
       294 -10.8671     88.7346     38.5991   9.4318723505e+01   5.7496380401e+01    0.3370032    0.2722085 -83.91 0.0009174824    1.948    0.487
       295 -11.8069     82.3478     36.5189   9.5609638604e+01   5.9035511576e+01    0.3590436    0.3037906  -3.78  0.001432983    1.109    0.098
       296 -10.5190    119.6762     39.0498   8.5510563035e+01   5.0766336959e+01     0.202101    0.1786742 -11.50 0.0004649212    1.156    0.135
       297  -9.8847     85.8433     45.1464   9.7839209340e+01   5.6992414972e+01    0.1889238    0.1514786   7.88 0.0003425641    1.295    0.228
       298 -10.5736     19.2524     37.9161   1.2212802184e+02   6.7147750819e+01    0.1930506    0.1485053 -17.20 0.0003238131    1.255    0.203
       299 -11.4193     24.8076     35.6895   1.1878703254e+02   6.7113317422e+01    0.2797127     0.236319  37.87 0.0009164033    1.556    0.357
       300 -10.7437      2.1586     37.6621   1.3001867574e+02   6.8266556392e+01    0.2894569    0.1429306 -24.28 0.0006709356    2.162    0.537
       301 -12.2519    231.7977    247.1521   1.1104547015e+02  -8.0695097442e+00    0.4944171    0.3112232   6.18  0.003151179    1.632    0.387
       302 -10.7612     13.6367     33.0675   1.2316055648e+02   6.8479459055e+01    0.3478445    0.1780317 -49.69  0.002034782    1.518    0.341
       303 -10.1369      1.4454     31.8214   1.2868497177e+02   6.9437333279e+01    0.1651917   0.08694557 -57.62  0.000853388    1.514    0.339
       304 -10.6668      9.3210     33.4919   1.2537886400e+02   6.8681058065e+01    0.2922852     0.177245 -47.65  0.001819264    1.257    0.204
       305 -11.0108      5.4765     31.9851   1.2676651583e+02   6.9194320309e+01    0.4602043    0.1712125 -40.09  0.001637671    2.149    0.535
       306 -10.6662    111.1636     34.2019   8.5913406320e+01   5.3404855898e+01    0.4410045    0.2596516 -25.42 0.0007100228    1.787    0.440
       307 -10.1165    103.5821     36.8279   8.9051392040e+01   5.4709074357e+01    0.3366179    0.1826793  42.77  0.001430986    1.780    0.438
       308 -10.5908    106.5939     34.2618   8.7191051053e+01   5.4417319502e+01     0.297499    0.2675933 -61.12  0.001326551    1.344    0.256
       309  -9.3591    142.0023     35.9952   7.9214250168e+01   4.5744053212e+01    0.1710838    0.1678658   9.42 0.0004169587    1.061    0.058
       310  -9.8425     56.5599     36.0056   1.0501836918e+02   6.3385195254e+01     0.197844    0.1132084 -39.10  0.001027496    1.596    0.374
       311 -11.4040     56.3647     31.3480   1.0316251520e+02   6.4182991469e+01    0.5030425     0.282922  -4.76   0.00217835    2.881    0.653
       312 -10.9982     76.8353     33.5571   9.6303351314e+01   6.0498303225e+01     0.280184     0.171307  35.62  0.001367533    1.629    0.386
       313 -10.4272     78.4908     29.9714   9.4212733450e+01   6.0732430356e+01    0.2415998    0.1743212 -11.07 0.0003437389    1.409    0.290
       314 -10.2607     31.9655     33.9477   1.1484124665e+02   6.6758887718e+01    0.2402068    0.1550035  16.22  0.001144628    1.692    0.409
       315 -10.7183    145.1998     31.7248   7.7084341115e+01   4.5487128483e+01    0.2344042    0.2235784  36.40 0.0002788466    1.055    0.052
       316 -10.1890     97.7125     31.9468   8.8836741527e+01   5.6655491346e+01    0.1955348    0.1710541  -7.53 0.0005174932    1.106    0.096
       317 -10.3596     50.2172     27.7063   1.0416073816e+02   6.5641058734e+01    0.3880103    0.1388006 -30.15   0.00144225    3.509    0.715
       318 -10.3916     18.2122     30.8977   1.2019265310e+02   6.8547203536e+01    0.2049481    0.1589589 -68.38 0.0006617096    1.670    0.401
       319 -10.5438    124.8614     27.9097   8.0087416074e+01   5.1020597334e+01    0.2253067    0.1867915  46.63 0.0003292305    1.116    0.104
       320  -9.9753    172.7559     27.5413   7.0880349425e+01   3.8846796805e+01    0.2013202    0.1331321  83.53 0.0009351255    1.607    0.378
       321 -11.0271     70.7862     26.1072   9.5289637575e+01   6.2668211402e+01    0.4518353    0.2361839  28.67  0.002106716    2.155    0.536
       322  -9.6207    179.8446     25.8288   6.9308054503e+01   3.7194244671e+01    0.1971994     0.156602 -71.06 0.0002735746    1.291    0.226
       323 -10.0051    148.9315     27.0000   7.4746764731e+01   4.5112103891e+01    0.2417225   0.07744214  62.89 0.0007963214    2.900    0.655
       324  -9.1444     90.5111     26.5267   8.8792278831e+01   5.8883124790e+01    0.1341074    0.1224784  12.88 -3.862726e-05    1.044    0.042
       325 -10.2449    137.1175    247.3990   1.2796452746e+02   6.6821290975e+00     0.167622    0.1634938  -0.15 0.0006558429    1.341    0.254
       326 -10.1567    113.0905     25.1034   8.1859641024e+01   5.4147026301e+01    0.2062151    0.1915223  43.58 0.0005426434    1.069    0.064
       327 -10.7428     54.3485     23.3534   1.0048326993e+02   6.5720909124e+01    0.2464441    0.1917837  -1.21 0.0006047414    1.167    0.143
       328  -9.2771     17.4184     23.8318   1.1790900201e+02   6.9881092676e+01    0.1615906   0.08215126 -39.83 0.0005513746    1.551    0.355
       329 -10.2698    100.0501     22.1150   8.4120861894e+01   5.7435153534e+01    0.2247001    0.2006139 -30.79 0.0005507873    1.229    0.187
       330 -11.0295     84.7205     22.1148   8.8730217285e+01   6.0617789842e+01    0.3555733    0.2286016  10.70   0.00177841    1.832    0.454
       331 -12.1254    225.8764    246.0458   1.1188313605e+02  -7.0846293849e+00    0.6259117    0.3401531  10.23  0.003332102    2.379    0.580
       332  -9.6807    115.4496    244.7228   1.3164808558e+02   1.0484262949e+01     0.132062    0.1142013 -52.59 0.0006599478    1.540    0.351
       333 -10.5782    146.9999    244.2267   1.2577359370e+02   5.5803433284e+00    0.1722697   0.08006559  41.85 0.0006264357    1.683    0.406
       334  -9.8427     33.0529     16.9976   1.0712612836e+02   6.9484870581e+01    0.2136773    0.1616365  26.36 0.0007689393    1.449    0.310
       335 -10.8020     24.0000     20.9508   1.1339122957e+02   6.9797832347e+01    0.3464017     0.131919 -43.68  0.001265017    2.145    0.534
       336 -10.4793     27.1972     19.1759   1.1101047618e+02   6.9775300178e+01    0.2194291     0.172543  24.69  0.001176293    1.459    0.315
       337 -10.7109    124.3481     21.6182   7.7835089002e+01   5.1890950793e+01    0.2760103    0.1581557  30.75 0.0008270553    2.024    0.506
       338 -10.1306    109.9041    243.2313   1.3251422580e+02   1.1574469578e+01    0.2524741    0.1499049  71.94   0.00124327    1.981    0.495
       339  -9.7012    137.2121     20.3795   7.4680817115e+01   4.8851444978e+01    0.1969494    0.1298787  75.05 0.0002804199    1.629    0.386
       340 -10.6846    107.6974     18.7762   8.0696631889e+01   5.6123877868e+01    0.3127107    0.2015601 -13.31  0.001327759    1.699    0.412
       341 -10.1077    104.4671     18.4926   8.1418044739e+01   5.6884085577e+01    0.2690998    0.2289338  33.57 0.0008776568    1.059    0.056
       342  -9.0732     45.5194     20.5130   1.0297424192e+02   6.7395262810e+01    0.1241004    0.1000988 -10.28 0.0008101343    1.022    0.021
       343 -11.7824     34.4900    241.3613   1.4573859536e+02   2.2032446339e+01    0.4890276    0.2213135  42.52  0.003014705    1.862    0.463
       344 -10.4476     31.8303    237.3080   1.4596257837e+02   2.3051864028e+01    0.2511199    0.1288983  72.37  0.001036561    1.609    0.378
       345  -9.1481     50.4629     18.6052   9.9923231947e+01   6.6983703025e+01    0.1228964    0.1008942  -3.22 6.586636e-05    1.022    0.022
       346 -10.6710     76.1165     16.5603   8.9090901201e+01   6.2968056857e+01    0.2815665    0.1805963  27.74 0.0009161336    1.524    0.344
       347  -9.4530     81.9966     16.4858   8.7105576915e+01   6.1846997583e+01    0.1837158    0.1186278  44.89 0.0003228967    1.461    0.316
       348 -10.3064     10.3177     15.7911   1.1834565333e+02   7.1811908895e+01    0.2465461    0.1347301  -5.58   0.00145392    2.076    0.518
       349 -11.1131     65.9516     21.4801   9.5015070963e+01   6.4146449878e+01     0.335158    0.2175894  22.73   0.00130761    1.569    0.363
       350  -9.5933    123.8195     14.6475   7.5297367713e+01   5.2770705440e+01    0.1894536    0.1249385  71.36  0.000398983    1.607    0.378
       351 -10.0247     99.7654     14.1497   8.0844657428e+01   5.8403591478e+01    0.1889105     0.180725  -0.48  0.001079848    1.141    0.124
       352  -9.5137     50.4831     14.4912   9.7934816031e+01   6.7553542751e+01    0.1756085    0.1057311 -38.89 0.0009807154    1.747    0.428
       353  -9.0455     51.3382     11.3047   9.5991271891e+01   6.7845572928e+01    0.1280273   0.08134227   6.62 0.0003199427    1.674    0.403
       354  -9.4812    175.5122     12.4281   6.5876721071e+01   3.9794776588e+01     0.140036    0.1244912  74.77 8.565798e-05    1.028    0.027
       355 -10.6816     29.0296    232.9915   1.4620105843e+02   2.4140795751e+01    0.2657268    0.1207814  54.72  0.001339197    1.645    0.392
       356 -11.9409     19.0292    238.4262   1.4815736926e+02   2.4242535165e+01    0.4364796    0.2171912  40.46  0.002773077    1.875    0.467
       357 -10.1459     72.0364    243.9453   1.3942506990e+02   1.6904689784e+01    0.1759091    0.1336877  61.23 0.0007000475    1.053    0.050
       358 -11.5371     74.0921    238.4415   1.3861937936e+02   1.7582549575e+01    0.5080467    0.2746522  51.36  0.003096418    1.424    0.298
       359  -9.3250     50.2811    240.3380   1.4298057561e+02   2.0341297358e+01     0.089977     0.083691 -68.97 0.0004668546    1.622    0.383
       360 -11.3336    177.5418    234.9452   1.1887541471e+02   1.9294939588e+00    0.2960177    0.2091973  15.74  0.001483126    1.613    0.380
       361  -9.6429    195.2856    238.5891   1.1614989871e+02  -1.4633445904e+00    0.1812327   0.09270754  32.84 0.0009592158    1.673    0.402
       362 -10.5239    159.9734    235.9385   1.2229757679e+02   4.6981822497e+00    0.1962332    0.1541485  38.37 0.0005977745    1.051    0.049
       363 -10.5769     73.5407    232.9815   1.3826713938e+02   1.8629701387e+01    0.2873983    0.1298087  47.75  0.001280262    1.728    0.421
       364 -10.4413    167.0261    233.8179   1.2068255159e+02   3.8406171363e+00    0.1885389    0.1794299  13.97 0.0007581991    1.211    0.174
       365 -10.9118    153.4221    233.7634   1.2324492892e+02   6.1163892166e+00    0.2223801    0.1733603   7.77  0.000766286    1.688    0.407
       366  -9.5659     53.6749    234.6823   1.4199979608e+02   2.0929643779e+01   0.09146929   0.08903628 -46.88 0.0007044874    1.673    0.402
       367  -9.8907     79.5567    231.3811   1.3701233485e+02   1.8082550708e+01     0.211339    0.1201917  42.70  0.000630233    1.528    0.346
       368  -9.8790     88.6554    241.1533   1.3620732343e+02   1.5069875841e+01    0.1427216    0.1012028 -59.61  0.000940593    1.769    0.435
       369  -9.4835    235.8462    230.4246   1.0772574369e+02  -6.7817032000e+00    0.1615018   0.08913421  27.49 0.0004527834    1.552    0.356
       370  -9.8924    169.8334    229.1641   1.1949501037e+02   4.0614348234e+00    0.1725632    0.1327581  22.11 0.0009351113    1.327    0.246
       371 -10.4091    190.3578    226.6205   1.1525484200e+02   9.7049593940e-01    0.2298379    0.1723701 -40.45 0.0009305353    1.616    0.381
       372 -10.0015     86.1815    233.4928   1.3596752169e+02   1.6761281880e+01    0.2194825    0.1182707  81.49   0.00114394    2.324    0.570
       373 -10.7730    115.9980    226.5332   1.2954828581e+02   1.3454346822e+01    0.2877512    0.1302644 -62.56  0.001389137    2.695    0.629
       374  -9.2686    249.3403    227.2572   1.0492869903e+02  -8.4034379583e+00    0.1191942   0.07118154  14.64  0.000298402    1.582    0.368
       375 -10.3223    129.7261    226.7354   1.2689872631e+02   1.1189477896e+01    0.3893079    0.1518195  51.84  0.001663805    2.494    0.599
       376 -10.2705     88.1291    227.1467   1.3499745971e+02   1.7620510004e+01    0.1738229    0.1525688  50.31  0.001223607    1.263    0.208
