#   1 NUMBER                 Running object number                                     
#   2 MAG_AUTO               Kron-like elliptical aperture magnitude                    [mag]
#   3 X_IMAGE                Object position along x                                    [pixel]
#   4 Y_IMAGE                Object position along y                                    [pixel]
#   5 X_WORLD                Barycenter position along world x axis                     [deg]
#   6 Y_WORLD                Barycenter position along world y axis                     [deg]
#   7 A_WORLD                Profile RMS along major axis (world units)                 [deg]
#   8 B_WORLD                Profile RMS along minor axis (world units)                 [deg]
#   9 THETA_WORLD            Position angle (CCW/world-x)                               [deg]
#  10 FWHM_WORLD             FWHM assuming a gaussian core                              [deg]
#  11 ELONGATION             A_IMAGE/B_IMAGE                                           
#  12 ELLIPTICITY            1 - B_IMAGE/A_IMAGE                                       
         1 -13.2512     65.1432     52.6787   6.7313893801e+01   6.0425231037e+01     1.456625    0.7816912 -37.57  0.005919042    2.062    0.515
         2 -14.9151      6.3982     71.1294   1.0199823231e+02   6.2513014461e+01       1.5021    0.8097908 -73.02  0.006357661    1.607    0.378
         3 -14.1915    166.5102     29.2088   3.1237414537e+01   3.9503737909e+01     1.115539    0.8853047  83.66  0.003881864    1.265    0.209
         4 -12.9436    120.6755     26.5823   3.7901627866e+01   5.1888473563e+01    0.8679214    0.7363675  17.26   0.00453129    1.349    0.259
         5 -14.3753    147.0776     29.6357   3.4195331510e+01   4.4490497094e+01     1.460008     0.869441  69.12  0.006137127    1.660    0.397
         6 -13.2367    131.8358     32.4383   3.7940552730e+01   4.8154192105e+01    0.6943153     0.560562  75.91  0.001876062    1.236    0.191
         7 -13.6296      2.9857     10.2467   9.0794778786e+01   7.7746969101e+01    0.8547491    0.5567794 -68.53  0.004882131    1.499    0.333
         8 -13.5313      8.7681      2.8939   8.0562875274e+01   7.8933246294e+01     1.103636    0.4766721  40.50  0.004578315    2.980    0.664
         9 -15.9717     13.3596     20.5775   8.5602139508e+01   7.4732010902e+01     2.153728     1.084096 -39.50   0.00842009    1.874    0.466
        10 -11.5985    194.5111     23.3676   2.6393404791e+01   3.3285932457e+01    0.6255134    0.2738242 -32.76   0.00278998    1.960    0.490
        11 -13.3927    188.5316     25.3751   2.7544191415e+01   3.4488656095e+01      1.37945    0.4646108 -44.72  0.005243574    2.667    0.625
        12 -12.9506    186.8912     13.8777   2.4326944910e+01   3.6089274129e+01    0.4588266    0.3170503 -39.36  0.002158675    1.301    0.231
        13 -12.6413    187.9950      9.6132   2.2985572002e+01   3.6236285404e+01    0.7119904    0.2931084 -44.51  0.003102141    2.104    0.525
        14 -11.7220     46.3684     20.7338   6.1710775981e+01   7.0311819150e+01     0.414209    0.3315588  11.91  0.002274253    1.324    0.245
        15 -15.0857     98.7464     11.4443   3.6024635649e+01   5.9525304059e+01     1.729413    0.9464489  67.90  0.007524515    1.770    0.435
        16 -12.8404     85.6377     14.0098   4.0863527373e+01   6.2616571788e+01    0.6439728    0.4040394 -42.40  0.002162591    1.716    0.417
        17 -12.3401     70.1439     16.2026   4.7448833260e+01   6.6090713915e+01    0.4221913    0.3600281 -74.00    0.0018033    1.443    0.307
        18 -11.8426     59.0563     15.9839   5.2126711311e+01   6.8597577526e+01    0.3774945    0.3342381  43.49  0.002169721    1.116    0.104
        19 -13.1034    215.2037     10.2080   2.1254311656e+01   2.9910816186e+01    0.5324239    0.2999491 -45.04  0.001901229    1.472    0.321
        20 -12.8124    221.7828     11.1965   2.1106510047e+01   2.8398778407e+01    0.3563516    0.2558946  38.80  0.002108287    1.851    0.460
        21 -11.6947     46.6552     12.8291   5.6620974277e+01   7.1614877325e+01    0.2942497    0.2792771  58.35  0.001576761    1.230    0.187
        22 -13.7892     41.7756      4.4465   5.3615284903e+01   7.3838388466e+01    0.7393616    0.6113782   9.11   0.00351069    1.181    0.153
        23 -10.7027    123.5076     11.0962   3.0918513631e+01   5.2914357205e+01    0.2046795    0.1446153 -23.03 0.0004765859    1.504    0.335
        24 -11.2907     75.0045      8.0145   4.0884119605e+01   6.5979037765e+01    0.4138838     0.203825 -14.73  0.001079083    2.532    0.605
        25 -11.8598    153.3256      8.5989   2.5892631242e+01   4.5138497597e+01    0.2546219     0.238003  52.92 0.0006578536    1.161    0.139
        26 -10.9114     59.4065      7.8198   4.6794276948e+01   6.9676713141e+01    0.2860985    0.1570064  39.13 0.0008980094    1.838    0.456
        27 -11.7247    224.8224      4.1974   1.9199713316e+01   2.8404902467e+01    0.3006455    0.1474441  45.39  0.001419246    2.976    0.664
        28 -10.7119     66.7993      3.8010   4.1169738024e+01   6.8445008547e+01    0.1865185     0.163561 -76.37 0.0006781856    1.355    0.262
        29 -14.2492     25.0650     13.6107   7.2090372914e+01   7.4995355787e+01    0.8677014    0.4659728  32.02  0.004210906    1.898    0.473
        30 -11.8844    120.1874      3.6089   2.8262316914e+01   5.4523813853e+01    0.4035066    0.1906046  85.27  0.001565913    2.358    0.576
        31 -13.1235     55.4581     27.2148   6.0347970025e+01   6.7430267013e+01    0.7485441     0.482838  41.10  0.003630592    1.541    0.351
        32 -10.9101    169.4586      1.5462   2.1993275564e+01   4.1577905510e+01    0.2837926    0.1246321  76.93  0.001207535    2.178    0.541
        33 -11.2065     81.5654      1.4870   3.5071999515e+01   6.5012543544e+01    0.5158575    0.1022247  62.45  0.001531087    3.861    0.741
        34 -11.5169     61.4932      1.4976   4.1672181608e+01   6.9954332348e+01    0.3826182    0.1322605  60.73   0.00120539    2.849    0.649
        35 -12.1066     63.4352     25.0774   5.5302422414e+01   6.6197212737e+01    0.5793623    0.3722138  19.39  0.002261699    2.133    0.531
        36 -13.8040     92.4280    230.3983   9.1523723057e+01   1.7239600648e+01    0.5812503    0.4830714  32.58  0.004283393    1.094    0.086
        37 -12.8094    107.4643    246.3230   8.9820380787e+01   1.3043873813e+01    0.5745331    0.4191383  65.95  0.004067678    1.805    0.446
        38 -13.0993     98.7960    238.8200   9.0923075814e+01   1.5168636671e+01    0.7653515    0.3455504  31.29  0.004293262    1.654    0.395
        39 -12.0559     51.1302    248.6246   1.0130279409e+02   1.8889947631e+01    0.3146246    0.2927976 -40.55   0.00266576    1.531    0.347
        40 -11.9890     60.4888    246.0133   9.9280960972e+01   1.8339377392e+01    0.2640176    0.1289916  27.23  0.001576422    1.678    0.404
        41 -12.6159      2.8288    248.9022   1.1076690340e+02   2.3215553041e+01    0.4139805    0.2292841  71.23  0.002827452    1.654    0.395
        42 -13.4100      9.4514    245.7439   1.0944031453e+02   2.3186030345e+01    0.6486649    0.2935261  51.09  0.003340669    1.539    0.350
        43 -11.1332    178.1618    167.3883   6.4597621965e+01   1.5284909147e+01    0.1817718    0.1120956  44.50 0.0009514136    1.747    0.428
        44 -12.0514     25.2884    158.9450   1.0243379544e+02   3.8932420060e+01    0.3821221    0.2660493  -5.10  0.001878941    1.964    0.491
        45 -12.0145     76.5660    156.7934   8.7432525005e+01   3.3550831010e+01    0.4773326    0.2812005  27.01  0.001704094    1.686    0.407
        46 -13.2601     73.2347    153.3500   8.7917626227e+01   3.4797356752e+01    0.7399163    0.5055165  22.40  0.002829866    1.549    0.355
        47 -11.6507    110.3982    154.7241   7.7837187525e+01   2.8841544285e+01    0.4043262    0.2664296 -84.64  0.001797495    2.425    0.588
        48 -12.6127      6.5036    145.4837   1.0721583059e+02   4.3577803561e+01    0.7708111    0.2974017 -87.26  0.003413934    2.427    0.588
        49 -11.3522    103.3735    149.9561   7.8895877386e+01   3.1005117094e+01    0.3429175    0.2371998 -30.26  0.001654744    1.841    0.457
        50 -11.2061     54.0063    156.6105   9.3907035362e+01   3.6503915066e+01    0.3664092     0.122695  26.93  0.001362934    2.876    0.652
        51 -12.3654     60.7473    147.2120   9.0802010898e+01   3.7891363991e+01    0.4675262    0.3047522  15.68  0.002043383    1.810    0.448
        52 -10.8110     38.1600    145.8345   9.7566111355e+01   4.0820609834e+01    0.1737497    0.1581458 -38.65 0.0005032548    1.312    0.238
        53 -11.3726    188.8037    156.0030   6.0393783108e+01   1.5314297085e+01    0.1779195    0.1462061  53.98   0.00105822    1.615    0.381
        54 -12.0644     40.7011    137.4401   9.5914016925e+01   4.2613531346e+01    0.4763391    0.2336782  53.45  0.002103382    2.018    0.505
        55 -12.1938     45.0597    133.4201   9.4034689251e+01   4.3139527182e+01    0.5650458    0.3589944  89.67  0.002784254    1.652    0.395
        56 -12.3435    136.0718    132.7964   6.6979525226e+01   2.8801705103e+01    0.4115114    0.2060694  40.51   0.00102782    1.907    0.476
        57 -12.7799     84.4330    115.0208   7.7851699956e+01   4.2200491749e+01    0.9513232    0.5125254  22.03  0.003625658    2.475    0.596
        58 -11.9824     78.3014    110.5837   7.8947488398e+01   4.4298736845e+01    0.4510695    0.3219235  75.41  0.001618824    1.746    0.427
        59 -13.6194    108.6841    124.1928   7.2402870833e+01   3.5766793398e+01    0.8158095    0.6152011  31.14  0.003900543    1.331    0.249
        60 -13.3672    111.3704    116.9798   7.0007977935e+01   3.6865788538e+01    0.7849084    0.4101914  27.15  0.002920452    2.491    0.599
        61 -14.3302    106.2773    105.4520   6.8712815745e+01   4.0433681630e+01     2.365227      1.19385 -37.87  0.008882064    2.384    0.580
        62 -13.2453     95.5394    110.4153   7.3243551216e+01   4.1339525086e+01    0.9214998    0.8232243  79.11  0.004610785    1.199    0.166
        63 -11.6191    135.0768    125.9394   6.5708201782e+01   3.0367445910e+01     0.227734    0.2162204  19.67 0.0006382728    1.008    0.008
        64 -12.1469    181.1712    121.0045   5.4420347952e+01   2.2237725693e+01    0.2497354    0.2003557  37.74  0.001116008    1.262    0.207
        65 -11.9708      4.4863    119.7156   1.0663816411e+02   5.0032750865e+01    0.5509267    0.2062393  13.39   0.00220328    3.029    0.670
        66 -11.4841     35.4631     86.5997   9.0678454186e+01   5.6274166572e+01     0.271756    0.2566664   4.16 0.0006530655    1.164    0.141
        67 -12.6982     42.2400     90.5508   8.8507464818e+01   5.4500959118e+01    0.3431267    0.2831878  87.18 0.0002674077    1.225    0.183
        68 -14.4910     24.6649     93.6411   9.6488370755e+01   5.5418850749e+01     1.376719     1.264987   6.81  0.008309877    1.223    0.182
        69 -12.1166     36.6731     92.9431   9.1300626858e+01   5.4484403906e+01    0.4537748    0.2919028   5.08   0.00142653    1.965    0.491
        70 -14.6789     15.9408    108.0013   1.0162679763e+02   5.2315202107e+01      1.62956    0.8624706  60.65   0.00763998    1.899    0.473
        71 -11.6161    121.6706    112.3208   6.6002733453e+01   3.5853218292e+01    0.2826747    0.2695641 -78.57 0.0007672416    1.123    0.110
        72 -12.0229     62.6921    109.6572   8.4240581787e+01   4.6923329681e+01    0.6230097    0.4272979  79.26  0.002872104    1.759    0.432
        73 -13.2987      2.3963     97.3623   1.0610388104e+02   5.5856430523e+01    0.7853041    0.2923033 -84.56  0.003124008    2.405    0.584
        74  -9.9154     69.6450    108.2767   8.1472032870e+01   4.6243098886e+01    0.1567371    0.1077537  62.19 0.0004415303    1.650    0.394
        75 -11.1710     42.5615    107.0647   9.1280613771e+01   5.0155083353e+01    0.2778574    0.1901066  -1.07  0.001311339    1.931    0.482
        76 -12.3261    136.4954    103.2111   5.9791494321e+01   3.4647606001e+01    0.7023607    0.3070444  49.53  0.001941924    2.360    0.576
        77 -12.1257    121.1033    101.3425   6.3350440018e+01   3.8305050648e+01    0.3626061    0.2396435 -39.39  0.001620414    1.577    0.366
        78 -12.2494     49.1093     93.6559   8.6271666880e+01   5.2863351172e+01    0.4578128    0.4033169  48.42  0.002536214    1.139    0.122
        79 -11.8476     47.2872     99.5986   8.8160430168e+01   5.1546762437e+01     0.533192     0.325079  65.45  0.002346598    1.958    0.489
        80 -11.6455     52.2815     97.9038   8.5856710855e+01   5.1356696789e+01    0.4221492    0.2736218 -22.75  0.001772399    2.205    0.546
        81 -11.9325     60.8474     97.7355   8.2478348015e+01   5.0219228573e+01    0.4613785    0.2931363  57.52  0.002048985    1.791    0.442
        82 -12.6917    136.2928     95.1567   5.7667350129e+01   3.6286048306e+01    0.5184241    0.3850985  47.71  0.002495609    1.342    0.255
        83 -12.7754     28.6383    122.0141   9.8341364489e+01   4.7685325526e+01    0.4557661    0.3481819 -67.56  0.002328635    1.285    0.222
        84 -13.0085    188.2585     84.2783   4.4080798872e+01   2.6661447911e+01    0.6024523    0.2522749  44.19  0.002351356    2.694    0.629
        85 -11.5937    242.2100     84.3897   3.6824130771e+01   1.6147013634e+01     0.149852    0.1199544  81.92 0.0009577793    1.698    0.411
        86 -13.2413    164.0186     71.7452   4.4850558280e+01   3.4100513805e+01     1.175453    0.6050977  47.92  0.004894607    2.019    0.505
        87 -14.0720    169.5348     76.9851   4.5337598464e+01   3.1971320223e+01      1.37658    0.4947649  51.72  0.004933785    2.787    0.641
        88 -11.9365    158.1880     83.6036   4.9425036172e+01   3.3472828772e+01    0.4071922    0.2790899  55.25 0.0007951564    1.515    0.340
        89 -12.7783    160.9697     80.5014   4.7977096258e+01   3.3364024447e+01     0.510591    0.3295104  43.01  0.001603832    1.637    0.389
        90 -12.3497     28.4254    245.9988   1.0572259965e+02   2.1491082555e+01    0.3942618    0.2488575  52.48  0.002913384    1.222    0.181
        91 -13.2845     54.2657     67.8996   7.7582466685e+01   5.8692305697e+01     1.899485    0.8091822  31.57  0.007176884    2.450    0.592
        92 -12.8527     54.6901     82.0367   8.1297905466e+01   5.5097848178e+01    0.6072001    0.4518416 -76.90  0.002990121    1.436    0.304
        93 -14.0742     61.1683     75.7089   7.6824679623e+01   5.5707685716e+01    0.7533568    0.5431502 -34.60  0.001258201    1.560    0.359
        94 -13.1826     71.4056     74.9379   7.2347274981e+01   5.4174935248e+01    0.6528394    0.4712897  -0.51  0.002419543    2.001    0.500
        95 -12.3889     77.1605     73.2836   6.9551984144e+01   5.3512087082e+01    0.6430189    0.3707235 -32.31  0.002150379    2.292    0.564
        96 -13.3014    214.1524     79.3745   3.9035085621e+01   2.2007198449e+01    0.7068268    0.4619106 -87.84  0.003428526    2.465    0.594
        97 -12.5210    135.9520     79.8392   5.3309024140e+01   3.9315178018e+01    0.6536612     0.346741  48.81  0.002068956    1.877    0.467
        98 -11.8701    113.8540     80.1006   5.9300079987e+01   4.4344233356e+01    0.4070882    0.3583505 -33.03  0.001226472    1.177    0.151
        99 -11.2048     42.5081     79.4901   8.6053294807e+01   5.7344303242e+01    0.2507344    0.1792025 -57.13 0.0008692563    1.322    0.244
       100 -11.0276     41.6021     76.2286   8.5710489207e+01   5.8293457602e+01    0.2837128    0.1948699 -68.61 0.0006926314    1.414    0.293
       101 -13.5972    171.5899    242.3379   7.7110493579e+01   5.8997754624e+00    0.7089018    0.3947876  21.02  0.004609165    1.424    0.298
       102 -13.3165     91.7373     58.0548   5.8819640628e+01   5.3834685826e+01    0.5843419    0.5443708 -47.60  0.002501604    1.085    0.079
       103 -11.5463     26.4985     75.3030   9.2694835644e+01   6.0089569538e+01    0.5037821    0.2519875  62.76  0.001996922    2.659    0.624
       104 -13.1909    199.1437     70.1961   3.8734184585e+01   2.6376066629e+01    0.6852537    0.4219869  41.89   0.00288302    1.878    0.468
       105 -11.4931    214.4938     71.5072   3.7047266627e+01   2.2993392952e+01    0.1322966    0.1158947 -32.16 7.177615e-05    1.001    0.001
       106 -11.4037    158.1537     63.2834   4.3410084238e+01   3.6858789004e+01    0.4204327    0.2303107 -58.78  0.001604795    2.487    0.598
       107 -12.1784    134.5928     66.3558   4.9386106107e+01   4.2107159519e+01    0.5457205    0.3303317  52.09  0.001951574    1.640    0.390
       108 -11.6684     24.8385     59.4061   9.0179604685e+01   6.4352424822e+01    0.5273069    0.3593847 -64.59   0.00170582    1.339    0.253
       109 -10.7829     31.6048     65.2175   8.7964636123e+01   6.2225597181e+01    0.4463898    0.2330998 -51.10  0.001990336    1.777    0.437
       110 -11.4747     30.7617     60.9943   8.7350179039e+01   6.3388914380e+01    0.3519714    0.2242401 -60.86  0.001369401    1.435    0.303
       111 -10.6319     99.9734     65.5017   5.8752628948e+01   5.0475861435e+01    0.2374003    0.1513696  47.97 0.0006937783    1.555    0.357
       112 -11.2232    199.9072     61.8224   3.6415000970e+01   2.7358960102e+01     0.208157    0.1843553   9.06  0.001231859    1.266    0.210
       113 -13.2904    177.8247     57.8148   3.8418483521e+01   3.2948834389e+01    0.7921937    0.5422134 -45.76  0.002721915    1.405    0.288
       114 -12.5305     79.1817     60.6869   6.4451233987e+01   5.5952870533e+01    0.5375532     0.479269 -52.74  0.002829006    1.134    0.118
       115 -13.0225     82.2586     54.4609   6.0902279808e+01   5.6631819345e+01    0.7657591    0.5695109  30.11  0.003416652    1.477    0.323
       116 -11.1158     39.0546     60.1889   8.2736442703e+01   6.2669446833e+01      0.27898    0.1916076  52.51  0.001353288    1.669    0.401
       117 -14.5100    119.7392     54.6071   4.9031614390e+01   4.7839866850e+01     1.110592    0.6527976  45.38  0.004666859    1.739    0.425
       118 -11.2310     17.7123     55.5530   9.3326787008e+01   6.5903364224e+01    0.3813989    0.1706478 -75.96  0.001584443    2.236    0.553
       119 -13.3205     87.3767     65.1460   6.2961754377e+01   5.3297096737e+01      1.09305     0.710266  10.83   0.00407626    2.757    0.637
       120 -13.5103    103.0789     50.4081   5.2156134030e+01   5.2671420929e+01     1.107035    0.5884386 -54.72  0.002692292    2.425    0.588
       121 -12.9749     97.9909     50.2212   5.3681720356e+01   5.3919451560e+01    0.5851955    0.3958201 -53.02  0.001660775    1.637    0.389
       122 -10.4284     42.0163     53.2753   7.8983625382e+01   6.3987887871e+01    0.1917827    0.1813034  16.46 0.0005475633    1.098    0.089
       123 -11.6200     36.6937     53.5857   8.1985901437e+01   6.4586083993e+01    0.3220815    0.2382633  11.89  0.001537109    1.509    0.337
       124 -13.5643      4.2747     63.6816   1.0220816322e+02   6.4541087402e+01    0.6426196    0.3930665  40.65  0.003360132    1.756    0.431
       125 -11.4715    136.2833     49.6260   4.3318971626e+01   4.4485800745e+01    0.2796474    0.2611871  31.12 0.0006635468    1.142    0.124
       126 -10.6264     23.5275     50.0484   8.8528765968e+01   6.6834106343e+01    0.2021796    0.1240463 -62.83 0.0004628598    1.481    0.325
       127 -12.9300    158.9119     43.5491   3.7009690627e+01   3.9598631896e+01     1.050639    0.3774423  48.25  0.003571924    3.098    0.677
       128 -13.0082      4.0211     43.2602   9.9296174817e+01   6.9778535530e+01    0.5473422    0.3976294 -26.44  0.003165968    1.419    0.295
       129 -12.3045     11.7622     43.6599   9.4274582803e+01   6.9301451697e+01    0.4767167    0.2880182 -26.30  0.001775924    1.790    0.441
       130 -13.0184    204.7534     40.0787   3.0012305355e+01   2.9043052796e+01     1.045778    0.4618081 -81.96  0.003462082    4.648    0.785
       131 -12.6316    213.0118     43.0957   2.9973782786e+01   2.6878381206e+01    0.4976479    0.2823738  49.99  0.002225981    2.054    0.513
       132 -13.2673    219.4606     41.6990   2.8996006098e+01   2.5673546097e+01     0.543319    0.3892824 -81.86  0.002014034    1.583    0.368
       133 -12.2776    147.3543    239.0017   8.1245695799e+01   9.2406374474e+00    0.1999934    0.1283263  41.23 0.0009221066    1.525    0.344
       134 -12.7832     24.6669    217.2664   1.0548255298e+02   2.6804670869e+01    0.6544563       0.2376  42.12  0.003510952    1.876    0.467
       135 -12.1712    109.6730     41.9911   4.6887333493e+01   5.2493633568e+01    0.6000596      0.21502  54.48  0.001540966    2.637    0.621
       136 -11.4536     13.4845    222.4432   1.0807317917e+02   2.6838749800e+01    0.3263862     0.121546  67.49  0.001460131    2.505    0.601
       137 -13.9570     26.4452    226.4883   1.0544339273e+02   2.4974467758e+01     0.943332    0.4008705 -56.83  0.005008203    3.292    0.696
       138 -12.7240    113.9446     37.8835   4.4095949975e+01   5.2053774244e+01    0.4665399    0.3468729  59.97  0.001762558    1.310    0.237
       139 -12.8923    139.4352     21.5766   3.2476372076e+01   4.7485575602e+01    0.8933641    0.2720962  63.76  0.002376384    2.893    0.654
       140 -13.8577    122.3041     36.9898   4.1725399189e+01   5.0020570699e+01      1.01387    0.5686763  39.92  0.003109003    2.074    0.518
       141 -12.2319     75.7903     37.1281   5.6043978408e+01   6.1407889137e+01    0.4136407    0.2661068  44.64  0.000994392    1.530    0.346
       142 -11.5993     70.5819     36.2513   5.7795247208e+01   6.2692797694e+01     0.355219    0.2670876  51.49  0.001034589    1.362    0.266
       143 -12.2513    242.0409     36.0170   2.5754480293e+01   2.1789210694e+01    0.3972145    0.2502092  71.40  0.001836868    1.859    0.462
       144 -10.3477    104.5069     36.9967   4.6254410917e+01   5.4597813797e+01    0.2247275    0.1167639 -54.32 0.0008104187    2.557    0.609
       145 -13.5914     20.5521    224.1021   1.0661656244e+02   2.5929836213e+01    0.5094378    0.4393798  57.42  0.002648189    1.194    0.162
       146 -13.2650     64.7047    223.4644   9.6975217252e+01   2.1617764714e+01     1.002184    0.5339043  43.80  0.005970288    1.451    0.311
       147 -10.8948    249.4979    225.4864   6.2006884842e+01  -1.0425672275e+00    0.1029595   0.06881239   3.40  0.000810505    1.012    0.012
       148 -11.0582     34.9504     34.7367   7.5980093335e+01   6.9237274464e+01    0.2108746    0.1988806 -36.71  0.000520642    1.046    0.044
       149 -12.7658     44.8528     33.3763   6.9324063445e+01   6.8085947226e+01    0.8460856    0.5077848  38.35  0.004015199    1.703    0.413
       150 -13.7075     64.1422    214.4649   9.6453863149e+01   2.3285072550e+01    0.5563262    0.3279671  51.53  0.003325778    1.482    0.325
       151 -12.2482     94.3778    218.3182   8.9997788273e+01   1.8992286697e+01    0.2419697    0.1754429  42.13  0.001539535    1.151    0.131
       152 -11.5442    156.8965    214.4202   7.6328204804e+01   1.1372982763e+01    0.2333662    0.1517344 -33.20  0.001457823    1.756    0.431
       153 -12.7318     59.3948    212.7966   9.7415857620e+01   2.4123769931e+01    0.3372327    0.2280525 -50.62  0.001174857    1.927    0.481
       154 -12.5189    216.7136     28.3492   2.5824517401e+01   2.7746238664e+01    0.2918726    0.2121283 -30.63  0.001536806    1.235    0.190
       155 -11.3691     30.9707     25.3354   7.4211113576e+01   7.1813358372e+01    0.3441033    0.2166349   6.07  0.001626292    2.026    0.507
       156 -11.2538     36.1793     23.1148   6.9467703184e+01   7.1540507840e+01    0.3464068    0.2248277 -41.20  0.001765746    1.473    0.321
       157 -12.2473      3.9591    212.0168   1.0987499011e+02   2.9534007249e+01    0.4088714      0.21226  73.92  0.002555197    1.742    0.426
       158 -11.2892     51.2713     20.4460   5.8771095853e+01   6.9449997032e+01    0.2698762    0.2053442  46.22 0.0008371288    1.348    0.258
       159 -11.5116    223.7031     20.9067   2.3414216607e+01   2.7038220528e+01    0.1986234    0.1716034  62.97  0.001316295    1.358    0.264
       160 -10.5782    136.7490    211.0228   7.9998793536e+01   1.4607020182e+01    0.1350811    0.1055092 -44.61 0.0008833646    1.566    0.362
       161 -11.6820     72.6099    207.5657   9.3953904891e+01   2.3569999008e+01    0.3208557    0.2301504 -81.58   0.00203016    1.664    0.399
       162 -12.3506     41.3662    206.3801   1.0117378770e+02   2.7257461063e+01    0.2439399    0.1656811  52.77  0.001571389    1.207    0.171
       163 -12.2538     57.6115    202.6785   9.7093923750e+01   2.6237397047e+01    0.5805107    0.2758044 -84.52   0.00287185    2.683    0.627
       164 -12.6523    219.0255     15.5211   2.2371197443e+01   2.8569614475e+01    0.2707123    0.2065847  89.00  0.001368223    1.370    0.270
       165 -14.3738     15.2365    197.2561   1.0690059808e+02   3.1490500271e+01     1.207918     1.119132  31.50   0.00918695    1.283    0.220
       166 -12.9205     21.9453    166.3462   1.0381534780e+02   3.7526763948e+01    0.5441561    0.3108754  33.10  0.001670197    1.543    0.352
       167 -13.7268     30.0059    169.4126   1.0178926883e+02   3.6106953791e+01    0.8809718    0.5575721 -31.39  0.003510434    2.380    0.580
       168 -13.3075     22.2852    181.0106   1.0448737405e+02   3.4260828077e+01    0.6362604    0.3783399 -71.62  0.002707092    1.797    0.443
       169 -15.1423      7.9914    183.5459   1.0820135238e+02   3.4898991263e+01     1.176268    0.9360659  55.92  0.008243917    1.019    0.018
       170 -15.3168     15.8899    174.6986   1.0585458023e+02   3.6174987602e+01     2.449187    0.9317471  58.70   0.01136584    2.316    0.568
       171 -13.7269     39.4479    195.2387   1.0097173590e+02   2.9656627167e+01    0.8538859    0.2668533  42.01  0.003860303    2.296    0.564
       172 -12.1221    164.5140    196.0174   7.2147583478e+01   1.2992199421e+01    0.2958388    0.2035036  75.55  0.001228178    4.684    0.787
       173 -12.2783    200.8282    191.7442   6.4599783807e+01   8.4756959709e+00     0.294301    0.2046563   1.73   0.00154242    1.294    0.227
       174 -10.9877     79.7934    192.5686   9.0822631989e+01   2.5548467711e+01    0.3654853    0.1087377  44.34  0.001403069    2.911    0.656
       175 -12.0401    155.9738    185.0115   7.2173250818e+01   1.5954728121e+01    0.2064335    0.1730347  16.37  0.001052569    1.017    0.016
       176 -11.8520     48.9489    181.9665   9.7647925377e+01   3.1416896229e+01    0.3332977    0.2373053 -60.14  0.001983608    1.619    0.383
       177 -12.1325    198.5304    181.5217   6.3285690299e+01   1.0153012568e+01    0.2327363    0.2093988  19.59  0.001633004    1.315    0.240
       178 -11.2017    121.8343    180.9541   7.9168955762e+01   2.1861877689e+01    0.3970212    0.2366634  73.01   0.00151995    3.997    0.750
       179 -10.2265    100.9890    176.0070   8.3545453515e+01   2.5931938088e+01    0.1527964    0.1335734  37.12            0    1.005    0.005
       180 -12.5721    124.0876    166.8655   7.6423028765e+01   2.4172352820e+01    0.5363878    0.3871815 -81.69  0.002700718    2.118    0.528
