#   1 NUMBER                 Running object number                                     
#   2 MAG_AUTO               Kron-like elliptical aperture magnitude                    [mag]
#   3 X_IMAGE                Object position along x                                    [pixel]
#   4 Y_IMAGE                Object position along y                                    [pixel]
#   5 X_WORLD                Barycenter position along world x axis                     [deg]
#   6 Y_WORLD                Barycenter position along world y axis                     [deg]
#   7 A_WORLD                Profile RMS along major axis (world units)                 [deg]
#   8 B_WORLD                Profile RMS along minor axis (world units)                 [deg]
#   9 THETA_WORLD            Position angle (CCW/world-x)                               [deg]
#  10 FWHM_WORLD             FWHM assuming a gaussian core                              [deg]
#  11 ELONGATION             A_IMAGE/B_IMAGE                                           
#  12 ELLIPTICITY            1 - B_IMAGE/A_IMAGE                                       
         1 -15.0684    173.9591     48.5722   5.8479083221e+01   3.5584629049e+01     1.345557     1.108395   9.73  0.004192956    1.454    0.312
         2 -15.4160    193.7689     16.9964   4.6124384387e+01   3.4524947881e+01     1.775417     1.417153  83.05  0.006070266    1.170    0.145
         3 -12.6908    110.5971    225.7041   1.1186146580e+02   1.3817963365e+01    0.4586721     0.203034 -63.78  0.001782009    2.708    0.631
         4 -12.8994    188.2214    249.4901   1.0042966449e+02  -2.2531129155e+00    0.4159343    0.1791691  29.16  0.001945996    2.520    0.603
         5 -18.3986     66.9893    214.4139   1.1910907273e+02   2.2278979492e+01     9.086226     5.707668 -74.32   0.04783358    1.576    0.365
         6 -10.6757    167.6069    242.2053   1.0316751327e+02   1.9964728630e+00     0.140303    0.1131664 -22.51 0.0004450489    1.572    0.364
         7 -19.1049     47.9290     94.5988   1.0727303981e+02   5.1668016102e+01     16.70292     0.776643 -60.64   0.02461309   17.937    0.944
         8 -10.0761    131.1596    230.9127   1.0853904629e+02   9.6527414863e+00     0.144325    0.1339735  26.17 0.0003865114    1.280    0.219
         9 -13.2001    165.9433    217.9522   1.0005255420e+02   5.9289466909e+00    0.5030509    0.2992342 -45.83 0.0006979121    1.992    0.498
        10 -13.4569    164.9115    226.3103   1.0148003102e+02   4.7903709059e+00    0.4430945    0.3999599  71.59  0.001300025    1.302    0.232
        11 -12.2127    158.8557    227.8445   1.0285272562e+02   5.5717571503e+00    0.3901037    0.2450354  43.51  0.001184923    1.312    0.238
        12 -12.5266    159.0327    223.6971   1.0223460280e+02   6.1959009827e+00    0.3435668    0.2219529  38.04  0.001748032    1.317    0.241
        13 -12.5260    151.5015    227.4558   1.0420602081e+02   6.8658682819e+00    0.2530537    0.2406083 -62.83  0.001024965    1.272    0.214
        14 -11.1172    134.3681    239.6266   1.0897713847e+02   7.7298218924e+00    0.1992244    0.1605249 -55.47 0.0009741567    1.542    0.352
        15 -12.2948    103.4899    237.1702   1.1442012789e+02   1.2914280901e+01     0.298868     0.277628 -72.14  0.001647099    1.368    0.269
        16 -12.9257    139.8275    218.4496   1.0525133463e+02   1.0326022056e+01    0.4675324    0.2461624 -60.50  0.001455985    2.425    0.588
        17 -11.7708    152.1058    218.7211   1.0287182785e+02   8.1884092007e+00    0.2311573    0.1966786  65.18  0.001031372    1.244    0.196
        18 -11.4323     97.1547    236.7274   1.1554004973e+02   1.3929344991e+01    0.2128719    0.1806771 -76.19 0.0009832417    1.358    0.264
        19 -10.5074    160.2772    233.0193   1.0329490794e+02   4.5388334190e+00    0.1614942    0.1452398  40.78 0.0003563179    1.110    0.099
        20 -12.1302    168.0280    206.3647   9.7832283426e+01   7.4631001992e+00     0.229769     0.198994 -61.27 0.0006719016    1.400    0.286
        21 -10.6362     12.3367    205.8701   1.2866205495e+02   3.0217048971e+01    0.3149634    0.1539952  31.55  0.001879586    2.473    0.596
        22 -11.0717    128.7890    200.6005   1.0497971598e+02   1.5455321282e+01    0.1956847    0.1776757 -51.38 0.0005922372    1.281    0.219
        23 -12.9426    201.8075    197.7820   8.9722386863e+01   2.7713623649e+00    0.3175373     0.210331  11.58  0.001611127    1.820    0.450
        24 -11.5860    131.7257    192.3432   1.0311866317e+02   1.6537971202e+01    0.2510969    0.2250877  -4.31 0.0002130481    1.419    0.295
        25 -11.5851    167.9839    235.9725   1.0225693200e+02   2.8291750624e+00    0.1997421    0.1729867 -40.38 0.0006968871    1.427    0.299
        26 -13.2802    211.0055    188.2775   8.6197723748e+01   2.5913153438e+00    0.4459983    0.2221288  37.16  0.002054743    1.870    0.465
        27 -10.6287    151.5764    235.5957   1.0527071071e+02   5.5781639685e+00    0.2886898    0.2109416  53.11  0.001825587    1.252    0.201
        28 -12.4558    183.1092    205.9306   9.4776658704e+01   4.8352760104e+00    0.3070703     0.197271 -45.84  0.001100018    1.822    0.451
        29 -11.0931    164.1871    186.1906   9.5186283275e+01   1.1724824799e+01    0.1874447    0.1614251  74.17 0.0005041577    1.349    0.259
        30 -12.9304    183.5579    178.7746   8.9780959034e+01   9.3451671201e+00    0.5086504       0.2894 -50.60  0.001941209    2.093    0.522
        31 -12.6210    180.3281    175.9694   8.9901342066e+01   1.0478725280e+01    0.3423958    0.2780838 -51.33  0.001021741    1.396    0.284
        32 -10.4629      3.9970    180.1935   1.2875486904e+02   3.6165205722e+01    0.2653023    0.1664601  -3.58  0.001452028    3.774    0.735
        33 -11.8008    165.4908    179.4655   9.3682716451e+01   1.2726374631e+01    0.2456636    0.1941784  84.11 0.0009019922    1.705    0.414
        34 -14.9888    182.5951    213.7294   9.6162512147e+01   3.6986015879e+00    0.7117067     0.654488 -59.79  0.004689794    1.377    0.274
        35 -11.4718      8.4109    175.4876   1.2758799108e+02   3.6783017832e+01    0.1701971    0.1021798  38.06 0.0008144827    1.815    0.449
        36 -12.3580    185.5947    171.4373   8.7915980860e+01   1.0261081476e+01    0.4229159    0.3192466 -56.67  0.001539295    1.615    0.381
        37 -12.0067    191.2168    167.8845   8.6043203484e+01   9.7822645415e+00    0.5390489    0.3818666 -56.70  0.002113265    1.790    0.441
        38  -9.9808    189.6797    161.6959   8.5068013912e+01   1.1212824723e+01    0.1997034    0.1482197 -19.39 0.0005807529    1.524    0.344
        39 -13.5439    229.8779    169.7531   7.9007941541e+01   2.0308769087e+00    0.5687935    0.2824207 -28.08  0.002534121    2.101    0.524
        40 -12.4065    157.2651    160.5909   9.1800935475e+01   1.8049096521e+01    0.2977279    0.2697951  64.01 0.0006560911    1.137    0.120
        41 -10.3717     13.1825    157.8566   1.2529912012e+02   4.0204718024e+01    0.1477594    0.1118642 -68.71 0.0002584267    1.296    0.229
        42 -11.3997    186.5015    151.4250   8.3508604599e+01   1.3782576642e+01    0.3590614    0.1832177  37.89  0.001439817    2.029    0.507
        43 -10.9910    174.6249    148.9367   8.5486972882e+01   1.6775806385e+01    0.2667703    0.2367292 -85.15 0.0007830616    1.340    0.254
        44 -11.4500      3.5906    149.9370   1.2680948153e+02   4.2709336322e+01    0.1731797     0.152988  71.68 0.0003659269    1.257    0.205
        45 -11.4267    155.9983    142.4971   8.8222165889e+01   2.2050899583e+01    0.2647313    0.2117484 -67.05 0.0005283972    1.438    0.305
        46 -11.6880    160.5118    128.1319   8.3822573399e+01   2.4079418216e+01     0.344676    0.2653265 -60.34  0.001446939    1.453    0.312
        47 -12.0530    238.1587    127.2804   6.8232494171e+01   7.2581573568e+00    0.3322112    0.2406604 -48.06 0.0008536999    1.484    0.326
        48 -13.3065    188.5117    212.5518   9.4832037443e+01   2.8483231250e+00    0.3483049    0.2453133 -38.13  0.001352803    1.625    0.385
        49 -11.2300    167.7445    112.7729   7.8299573934e+01   2.5594060350e+01    0.3613625    0.2643652 -74.53  0.001070355    1.886    0.470
        50 -14.3335    119.6278    110.1229   8.9542358850e+01   3.6767735230e+01    0.9067675    0.6244081  51.26  0.004156772    1.528    0.346
        51 -11.0999    205.3827    110.2146   6.9882802333e+01   1.7304759792e+01    0.2714142    0.2484656  80.19 0.0006354293    1.223    0.182
        52 -10.3207    200.5096    100.4996   6.8297497778e+01   2.0199172870e+01    0.1523733    0.1473603 -36.30 0.0008106097    1.007    0.007
        53 -13.4055    176.0250    229.4410   9.9828609245e+01   2.4520138908e+00    0.5281298    0.2419602 -38.50  0.002566542    2.738    0.635
        54 -14.8516    174.1433    220.1957   9.8806292391e+01   4.1620671677e+00    0.9080481    0.5084051  42.08  0.004802134    1.504    0.335
        55  -9.6818    125.5102    232.4218   1.0979087355e+02   1.0308631604e+01     0.123698   0.09834763  51.14  0.000249076    1.012    0.012
        56 -10.4933    126.5831    228.5525   1.0912653967e+02   1.0786822079e+01    0.2954424    0.2244051  37.02  0.001871369    1.272    0.214
        57 -10.8694    101.5395     71.9964   8.3808419446e+01   4.8561783372e+01    0.2863804     0.211887  62.66  0.001367385    1.720    0.419
        58 -14.3527    160.5108     62.5088   6.5447517754e+01   3.6830949440e+01     1.107632    0.9423018  31.04 0.0009286779    1.256    0.204
        59 -10.4095    127.1665    248.8577   1.1132639118e+02   7.4227111455e+00    0.1339369     0.115506  38.91 0.0002615328    1.228    0.186
        60 -13.1453    179.0067     41.5175   5.5450912124e+01   3.5288259585e+01    0.4299897     0.401085  -4.32 0.0009050961    1.183    0.155
        61 -11.4160     14.1041     59.2983   1.1140056311e+02   6.2458613508e+01    0.3150399    0.1895769 -20.98  0.001570342    1.916    0.478
