#   1 NUMBER                 Running object number                                     
#   2 MAG_AUTO               Kron-like elliptical aperture magnitude                    [mag]
#   3 X_IMAGE                Object position along x                                    [pixel]
#   4 Y_IMAGE                Object position along y                                    [pixel]
#   5 X_WORLD                Barycenter position along world x axis                     [deg]
#   6 Y_WORLD                Barycenter position along world y axis                     [deg]
#   7 A_WORLD                Profile RMS along major axis (world units)                 [deg]
#   8 B_WORLD                Profile RMS along minor axis (world units)                 [deg]
#   9 THETA_WORLD            Position angle (CCW/world-x)                               [deg]
#  10 FWHM_WORLD             FWHM assuming a gaussian core                              [deg]
#  11 ELONGATION             A_IMAGE/B_IMAGE                                           
#  12 ELLIPTICITY            1 - B_IMAGE/A_IMAGE                                       
         1 -11.4517    136.5148      5.4031   4.7645013637e+01   5.0025075570e+01     1.033406    0.5367313  52.67  0.003090296    1.660    0.398
         2 -11.2046     21.1330     61.5715   1.0613585625e+02   6.1687196176e+01     1.198541    0.9890198 -46.52  0.008135056    1.051    0.048
         3 -12.7022    115.4622     16.1008   5.5824113700e+01   5.4075042582e+01     2.039239    0.8545616  37.20  0.007951555    2.645    0.622
         4 -13.0104     58.2116     67.5810   9.3566512599e+01   5.6611295737e+01     2.334322      1.19298  39.98   0.01080609    2.270    0.559
         5 -12.1867     97.4268      6.7268   5.6375010729e+01   5.9051933664e+01     1.253397     0.451212  40.38  0.005006544    2.643    0.622
         6 -12.0250    107.0129      8.1029   5.4600434404e+01   5.6795873246e+01     2.505359    0.7953411  37.37  0.008303089    3.870    0.742
         7 -13.3058     67.9843     30.6311   7.6184384882e+01   6.1914039765e+01     2.461019    0.6660551  40.34   0.00867802    3.741    0.733
         8 -11.8486    101.6831     75.7082   8.1484563403e+01   4.7776619446e+01     2.407375    0.9500617 -38.43  0.008519653    2.561    0.610
         9 -10.8078     65.9736     20.7273   7.2545984367e+01   6.3656405453e+01    0.5708163    0.4871675  88.16  0.002554681    2.103    0.524
        10 -12.8263     87.9228     54.6587   7.8671868399e+01   5.4433450897e+01     1.684946     1.088629 -32.44  0.008275357    1.482    0.325
        11 -10.8226    156.8018     42.1732   5.6352504072e+01   4.0787678888e+01     1.027029    0.4064656 -25.08  0.003579548    2.970    0.663
        12 -11.7037     39.6406      7.0484   7.6741953765e+01   6.9468980769e+01      1.44325    0.8357419 -22.40  0.008531095    1.523    0.343
        13 -11.2045     61.7797      3.7763   6.5937256831e+01   6.6376389554e+01     1.655933    0.4633477  45.56  0.006710287    3.117    0.679
        14 -11.6653     50.9597     25.0694   8.0487305145e+01   6.5386309959e+01    0.6992133    0.5083244  31.60  0.003586421    1.448    0.310
        15 -10.7957     55.3465     17.6793   7.5260670164e+01   6.5792076527e+01    0.8583058     0.467259 -50.62  0.003766042    3.399    0.706
        16 -11.5675     16.7111     37.2233   1.0084560286e+02   6.6969488794e+01    0.9993302    0.7278287 -13.39  0.006711094    1.337    0.252
        17 -11.6101     11.6836     25.6933   9.9143474651e+01   6.9474849740e+01    0.4794764    0.2000896 -32.59 0.0006190428    2.143    0.533
        18 -11.4348      4.7274     26.3192   1.0288637471e+02   6.9810510481e+01    0.4730353    0.2680994 -25.91   0.00284969    1.567    0.362
        19 -12.0565     25.1514      7.0445   8.3793696830e+01   7.1264325063e+01    0.8685846    0.3153385 -42.35  0.004102716    2.796    0.642
        20 -11.5111     36.4150     27.2132   8.7824061979e+01   6.6916101039e+01    0.5050524    0.2873582  -9.47 0.0003375624    2.127    0.530
        21 -12.2386     30.6241     23.8337   8.9064451916e+01   6.8115197671e+01     1.164568    0.6921525 -25.01  0.006827115    1.481    0.325
        22 -11.5228      6.9800     19.1215   9.9007440325e+01   7.0961141604e+01    0.4194414    0.2748818   9.52  0.001901757    1.629    0.386
        23 -12.5712     12.7845      4.6592   8.9219929571e+01   7.2842321493e+01    0.6216614    0.4682622 -24.72  0.002204166    1.145    0.127
        24 -13.0930      5.3431      9.8440   9.5937702648e+01   7.2633093230e+01    0.7005814    0.3556989 -34.39 0.0006774039    1.488    0.328
        25 -11.5796      2.7134      3.1611   9.4293216114e+01   7.3874647054e+01    0.3277377    0.2537903 -24.39  0.002403761    1.150    0.131
        26 -11.1003    192.7767     32.3944   4.7536375444e+01   3.2924039624e+01     0.445908    0.4056804  -4.75 0.0009885626    1.278    0.218
        27 -10.0695    124.1235     22.4540   5.6284722378e+01   5.1347120816e+01    0.9474955    0.4732048  15.27  0.003254773    3.780    0.735
        28 -11.3912    131.7622     19.4465   5.3552568661e+01   4.9835908930e+01    0.6663238    0.4610049  40.97  0.003275538    1.377    0.274
        29 -11.2542    214.4474     21.6262   4.2061877623e+01   2.8877191949e+01    0.8873008    0.3899995 -46.79  0.003884849    2.149    0.535
        30 -10.2036    157.3892      5.4699   4.4419840327e+01   4.4808220140e+01    0.8852068    0.3620352  56.55   0.00377573    2.072    0.517
        31 -10.6617    164.7268      5.6877   4.3483082085e+01   4.2937036023e+01     0.680938    0.5396315  47.93  0.003579397    1.255    0.203
        32 -11.6489    170.9636     14.8803   4.5435257142e+01   4.0465932951e+01      1.22684    0.6013306 -75.52  0.003424464    3.372    0.703
        33  -9.7752    173.1675     10.8178   4.3921686904e+01   4.0316134022e+01    0.3981187    0.2602117 -75.95 0.0004413938    1.718    0.418
        34 -10.7717    163.0042     16.9891   4.7235450328e+01   4.2270845097e+01     1.055414    0.5562927   6.42  0.003959774    3.430    0.708
        35 -11.4908    154.6199     16.9210   4.8526330917e+01   4.4405457130e+01    0.6849393    0.4056817  36.09  0.001183067    1.913    0.477
        36 -10.9219    149.5415     15.9828   4.9056153259e+01   4.5783894889e+01    0.7511456    0.5175055 -15.45  0.002752758    1.647    0.393
        37 -10.9105     18.5649     13.7916   9.0553978997e+01   7.0928651332e+01    0.6193696    0.4001984 -31.26  0.004092533    1.214    0.176
        38  -9.7874    185.9143     25.2626   4.6445250591e+01   3.5523570362e+01    0.4825618    0.1762319 -40.89   0.00164734    2.642    0.622
        39  -9.8307     72.8971     16.0643   6.7912226382e+01   6.3021214443e+01    0.5525597     0.228864  42.65  0.002490959    2.238    0.553
        40  -9.5173    231.8802     16.7633   3.9194875691e+01   2.5337387414e+01    0.3716353      0.18739 -49.65  0.001193182    1.788    0.441
        41  -9.3208    239.6999     17.7085   3.8738674652e+01   2.3457273387e+01    0.3130717    0.1379669 -43.40  0.001490113    1.936    0.483
        42  -9.4970    204.8070     16.2691   4.1704727268e+01   3.1828250149e+01    0.2932513    0.2873617  14.27  0.001884465    1.222    0.182
        43 -10.1466    212.9623     12.0882   3.9805124507e+01   3.0302787232e+01    0.5784853    0.2823229  77.60  0.002626542    1.994    0.499
        44  -9.5831    198.3206     16.0065   4.2346043887e+01   3.3456588514e+01    0.3395606    0.2193038  64.65  0.001770628    1.454    0.312
        45  -9.5408    125.4470     15.8409   5.3531741484e+01   5.1741498054e+01     0.397577    0.1885413  37.60  0.001656352    2.260    0.558
        46  -9.1883    184.7289     14.1065   4.3415549125e+01   3.7059583149e+01     0.388973    0.1728328  58.30  0.001391551    2.037    0.509
        47  -9.6375    221.9025     12.1369   3.8983109044e+01   2.8171678028e+01    0.3504393     0.250172 -53.20  0.002032789    1.275    0.216
        48  -9.8242     67.3233     12.8107   6.8354682090e+01   6.4410935403e+01    0.2625676     0.190891  48.97  0.001013857    1.562    0.360
        49  -9.4365    229.5921     10.9566   3.8031062264e+01   2.6511775477e+01    0.3541114    0.1233731  59.39  0.001475221    2.822    0.646
        50  -9.4146    226.3308      8.1731   3.7651209392e+01   2.7564850943e+01    0.2608596    0.2016303  26.74  0.001113042    1.848    0.459
        51  -9.5897     77.6639      8.9147   6.3011104406e+01   6.2917907328e+01    0.2407504    0.1999983  13.09 0.0005309316    1.032    0.031
        52  -9.0025     77.4769      5.0088   6.1240393576e+01   6.3342615398e+01    0.2864578    0.1535071  13.36  0.001028501    2.243    0.554
        53  -9.1753    249.7150      7.1724   3.5630449725e+01   2.2442495175e+01    0.3067724    0.1471515 -69.53  0.001494749    2.156    0.536
        54  -8.4160    143.3194      8.3170   4.7509446818e+01   4.8081993129e+01    0.1453451   0.09114686  37.28 0.0002616947    1.658    0.397
        55  -9.5640    243.7940      5.3741   3.5661064500e+01   2.3923461286e+01    0.2793776    0.1928396 -14.62  0.001603185    1.955    0.489
        56  -8.6430    233.8035      7.3657   3.6857295983e+01   2.5938305129e+01    0.1722477    0.1032798  65.73 0.0005269694    1.664    0.399
        57  -9.5044    210.3590      5.8440   3.8485077822e+01   3.1580205344e+01    0.3599532    0.2186386  29.27  0.001698422    2.610    0.617
        58 -10.3539    207.3803      3.2920   3.8116314630e+01   3.2552156796e+01     0.352316    0.2376532 -58.13  0.001087437    1.404    0.288
        59  -8.6905    190.4246      7.1957   4.0831269675e+01   3.6331361982e+01    0.2406497    0.1838084  79.54 0.0007077613    1.184    0.156
        60  -8.8916    189.2858      3.6330   3.9980051384e+01   3.6956739218e+01    0.2429159    0.1393311 -41.13 0.0006661032    1.739    0.425
        61 -10.3227    182.5005      4.9989   4.1100706599e+01   3.8522358862e+01    0.4782621    0.3269399 -85.82   0.00256031    1.456    0.313
        62  -8.8664     29.6416      5.8404   8.0888730318e+01   7.0910571178e+01    0.1755799    0.1087655 -15.72 0.0007108955    1.392    0.282
        63  -8.7383     84.3026      3.7812   5.8628452799e+01   6.2090988681e+01     0.328059    0.1711161  31.20   0.00161332    1.866    0.464
        64  -9.5368    218.6428      4.5822   3.7443388492e+01   2.9735837127e+01    0.4593226    0.1920605  47.87  0.001883492    3.173    0.685
        65 -10.8435    199.8240      5.8070   3.9481850040e+01   3.4143731967e+01    0.5430511    0.3242511 -54.34  0.002361002    1.656    0.396
        66  -8.2733    248.6143      1.6865   3.4531403727e+01   2.3267096459e+01    0.1164579   0.08732677  45.03  0.000701798    1.822    0.451
        67 -12.1983     80.4675     35.6093   7.3813205708e+01   5.8973738581e+01    0.7642185    0.4988134  57.83  0.003749205    2.106    0.525
        68  -8.7578    211.3139    250.3087   9.3716382823e+01  -6.3809719167e+00    0.1194025    0.0747837  12.41 0.0007028307    1.628    0.386
        69  -8.8612     20.9765    232.3582   1.2670222051e+02   2.3732040371e+01    0.1467101    0.1064114  61.54 0.0006144036    1.138    0.122
        70 -12.5965     11.8197    107.4082   1.1806060766e+02   5.1883493123e+01     1.969511    0.6030259 -44.93  0.007751568    3.558    0.719
        71  -8.9702     98.5280    139.8979   9.8971232060e+01   3.3723740479e+01    0.2116851    0.1959984  57.42 0.0004743571    1.101    0.092
        72  -9.0941     47.6171    139.0312   1.1249603730e+02   4.1131781706e+01    0.2825768    0.1496585 -75.15  0.001337394    1.792    0.442
        73 -10.5678      3.1165    136.7949   1.2370499162e+02   4.5596791658e+01     0.372902    0.2608661 -47.39  0.002433539    1.623    0.384
        74 -10.0584     66.6841    134.4915   1.0658906071e+02   3.9887019439e+01    0.2544933    0.2188156 -84.14 0.0003092473    1.094    0.086
        75  -9.4011     55.2856    133.1439   1.0950269900e+02   4.1665677823e+01    0.2651374    0.1637962  31.09  0.001346611    1.861    0.463
        76  -8.9174     12.5595    232.0330   1.2809976352e+02   2.4648289790e+01    0.2363931   0.07178947  52.07  0.001259158    2.398    0.583
        77  -9.2838     73.1545    129.3661   1.0384286293e+02   4.0238007987e+01    0.2238546    0.1726821 -55.94 0.0003633905    1.196    0.164
        78  -9.1924     61.5821    120.1888   1.0539968972e+02   4.4032773877e+01    0.2270629    0.2150949 -42.47 6.841867e-05    1.150    0.131
        79  -9.7145     65.8203    128.3995   1.0573022182e+02   4.1483474524e+01    0.2316243    0.2151584  10.60  0.001385745    1.289    0.224
        80  -9.7751     68.8021    115.2920   1.0227117239e+02   4.4258677777e+01    0.4480267    0.2033748 -50.13  0.001366184    1.992    0.498
        81  -9.7352     71.0000    110.5275   1.0057421549e+02   4.5097738357e+01    0.4308175    0.1338321 -51.21  0.001492189    2.775    0.640
        82 -10.4569     65.9561    124.4469   1.0494790301e+02   4.2426348450e+01    0.5205934    0.2930325  32.70   0.00244164    1.996    0.499
        83 -10.2878     56.0025    126.1200   1.0810755866e+02   4.3286036444e+01    0.3775835    0.2120443 -57.02  0.001700748    1.551    0.355
        84  -9.6148     68.6201    120.1854   1.0333601965e+02   4.3100090614e+01    0.3070176    0.1762673 -51.87  0.001084769    1.578    0.366
        85 -10.4600     90.6507    121.2815   9.7185699312e+01   3.9499167480e+01    0.5013532    0.4647695  56.34  0.002415508    1.137    0.120
        86  -8.5649     81.6005    124.5182   1.0047410598e+02   4.0163797947e+01    0.1450133    0.1302672 -59.11 0.0008013842    1.040    0.038
        87  -9.6545     76.1566    119.5359   1.0099577862e+02   4.2185561257e+01    0.4991784    0.2718905  46.38   0.00220521    2.035    0.508
        88  -8.8661    104.5883    116.1802   9.2023178883e+01   3.8272481371e+01     0.294485    0.1434209 -54.55   0.00112753    2.049    0.512
        89  -9.7223    116.1937    116.3910   8.8847190720e+01   3.6015108456e+01    0.2634929    0.2347016 -49.83  0.000648478    1.085    0.078
        90  -8.8903     63.5169    113.5127   1.0348638696e+02   4.5398395922e+01    0.1409757    0.1244775 -60.03 0.0002167881    1.013    0.013
        91 -10.2150     56.3238    113.1109   1.0558065555e+02   4.6402134520e+01    0.3678758    0.2053891  26.96  0.001738823    2.141    0.533
        92  -9.9289     23.3338    109.1176   1.1487051000e+02   5.0649277873e+01    0.3331678    0.2695827  61.93  0.001967028    1.394    0.282
        93  -9.2946     62.3528    109.2747   1.0294728622e+02   4.6570164154e+01     0.276429    0.2045508  19.30  0.001464953    1.646    0.393
        94  -9.4880     51.9182     92.3709   1.0250184275e+02   5.1857821363e+01    0.4632396    0.3764503 -65.83  0.002705325    1.180    0.153
        95 -10.8891     55.0587     86.4732   9.9997889033e+01   5.2847118600e+01     0.589533    0.3597587  13.71  0.001503496    2.174    0.540
        96 -10.3628     49.1809    102.4041   1.0561957553e+02   4.9803118874e+01    0.5814745    0.4667268 -39.69  0.003414618    1.243    0.196
        97  -9.6297     45.7635     98.5574   1.0591101868e+02   5.1089884672e+01    0.3561305    0.2307813  20.47  0.001880603    1.891    0.471
        98 -10.2975     54.0308    100.2281   1.0359854673e+02   4.9762214367e+01    0.3654115    0.3095321  79.36  0.001742484    1.359    0.264
        99  -9.1236     50.5287     97.5034   1.0413126736e+02   5.0813393260e+01    0.2572047     0.220627 -42.48   0.00101088    1.119    0.106
       100 -11.0904    142.9283    101.4076   7.7778056203e+01   3.3640654371e+01    0.5907862    0.3439671  31.38  0.002185169    2.173    0.540
       101  -9.1728    133.5326    102.1017   8.0380108227e+01   3.5587632768e+01    0.2766657    0.2214772 -60.10 0.0007405209    1.363    0.266
       102  -8.9247    132.6291     97.8746   7.9422608128e+01   3.6687653115e+01    0.4008094    0.2050642 -51.54  0.001264978    2.147    0.534
       103  -9.8687     78.1030    101.8089   9.6329172888e+01   4.6121014537e+01     0.510079    0.2828864  31.73  0.002153559    2.044    0.511
       104  -9.1923     62.2694    102.9951   1.0158897537e+02   4.8081244392e+01    0.2536196    0.1962903 -55.88   0.00042255    1.137    0.120
       105  -9.6859     63.7660     98.5271   1.0007227053e+02   4.8940905865e+01    0.4605767    0.3253113  56.99  0.002341271    1.770    0.435
       106 -12.8634     12.7296    126.4927   1.2018789617e+02   4.7331630247e+01     1.444815    0.4866067 -82.17            0    3.251    0.692
       107  -8.8997    219.3947    230.8639   8.9218873295e+01  -5.1593018421e+00    0.1697143    0.1319421  28.96 0.0005194307    1.169    0.145
       108 -10.1970      4.5057     99.0392   1.1912222051e+02   5.4276018130e+01    0.4181572    0.2282538  83.19  0.001662413    2.101    0.524
       109  -9.1422      3.3553     93.4902   1.1870748864e+02   5.5618083665e+01    0.2459287    0.1066098 -62.04  0.001008115    1.667    0.400
       110 -10.7764      4.1794     86.6870   1.1742707708e+02   5.7133180010e+01    0.6582665    0.2752088 -56.89   0.00343488    1.743    0.426
       111  -8.9463     10.3667     99.9201   1.1744352147e+02   5.3727540620e+01    0.1751052    0.1251247 -66.78 0.0007874307    1.084    0.077
       112  -9.1232    156.0464     96.5859   7.3230677988e+01   3.1594508812e+01    0.5160792    0.2216778 -30.38  0.001621581    3.021    0.669
       113 -10.4814     39.2631     96.7774   1.0766098521e+02   5.2176035860e+01     0.609227    0.3209978 -17.27  0.002451415    3.515    0.716
       114 -10.2090     39.4843     92.4654   1.0668654596e+02   5.3167335839e+01    0.2494629    0.2147744 -68.35 0.0007113501    1.114    0.103
       115 -11.3430     34.9229     91.4028   1.0799296567e+02   5.3848810844e+01    0.6627733    0.3484449   7.29  0.002327308    2.875    0.652
       116  -8.2784     94.2543     97.3401   9.0182006664e+01   4.4488690090e+01    0.1506701    0.1110581 -24.23  0.000367624    1.577    0.366
       117  -9.2120     87.3672     96.9565   9.2192787859e+01   4.5761698737e+01    0.2534117    0.2061315  51.51 0.0008262077    1.380    0.275
       118  -9.4877     77.2507     85.3644   9.2223714276e+01   5.0016045665e+01    0.4116917     0.243231 -62.21  0.001700721    1.987    0.497
       119 -11.0496     72.7608     95.3159   9.6379467150e+01   4.8434118953e+01    0.5703459    0.4069653  52.66   0.00271542    1.684    0.406
       120  -9.3116     77.5303     92.5273   9.4111989228e+01   4.8357577221e+01    0.2788332    0.2084177 -46.37  0.001100863    1.213    0.176
       121 -10.2114     73.6435     89.5303   9.4566276826e+01   4.9630349342e+01    0.5849339    0.2372966  33.15  0.002244557    2.790    0.642
       122 -10.2681    116.0523     95.2093   8.3178685266e+01   4.0790939082e+01    0.4109956    0.3524226  41.65 0.0005179514    1.208    0.172
       123  -9.9325    123.0036     92.3184   8.0400529780e+01   3.9954646334e+01    0.3557592     0.227034  45.59 0.0009489209    1.614    0.380
       124  -9.8452    119.0243     91.9629   8.1399492720e+01   4.0872566819e+01    0.2355468    0.2146867 -77.61 0.0004351936    1.238    0.192
       125  -9.1445    127.2260     91.6102   7.9042878722e+01   3.9191645772e+01    0.3185878    0.2740358 -11.41  0.001582242    1.273    0.214
       126  -9.9290    103.8933     92.2435   8.5849599673e+01   4.3850806825e+01     0.510621    0.3332694  14.77  0.001593408    2.282    0.562
       127  -9.5071    106.7253     86.9709   8.3457928720e+01   4.4441138391e+01    0.3217578    0.1995673 -38.49 0.0004775759    1.579    0.367
       128  -9.4297    109.0040     83.9837   8.1881020670e+01   4.4618277261e+01    0.2732166    0.2217565 -24.55 0.0005936701    1.272    0.214
       129 -10.4984     88.9139     88.7908   8.9444206482e+01   4.7339645937e+01    0.6595515    0.4982757  -1.77  0.001419803    1.688    0.408
       130  -9.5032     83.0500     89.8012   9.1593175376e+01   4.8098125605e+01    0.2569873    0.1727054  27.26 0.0009221867    1.699    0.411
       131  -9.8450     82.6762     85.9160   9.0610283526e+01   4.9025290938e+01    0.3680765     0.241138 -34.51  0.001736033    1.552    0.356
       132  -9.9796    194.0582     89.2587   6.3199755622e+01   2.3847486760e+01    0.2572942    0.2117451 -40.77 0.0002419047    1.167    0.143
       133  -9.1920    187.6153     89.4064   6.4462892779e+01   2.5373890211e+01    0.2450586    0.2135376 -72.02  0.001234222    1.262    0.207
       134  -8.8768    112.3549     87.8355   8.2070864897e+01   4.3128430420e+01    0.4184437    0.1292935 -36.42   0.00110477    4.356    0.770
       135  -9.4499     53.0039     81.9849   9.9551618296e+01   5.4114920128e+01    0.4284708    0.2611361 -22.90  0.002014729    2.120    0.528
       136  -9.6372    155.1929     85.9598   7.0351601843e+01   3.3880713894e+01    0.3904553    0.2529046  28.27  0.001330533    1.990    0.498
       137  -9.1248    145.4152     87.5194   7.3144340129e+01   3.5898018263e+01    0.1572593    0.1495647  -7.92 5.318143e-05    1.066    0.062
       138 -10.1119    119.1746     86.6311   7.9768008259e+01   4.1962622852e+01    0.3263378    0.2651806  47.75 0.0008612794    1.283    0.220
       139  -8.7813     67.5942     87.2177   9.5945435863e+01   5.1032670277e+01    0.2347666    0.1703651  -9.27  0.001170676    1.755    0.430
       140 -10.3302    135.2346     82.4203   7.4161640781e+01   3.9263896420e+01    0.5961894    0.4770494 -20.96  0.002865062    1.346    0.257
       141  -9.4270    162.0226     81.7704   6.7570086435e+01   3.3015723684e+01    0.3483442    0.2228202  33.18 0.0007889116    1.880    0.468
       142  -8.3013    124.2960     79.3146   7.6095565006e+01   4.2338354807e+01    0.1558982    0.1206715   2.45 0.0003246781    1.603    0.376
       143  -9.7802    189.4943     77.5662   6.0824123547e+01   2.7001165627e+01    0.3695634    0.2431127  35.17   0.00108843    1.835    0.455
       144  -9.8933    144.5102     77.5671   7.0346838395e+01   3.8027904414e+01    0.2507045    0.2106167 -46.54 0.0009846728    1.211    0.174
       145  -9.6396    146.7500     74.9404   6.8995483575e+01   3.7979858411e+01    0.2078077    0.1911154 -25.17            0    1.089    0.082
       146  -9.5028     90.9684     77.0612   8.5268407945e+01   4.9507050724e+01     0.463232    0.3000648  -4.11  0.001888189    2.478    0.596
       147  -9.1718     83.7977     77.7999   8.7825317416e+01   5.0600064021e+01    0.1822276    0.1703057  87.66 0.0003921142    1.289    0.224
       148  -9.0243      4.9513     77.0448   1.1556220863e+02   5.9276228975e+01    0.3224512    0.1923988 -62.46  0.001952159    1.261    0.207
       149  -9.6922      3.6914     72.7074   1.1523142540e+02   6.0308566284e+01    0.3365327    0.1411342 -46.52  0.001331777    1.923    0.480
       150  -9.2592    153.8843     74.8605   6.7312305234e+01   3.6267024551e+01    0.5070314    0.2691915  27.44   0.00162833    3.342    0.701
       151  -9.2844    202.2459    228.9760   9.2055971301e+01  -2.2301360540e+00    0.2064666     0.149023  30.46 0.0003688976    1.155    0.135
       152  -8.6362    204.2641     75.6316   5.7720997937e+01   2.3726373490e+01    0.2044191    0.1359636  48.81 0.0007332877    1.589    0.371
       153  -9.1360    130.3682     74.7070   7.3013774696e+01   4.1867982474e+01    0.3225049    0.1956422  64.23 0.0009934027    2.179    0.541
       154 -11.3399    111.8721     63.5557   7.4415524491e+01   4.8038315564e+01     0.522704     0.409933 -69.22 0.0003247314    1.733    0.423
       155 -10.7465    140.1520     71.2319   6.9422996168e+01   4.0233717023e+01    0.6972146    0.3707159  34.93  0.002604093    2.330    0.571
       156 -10.4836    137.1511     69.2330   6.9524605033e+01   4.1305952815e+01     0.549954    0.3860194   9.04  0.001650222    1.991    0.498
       157  -9.6647    150.7951     67.4072   6.5698792081e+01   3.8343011979e+01    0.5475494    0.3055313  32.23  0.002048663    2.398    0.583
       158  -9.5920    250.3779     69.8749   4.9755601018e+01   1.4144453525e+01    0.1952577    0.1207692 -24.21 0.0009454346    1.747    0.428
       159  -8.6153    170.2639     70.5308   6.2491071072e+01   3.2979112055e+01    0.2101068    0.1419749  43.61 0.0005968146    1.545    0.353
       160  -9.4409    165.3961     68.9980   6.3025733795e+01   3.4455219243e+01    0.3189728    0.2573665  38.54  0.001560976    1.300    0.231
       161  -9.3418     84.5154     67.9023   8.4420414405e+01   5.2522416187e+01    0.3065458    0.2641327  -1.15   0.00123447    1.179    0.152
       162  -8.5232    177.9808     69.0000   6.0526978615e+01   3.1308528811e+01    0.2567445   0.08670601  57.17 0.0008083364    2.983    0.665
       163 -11.5227    102.3799     53.8550   7.3802245479e+01   5.1748274002e+01     1.190327    0.8091252  25.91  0.005679565    1.629    0.386
       164  -8.9811    131.5694     67.2311   7.0284993698e+01   4.2973411484e+01    0.2344191    0.1757251  41.49 0.0003788534    1.337    0.252
       165  -8.9063    189.9867     64.9404   5.7182214489e+01   2.8970446760e+01    0.2319213    0.1793182  25.41 0.0008575682    1.594    0.373
       166  -9.0177    207.1162     61.2755   5.3411131245e+01   2.5317703172e+01    0.3175927    0.1796562 -43.29  0.001401058    1.675    0.403
       167  -9.5977    186.3696     61.3514   5.6783738103e+01   3.0443961558e+01    0.3051298    0.1974916 -68.95 0.0006288514    2.036    0.509
       168  -9.9610    130.4338     61.4717   6.8666350348e+01   4.4252344846e+01    0.6275089     0.315628  67.60   0.00205246    3.428    0.708
       169  -9.3165    234.0441     59.7651   4.9333797225e+01   1.9208400785e+01    0.1857089    0.1704874 -62.25            0    1.039    0.038
       170  -8.7801    212.1848     59.8789   5.2293221110e+01   2.4302513979e+01    0.1907658    0.1709028   9.35 0.0003521912    1.329    0.248
       171  -9.4425    201.4020     59.9085   5.3913267092e+01   2.6925673728e+01    0.2352793    0.1969444  84.60 0.0004873978    1.243    0.196
       172  -9.5895    151.6270     59.5631   6.3022492728e+01   3.9458286115e+01    0.3107204    0.2519985  53.94  0.001137076    1.216    0.178
       173  -8.7531    220.4997     59.4946   5.1029196980e+01   2.2378003751e+01    0.1438796    0.1294914 -59.20 -0.0001009932    1.028    0.027
       174 -10.5365    137.9409     58.9962   6.5980050046e+01   4.2893979087e+01     0.252856    0.2102714  45.42 -0.001320134    1.181    0.153
       175  -9.3228    174.1948     57.0290   5.7692022992e+01   3.4189692472e+01    0.2880433    0.2052805 -13.67 0.0006550797    1.701    0.412
       176  -8.6913    137.4546    224.4918   1.0396465705e+02   9.1675701999e+00     0.127996    0.1092558  44.77 0.0008088311    1.015    0.015
       177  -9.3753    140.3455     52.1509   6.3126442547e+01   4.3416217794e+01    0.3686739    0.2324295  50.47 0.0007698796    1.531    0.347
       178  -9.5170    154.4565     50.0431   5.9360529202e+01   4.0242955996e+01    0.3257445    0.2307279  -5.81  0.000494625    1.788    0.441
       179  -9.2407    143.9943     58.0284   6.4237555680e+01   4.1587223752e+01    0.2316867    0.2156419  24.42 0.0005289163    1.079    0.073
       180 -12.0658    147.5088     53.5761   6.1987173703e+01   4.1434477762e+01    0.5049658    0.3406893  37.80 6.329196e-05    1.577    0.366
       181 -10.1924    145.0472     48.9934   6.1013195593e+01   4.2745856026e+01    0.3896192    0.3045731  34.80 0.0006130573    1.325    0.245
       182 -10.3906    120.6889     55.0969   6.9030001676e+01   4.7574736245e+01    0.6035135    0.4155316 -16.92  0.002794236    1.649    0.394
       183 -10.3379    193.4667     54.3923   5.3626354988e+01   2.9728667560e+01      0.46018    0.3363196  19.72  0.002151453    1.863    0.463
       184 -10.5035     71.0665     52.3000   8.3660026530e+01   5.7771131111e+01    0.5433832    0.2912016 -43.26   0.00254261    1.763    0.433
       185  -9.4013     76.5629     51.8382   8.1520223816e+01   5.6952901251e+01     0.319903     0.221439  34.94 0.0007667652    1.499    0.333
       186  -9.7939    185.7585     55.5453   5.5215277533e+01   3.1492770808e+01    0.3650453     0.211116  58.12  0.001594078    1.699    0.411
       187 -10.5322    183.4890     51.8713   5.4530142292e+01   3.2615013635e+01    0.3440134    0.3183175 -47.41 0.0005173446    1.074    0.069
       188 -10.0812    166.4128     53.3718   5.8041047080e+01   3.6722363830e+01    0.4278363    0.2987893 -43.42  0.001897668    1.456    0.313
       189 -10.4241    160.7865     51.8447   5.8659179420e+01   3.8377310614e+01    0.4799303    0.3579109 -18.89  0.002204459    1.489    0.329
       190 -10.1514    133.4851     53.9629   6.5365759083e+01   4.4783185620e+01     0.659021    0.3554395 -10.10  0.002214664    3.370    0.703
       191  -9.2374    243.8769     54.9057   4.6995841982e+01   1.7719312902e+01     0.192798    0.1837243   3.81 0.0005869933    1.272    0.214
       192 -10.0467    234.4654     55.1850   4.8161448482e+01   1.9777338594e+01    0.2520507    0.1983791  72.63  0.001414042    1.335    0.251
       193  -9.5507     64.1430     47.1876   8.4326833505e+01   5.9779509562e+01    0.1704763    0.1537889 -43.88 0.0005005748    1.285    0.222
       194 -10.7344     66.6467     43.4841   8.1956855885e+01   6.0049148098e+01    0.5061086    0.2976384 -40.14  0.002560101    1.601    0.375
       195 -10.3063    238.6925     51.9786   4.6888371196e+01   1.9281045361e+01    0.2316314    0.2026614 -84.85 0.0001609797    1.142    0.124
       196 -10.2194    117.4998     48.7727   6.7640792509e+01   4.9321853071e+01    0.5470751    0.3585274  11.02  0.001971866    2.097    0.523
       197 -10.3100    118.4092     43.8446   6.5610982903e+01   4.9873703215e+01    0.6541103    0.2244823 -34.20  0.002291411    2.879    0.653
       198  -8.8960      9.9380     52.1390   1.0828389247e+02   6.4421556008e+01    0.1582728     0.136841 -47.31 0.0004147486    1.143    0.125
       199 -11.5358     57.9972     48.3397   8.7122510210e+01   6.0461841285e+01    0.6967109    0.6113936  15.35  0.003008242    1.204    0.169
       200  -8.2316     16.6292     50.6915   1.0505359656e+02   6.4295886943e+01     0.132108   0.06962712 -32.91 0.0007034175    1.765    0.434
       201 -10.6952    173.6711     46.2371   5.4532184609e+01   3.5926367129e+01    0.5558395    0.3858245  68.41  0.002027101    1.456    0.313
       202  -9.7710    178.2083     44.3598   5.3196981725e+01   3.5034901092e+01    0.3273809    0.2314895  67.99  0.001034612    1.405    0.288
       203  -8.3464     21.5483     49.4914   1.0259956148e+02   6.4182038698e+01    0.1227832   0.09787012 -42.07 0.0002151136    1.043    0.041
       204  -9.0935    236.7954     47.6860   4.6071252046e+01   2.0305630796e+01    0.2020072    0.1682831  53.66 0.0009809632    1.368    0.269
       205  -9.4130    128.4902     45.0905   6.3505329163e+01   4.7342907689e+01    0.4570297    0.2838988  31.59   0.00201126    1.832    0.454
       206  -9.7032    105.5692     42.8923   6.8792753041e+01   5.2860108919e+01    0.4698623    0.4156874 -25.65  0.002670444    1.142    0.124
       207  -9.3546     95.1416     46.1740   7.3179394365e+01   5.4500505398e+01      0.29979     0.206424 -17.85 0.0007994001    1.531    0.347
       208  -9.9902     97.8890     41.7246   7.0623425047e+01   5.4649968694e+01    0.3941174     0.305903  -3.90  0.001269098    1.330    0.248
       209  -9.7024    100.2955     38.0230   6.8461825275e+01   5.4707339446e+01    0.3391546    0.2945576  65.85   0.00190944    1.409    0.290
       210  -9.6215     74.7620     46.4102   8.0113941761e+01   5.8219588979e+01    0.3173318     0.219721  28.72   0.00103235    1.478    0.323
       211 -10.1821     76.4619     41.9324   7.7761054572e+01   5.8686755481e+01    0.3658215    0.2307771 -36.37   0.00101703    1.512    0.338
       212  -8.9348      6.8478     46.8309   1.0820950236e+02   6.5692731458e+01    0.1460616    0.1182699 -65.06 0.0004149118    1.291    0.225
       213  -9.7317    206.7070     46.1114   4.9398363903e+01   2.7634735120e+01    0.3341736    0.1848242  57.94  0.000920662    1.799    0.444
       214 -10.0937    136.3736     42.0044   6.0569135892e+01   4.5896588640e+01    0.4386847     0.319667  88.95  0.001955613    1.865    0.464
       215 -10.6965    141.9884     44.5771   6.0200006574e+01   4.4152320193e+01    0.4789204    0.3423345   5.87    0.0005491    1.779    0.438
       216  -9.7793    156.1002     32.6541   5.3398883922e+01   4.2224676438e+01    0.3910217     0.295624  44.07  0.001290746    1.312    0.238
       217 -10.9896    148.0840     35.4955   5.5861505450e+01   4.3883954981e+01    0.7345042    0.3520732  52.52  0.003040038    1.916    0.478
       218  -9.2762    142.9306     35.2155   5.6809525823e+01   4.5207179347e+01    0.2971842    0.1875483  63.28 0.0008704514    1.579    0.366
       219  -9.1689     40.7616    221.8130   1.2254720701e+02   2.3566005230e+01    0.1656548    0.1276225 -68.85 0.0008689429    1.482    0.325
       220  -9.1322     26.4911    212.5002   1.2454505695e+02   2.6983402254e+01    0.1145517   0.08547686  75.21 3.257707e-05    1.003    0.003
       221  -8.6562     13.6962    212.6907   1.2689198267e+02   2.8238566749e+01   0.09587581   0.07686833 -63.32 0.0002492279    1.608    0.378
       222  -8.5328    233.6822    199.6738   8.1113466945e+01  -3.1534963662e+00    0.1351958   0.08708648   4.58  0.000704548    1.676    0.403
       223  -9.4226     27.4750    193.4778   1.2300928879e+02   3.0809104134e+01    0.2239662    0.1499937 -73.47 0.0009378258    1.370    0.270
       224 -11.3540     15.8959     31.0078   9.9046304465e+01   6.8198781902e+01    0.4196404     0.251719  17.69 0.0003951511    1.859    0.462
       225  -9.8027     11.6361    192.8731   1.2609256233e+02   3.2473774121e+01    0.2194778    0.1360038  50.54  0.001455914    1.484    0.326
       226  -9.3139     33.0230    192.0103   1.2176938439e+02   3.0540361192e+01    0.1733302    0.1292375 -53.23 0.0008330975    1.691    0.408
       227  -8.8396      7.7788    186.0127   1.2641178935e+02   3.4265772281e+01    0.1450121    0.1132195 -80.34  0.000333827    1.227    0.185
       228  -9.6214     11.4456    184.7111   1.2559658123e+02   3.4221773235e+01    0.1868993    0.1592215 -79.64 0.0006411606    1.283    0.221
       229  -8.5052     18.3269    182.6483   1.2405150991e+02   3.4038908773e+01    0.1288679   0.06703632  68.81 0.0007047871    1.764    0.433
       230  -9.2346     78.3314    180.4665   1.1068075449e+02   2.7419768254e+01    0.2609552    0.1577267 -71.72 0.0008337418    1.632    0.387
       231 -10.4449      2.4864    178.0090   1.2696212370e+02   3.6420327272e+01    0.3433276    0.2052221 -63.20  0.002203316    1.671    0.402
       232  -8.4970     37.3182    179.6703   1.1977872238e+02   3.2778267837e+01    0.1321645   0.07564518  69.79  8.51726e-05    1.685    0.407
       233  -9.0471     52.0210    177.4998   1.1630260739e+02   3.1579874954e+01    0.1863246    0.1164759  41.65  0.001036279    1.610    0.379
       234  -9.5087    248.9989     44.1649   4.3943307392e+01   1.8086666744e+01     0.181728    0.1755493  12.17 0.0004228587    1.300    0.231
       235  -9.7949    219.8849     42.8953   4.6859352115e+01   2.4887463654e+01    0.2132226    0.1865716 -60.96 0.0006322952    1.041    0.040
       236  -9.7894    215.0126     40.0813   4.6731884419e+01   2.6434086986e+01      0.42683    0.2888869 -10.42  0.001512644    1.999    0.500
       237  -8.5827    197.0617     41.9629   4.9609683266e+01   3.0597217302e+01    0.1646944    0.1535521 -70.14  0.000940062    1.017    0.017
       238  -9.7668    189.6339     40.2724   5.0211454575e+01   3.2693372263e+01    0.4497735    0.1739785  54.83  0.001695251    2.448    0.591
       239  -8.6080    235.4325     39.7629   4.4315181073e+01   2.1685646385e+01    0.1811677    0.1273248 -19.50  0.000944958    1.694    0.410
       240 -10.1898    173.8576     39.2583   5.2386344611e+01   3.6841315663e+01    0.3449467    0.2709189  37.45 0.0008737516    1.391    0.281
       241  -8.7654    202.2593     38.0240   4.7815262783e+01   2.9828982547e+01    0.1903803    0.1733503 -64.35            0    1.037    0.036
       242 -10.8815    220.3903     35.2477   4.4859365664e+01   2.5779265081e+01    0.4630715     0.392199  83.64  0.002267124    1.147    0.128
       243  -9.6926     50.7941    173.5914   1.1614587795e+02   3.2615067022e+01    0.2165638    0.2092616  23.63 0.0007600532    1.369    0.270
       244  -9.9774    105.8571     33.9885   6.5286791725e+01   5.4090327987e+01    0.3940845    0.2491915  46.24  0.001057798    1.500    0.333
       245 -10.3058    108.2873     29.5355   6.2879910029e+01   5.4148037916e+01    0.6617981    0.3719131  65.62  0.002856383    2.296    0.565
       246  -8.8894     11.9519    169.8610   1.2442581674e+02   3.7419406040e+01    0.1632073    0.1329637 -75.97 0.0003887663    1.223    0.182
       247 -10.8130    129.0498     23.4746   5.5583847057e+01   5.0048806946e+01    0.4620164    0.2125659  54.95  0.001049331    1.934    0.483
       248 -10.1509     18.9596    165.7168   1.2255700384e+02   3.7735786959e+01    0.2274931    0.1624496  71.84  0.001240718    1.231    0.187
       249 -11.0164    211.6056     31.6625   4.4956614685e+01   2.8350353203e+01    0.7866704    0.4227996  47.66  0.003543546    2.158    0.537
       250 -10.4101     32.3957    166.2337   1.1957219317e+02   3.6333952845e+01    0.2163011    0.1843789  79.19 0.0004925993    1.100    0.091
       251 -10.1757    135.5800     33.2476   5.7681292591e+01   4.7274874239e+01    0.5441931    0.3094137  28.39   0.00171599    2.265    0.559
       252 -10.1155    245.1738     33.5184   4.1870306863e+01   2.0316634684e+01    0.4686615    0.2249072  68.66   0.00211594    2.143    0.533
       253  -9.9226    234.5424     33.5354   4.2916501875e+01   2.2698114929e+01    0.3238035    0.2365679  53.85  0.001021139    1.553    0.356
       254 -10.7972    235.6003     29.2117   4.1783762897e+01   2.3001868740e+01    0.5434398    0.4081168  14.57  0.002930172    2.039    0.509
       255 -10.7703    181.9242     32.1272   4.8997734800e+01   3.5705571100e+01    0.7491688     0.428865 -82.02  0.002175916    2.427    0.588
       256 -10.6028    180.1526     25.4574   4.7298126673e+01   3.6963364858e+01    0.6173503    0.3344696  89.89  0.001295858    2.413    0.586
       257  -9.5668     13.0630    165.4945   1.2384233806e+02   3.8299817217e+01    0.1476535    0.1123113  40.67 0.0004341167    1.505    0.335
       258 -10.8328      2.0542    160.6663   1.2588397927e+02   4.0254318358e+01    0.5650716    0.1698704 -79.52  0.002482838    2.719    0.632
       259  -9.9387     22.6708    159.3876   1.2114114851e+02   3.8842635898e+01    0.2669239    0.1296638 -49.09  0.001318246    2.471    0.595
       260 -10.3646     18.4672    158.4946   1.2202761450e+02   3.9422339384e+01    0.2144635    0.1630104  87.68  0.001426735    1.056    0.053
       261  -8.8299     28.8715    158.4283   1.1959891349e+02   3.8481969097e+01    0.1593209     0.117089  40.19 0.0005218205    1.513    0.339
       262  -9.7358    158.0186     19.7075   4.8878066232e+01   4.3248921313e+01    0.2583231    0.2266003  19.47 0.0007756443    1.257    0.204
       263  -9.0853      9.9213    158.0787   1.2393882949e+02   4.0230110069e+01    0.2385993   0.09526388 -44.13 0.0009679482    4.207    0.762
       264 -10.9350     14.3584    151.0811   1.2230397845e+02   4.1471463587e+01    0.4098663    0.2104399  71.07  0.001199779    2.018    0.505
       265  -9.6367    198.7981     32.1085   4.6657246359e+01   3.1450988947e+01    0.2337384     0.189035 -25.88 0.0005666213    1.343    0.255
       266  -8.9244     11.3027    153.6322   1.2324711651e+02   4.1131722890e+01    0.2235328    0.1177019  82.00 0.0009497638    1.780    0.438
       267  -9.7008    173.2770     30.4536   4.9810711378e+01   3.8118100988e+01    0.4320208    0.2957094  19.65  0.001550256    1.979    0.495
       268  -9.0566     37.8241     31.9213   8.9157381504e+01   6.5958837260e+01    0.2002851    0.1384892 -18.54  0.001207983    1.299    0.230
       269 -10.3754    225.7992     28.2129   4.2523177279e+01   2.5388672940e+01    0.4699457    0.2929474 -44.92  0.002177485    1.459    0.314
       270 -10.1599    167.5837     28.5421   5.0125952036e+01   3.9804333035e+01    0.3828642    0.2944688 -15.63  0.001015999    1.475    0.322
       271  -9.6420    146.5693     29.2496   5.4053536622e+01   4.5049855565e+01    0.4245078    0.2482526  62.87   0.00193915    1.640    0.390
       272  -9.6777    147.3560     24.0310   5.2141578134e+01   4.5465488730e+01    0.2669288    0.2128307  49.41  0.000699389    1.173    0.147
       273  -8.8995    203.2747     28.6730   4.5164306454e+01   3.0764751352e+01    0.2238107    0.1699283   2.16  0.001020786    1.780    0.438
       274  -9.3190    204.7819     22.7114   4.3400679105e+01   3.1104601077e+01    0.3975849    0.1865235 -21.50  0.001652043    2.603    0.616
       275  -9.4999      8.0937    151.3026   1.2379011739e+02   4.1913150846e+01    0.2276821    0.1535914 -85.62 0.0004748225    1.155    0.135
       276 -10.8904    113.6583     32.6484   6.2668696558e+01   5.2535223500e+01    0.6639675    0.3891251  13.94  0.002212202    2.477    0.596
       277  -9.3893    153.1179     24.7790   5.1355450465e+01   4.3927191954e+01    0.3689685    0.2124664 -28.09   0.00170535    1.831    0.454
       278  -8.4224    250.4234     25.4682   3.9579604110e+01   2.0175600350e+01    0.1301638    0.1032915 -60.63  0.000117097    1.059    0.056
       279  -9.3772    242.4530     24.8442   4.0130891838e+01   2.1997554640e+01    0.2485329    0.1032512 -37.49  0.001129724    2.070    0.517
       280  -9.0245    139.3454     23.9209   5.3626619973e+01   4.7477048174e+01    0.4259937    0.1386398  53.90  0.001540582    2.589    0.614
       281  -9.2592     74.7081     18.9446   6.8603203023e+01   6.2336897247e+01    0.2296383    0.1737227  43.55 0.0006368241    1.370    0.270
       282 -10.5149     31.2195    151.5119   1.1829335628e+02   3.9868275990e+01    0.3281761    0.2458706  11.87  0.001221192    1.899    0.473
       283  -9.2592     82.9923     20.8211   6.6684859822e+01   6.0533086560e+01    0.3504778    0.2530781  22.86  0.001976837    1.303    0.233
       284  -9.3173     79.2467     18.7761   6.6999178151e+01   6.1505933468e+01    0.4851903    0.1606799  40.57  0.001866721    2.918    0.657
       285 -10.2822    247.7664     18.9253   3.8345885396e+01   2.1534451626e+01    0.4520813    0.2226916  80.57   0.00128238    2.114    0.527
       286  -9.2851    229.8521     19.8561   4.0109010826e+01   2.5447175467e+01    0.3299294     0.217287 -76.41  0.001794707    1.495    0.331
       287  -8.5822     45.9880    150.3358   1.1448158150e+02   3.8603677258e+01    0.1687505    0.1505653 -84.51 0.0003744373    1.086    0.080
       288  -9.0418    223.6033     18.3210   4.0325532547e+01   2.7080374986e+01    0.2508056    0.1702456  35.85  0.001295018    2.062    0.515
       289  -8.8378    101.2030     18.8006   6.0460846621e+01   5.7000977248e+01    0.1830118    0.1375058  22.00 0.0002191084    1.285    0.222
       290 -11.3923     30.9816    141.6830   1.1720493118e+02   4.2214112643e+01    0.5498546    0.3290213 -62.22  0.002978762    1.441    0.306
       291  -9.8087    188.8022     19.5651   4.4452607562e+01   3.5444826299e+01    0.3148553     0.198466  40.99 0.0005969593    1.864    0.464
       292 -10.1922     40.2052    146.5269   1.1545354622e+02   4.0138992390e+01     0.329532    0.2240538 -40.71  0.001411455    1.825    0.452
       293 -10.8530     37.9586    142.9863   1.1557375892e+02   4.1216769416e+01    0.3332615    0.3093176  32.35  0.001045182    1.331    0.249
       294 -10.1848     17.9297    147.9827   1.2115342473e+02   4.1894063225e+01    0.1870781    0.1434214 -87.61 0.0004222854    1.045    0.043
       295  -9.4357     10.8090    144.8469   1.2257130225e+02   4.3189632719e+01    0.2038505    0.1712736 -83.57 0.0006435615    1.108    0.098
       296 -10.4785      5.2746    147.0143   1.2408365850e+02   4.3101388081e+01    0.3338822    0.1977803  20.14  0.002002147    2.287    0.563
       297  -9.2505    243.3433     13.0481   3.7390733155e+01   2.3179816692e+01    0.2356363     0.167773  72.78  0.001222642    1.410    0.291
       298 -10.4162      6.2190    142.7242   1.2348391326e+02   4.4017659123e+01    0.2793756    0.1900608 -70.46 0.0005655915    1.215    0.177
       299 -11.6706     32.8915     59.1180   1.0075264778e+02   6.1231008636e+01    0.5528491    0.4173343 -15.82 0.0009862892    1.364    0.267
       300  -9.5726    234.7914    249.0319   8.9423958953e+01  -9.5799412998e+00    0.2097974    0.1307864  51.21  0.001177776    2.599    0.615
       301 -13.3635     37.5394    122.0710   1.1271427954e+02   4.6288648674e+01      2.31103     1.534355 -48.91  0.009016478    1.468    0.319
       302 -11.0126     19.2226    119.4085   1.1753635098e+02   4.8523744432e+01    0.5746186    0.2255999 -60.65  0.002729425    1.955    0.488
       303  -9.8795    107.8813    249.1700   1.1253835158e+02   9.6084911729e+00    0.1570059     0.129598  32.94   0.00109212    1.349    0.259
       304 -11.2758      6.6672     58.0343   1.1107318056e+02   6.3358778663e+01    0.9652051    0.5687698  85.03  0.004905758    2.791    0.642
       305 -11.8159     41.8002     51.2272   9.4641562642e+01   6.1935485598e+01    0.8476455    0.6055187  27.27  0.004817905    1.575    0.365
       306  -8.6713      3.5005    246.4893   1.3018481492e+02   2.2938367977e+01    0.1918124   0.04333013 -63.04 0.0008092343    5.517    0.819
       307 -12.4133     20.9365     81.3178   1.1073266374e+02   5.7322915563e+01     1.588096     1.385777 -73.45   0.01083304    1.174    0.148
       308 -11.5195     30.4159     72.7688   1.0537721849e+02   5.8500088849e+01    0.7352412    0.3909624 -47.89  0.002905334    1.518    0.341
       309 -11.7879     39.4336     65.9904   1.0016561459e+02   5.9137571722e+01     1.315698    0.5446946 -49.88  0.005999224    1.936    0.484
       310 -12.1797    117.7876     70.3689   7.5019484390e+01   4.5496543324e+01     1.395313    0.8104258  36.84   0.00538483    1.856    0.461
       311  -9.5753    141.9465    243.8080   1.0559576110e+02   5.2597918120e+00    0.2617044    0.1564794  26.60  0.001417629    1.880    0.468
       312  -9.1500     55.5458    237.9091   1.2103743963e+02   1.8748646757e+01    0.1575039   0.09823348 -76.20  0.001027913    1.609    0.378
       313  -9.2102     14.0895    236.8832   1.2808083926e+02   2.3606304141e+01    0.1454001    0.1161644 -61.12  0.001135808    1.798    0.444
       314 -11.8189     31.9021     42.0600   9.5661164464e+01   6.4743503200e+01    0.9784388    0.5010736  18.02  0.004193041    2.273    0.560
       315 -12.5607     49.2503     39.3334   8.7206833174e+01   6.3272147813e+01    0.5765414    0.3852445  34.18 0.0004599918    1.669    0.401
       316 -11.9098     56.4864     37.7472   8.3619464402e+01   6.2559178198e+01     0.497056    0.3788875   5.73  0.001280302    1.284    0.221
