#   1 NUMBER                 Running object number                                     
#   2 MAG_AUTO               Kron-like elliptical aperture magnitude                    [mag]
#   3 X_IMAGE                Object position along x                                    [pixel]
#   4 Y_IMAGE                Object position along y                                    [pixel]
#   5 X_WORLD                Barycenter position along world x axis                     [deg]
#   6 Y_WORLD                Barycenter position along world y axis                     [deg]
#   7 A_WORLD                Profile RMS along major axis (world units)                 [deg]
#   8 B_WORLD                Profile RMS along minor axis (world units)                 [deg]
#   9 THETA_WORLD            Position angle (CCW/world-x)                               [deg]
#  10 FWHM_WORLD             FWHM assuming a gaussian core                              [deg]
#  11 ELONGATION             A_IMAGE/B_IMAGE                                           
#  12 ELLIPTICITY            1 - B_IMAGE/A_IMAGE                                       
         1 -13.6465     56.7541     64.3482   6.7596691352e+01   5.9885077497e+01     2.225543      1.57183   1.54   0.00943308    2.240    0.554
         2 -14.8856      6.5232     70.7538   9.5749349084e+01   6.4017655772e+01     1.378365    0.8494591 -67.75   0.00573472    1.427    0.299
         3 -13.2963     43.2302     36.8359   6.3202001899e+01   6.8570738418e+01      1.17787    0.7508968 -35.23  0.005072755    1.728    0.421
         4 -14.3882    188.3951     24.2138   2.1814661911e+01   3.4931062440e+01      2.95226    0.8463728 -55.69  0.009547639    3.920    0.745
         5 -15.8615     11.2746     23.4324   8.0087578913e+01   7.5801968787e+01     2.180582     1.157435 -37.74  0.009976466    1.915    0.478
         6 -13.5484     25.3293     13.4157   6.1518598249e+01   7.6168328907e+01    0.7415782    0.2945642  37.91  0.003087393    2.544    0.607
         7 -13.5472     29.3446      8.1285   5.4222739116e+01   7.6408720550e+01    0.4542656     0.399047  61.44  0.001257394    1.343    0.255
         8 -12.7195      7.9434      2.5008   7.0304729114e+01   8.0554920097e+01    0.5918714    0.3469956  40.12  0.003173665    1.914    0.477
         9 -13.8714    122.2130     36.2582   3.4638367196e+01   5.0146109187e+01    0.9692269    0.6305694  37.26  0.004218471    2.010    0.502
        10 -14.4938    166.6803     28.9160   2.5324345800e+01   3.9608279425e+01     1.123303    0.8487858  83.10  0.004565945    1.312    0.238
        11 -14.6156    216.6199     12.5641   1.6820044552e+01   2.9966791958e+01     1.290798    0.9606005 -36.16  0.007258193    1.211    0.174
        12 -12.7016    120.8346     25.5452   3.0642835935e+01   5.2008431525e+01    0.6500385    0.5123264  39.83  0.002942972    1.494    0.331
        13 -15.0498     99.2480     11.3719   2.8463137797e+01   5.9488853813e+01     1.516233    0.9571798  68.80  0.004207343    1.472    0.321
        14 -12.2017     85.7177     13.7079   3.2718602194e+01   6.2802303172e+01    0.4422126    0.3474295 -59.13  0.001362299    1.331    0.248
        15 -14.2835    147.6039     29.7533   2.7975577573e+01   4.4368757743e+01      1.29511    0.7048483  75.14  0.004534119    1.850    0.459
        16 -12.1333     60.2527     15.2644   4.2013170281e+01   6.8919707255e+01    0.5432174    0.3446423  34.77  0.002556153    1.797    0.444
        17 -11.6434     46.8354     12.7690   4.6655423056e+01   7.2265138302e+01    0.3097896    0.2412874  50.14  0.001342618    1.252    0.201
        18 -10.5337     40.5341     12.5537   5.0076615402e+01   7.3595312974e+01    0.2226749    0.1657528 -33.35 8.411342e-06    1.359    0.264
        19 -13.6784     42.0544      3.9007   4.2499117044e+01   7.4493790129e+01    0.6795584    0.5419818  40.27  0.003188493    1.193    0.162
        20 -13.9621    187.5697     11.0392   1.8131284040e+01   3.6593913237e+01     1.002771    0.5205134 -45.40  0.005048908    1.548    0.354
        21 -12.7163    152.1083      9.0086   2.0277814347e+01   4.5599919609e+01    0.3771144    0.2760763  67.99  0.001258537    1.398    0.284
        22 -11.4158     75.7594      9.2365   3.2922547778e+01   6.5874908910e+01    0.3349395    0.2336084 -27.48  0.001682055    1.507    0.336
        23 -10.8391     80.6778      7.5692   3.0633579760e+01   6.4789202268e+01    0.2351287    0.1534352 -49.91 0.0006060263    1.634    0.388
        24 -11.9425     75.4119      2.7565   2.9154043115e+01   6.6623648189e+01    0.5287828     0.226566  57.14  0.002080954    2.054    0.513
        25 -11.3326    232.6087      1.7944   1.3531773050e+01   2.7814281962e+01    0.2046734    0.1492939 -78.52   0.00112201    1.349    0.259
        26 -10.8526    183.0184      1.4307   1.5648783743e+01   3.8632340283e+01    0.1920845    0.1171181  86.08 0.0006264512    1.587    0.370
        27 -11.8731    119.1106      2.6179   2.1345207743e+01   5.4982201034e+01    0.5214291    0.2342897 -81.05  0.001993146    2.550    0.608
        28 -11.1449     61.5270      1.4054   3.2305503235e+01   7.0249390625e+01    0.3563113    0.1276975  66.99  0.001119051    2.710    0.631
        29 -11.4822    123.4002     11.1911   2.4364513065e+01   5.2999702122e+01    0.2992588    0.2169444 -61.60 0.0006826717    1.314    0.239
        30 -12.7364     73.4264    153.1536   8.1343572209e+01   3.4109570085e+01    0.6903116    0.4639983  26.24  0.002987558    1.580    0.367
        31 -12.7393    109.7332    249.2869   8.3481077026e+01   1.0174465689e+01    0.3870223    0.1990813  39.13  0.002330156    1.546    0.353
        32 -12.6910     51.0892    248.7752   9.5513094513e+01   1.6807121037e+01    0.3977333    0.3086068  25.08  0.002897824    1.284    0.221
        33 -12.3030      3.0158    249.4728   1.0542025923e+02   2.1264859466e+01    0.4021563    0.2139575  44.95  0.002232997    1.248    0.198
        34 -13.6738      9.8520    245.7225   1.0396199523e+02   2.1330070814e+01    0.8765876    0.2974366  45.20  0.003732704    1.832    0.454
        35 -11.1596    103.3491    149.8304   7.2264457905e+01   3.0119711449e+01    0.2809952     0.216244 -24.69 0.0009950711    1.672    0.402
        36 -12.4711      8.0232    148.4790   1.0132510585e+02   4.2769781161e+01    0.6505877    0.3641219  42.10   0.00329856    1.547    0.353
        37 -11.6691     60.4688    147.2429   8.4458556805e+01   3.7454744404e+01     0.401584    0.3098317  11.00  0.002018366    1.610    0.379
        38 -12.0041     41.5516    137.8302   8.9409782476e+01   4.2351137295e+01    0.4965215    0.2339139  51.86  0.002021004    2.049    0.512
        39 -11.6103    246.7537    135.0113   4.1476749344e+01   8.7458926307e+00    0.1789843    0.1202672 -70.38 0.0009021703    3.567    0.720
        40 -11.6677    136.6001    131.9269   6.0100809587e+01   2.8020191101e+01    0.5053065    0.1833502  38.72     0.001714    2.977    0.664
        41 -11.7730     44.0162    132.5085   8.7906309137e+01   4.3484034216e+01    0.2200412    0.1420857  29.52 0.0007655463    1.577    0.366
        42 -14.3509    106.3147    104.4864   6.1528425675e+01   4.0309741490e+01     1.303906     1.199885 -72.43  0.005556384    1.055    0.052
        43 -12.7528     28.5359    121.8272   9.2171766404e+01   4.8122194462e+01    0.5108501    0.3647788 -57.29  0.002583501    1.460    0.315
        44 -11.0233    181.3202    120.6692   4.8222517074e+01   2.1568584313e+01    0.1376283    0.1059167 -69.44 0.0007048675    1.693    0.409
        45 -11.9149      4.7722    119.2723   1.0089997699e+02   5.0766718087e+01    0.5663604    0.4101723 -11.02  0.003009235    1.782    0.439
        46 -12.6609     42.2714     90.4326   8.1541128092e+01   5.5254276218e+01    0.3501656    0.2861823 -86.55 0.0003539894    1.179    0.152
        47 -11.8147     19.0392     86.0169   9.1502074629e+01   5.8953321232e+01    0.3109353    0.2627854 -39.49 0.0003766341    1.300    0.231
        48 -14.5142     24.6990     93.3278   8.9978111955e+01   5.6419242026e+01     1.609961     1.258847   1.88  0.008368397    1.550    0.355
        49 -12.3030     36.7880     92.8574   8.4466607498e+01   5.5267010265e+01    0.4454951    0.3236939   5.06  0.001306017    1.749    0.428
        50 -13.3336      2.3043     97.0145   1.0044694591e+02   5.7017217675e+01    0.9724042    0.3506633 -87.56  0.003662664    2.535    0.606
        51 -14.1438     18.3960    110.3334   9.4854311087e+01   5.2234503671e+01     1.045992    0.9249818 -17.12  0.005960507    1.374    0.272
        52 -12.1318     78.6754    110.0683   7.1749711081e+01   4.4291797814e+01    0.4723273    0.3489685 -80.01  0.002174879    1.457    0.314
        53 -11.4067     86.5702    114.9302   7.0224516392e+01   4.1619010199e+01    0.4061446    0.2922418  26.18  0.001347463    1.632    0.387
        54 -12.2221     82.0124    115.0035   7.1736755178e+01   4.2424461089e+01     0.468249    0.3258805  70.23  0.002053225    1.678    0.404
        55 -11.6708    121.9481    112.2273   5.9152020417e+01   3.5266210380e+01    0.2712106    0.2223099 -48.80 0.0007573476    1.208    0.172
        56 -11.5533     62.9101    110.6279   7.7480849120e+01   4.6784989188e+01    0.5829632    0.2657314  54.95    0.0020061    2.696    0.629
        57 -13.8239     11.1015    103.2773   9.7171576746e+01   5.4750349516e+01    0.8176093     0.705613  44.14  0.003919431    1.189    0.159
        58 -13.2299    111.7663    116.5087   6.2975002030e+01   3.6368594581e+01    0.5662547    0.3378753  45.59  0.001787016    1.671    0.401
        59 -11.3270     41.6673    106.3474   8.4864333347e+01   5.0941969930e+01    0.3911047    0.2077833  39.60  0.001653367    1.816    0.449
        60 -12.0900    136.2088    103.0853   5.3207663850e+01   3.4208177948e+01    0.6926645    0.2839695  51.83  0.002299695    2.617    0.618
        61 -13.8205    104.8270    121.9690   6.6226380315e+01   3.6440990458e+01     1.256369    0.9328576  57.44  0.005941629    1.398    0.284
        62 -12.1532     61.5602     98.2307   7.5268068715e+01   5.0322406183e+01    0.6930608    0.3964119  69.98  0.002554695    2.496    0.599
        63 -12.1536     49.0605     93.2630   7.9220836284e+01   5.3558895217e+01    0.4373703    0.3202964  76.09  0.001755589    1.476    0.322
        64 -11.7454     47.2220     99.6427   8.1345794000e+01   5.2070287564e+01    0.5016186    0.3228965  68.00  0.002189389    1.748    0.428
        65 -11.6963     52.6171     97.7061   7.8724635457e+01   5.1838746981e+01    0.4165483    0.2880717   0.76  0.001338664    2.150    0.535
        66 -11.1570    163.4831     96.9198   4.5733138425e+01   2.9475205996e+01    0.2822517     0.223222 -71.99 0.0008484186    1.444    0.307
        67 -12.6629    137.0468     95.0355   5.0827491926e+01   3.5695355641e+01    0.5517289    0.4059862  67.10  0.002585087    1.519    0.342
        68 -11.5892    134.9155    125.8560   5.9140118913e+01   2.9639257293e+01    0.2357486    0.2105228  -5.97  0.001251839    1.275    0.215
        69 -11.3440     35.1212     86.5739   8.3970462287e+01   5.7195534582e+01    0.2885707    0.2018519 -60.13 0.0007439433    1.348    0.258
        70 -12.7530    188.4706     83.9553   3.8122556676e+01   2.6384217865e+01    0.5202162     0.315687  41.20  0.002196034    2.082    0.520
        71 -12.3224    187.7545     79.4108   3.7055562058e+01   2.7269652811e+01    0.2731122    0.1414792  59.06  0.001094405    2.160    0.537
        72 -12.6330    237.4308     80.1706   3.1191657095e+01   1.7580214514e+01    0.2910608    0.2084918 -73.63  0.001783917    1.758    0.431
        73 -11.6420    158.8517     64.8569   3.7569183678e+01   3.6239244944e+01    0.7883247    0.2459564 -50.14  0.002279767    3.917    0.745
        74 -13.0695    164.1027     71.5584   3.8641624510e+01   3.3861877889e+01     1.009828    0.5046911  48.79  0.004146393    2.272    0.560
        75 -11.7273    158.0339     83.4971   4.3139148142e+01   3.3159087958e+01    0.3425171    0.2599723  66.51 0.0006860027    1.425    0.298
        76 -12.7613    161.5855     79.7452   4.1421232125e+01   3.3020983867e+01    0.6055499    0.4319128  25.23  0.002038267    2.046    0.511
        77 -13.8496    169.2850     77.2053   3.9361311810e+01   3.1704742409e+01     1.064572    0.6129183  47.26  0.003844007    1.996    0.499
        78 -10.5580     97.8554     84.1797   5.8350362550e+01   4.6880567382e+01     0.217414    0.1957197  10.38  0.001071221    1.374    0.272
        79 -13.1367     28.5448    245.9092   1.0009509981e+02   1.9570471401e+01    0.4296063    0.2541836  52.95  0.002642485    1.302    0.232
        80 -13.0339     65.5228     48.9958   5.7579280051e+01   6.1732635040e+01    0.7873862    0.6695603 -74.12   0.00406983    1.271    0.213
        81 -13.5312     87.3805     65.1440   5.5460466346e+01   5.3507258021e+01     1.545769     1.005901 -17.26  0.005040389    2.840    0.648
        82 -12.6960     54.8596     81.5072   7.3791466729e+01   5.5835490291e+01    0.6899241    0.4833381 -60.51   0.00322394    1.363    0.266
        83 -13.9006     61.2873     75.5013   6.9239179056e+01   5.6309656155e+01    0.8852942    0.6426795 -36.07  0.003980963    1.613    0.380
        84 -13.1357     71.1155     75.0708   6.5016886706e+01   5.4603076370e+01     0.618177    0.4777461  -1.45  0.001321847    1.917    0.478
        85 -12.1664     77.2357     73.4970   6.2104131278e+01   5.3768675655e+01    0.6084065    0.3756615 -37.19  0.001915006    1.928    0.481
        86 -11.0187     42.5075     79.4826   7.8881589948e+01   5.8195214445e+01    0.3179188    0.1922995 -47.94   0.00100112    1.698    0.411
        87 -10.9471     41.5314     76.0002   7.8452729370e+01   5.9258832654e+01    0.3182673    0.2110516 -72.35 0.0007787154    1.493    0.330
        88 -12.5120    216.2627     80.7240   3.3631291480e+01   2.1325302493e+01    0.4430762    0.3703955 -19.98  0.002708291    1.251    0.201
        89 -12.5659    210.6383     76.7666   3.3353988591e+01   2.2987288438e+01    0.4951511     0.316532 -59.17  0.002613184    1.671    0.402
        90 -11.8050    114.1224     79.9871   5.2203378212e+01   4.4130311194e+01    0.4631814     0.343776 -52.51  0.001742026    1.314    0.239
        91 -12.1603    135.8617     79.5257   4.6600101791e+01   3.9092047731e+01    0.6260961    0.3012517  53.33  0.002061038    2.139    0.532
        92 -13.3343    171.4027    242.7669   7.1022508852e+01   3.9384987003e+00    0.3776714    0.2474655  22.66  0.002684107    1.193    0.162
        93 -14.0332      3.7897     63.3748   9.6301640731e+01   6.6154692015e+01    0.6800463    0.6392257   2.65  0.002587193    1.199    0.166
        94 -10.8836     97.3986     78.7553   5.6784844866e+01   4.8224693921e+01    0.2131756    0.1495882 -40.40 0.0003307184    1.512    0.338
        95 -11.2814     26.8948     74.9977   8.5562804699e+01   6.1264843861e+01    0.6093662    0.2788454  84.52   0.00200691    3.432    0.709
        96  -9.8672     98.2812     75.2849   5.5367441182e+01   4.8805919381e+01    0.1483802    0.1284232  -1.16            0    1.518    0.341
        97 -12.1065    214.4414     71.6163   3.1663802324e+01   2.2987681448e+01    0.2452465    0.2047375 -44.40   0.00106012    1.022    0.021
        98 -13.4254    199.5407     69.8854   3.3000299320e+01   2.6254958716e+01    0.7049457    0.4658336  42.93  0.003298591    1.942    0.485
        99 -11.1246    117.7443     72.3327   4.8755859735e+01   4.4870075063e+01    0.2606651    0.2252079 -80.46 0.0004584214    1.173    0.148
       100 -12.5741    134.5725     65.3854   4.2433843248e+01   4.2092666864e+01    0.6372421    0.5493335  85.47  0.002603451    1.166    0.142
       101 -11.3224     99.6211     64.9819   5.1381734600e+01   5.0718922625e+01     0.335474    0.2391628 -85.35  0.001426044    1.825    0.452
       102 -13.0126     79.0491     60.4214   5.6723515948e+01   5.6385207526e+01     0.874115    0.4947879 -52.54  0.003578113    1.792    0.442
       103 -13.3709    177.8392     57.3320   3.2447698337e+01   3.2940733694e+01    0.8697762    0.4934891 -45.95  0.002985643    1.550    0.355
       104 -11.0469     34.9650     59.8148   7.7217646602e+01   6.4362999722e+01     0.502154    0.2140879 -51.74  0.001949953    2.180    0.541
       105 -11.4933     38.8168     59.9737   7.5145153459e+01   6.3806910752e+01    0.3811419    0.2443462  71.94  0.001620826    2.157    0.536
       106 -12.0914     37.0066     52.9541   7.3738389282e+01   6.5814673419e+01    0.6235263    0.3983871 -25.97  0.002727785    2.109    0.526
       107 -11.5237     24.8696     58.7680   8.2728895047e+01   6.5808115375e+01    0.5050259    0.2603752 -63.93  0.002211592    1.757    0.431
       108 -11.5923    111.0830     58.7042   4.5794439252e+01   4.9191575090e+01    0.2736224     0.258799  31.98  0.000342892    1.215    0.177
       109 -14.3651    120.1632     54.5900   4.1997606609e+01   4.7669836159e+01     1.031516    0.6752347  54.22   0.00462376    1.551    0.355
       110 -12.4900    247.9925     51.6025   2.3963016132e+01   1.9414046091e+01    0.6589047    0.2304927 -28.05  0.002920108    2.550    0.608
       111 -10.2712     47.6018     56.2915   6.9174948472e+01   6.3395567139e+01    0.1574085    0.1116607  69.00 0.0006523491    1.793    0.442
       112 -11.2706     17.6897     55.4409   8.6233543862e+01   6.7355797765e+01    0.3570489    0.2019498 -73.04  0.001646268    1.679    0.404
       113 -13.5411    103.1315     50.2860   4.4780516969e+01   5.2751158509e+01     1.164077       0.6003 -58.97  0.002365382    2.562    0.610
       114 -13.0235     97.8769     50.1318   4.6247198726e+01   5.4084781762e+01    0.6566931    0.4128532 -57.32  0.001923809    1.755    0.430
       115 -11.7643    135.9326     49.8429   3.6911182243e+01   4.4445740807e+01    0.4171478    0.2819511  45.88  0.001666769    1.705    0.414
       116 -10.4472     23.5465     49.9707   8.0931441529e+01   6.8210044259e+01    0.2060759    0.1284678 -62.49 0.0004392309    1.478    0.323
       117 -11.6510    200.1288     61.4900   3.0767643287e+01   2.7363206993e+01    0.2764499    0.2140298 -35.44 0.0008687774    1.167    0.143
       118 -11.7754    153.5444     47.0071   3.2873825429e+01   4.0403875752e+01    0.4442925    0.2573326  72.96  0.001959394    1.826    0.452
       119 -12.4815    158.9859     43.0652   3.0788670267e+01   3.9619881649e+01    0.5299309    0.4504082  88.87  0.002082495    1.156    0.135
       120 -10.8363     38.9767     45.9583   6.9868655468e+01   6.7212271508e+01    0.2515739    0.1978941 -57.10 0.0004317648    1.231    0.188
       121 -10.9627     35.1205     34.8239   6.7204137070e+01   7.0326482141e+01    0.2593746     0.196346  33.36 0.0006465304    1.360    0.265
       122 -13.6384     97.6639    239.0973   8.5038376349e+01   1.3178664842e+01    0.6761563    0.3492274  28.37  0.003847222    1.567    0.362
       123 -12.5035     33.0741     40.3799   7.1122246294e+01   6.9374384508e+01    0.4102987    0.3088278   7.77  0.001181249    1.580    0.367
       124 -13.9552     91.3974    231.6166   8.5704929206e+01   1.5178674326e+01    0.4924926    0.4720945  76.83  0.003740381    1.263    0.208
       125 -13.7534    219.4791     41.5930   2.3830954883e+01   2.6014959780e+01    0.6375759    0.4198217 -62.08  0.002145025    1.419    0.295
       126 -13.1925      6.3523     42.9614   9.0847156859e+01   7.1392780914e+01    0.9925455    0.4546429  15.89   0.00443007    2.350    0.574
       127 -13.7111     26.2291    226.4269   9.9867949373e+01   2.3379585304e+01     0.687475    0.3903744 -54.06  0.003929866    2.467    0.595
       128 -13.9152     20.4334    224.0486   1.0108324131e+02   2.4396503115e+01    0.7004574    0.4697863  36.97  0.004533065    1.203    0.169
       129 -13.5142     65.6774    223.2846   9.0734310809e+01   1.9747272026e+01    0.8310632    0.6702696  29.10  0.005597348    1.181    0.153
       130 -12.2598     27.5156     32.3781   7.1202325964e+01   7.1959603354e+01    0.5914461    0.3400198  24.07   0.00220011    1.926    0.481
       131 -13.5343     64.4068    214.1450   9.0326522149e+01   2.1657496464e+01    0.4959365    0.2944907  39.52  0.002817349    1.327    0.246
       132 -11.7417    135.2414     39.1343   3.3247655312e+01   4.6292655293e+01    0.5204973    0.2914666  79.05  0.001870163    1.984    0.496
       133 -12.1084    109.7257     41.9475   3.9694645679e+01   5.2523900208e+01    0.4896784    0.2180284  61.96 0.0008816328    2.242    0.554
       134 -12.7657    131.8163     33.1094   3.1637531559e+01   4.8061769522e+01    0.5196439    0.4415076  15.72  0.001438787    1.524    0.344
       135 -12.7343     59.6914    212.6376   9.1326551956e+01   2.2513185123e+01    0.4227936    0.2899201 -37.15  0.001621419    2.100    0.524
       136 -12.8212    113.7652     37.8072   3.7062780040e+01   5.2134008001e+01    0.4424971    0.3558781  68.54  0.001387871    1.210    0.174
       137 -11.5144    181.9146     38.1441   2.6429617076e+01   3.4710465029e+01    0.3113833    0.1932278 -28.06  0.001532222    1.606    0.377
       138 -12.4043     75.8305     36.9701   4.7825627964e+01   6.1813925930e+01    0.4910083    0.3122769  46.11  0.001330195    1.597    0.374
       139 -11.5042     70.6356     36.1486   4.9441121794e+01   6.3161843231e+01    0.3182417    0.2783408 -78.58 0.0008402603    1.241    0.194
       140 -12.9729    242.2780     36.0005   2.0879599345e+01   2.2292552844e+01     0.486427    0.3160106  85.34  0.002028261    1.799    0.444
       141 -12.5233     23.4534    216.3453   1.0010443837e+02   2.5640669456e+01    0.6954869    0.2779673  44.32  0.003581157    1.771    0.435
       142 -13.2164    140.9451     21.5578   2.5975037684e+01   4.7144133548e+01     1.178911    0.3684168  75.01  0.002482681    3.388    0.705
       143 -12.9085    223.3869     20.6456   1.8433829217e+01   2.7693756795e+01    0.3177856    0.2628024  67.34  0.001455225    1.509    0.337
       144 -13.4944    217.3991     28.3418   2.0706613068e+01   2.8046560891e+01    0.6715064     0.359552 -63.28  0.003408697    1.782    0.439
       145 -12.0395      4.5848    211.9573   1.0436327135e+02   2.8245172914e+01     0.359637    0.2228404 -82.10  0.002230701    1.732    0.423
       146 -12.3086     62.9115     25.6706   4.7117260044e+01   6.6729525242e+01    0.5074326    0.3408489  36.46  0.001888039    1.646    0.393
       147 -11.2296    245.4963     28.8947   1.9096240817e+01   2.2515760201e+01    0.1888205   0.09047776 -33.13  0.001034146    1.594    0.373
       148 -12.0641     72.6350    207.1041   8.7768675770e+01   2.2056974400e+01    0.3051009    0.2277319 -86.91  0.001852281    1.525    0.344
       149 -11.6219     30.6077     25.3951   6.5246300147e+01   7.3018618110e+01    0.4194814    0.2398323  22.74  0.001818362    2.142    0.533
       150 -11.3780     36.2600     23.2313   6.0029049259e+01   7.2530115356e+01    0.3510297    0.2371289 -39.87  0.001803344    1.467    0.318
       151 -11.9411     57.4627    203.1538   9.1131613050e+01   2.4718317883e+01    0.4638424    0.2250155  81.69  0.002074982    2.738    0.635
       152 -11.9395     41.1528    205.8471   9.5339711121e+01   2.6001588245e+01    0.2117178    0.1370617  52.74  0.001235797    1.262    0.208
       153 -11.4809     50.6308     20.2055   4.9638198366e+01   7.0306869336e+01    0.4980725    0.2442698  63.99  0.001694367    3.071    0.674
       154 -10.9176     45.5003     20.5069   5.2610074738e+01   7.1306476064e+01    0.2904303    0.1327787  46.44   0.00120661    2.159    0.537
       155 -13.0254     17.1256    195.6491   1.0081276517e+02   3.0624883314e+01    0.7974547    0.2033625 -65.31   0.00300381    4.148    0.759
       156 -11.5848     70.8738     16.4223   3.8683430916e+01   6.6223715930e+01     0.285585    0.2419667 -54.93 0.0007646845    1.247    0.198
       157 -12.3026     40.4240    194.7332   9.4810528124e+01   2.8480241026e+01    0.4271411    0.2137037  81.29  0.002034325    2.210    0.548
       158 -12.2054     36.9677    194.4947   9.5683746458e+01   2.8906687191e+01    0.3677808     0.222495  87.04  0.001778628    1.695    0.410
       159 -13.2736     29.9496    169.3523   9.5930796666e+01   3.5520254627e+01    0.9937044    0.6341065 -27.48  0.004706897    2.484    0.597
       160 -12.5651     22.0867    166.3015   9.8014986171e+01   3.7046803083e+01    0.3976851    0.2709993  13.65  0.001559682    1.741    0.426
       161 -10.7664    142.7652     11.6090   2.2137881432e+01   4.7779442636e+01    0.2040114    0.1214644 -84.93 0.0006732687    1.657    0.397
       162 -10.1036     55.3813     11.2621   4.1470581911e+01   7.0586313744e+01    0.1457832    0.0977593  32.05 0.0006979575    1.678    0.404
       163 -13.4835     22.1317    180.7999   9.8815711071e+01   3.3544675793e+01    0.8821992    0.3794235 -64.04  0.004008184    2.516    0.603
       164 -15.1670      8.2895    183.2015   1.0264033223e+02   3.4224274431e+01     1.377062     1.147534  77.19  0.009050286    1.160    0.138
       165 -15.1046     15.5354    174.7216   1.0033092350e+02   3.5596952605e+01     2.350244    0.6744624  49.59  0.009293795    2.637    0.621
       166 -11.2881    200.8878    191.4762   5.8497898273e+01   7.1915638249e+00    0.2092517    0.1555152  15.68  0.001193092    1.209    0.173
       167 -13.1464     55.7682     26.8410   5.1055644608e+01   6.8097109513e+01    0.7049703     0.439224  51.47  0.002185003    1.605    0.377
       168 -11.9741    198.4341    181.3739   5.7224608350e+01   8.9538891099e+00    0.2226176    0.2010065   2.10  0.001596656    1.183    0.155
       169 -11.2127     49.0086    181.5260   9.1539447328e+01   3.0500731753e+01    0.2548987    0.1796302 -57.14  0.001392171    1.649    0.394
       170 -13.5140    213.0346     42.9739   2.4715993181e+01   2.7162614996e+01    0.6823218    0.3588054  77.26  0.003436087    2.204    0.546
       171 -11.9215    123.7812    166.8359   6.9997249070e+01   2.2968971178e+01    0.4472326    0.2659788 -84.38   0.00162429    3.804    0.737
       172 -11.0586    112.2692    157.0428   7.1179129750e+01   2.6975957919e+01    0.2741674    0.1740324  50.52  0.001279941    1.612    0.380
       173 -11.7636     76.8642    156.8209   8.0866960991e+01   3.2699664024e+01    0.4113786    0.2719949  30.50  0.001105492    1.503    0.335
