#   1 NUMBER                 Running object number                                     
#   2 MAG_AUTO               Kron-like elliptical aperture magnitude                    [mag]
#   3 X_IMAGE                Object position along x                                    [pixel]
#   4 Y_IMAGE                Object position along y                                    [pixel]
#   5 X_WORLD                Barycenter position along world x axis                     [deg]
#   6 Y_WORLD                Barycenter position along world y axis                     [deg]
#   7 A_WORLD                Profile RMS along major axis (world units)                 [deg]
#   8 B_WORLD                Profile RMS along minor axis (world units)                 [deg]
#   9 THETA_WORLD            Position angle (CCW/world-x)                               [deg]
#  10 FWHM_WORLD             FWHM assuming a gaussian core                              [deg]
#  11 ELONGATION             A_IMAGE/B_IMAGE                                           
#  12 ELLIPTICITY            1 - B_IMAGE/A_IMAGE                                       
         1  -7.3530    162.5625     12.4894   3.5097552588e+02   4.2893149754e+01    0.1251089    0.1067368 -74.65 3.568628e-05    1.079    0.073
         2 -10.1324      2.5062    247.9328   7.6039987666e+01   1.9545867303e+01    0.7441633     0.639791  11.13  0.005450463    1.407    0.289
         3 -11.9008      7.2843    232.1170   7.4508699390e+01   2.2343577230e+01     1.975249    0.8962067   8.32    0.0088249    3.061    0.673
         4 -10.3337     12.2722    244.0033   7.3762591770e+01   1.9494208147e+01    0.4990548    0.3461775 -76.99  0.003216485    1.656    0.396
         5 -10.0535     11.2994    239.2591   7.3821447619e+01   2.0530397354e+01    0.4391519    0.2679515  51.24  0.001520711    1.298    0.230
         6  -8.4291     28.8230    247.0906   7.0159474915e+01   1.7388251774e+01    0.2224106    0.1508668 -69.99 0.0006724834    1.749    0.428
         7  -8.8104     23.1400    246.6667   7.1421268528e+01   1.7998916415e+01    0.1939177    0.1612539  59.81 0.0009836644    1.146    0.127
         8  -9.8161     48.2564    235.3552   6.4995856706e+01   1.7799523272e+01    0.2407645    0.2252435 -17.27 0.0005320796    1.306    0.234
         9  -8.5895     54.5907    234.3048   6.3417199485e+01   1.7344512220e+01    0.2762166    0.2039378 -16.75  0.001314336    1.790    0.441
        10  -7.1833    242.2972    236.6965   2.6246286724e+01  -3.2681773724e+00   0.08240528   0.07165597 -17.08 0.0003208112    1.583    0.368
        11  -7.0985     82.6998    235.2537   5.6862190160e+01   1.4026995977e+01    0.1256058   0.08007853  47.26  0.000689042    1.500    0.334
        12  -7.9840    142.3170    232.5851   4.3310324212e+01   7.4756479348e+00    0.1876712    0.1532266 -40.58 0.0005777467    1.364    0.267
        13  -7.0173    116.0000    229.9544   4.8667909603e+01   1.1076331108e+01    0.1783512   0.07208962 -56.74 0.0003692358    2.862    0.651
        14  -7.0252    112.6230    229.1511   4.9331861333e+01   1.1632653918e+01    0.1598078    0.1096217 -38.17 0.0004073856    1.626    0.385
        15  -9.0211     39.9630    223.1365   6.6197315408e+01   2.1215244045e+01    0.3503938      0.20673 -80.52  0.001070593    1.876    0.467
        16  -9.1484     49.9025    223.3949   6.3753020992e+01   2.0117494576e+01    0.2723207    0.2073149  47.29 0.0007996535    1.130    0.115
        17  -9.5844      9.8507    226.0685   7.3695519070e+01   2.3408357303e+01    0.3009273    0.2204151  42.91  0.001021453    1.098    0.089
        18  -9.6915     12.7204    218.3965   7.2700674320e+01   2.4836240858e+01    0.4497195     0.145436  57.26  0.001833405    2.809    0.644
        19 -10.7484     10.2069    206.8972   7.2854515466e+01   2.7658858903e+01    0.7177157    0.5388272   9.63  0.004041336    1.536    0.349
        20  -7.7169     47.0208    212.8648   6.3680432556e+01   2.2735172730e+01    0.1932154     0.126813  69.94 0.0005357844    1.596    0.374
        21  -7.1909    236.7162    205.3003   2.2450712186e+01   1.1928059095e+00   0.09040381   0.07749011 -37.30 0.0002765419    1.551    0.355
        22  -9.2436     71.8755    194.6796   5.5360730999e+01   2.3990176802e+01    0.3571441    0.2722219 -31.48    0.0011141    1.585    0.369
        23  -8.9431     24.7663    190.6314   6.8055093484e+01   3.0253754268e+01     0.273364     0.240963 -10.36 0.0006525504    1.383    0.277
        24  -9.8653     30.9976    186.1977   6.5970468845e+01   3.0748238685e+01    0.3813878    0.2904476  53.73  0.002124295    1.167    0.143
        25  -9.8777     38.8195    180.4262   6.3216274279e+01   3.1391771871e+01    0.5884014    0.3633041  56.02  0.002855506    1.548    0.354
        26  -8.4087     10.2205    184.1960   7.1789886017e+01   3.3135211005e+01    0.2213861    0.1909455 -29.50 0.0006606817    1.444    0.308
        27  -7.2171     54.3015    172.9967   5.7844533637e+01   3.1509661524e+01     0.188119    0.1756651  82.68 0.0002283775    1.067    0.063
        28  -7.9125     54.8899    168.0308   5.7073596888e+01   3.2715803636e+01    0.2139115    0.2075691  77.94 0.0004559248    1.069    0.065
        29  -7.8535     18.5012    168.4688   6.8371531817e+01   3.6473123321e+01    0.1399124    0.1252874  66.12 0.0001156869    1.020    0.020
        30  -7.8965     60.4780    163.2845   5.4747724612e+01   3.3234042227e+01    0.2478615    0.1796263  15.13 0.0004422746    1.547    0.353
        31  -8.4936      9.5595    155.3167   7.0304811863e+01   4.0700575903e+01     0.273331    0.1277507 -87.62  0.001142898    2.070    0.517
        32  -7.9691     71.8531    154.7064   4.9968845751e+01   3.3894208162e+01    0.2504109     0.198782 -50.66 0.0006888352    1.320    0.242
        33  -7.4543    150.8061    153.8342   2.8761423110e+01   2.1176459418e+01    0.2027791     0.173505 -14.32 0.0003946866    1.224    0.183
        34  -7.9249    137.2479    153.8034   3.1833094495e+01   2.3469788723e+01     0.195275    0.1896672 -60.93 0.0004407604    1.080    0.074
        35  -9.2698     57.9621    150.5820   5.3760427779e+01   3.6914419416e+01    0.3880857    0.2790661 -35.29 0.0007661013    1.671    0.401
        36  -7.5482     40.2869    148.0304   5.9305809968e+01   3.9787119482e+01    0.1986506    0.1832703  78.30 0.0004455053    1.019    0.019
        37  -8.2699     69.1360    144.3082   4.9127182762e+01   3.7012311879e+01    0.5376368    0.2692426  63.33  0.001798926    3.091    0.676
        38  -8.4588     82.9307    135.4293   4.3064146043e+01   3.7170344100e+01    0.3077965    0.2425086 -76.13 0.0004275718    1.344    0.256
        39  -6.9217    108.7162    131.3434   3.4495978730e+01   3.3656887192e+01    0.1553639    0.1191196  83.68 0.0006386826    1.639    0.390
        40  -7.9436     67.0672    130.8736   4.7412442630e+01   4.0886904002e+01    0.2313931     0.190985  59.26  0.001144689    1.224    0.183
        41  -7.3797    110.7671    125.0148   3.2506755573e+01   3.4775643536e+01    0.2037321    0.1873382 -57.22 0.0002229083    1.069    0.064
        42  -7.2677     37.8419    119.4051   5.6125133821e+01   4.7959237437e+01    0.1909471    0.1467195   4.00 0.0003409283    1.530    0.346
        43  -7.0676     16.6830    118.3433   6.4422846341e+01   5.0330239508e+01    0.1596878   0.09703522  59.63 0.0006335453    1.716    0.417
        44  -8.0468     44.1488    115.8433   5.3033990680e+01   4.8176831615e+01    0.2069268    0.1773644 -30.63 0.0005751276    1.302    0.232
        45  -7.7385    248.1799    113.1584   5.1105266556e+00   1.2924899800e+01    0.1557804    0.1085739 -51.49 0.0004912164    1.330    0.248
        46  -8.9484     44.4576    108.8122   5.1581118220e+01   5.0057149817e+01    0.3819398    0.2632131 -55.98   0.00120478    1.409    0.290
        47  -7.7922    219.1996    104.9677   6.8718940420e+00   1.8480841483e+01    0.1823644    0.1308221 -49.49 0.0002638408    1.195    0.163
        48  -7.8975     97.3741    103.5113   3.1171115853e+01   4.2477161747e+01    0.2507424    0.2256902 -48.89 0.0004016638    1.128    0.113
        49  -8.4889    138.9674     95.0034   1.7935567590e+01   3.5600868948e+01    0.2117613    0.1990229 -65.61            0    1.022    0.022
        50  -7.1807     47.7536     92.6548   4.6657832441e+01   5.3921277303e+01    0.1537353    0.1097094 -36.18 0.0003968524    1.574    0.365
        51  -6.8739     53.6957     91.7084   4.3890197525e+01   5.3283432303e+01    0.1516994    0.1168203 -24.12 0.0002580561    1.573    0.364
        52  -7.1631     50.2958     82.2939   4.2845230505e+01   5.6193818608e+01    0.1494229    0.1147629 -23.64 0.0002076403    1.561    0.359
        53  -6.7832     94.6951     77.2758   2.4462683157e+01   4.8947697649e+01    0.1514056    0.1172518  86.54 0.0002973866    1.545    0.353
        54  -8.1935    182.9734     74.0027   4.7515935062e+00   3.0049553614e+01     0.192113    0.1656206 -58.18            0    1.020    0.020
        55  -7.9465     59.7699     70.1315   3.4985435870e+01   5.7531051859e+01    0.2864045    0.1986617   7.33  0.001088225    2.136    0.532
        56  -7.3926     18.2287     68.7772   5.5354612649e+01   6.3586154037e+01    0.2194539    0.1133039   2.60 0.0008858654    2.465    0.594
        57  -7.1069     14.6352     62.2914   5.5845717415e+01   6.5533263071e+01    0.1436018   0.09838745  54.13 0.0007027086    1.706    0.414
        58  -8.3185    248.5228     56.7712   3.5431749347e+02   2.0588458609e+01    0.1776717    0.1504747 -27.67 0.0007598599    1.441    0.306
        59  -7.8310     71.2274     45.8157   2.1230803769e+01   6.0247889739e+01    0.2023019    0.1859286  79.28 0.0004525529    1.123    0.109
        60  -7.1760     54.6684     45.7835   2.8143613723e+01   6.3629921779e+01    0.1826651    0.1305425 -55.61 0.0003016839    1.552    0.356
        61  -8.8400    225.5295     41.1688   3.5284906139e+02   2.6471400367e+01    0.2035211    0.1677616  27.06 0.0009114263    2.014    0.503
        62  -8.2999     93.9867     37.7243   1.0628959912e+01   5.6364250431e+01    0.2342494    0.1962934 -57.62  0.000303241    1.228    0.185
        63  -7.8638     88.1566     38.6204   1.2626707189e+01   5.7613568048e+01    0.1998041     0.122027  48.23 0.0003888048    1.610    0.379
        64  -9.4387    233.1162     35.4991   3.5114501524e+02   2.5817846065e+01    0.3291501    0.1682729 -86.28  0.001894218    2.226    0.551
        65  -8.2773    209.1796     33.5497   3.5241767018e+02   3.0491577232e+01     0.198306    0.1343462 -45.81 0.0003142885    1.203    0.169
        66  -8.5928     78.3742     35.2364   1.4247026028e+01   6.0418477269e+01    0.2590941    0.2240824 -59.78  0.000499668    1.230    0.187
        67  -6.8421    141.2865     26.3058   3.5740124441e+02   4.6343760721e+01    0.1243115    0.1019519  40.05 0.0006983847    1.566    0.362
        68  -6.6911     33.6929     24.7322   2.9161311398e+01   7.1255745794e+01    0.1298062   0.09757391   6.80 0.0002236631    1.535    0.349
        69  -7.7579     94.5359     20.9849   3.7039596779e+00   5.8499950604e+01    0.1976359     0.166657  72.97 0.0001971513    1.068    0.063
        70  -7.6897    207.9305     16.4875   3.4865880836e+02   3.2734819805e+01    0.1538846    0.1025716  86.37 0.0003694854    1.477    0.323
