#   1 NUMBER                 Running object number                                     
#   2 MAG_AUTO               Kron-like elliptical aperture magnitude                    [mag]
#   3 X_IMAGE                Object position along x                                    [pixel]
#   4 Y_IMAGE                Object position along y                                    [pixel]
#   5 X_WORLD                Barycenter position along world x axis                     [deg]
#   6 Y_WORLD                Barycenter position along world y axis                     [deg]
#   7 A_WORLD                Profile RMS along major axis (world units)                 [deg]
#   8 B_WORLD                Profile RMS along minor axis (world units)                 [deg]
#   9 THETA_WORLD            Position angle (CCW/world-x)                               [deg]
#  10 FWHM_WORLD             FWHM assuming a gaussian core                              [deg]
#  11 ELONGATION             A_IMAGE/B_IMAGE                                           
#  12 ELLIPTICITY            1 - B_IMAGE/A_IMAGE                                       
         1 -14.4720    197.7719     16.1473   6.6621362486e+01   3.3592428686e+01      2.75291     1.707473  30.02   0.01035723    2.248    0.555
         2 -13.8292    202.8199      9.3691   6.4167320831e+01   3.3004757337e+01     1.594852    0.7282283  51.56  0.001531964    2.292    0.564
         3 -10.6000     22.3891     11.1915   1.1231929216e+02   7.1282077796e+01    0.1583957     0.094097 -47.85 0.0009570926    1.734    0.423
         4 -12.2163    171.3758    222.6681   1.2074263257e+02   5.2262409308e+00    0.5992553    0.2303142  33.16  0.002342684    3.112    0.679
         5 -11.6222    142.9840    249.5094   1.2935055711e+02   6.0266301164e+00    0.2773635    0.1620132  40.18  0.001691502    1.386    0.279
         6 -11.6721    125.2919    250.0167   1.3250376761e+02   8.7223231477e+00    0.4507082    0.1147484  43.87    0.0018852    2.902    0.655
         7 -11.6776    112.2022    249.5149   1.3473362890e+02   1.0794406961e+01     0.368701    0.1812422  47.66  0.002151611    1.524    0.344
         8 -12.1375    106.2420    247.0290   1.3553604979e+02   1.2072809443e+01     0.381521    0.2607146  56.70  0.001858867    1.119    0.106
         9 -12.1077     98.6008    248.4883   1.3699348954e+02   1.2969135302e+01    0.5199869    0.2367174  57.13  0.001736071    1.904    0.475
        10 -11.1609    101.1585    246.1326   1.3633922714e+02   1.2967750844e+01    0.2550191    0.1804743  73.78 0.0004084113    1.338    0.253
        11 -12.6976     81.7747    241.9510   1.3934732460e+02   1.6430442522e+01    0.9971154    0.4134476  69.39  0.004426362    3.462    0.711
        12 -11.0767     81.5086    248.5003   1.3991700638e+02   1.5392841768e+01    0.2981353    0.1850526  63.59  0.001898053    1.284    0.221
        13 -12.5749     78.8383    246.1631   1.4018796724e+02   1.6140646776e+01    0.5498927    0.4134823  14.96  0.003438653    2.661    0.624
        14 -11.8119     66.2348    249.3434   1.4253819227e+02   1.7306150749e+01    0.4548472    0.2004877  41.24  0.002369202    1.974    0.493
        15 -12.2284     71.7859    241.2644   1.4101629927e+02   1.7912521580e+01     0.511122    0.2422692 -66.46  0.003052983    2.330    0.571
        16 -14.9011      5.8250     15.6155   1.2295404514e+02   7.1862993555e+01     17.90962          nan -54.85   0.03169559   19.465    0.949
        17 -15.9506      6.7401    239.0983   1.5151817101e+02   2.5844702437e+01     8.321927     1.107668 -73.11   0.03492277    5.474    0.817
        18 -15.6026     55.4397    217.0659   1.4205032141e+02   2.4365035866e+01     6.119137     2.413313  44.32   0.03010817    2.081    0.519
        19  -9.7063     94.4777    216.6414   1.3467138697e+02   1.9013988858e+01    0.2531962    0.1400569  64.20  0.001054441    1.774    0.436
        20 -10.6814    162.7967    248.8979   1.2579918096e+02   2.9478024103e+00    0.2032977    0.1623134  79.63  0.001396676    1.656    0.396
        21 -12.4089    120.5500    238.4722   1.3213866494e+02   1.1234963746e+01    0.4862465    0.2692944  75.25  0.002442144    2.694    0.629
        22 -11.9353     35.2167    229.5068   1.4645869561e+02   2.4510555217e+01    0.3312697    0.2322195 -81.89  0.001623046    1.405    0.288
        23 -10.7684    193.4235    195.6075   1.1219677645e+02   5.3878222050e+00    0.7728662    0.3732354 -60.78  0.002213908    7.203    0.861
        24 -11.6203     70.8667    195.4049   1.3711249780e+02   2.6553140310e+01     0.353208    0.2427408 -47.10  0.001607661    2.062    0.515
        25 -11.6969     75.6033    188.3322   1.3536640408e+02   2.7336492322e+01    0.2755296    0.2267124 -56.67 0.0008260414    1.487    0.328
        26  -9.3322    125.3199    185.4160   1.2436444903e+02   1.9904606840e+01    0.2647694    0.1212228  30.35 0.0009524938    3.362    0.703
        27 -11.2507     84.1017    175.8464   1.3200187302e+02   2.8722079034e+01    0.3082299    0.2323486 -61.87 0.0004859153    1.392    0.282
        28 -13.2675     71.7390    173.6707   1.3447174264e+02   3.0988902180e+01    0.4577722    0.2744123 -46.16  0.001566495    2.252    0.556
        29 -10.9694    125.0320    174.4965   1.2268400712e+02   2.2151548560e+01    0.4982868    0.1360845  35.53  0.001229552    6.351    0.843
        30 -12.5443     90.6117    167.6275   1.2938894769e+02   2.9495844862e+01     1.399848    0.5232847  52.21  0.004960902    2.845    0.649
        31 -13.5395     67.1771    143.9668   1.3149538098e+02   3.8274051350e+01     2.749546      1.22329 -89.35  0.005807745    5.725    0.825
        32 -10.0950    102.0346    151.0027   1.2400656265e+02   3.1295728855e+01     0.266201    0.2443231 -65.35 0.0008280067    1.146    0.128
        33  -9.4529    104.9122    146.7827   1.2253986443e+02   3.1742227981e+01    0.3666365    0.2295909 -29.76  0.001514815    2.715    0.632
        34 -12.1718     91.1147    150.3246   1.2655896870e+02   3.3264765225e+01    0.2702844    0.2497788 -46.07 0.0005475399    1.286    0.222
        35 -12.0547     45.6992    148.2969   1.3739534464e+02   3.9951073602e+01    0.4434372    0.2500047 -76.82  0.002387041    1.573    0.364
        36  -9.2608    134.3529    148.2348   1.1571746989e+02   2.5876982518e+01    0.2072768    0.1364084 -61.88 0.0006828707    1.683    0.406
        37  -8.7758    192.2184    144.0715   1.0208970266e+02   1.4395093321e+01    0.1837377    0.1205978 -36.27 0.0003890136    1.573    0.364
        38  -9.9797    112.1320    136.4193   1.1871783702e+02   3.2769608001e+01     0.313791     0.247127  -9.49  0.001052663    1.908    0.476
        39 -10.6857     99.8997    133.5575   1.2126718777e+02   3.5618135777e+01    0.2908135    0.2467165 -21.46 0.0009155704    1.542    0.352
        40 -11.8447     50.1105    130.1558   1.3382221431e+02   4.3619110435e+01    0.3066914    0.2259727  79.93 0.0007690214    1.336    0.252
        41 -11.6458     33.0235    133.4504   1.3872476960e+02   4.4673298772e+01    0.3342162    0.1283768 -65.45  0.001563075    2.098    0.523
        42 -14.0476     11.4778    207.2407   1.4930930873e+02   3.1123554570e+01     1.504119    0.9668607  22.32  0.009932211    2.565    0.610
        43  -9.3444    108.7542    123.5033   1.1682552474e+02   3.6317718628e+01    0.1961094    0.1440062  44.91 0.0004610126    1.385    0.278
        44 -12.9699     47.1368    229.2078   1.4440314714e+02   2.3165528824e+01    0.4141451    0.3163787 -64.62 0.0007914861    1.708    0.414
        45 -11.1907    168.3298    113.4839   9.9760755626e+01   2.5665379316e+01    0.4010165    0.3298249 -81.87 0.0008862763    1.469    0.319
        46 -11.3604    248.8129    248.7496   1.1120312205e+02  -1.0240880119e+01    0.3025562     0.166867  33.56  0.001971239    1.404    0.288
        47 -11.8751    128.5596    244.6995   1.3137097289e+02   9.0104768879e+00    0.2554328    0.1966554 -71.21  0.001785289    1.595    0.373
