#   1 NUMBER                 Running object number                                     
#   2 MAG_AUTO               Kron-like elliptical aperture magnitude                    [mag]
#   3 X_IMAGE                Object position along x                                    [pixel]
#   4 Y_IMAGE                Object position along y                                    [pixel]
#   5 X_WORLD                Barycenter position along world x axis                     [deg]
#   6 Y_WORLD                Barycenter position along world y axis                     [deg]
#   7 A_WORLD                Profile RMS along major axis (world units)                 [deg]
#   8 B_WORLD                Profile RMS along minor axis (world units)                 [deg]
#   9 THETA_WORLD            Position angle (CCW/world-x)                               [deg]
#  10 FWHM_WORLD             FWHM assuming a gaussian core                              [deg]
#  11 ELONGATION             A_IMAGE/B_IMAGE                                           
#  12 ELLIPTICITY            1 - B_IMAGE/A_IMAGE                                       
         1  -9.2303    229.6572     30.6269   3.5067033171e+02   2.7060166532e+01    0.1491191    0.1353676   4.89 0.0009473565    1.646    0.392
         2  -9.5585    245.1360     14.3684   3.4651200482e+02   2.6157729257e+01    0.3041571   0.05999823 -45.08  0.001415686    2.714    0.632
         3  -8.2596    120.2116      8.4405   3.5459286045e+02   5.3512896523e+01    0.1914317    0.1143577  89.34 0.0006796717    1.634    0.388
         4  -8.5847     27.6671      4.3206   2.0575579619e+01   7.5367317280e+01    0.1166607    0.1011558 -88.69 0.0007049353    1.699    0.411
         5  -8.4974     60.0131    232.0564   6.3338898615e+01   1.7262068234e+01    0.1935045    0.1598071  39.66 0.0005591357    1.024    0.024
         6 -12.6779    207.6334    176.9749   2.3456202423e+01   8.7494864488e+00     1.987362     1.425161 -46.19  0.009912683    1.524    0.344
         7 -13.8255    243.7078     48.1870   3.5335812572e+02   2.2518574085e+01     4.634532     1.883806 -27.69   0.02207805    2.771    0.639
         8 -12.3298    228.3689    169.2159   1.8814563139e+01   7.3600629926e+00     1.072028     0.662674 -26.14  0.006198746    1.350    0.259
         9 -15.8683    245.3274    136.7479   1.0593685630e+01   1.0026513669e+01     7.059369     1.751014 -38.10   0.01817664    3.047    0.672
        10  -8.1039    180.9947    194.2776   3.1222897660e+01   9.3413325554e+00    0.2272496    0.1575932 -66.61  0.001152632    2.685    0.628
        11  -8.0844    201.1200    193.8006   2.7477373269e+01   6.9056733030e+00    0.1630095    0.1456304 -13.38 0.0005899039    1.226    0.184
        12  -8.9963     76.2279    192.5168   5.5347787803e+01   2.3957775567e+01    0.3081879    0.2358753  -9.95  0.001028751    1.587    0.370
        13  -7.4786    169.3542    189.2237   3.2643523286e+01   1.1755266997e+01    0.1686686    0.1151141 -49.68 0.0005708227    1.619    0.382
        14  -7.6901     14.8257    182.8277   7.1602485183e+01   3.2902302000e+01    0.1863739    0.1318228  56.93 0.0003777877    1.254    0.202
        15  -7.9962    191.5469    180.5340   2.6885839895e+01   1.0266627660e+01    0.2389011    0.1183169  33.22  0.001202931    2.147    0.534
        16 -10.4579    181.4329    175.5820   2.7872653181e+01   1.2499557381e+01    0.6908677     0.401187 -39.91  0.003293623    1.564    0.361
        17  -9.9439    172.5673    175.8185   2.9637833279e+01   1.3717859645e+01    0.5717504    0.3400646 -30.12  0.001986973    1.662    0.398
        18 -10.2892    176.8966    169.8613   2.7690636122e+01   1.4170574204e+01    0.3629317     0.306648 -31.72  0.001105663    1.099    0.090
        19  -9.1117    202.4415    161.1856   2.1433145306e+01   1.2013539183e+01    0.4251071    0.2618545 -10.50  0.002179991    2.095    0.523
        20  -8.5692    177.8415    162.9189   2.6194457114e+01   1.5291999839e+01    0.2098759    0.1655471 -15.06  0.001227641    1.235    0.190
        21  -7.6152    135.6296    155.3180   3.3800690801e+01   2.3571274653e+01     0.146429    0.1145714  75.00 0.0001663898    1.791    0.442
        22  -8.3838      2.1545    155.6763   7.3860684210e+01   4.0858267541e+01    0.2764883   0.09622496  27.56  0.001096346    2.585    0.613
        23  -7.8919    152.6890    153.3028   2.9473818079e+01   2.1141809238e+01    0.2013019    0.1742754 -66.62 0.0007336659    1.363    0.266
        24  -7.5736    154.4789    150.4409   2.8499911923e+01   2.1423001042e+01    0.1390389    0.1299462 -26.12   5.5463e-05    1.027    0.027
        25  -9.8674    133.4772    143.4387   3.1885244143e+01   2.6531532955e+01    0.4598924    0.1865869 -60.18  0.001372809    4.067    0.754
        26  -8.0780      1.9475    146.2679   7.3393515387e+01   4.3391085413e+01    0.1852496    0.1720795  69.81 0.0003797852    1.069    0.065
        27  -8.9066    180.4743    137.2102   2.0508944440e+01   1.9600674496e+01    0.3012922    0.1945133 -43.37 0.0008109401    1.390    0.281
        28  -9.4750    141.1398    150.4178   3.1506120235e+01   2.3690253952e+01    0.2672347     0.224084 -34.88 0.0003159084    1.146    0.128
        29  -7.7331    175.6572    147.2395   2.3504781783e+01   1.8534423804e+01    0.1944734    0.1119573 -34.54  0.000507254    1.648    0.393
        30  -9.4923    191.8656    131.0797   1.7200645040e+01   1.8805356701e+01     0.478209    0.2245653 -35.18  0.001234007    1.980    0.495
        31  -9.7113    192.6508    124.3669   1.5635914505e+01   1.9852256627e+01    0.3442146    0.2864371 -38.91 0.0009527167    1.035    0.034
        32  -8.5133    187.7688    122.6002   1.6069510993e+01   2.1001933721e+01    0.2663866    0.2258242  55.10 0.0008762442    1.397    0.284
        33  -7.3907    181.6225    131.2871   1.9034822406e+01   2.0493992622e+01    0.1317489     0.105299 -79.07 0.0007016882    1.727    0.421
        34  -8.6061    161.1156    128.3638   2.2340217120e+01   2.4686894811e+01     0.289703    0.1978108 -49.76   0.00113739    1.412    0.292
        35  -9.0477    135.6200    127.8379   2.7907834451e+01   2.9555022735e+01    0.2146894    0.1356851 -57.11 0.0006294908    1.700    0.412
        36  -7.4370     70.6219    128.8073   4.7132696435e+01   4.0864019573e+01     0.201817    0.1457348 -75.71 0.0001348206    1.491    0.329
        37  -8.0397    179.2524    121.0813   1.7217976580e+01   2.2781026232e+01    0.1921445    0.1552828 -42.59 0.0002980972    1.098    0.089
        38  -8.3869    172.9270    120.6158   1.8269815953e+01   2.4015314408e+01     0.270335    0.2097206  82.58  0.001339992    1.792    0.442
        39 -11.8881    237.9801    159.7165   1.5746273909e+01   7.5969765391e+00    0.3835246    0.2535416 -46.79 0.0007972096    1.604    0.377
        40  -9.6142    169.9478    113.7956   1.7253219901e+01   2.5851595108e+01    0.3111885    0.2719709 -50.48 0.0009072067    1.079    0.073
        41  -7.8487    178.5851    113.1344   1.5531363050e+01   2.4354150982e+01    0.2036847    0.1196149 -30.70 0.0009423443    1.780    0.438
        42  -8.7448    154.7045    112.6156   1.9984935385e+01   2.9027909306e+01    0.2549221    0.2165023 -52.42 0.0005062126    1.122    0.109
        43  -9.7976    205.3495    109.7847   1.0517381524e+01   2.0166265341e+01    0.3080559    0.2256005  42.92   0.00109434    1.657    0.396
        44  -9.0660     47.7616    107.0661   5.1163745965e+01   4.9990812205e+01    0.3071943    0.2396078 -21.05 0.0003147764    1.510    0.338
        45 -11.3361     58.0374    102.6339   4.6063984119e+01   4.9725833625e+01    0.8584456    0.6761369  79.14   0.00389192    1.469    0.319
        46 -11.4759     50.7169     97.4317   4.7795081373e+01   5.2168554298e+01    0.9371455    0.6414194  -8.80  0.004040338    2.010    0.502
        47 -10.2074     42.5887     96.9242   5.1128264795e+01   5.3394543720e+01    0.5620968    0.3452109  16.13   0.00231872    1.886    0.470
        48 -10.1917     12.9147     92.8182   6.3821068750e+01   5.7442268382e+01    0.8088548    0.6516103 -86.32  0.004396571    1.208    0.172
        49  -7.7719    194.2197     92.5456   8.2549392015e+00   2.4995597923e+01    0.1579034    0.1267251  39.01 0.0006551156    1.548    0.354
        50  -8.0335    141.9895     91.7078   1.7328382663e+01   3.5776622493e+01     0.192891    0.1830366 -62.59 0.0002957415    1.021    0.020
        51  -8.1428    100.5053    100.9678   3.0695051842e+01   4.2549494648e+01    0.2181389    0.2064994  54.77  0.001147424    1.072    0.067
        52  -8.1795    183.9197     78.2660   6.3223859164e+00   2.9330999674e+01    0.2277676    0.1659448 -24.61 0.0007770231    1.555    0.357
        53  -8.0997    185.3200     69.9445   4.0626976260e+00   3.0360955572e+01    0.1777874    0.1463874 -46.21 0.0003129185    1.075    0.069
        54  -8.6978    193.1938    223.8056   3.3632200894e+01   3.2744187940e+00    0.1605854    0.1374766  -6.85  0.001186311    1.212    0.175
        55  -8.4460    173.3052    220.6491   3.6862930238e+01   5.9798886304e+00    0.1048549   0.09549691  56.83 0.0007041642    1.705    0.414
        56  -9.8112    221.4638    216.4078   2.7715301976e+01   1.3629430349e+00    0.2032515    0.1742536 -17.95 0.0007352459    1.358    0.264
        57  -8.1700     51.3692    210.0435   6.3688142706e+01   2.2871730927e+01    0.2201326   0.09029584  75.42 0.0007034303    4.617    0.783
        58  -7.5610     73.1860     43.8558   2.0514128596e+01   6.0234741409e+01    0.1896607    0.1651526  17.32 0.0003471109    1.271    0.213
        59  -8.1668    212.3736    204.8362   2.7378517023e+01   3.9444560757e+00    0.1739594    0.1437744  16.26 0.0007311806    1.335    0.251
        60  -7.6404     96.0112     35.2845   9.7606334678e+00   5.6331180877e+01     0.189301    0.1691226  72.02 0.0002575778    1.061    0.057
        61  -8.3648     79.9362     33.0358   1.3466770269e+01   6.0461830591e+01    0.2031512    0.1960841  60.32  0.000338758    1.024    0.023
        62  -8.5758    147.1396    229.4488   4.3355391954e+01   7.6165320938e+00    0.1929233    0.1593312 -31.64 7.245938e-05    1.275    0.216
        63  -9.1383    211.0735     29.2057   3.5162296775e+02   3.0707376598e+01    0.1967866    0.1430817 -44.79 0.0004986574    1.155    0.134
        64  -8.6816     96.1636     18.9431   2.9491515602e+00   5.8400123433e+01    0.2265469    0.1820582  72.11 0.0003480901    1.146    0.127
        65  -9.7188    192.4797    193.5815   2.8973359341e+01   8.0009559778e+00    0.6889709    0.3262811 -55.25  0.002817839    3.840    0.740
        66  -9.6162     53.2857    233.2527   6.5017777999e+01   1.7731041713e+01    0.2241138    0.2096599 -40.88 0.0004290409    1.291    0.225
        67 -12.8409    191.0333    245.8495   3.7141940726e+01   4.1493680681e-01     2.151476     0.687179  25.58   0.01040363    2.852    0.649
        68  -7.7230    177.8284    197.8635   3.2426281070e+01   9.1446144451e+00    0.1572723    0.1441734 -40.19 0.0006217543    1.354    0.262
        69  -8.4932     87.0915    232.4667   5.7015810121e+01   1.4166569707e+01    0.1936572    0.1066886  27.37  0.001012338    1.536    0.349
