#   1 NUMBER                 Running object number                                     
#   2 MAG_AUTO               Kron-like elliptical aperture magnitude                    [mag]
#   3 X_IMAGE                Object position along x                                    [pixel]
#   4 Y_IMAGE                Object position along y                                    [pixel]
#   5 X_WORLD                Barycenter position along world x axis                     [deg]
#   6 Y_WORLD                Barycenter position along world y axis                     [deg]
#   7 A_WORLD                Profile RMS along major axis (world units)                 [deg]
#   8 B_WORLD                Profile RMS along minor axis (world units)                 [deg]
#   9 THETA_WORLD            Position angle (CCW/world-x)                               [deg]
#  10 FWHM_WORLD             FWHM assuming a gaussian core                              [deg]
#  11 ELONGATION             A_IMAGE/B_IMAGE                                           
#  12 ELLIPTICITY            1 - B_IMAGE/A_IMAGE                                       
         1  -8.9966      3.7378     27.5566   1.0724144317e+02   6.9109971855e+01    0.2534226    0.1360222 -63.91  0.001456329    1.947    0.487
         2  -8.6601     17.1515     14.1730   9.5411079224e+01   7.0543425406e+01    0.1455016    0.1214528 -39.39 0.0005730154    1.372    0.271
         3  -8.6883     55.6975     10.1351   7.6023384360e+01   6.6452000940e+01    0.1830519    0.1642217  14.94 0.0005987411    1.303    0.233
         4  -8.0923     47.6667     10.3440   7.9385569477e+01   6.7621838313e+01    0.1617741    0.1407661 -44.79 0.0008181847    1.702    0.412
         5  -8.7035     90.6897      9.1314   6.3788796195e+01   6.0197815279e+01    0.1992587    0.1563068 -33.21 0.0006601352    1.450    0.310
         6  -7.8882    101.4682      8.0323   6.0409982111e+01   5.8015080970e+01     0.188182    0.1252731 -17.48  0.000408333    1.497    0.332
         7  -8.1564    171.0675      6.7568   4.7021378343e+01   4.1096429463e+01    0.1910439    0.1631649  65.38 0.0002530123    1.078    0.073
         8  -8.7495    137.6451      5.8309   5.1837069587e+01   4.9697423060e+01    0.2344139    0.1647344  49.88 0.0003556258    1.269    0.212
         9  -8.5479     33.3855      5.2537   8.3065478204e+01   7.0189256858e+01    0.2454658    0.1799189 -55.67  0.001409356    2.678    0.627
        10  -8.5362     79.1740      4.3880   6.4959357423e+01   6.2973936918e+01    0.2392317    0.1460701 -35.20 0.0009024069    1.864    0.464
        11  -7.7397     44.6818      3.3279   7.6981434692e+01   6.8933304207e+01    0.1060204   0.09207194 -38.94 0.0003645954    1.681    0.405
        12  -8.2528     62.5354      1.6400   6.9097879464e+01   6.6297956456e+01    0.1633969     0.153253  63.61  0.000671425    1.616    0.381
        13  -7.3478     39.3353      1.6651   7.8406569521e+01   6.9880304725e+01    0.1043877   0.09122046 -40.09 0.0007052074    1.741    0.426
        14  -8.9868    120.3393    245.6427   1.1405523711e+02   9.6356315215e+00    0.3131016    0.1834354  74.23  0.001651586    2.333    0.571
        15  -9.0955    211.3073    247.1431   9.8412727704e+01  -4.7705769411e+00    0.2805693    0.1953718 -59.12  0.001542902    2.898    0.655
        16  -8.3166    113.2161    248.9061   1.1561262945e+02   1.0199327346e+01    0.2053759    0.1381635 -85.55 0.0009549907    1.824    0.452
        17  -8.5927     93.9623    249.4653   1.1892103547e+02   1.2874198410e+01    0.2542561    0.1396638  78.87  0.001411973    2.288    0.563
        18  -7.6481     86.2728    250.6411   1.2029830161e+02   1.3748732673e+01    0.1121511   0.06458215  68.41 0.0004655478    1.651    0.394
        19  -8.7553     67.9948    245.8611   1.2293086612e+02   1.6931874221e+01    0.2859989    0.1327623  80.64  0.001514923    2.763    0.638
        20  -8.5909     13.4914    247.5158   1.3149646330e+02   2.2870915958e+01    0.0983847    0.0662974  70.48 0.0008102982    1.024    0.024
        21  -8.9879    192.5963    244.9033   1.0131056868e+02  -1.6002197066e+00    0.3553481    0.1891915  17.64  0.001718606    2.792    0.642
        22  -9.3684     77.8503    243.1686   1.2109061359e+02   1.6085894873e+01    0.3566387    0.1493005  66.86  0.001700374    3.041    0.671
        23  -8.6671    202.0799    242.9584   9.9385935457e+01  -2.8562105165e+00    0.2632369    0.1638497 -31.01  0.001104781    1.929    0.482
        24  -8.7442    169.0087    243.2807   1.0522323419e+02   2.3613699934e+00    0.2053752    0.1640709 -62.76 0.0009572243    1.732    0.423
        25  -9.2431    183.2216    240.0398   1.0226969280e+02   5.0823686889e-01    0.3714504    0.2776842  71.53  0.002172163    2.076    0.518
        26  -9.3213    160.1233    240.3568   1.0641743522e+02   4.1891774283e+00    0.2785845    0.2044476 -85.13  0.001318641    2.157    0.536
        27  -8.0093    153.4085    242.1504   1.0783984475e+02   5.0107512917e+00    0.1422601    0.1109781 -76.63 0.0006244895    1.756    0.431
        28  -8.2675     88.1849    242.1956   1.1926189925e+02   1.4840572774e+01    0.1541411     0.102918  72.22 0.0005581776    1.379    0.275
        29  -8.2768    214.1421    241.2096   9.7044944389e+01  -4.5303489770e+00    0.1495511    0.1242097  40.79 0.0005043292    1.347    0.258
        30  -8.5234    240.5199    240.0891   9.2413256108e+01  -8.3782614390e+00    0.1518126    0.1021237 -18.95 0.0008338423    1.552    0.356
        31  -8.2605    194.0691    239.8276   1.0032731344e+02  -1.2048407134e+00     0.170657    0.1381016  43.25 0.0004862748    1.237    0.191
        32  -8.3737    146.3902    240.1192   1.0883738169e+02   6.4219508834e+00    0.1437863    0.1093435 -78.71  0.000586623    1.767    0.434
        33  -8.8728    135.6871    238.9028   1.1060272336e+02   8.2977394675e+00    0.1936613    0.1478709  80.49 0.0007350102    1.558    0.358
        34  -9.1735    128.3325    238.9053   1.1191555636e+02   9.4470205300e+00    0.2147391    0.1675912  46.96 0.0004135089    1.068    0.063
        35  -8.8739    230.9487    237.1918   9.3554587303e+01  -6.6473867465e+00     0.202811    0.1845699 -67.11 0.0009327196    2.012    0.503
        36  -8.3759    208.9749    237.6156   9.7391921400e+01  -3.3013654458e+00    0.2648063    0.1596418   5.35  0.001448611    2.183    0.542
        37  -7.6196     51.6517    238.3230   1.2507265644e+02   2.0223165973e+01    0.1172275   0.05780355  65.42  0.000704927    1.744    0.427
        38  -8.4537     26.3432    237.8536   1.2909133047e+02   2.3165241707e+01     0.283417   0.07744732  64.08  0.001194431    4.228    0.764
        39  -8.6407    217.0009    235.5386   9.5679050532e+01  -4.3156983921e+00    0.2050451    0.1646553  31.19 0.0008167636    1.161    0.139
        40  -9.3544    213.7507    231.8867   9.5669320024e+01  -3.3675620338e+00    0.2920265    0.2259198  70.28  0.001341501    2.380    0.580
        41  -8.7764    203.1490    234.8436   9.7988751690e+01  -2.0365760695e+00    0.2325238    0.1837002 -63.10  0.001232567    2.142    0.533
        42  -9.7717    175.8013    233.5347   1.0267570713e+02   2.5890864945e+00    0.4010524    0.2220888 -56.15  0.002093018    2.775    0.640
        43  -7.7176    170.0178    235.9269   1.0405299340e+02   3.2049845423e+00    0.1399853    0.1182028  36.75 0.0005091671    1.055    0.052
        44  -9.3397    109.2239    234.6729   1.1486373156e+02   1.3040353448e+01    0.4825297    0.1875842  54.59  0.002021276    2.551    0.608
        45  -7.9659     57.9915    237.0000   1.2393470958e+02   1.9677096605e+01     0.172101   0.05059559  39.99 0.0008066831    2.972    0.664
        46  -9.1325    247.6706    234.7858   9.0369704154e+01  -8.8642453533e+00     0.217824    0.1576437   4.88 0.0009662755    1.165    0.142
        47  -9.3632    246.4069    229.2457   8.9656789033e+01  -8.0902640865e+00    0.2845545    0.1859475 -30.51  0.001027077    1.754    0.430
        48  -8.5061     99.5119    234.1614   1.1654086352e+02   1.4559668991e+01    0.2642742    0.1561893  78.09  0.001277833    2.034    0.508
        49  -8.8748     78.7315    234.5191   1.2021837358e+02   1.7418334191e+01    0.2247995    0.1281725  74.02 0.0009971014    1.792    0.442
        50  -8.2365    122.8686    234.1283   1.1235315050e+02   1.1047233146e+01    0.1865484    0.1324746  65.35 0.0007952476    1.379    0.275
        51  -8.7417     92.6718    232.7410   1.1761486540e+02   1.5784865612e+01    0.3291006    0.1751728 -80.68  0.001818207    2.355    0.575
        52  -9.3045     68.4933    232.7643   1.2183707396e+02   1.9077361960e+01    0.3768556    0.1637335  68.26  0.001864355    2.722    0.633
        53  -8.9336    140.0708    230.1918   1.0874521927e+02   8.9426753181e+00    0.2954874    0.1495379  57.01  0.001464488    2.167    0.539
        54  -8.2784    132.6576    232.7195   1.1041337550e+02   9.7338678065e+00     0.204107    0.1337266 -88.84 0.0009398581    2.263    0.558
        55  -8.6528     36.7659    232.5273   1.2712816305e+02   2.2951799609e+01    0.2615111   0.08376104  73.41 0.0008966018    6.194    0.839
        56  -9.0107    236.0938    231.0096   9.1681827128e+01  -6.7401810374e+00    0.2135824    0.1748061 -26.20 0.0006739667    1.508    0.337
        57  -9.3054    186.5203    230.9509   1.0036491052e+02   1.1757849785e+00    0.2735323    0.2122995  85.03  0.001130879    2.251    0.556
        58  -8.8201      1.9585    231.2032   1.3252611199e+02   2.6728710680e+01    0.2288713   0.09860587  73.28  0.001149237    1.816    0.449
        59  -7.8434    204.5075    230.4941   9.7077508734e+01  -1.7102335317e+00    0.1228803   0.09679189  26.15 8.155138e-05    1.012    0.012
        60  -9.9832    149.7919    226.2913   1.0643798881e+02   7.9600247484e+00    0.5494309    0.3353628 -87.89  0.002404814    3.779    0.735
        61  -8.2689    229.6604    228.8723   9.2425409509e+01  -5.5112181932e+00    0.1437982    0.1052179 -33.63 0.0007282333    1.676    0.403
        62  -7.6842    196.3317    229.2880   9.8348106753e+01  -2.1944413249e-01     0.124235   0.08136138  17.84 0.0003883889    1.622    0.384
        63  -8.7051    162.1330    227.7067   1.0434685948e+02   5.6917239884e+00    0.2391462    0.2028916 -84.07   0.00107637    1.554    0.356
        64  -9.2481    160.5019    221.5109   1.0376782803e+02   6.9061278784e+00    0.5067399     0.248749  60.27  0.001892017    3.340    0.701
        65  -8.9381    127.9871    227.4728   1.1063544352e+02   1.1320202749e+01    0.2934627    0.1700828  63.62  0.001343861    1.986    0.497
        66  -7.9037    119.9827    227.7860   1.1214954530e+02   1.2531799324e+01    0.2028492    0.1117355  61.91  0.001017211    1.985    0.496
        67  -7.9133     58.0097    228.3221   1.2328839719e+02   2.1189820890e+01     0.150866   0.09292621  16.82 0.0007049794    4.303    0.768
        68  -9.1240      8.0146    227.9921   1.3145875280e+02   2.6721301036e+01    0.1864629   0.06787065  76.49  0.001014849    2.566    0.610
        69  -8.6109    206.0623    226.0305   9.6094515364e+01  -1.3942457367e+00    0.2057555    0.1773991 -38.40 0.0007351128    1.495    0.331
        70  -9.0223    180.5762    224.4949   1.0047704314e+02   3.0629223335e+00    0.2549618    0.2192614  44.31 0.0009821273    1.161    0.138
        71  -8.9163    180.1211    219.0565   9.9724733961e+01   3.9262008431e+00    0.3556531     0.252893  76.67  0.001846956    2.494    0.599
        72  -8.1580     49.5771    226.7624   1.2461461423e+02   2.2494381474e+01    0.2359414     0.100132  79.64   0.00114894    2.935    0.659
        73  -9.2367    216.3836    224.2728   9.3976754722e+01  -2.8537368304e+00    0.3234138    0.2078375 -26.18  0.001703181    1.715    0.417
        74  -8.0688    200.1498    226.1685   9.7175434908e+01  -4.3888247509e-01    0.1502913    0.1384138  47.29 0.0004823338    1.339    0.253
        75  -8.8918     94.7530    224.7675   1.1644921925e+02   1.6862209612e+01    0.4359664    0.1896985  64.00  0.001900825    3.111    0.679
        76  -7.8601     78.5186    225.9872   1.1950009814e+02   1.8934197112e+01    0.1586896   0.08179965  80.67 0.0008083034    2.448    0.591
        77  -8.8812    104.7967    223.8716   1.1450844197e+02   1.5531168796e+01    0.2954261    0.1797707  78.19  0.001635899    2.015    0.504
        78  -7.8275     72.5009    225.4889   1.2052662663e+02   1.9832932404e+01     0.113968   0.08933887  67.17 0.0001683371    1.025    0.025
        79  -8.8366    173.0748    223.1602   1.0166239377e+02   4.5247841248e+00    0.2168052    0.1764576 -66.61  0.000863769    1.686    0.407
        80  -8.1077    113.9047    224.1567   1.1285271251e+02   1.4089694425e+01    0.1885594    0.1377769  67.28 0.0009493827    1.306    0.234
        81  -8.4346    194.6155    233.0107   9.9222366362e+01  -4.2420321879e-01     0.157287    0.1504304 -87.05 0.0007621687    1.480    0.324
        82  -7.6788     38.1980    224.4269   1.2637950751e+02   2.4232202244e+01    0.1487316   0.07254639  54.10 0.0004529109    1.625    0.385
        83  -8.3349    140.5002    222.9866   1.0773247733e+02   1.0022102260e+01    0.1584504     0.122775 -63.53 0.0007270147    1.545    0.353
        84  -9.0387    238.9328    221.7480   8.9638710859e+01  -6.1219217255e+00    0.1908752     0.152992  -4.75 0.0005510894    1.194    0.163
        85  -9.2754    225.6646    221.8517   9.1943620759e+01  -4.0485996860e+00     0.239113      0.17756  45.63 0.0009570598    1.529    0.346
        86  -9.2945    192.4096    221.4447   9.7830387349e+01   1.4928062051e+00    0.2477864    0.2174412  79.45 0.0008289813    1.646    0.393
        87  -7.9351      8.3619    222.3126   1.3113958576e+02   2.7696578958e+01   0.08662923   0.07181147 -63.60 0.0007041284    1.753    0.429
        88  -9.2151    120.5072    219.4492   1.1105273081e+02   1.3861527249e+01    0.4180577     0.217645  65.99  0.001770305    2.681    0.627
        89  -8.7284     82.5187    220.2517   1.1823622548e+02   1.9412518219e+01    0.3235289    0.1615357  72.88  0.001377696    2.563    0.610
        90  -8.2664     73.3622    221.1461   1.1998609242e+02   2.0501395142e+01    0.1551957   0.09308996 -88.16 0.0006220304    1.712    0.416
        91  -8.4053    210.5890    219.5490   9.4224080308e+01  -1.3004880896e+00    0.2112883     0.177162  77.51 0.0008854534    2.022    0.505
        92  -8.1031    202.8241    220.1778   9.5728305881e+01  -8.8120344141e-02    0.1761997    0.1556841  41.41 0.0006417141    1.268    0.211
        93  -9.2657    248.7747    218.3031   8.7376532810e+01  -7.2321425971e+00    0.3162164    0.2320134  62.61  0.001746246    2.852    0.649
        94  -8.8605    169.3951    216.4129   1.0133082090e+02   6.1700846930e+00    0.2788004    0.2161573 -77.06  0.001107488    1.908    0.476
        95  -9.3810    132.9298    216.0503   1.0824682017e+02   1.2428056436e+01     0.424752    0.2571891  78.16  0.002002573    2.731    0.634
        96  -8.6406     62.2206    217.3574   1.2166301751e+02   2.2653750671e+01    0.2986005    0.1258015  61.25  0.001489455    2.383    0.580
        97  -8.7749     51.4971    217.1963   1.2356646016e+02   2.4012029110e+01    0.2572412    0.1334944  78.51 0.0008405242    1.920    0.479
        98  -8.8259    142.7621    216.5509   1.0642940345e+02   1.0702656922e+01    0.2721174    0.2009212  86.25  0.001401049    1.803    0.445
        99  -8.9728    232.0673    215.1208   8.9667084902e+01  -4.2504682728e+00    0.3157577    0.2251243  15.79  0.001982975    1.206    0.171
       100  -8.5282    185.8021    214.5578   9.7947319500e+01   3.6068557736e+00    0.2121726    0.1697357 -67.91 0.0008038576    1.861    0.463
       101  -8.2089    154.2457    215.2014   1.0403553537e+02   8.9721773360e+00     0.168428    0.1378347  70.12 0.0005416716    1.392    0.281
       102  -8.0483     41.4565    214.9868   1.2517129586e+02   2.5601806972e+01    0.1642721    0.0708321  79.40 0.0007521284    2.644    0.622
       103  -7.9502     18.6018    215.1835   1.2910060119e+02   2.8003267723e+01    0.1436387   0.07801215 -71.78 0.0009592625    1.737    0.424
       104  -9.4834    214.1275    212.4218   9.2373739297e+01  -9.5085668908e-01    0.3507748    0.2597092  63.39  0.001609435    2.148    0.534
       105  -7.8730    197.3221    214.3450   9.5770192936e+01   1.6482435668e+00    0.1322185   0.08846321  11.72 0.0007049998    1.733    0.423
       106  -8.8270     92.7706    213.8704   1.1566603218e+02   1.9114814672e+01    0.2660186    0.1517164  66.79  0.001008601    1.847    0.459
       107  -9.4175     73.0846    212.0366   1.1918618908e+02   2.2228569771e+01    0.5530486     0.197169  60.59  0.002153663    3.787    0.736
       108  -8.1205    224.8941    212.8513   9.0525622568e+01  -2.8004038478e+00    0.1636662    0.1541497  72.47 0.0007758355    1.651    0.394
       109  -8.7818    161.5230    212.4938   1.0223251658e+02   8.1519046763e+00    0.2035161    0.1827688 -81.94  0.000632823    1.363    0.267
       110  -8.3188    106.4699    212.9848   1.1294779381e+02   1.7213699268e+01    0.1676026    0.1166825 -71.47 0.0007493462    1.562    0.360
       111  -9.4268    237.1404    209.5184   8.7788116030e+01  -4.3745288419e+00    0.4056588    0.2729206 -54.21  0.002091898    2.911    0.656
       112  -9.1282    204.3562    210.9096   9.3891977524e+01   9.2031458144e-01    0.2636937    0.2219516 -59.74 0.0009096449    1.748    0.428
       113  -9.5226    175.6164    210.3522   9.9192739662e+01   6.0219376416e+00     0.394738    0.2679322  72.64  0.001614489    2.521    0.603
       114  -8.7610      5.6192    207.8602   1.3087464183e+02   3.0603575950e+01    0.2273399   0.07924973 -87.15   0.00119371    2.520    0.603
       115  -7.8507    242.6756    211.7026   8.7231352071e+01  -5.5212502994e+00    0.1279581   0.07825924  12.19  0.000289578    1.627    0.385
       116  -8.3374    192.4436    210.7315   9.6071726781e+01   3.0116978211e+00    0.2045675    0.1251689 -45.42 0.0008329866    2.000    0.500
       117  -8.7510    148.0486    210.5606   1.0455001037e+02   1.0805645093e+01    0.2541029    0.1862663  79.47  0.001142196    1.828    0.453
       118  -8.8158    116.2886    210.5658   1.1074836455e+02   1.6107213869e+01    0.2731033    0.1728615  70.97 0.0009716498    1.860    0.462
       119  -8.2270     32.5548    210.6081   1.2642598741e+02   2.7415783567e+01    0.2308586   0.09233053  73.72  0.001116352    2.807    0.644
       120  -8.4214     85.4594    209.3679   1.1657293036e+02   2.1016147711e+01    0.2878443    0.1589254  79.31  0.001216346    2.267    0.559
       121  -7.9756     46.7256    210.1253   1.2386734835e+02   2.5913532354e+01    0.2032715   0.08242893  67.48 0.0009482363    2.811    0.644
       122  -9.3443    246.3305    207.3470   8.5817403025e+01  -5.5721098420e+00    0.2484987     0.189999 -16.99 0.0005948117    1.283    0.221
       123  -9.4598    250.0674    202.0335   8.4198674511e+01  -5.5161950079e+00    0.3419864    0.1788282 -26.74  0.001200888    1.871    0.466
       124  -8.0605    156.5135    208.0460   1.0251975869e+02   9.7550050539e+00    0.1717401    0.1302022 -51.73 0.0006160205    1.540    0.351
       125  -8.3565    139.0225    208.0005   1.0594298394e+02   1.2794288804e+01    0.2038263    0.1436595  71.25 0.0006899003    1.715    0.417
       126  -8.6121    111.8355    217.5151   1.1246248957e+02   1.5567044307e+01    0.2300884    0.1339198  73.50 0.0009377484    2.271    0.560
       127  -9.2848     99.3348    206.1301   1.1351482014e+02   1.9581692460e+01    0.3470871    0.2088307  82.23  0.001553596    2.110    0.526
       128  -8.3493     11.8490    207.1368   1.2978765228e+02   3.0165178758e+01    0.1342772    0.1067972 -82.16 0.0006554676    1.340    0.254
       129  -8.6161     56.3009    205.3263   1.2170613612e+02   2.5687068213e+01    0.2698616    0.1462791  74.70 0.0009717546    1.845    0.458
       130  -9.4153    194.9909    203.6167   9.4370828365e+01   3.6139977665e+00    0.4406877    0.3347342 -31.20  0.001829026    1.451    0.311
       131  -9.1590    192.4705    197.6077   9.3783590708e+01   4.9819167692e+00    0.2831952    0.2432499 -59.77 0.0008577254    1.548    0.354
       132  -8.8976    183.7964    204.1058   9.6587729472e+01   5.5390947584e+00    0.2944037    0.2133559  67.35 0.0008740065    1.988    0.497
       133  -8.6185    131.2508    203.9702   1.0690250902e+02   1.4833634669e+01    0.2856753    0.1810526  72.62 0.0009585783    2.145    0.534
       134  -8.2766    109.0556    205.0886   1.1146981284e+02   1.8269275271e+01    0.2002279    0.1331932  72.84 0.0006185035    1.661    0.398
       135  -8.0354     25.3233    205.6348   1.2736533856e+02   2.9127609254e+01    0.1209898   0.05895353  68.99 0.0007038944    1.791    0.442
       136  -9.5788    163.9248    203.1617   1.0029286655e+02   9.2550222520e+00    0.4130167    0.2396824  58.32  0.001017249    2.110    0.526
       137  -8.4449    211.0067    202.2676   9.1140993340e+01   9.8186786239e-01    0.2052048    0.1837987 -67.94 0.0007258654    1.674    0.403
       138  -9.1321    242.9890    200.8723   8.5185053214e+01  -4.2390583006e+00    0.2804537    0.1652303 -34.39 0.0009110768    1.833    0.455
       139  -8.9251    140.4023    200.8752   1.0461273663e+02   1.3817578892e+01    0.3561487    0.2379385  89.95  0.001488052    2.345    0.574
       140  -8.8954     79.7963    201.1802   1.1678564805e+02   2.3399221064e+01     0.322604    0.1668034  74.82  0.001519394    2.519    0.603
       141  -8.2626     48.3956    202.2003   1.2291551706e+02   2.7254827453e+01    0.1672875   0.08930849 -89.76 0.0009465551    1.807    0.446
       142  -7.9104     10.5125    202.5396   1.2975979308e+02   3.1166330525e+01    0.1077214   0.07571652  77.67 0.0008091702    1.015    0.015
       143  -9.4172    149.6521    198.8159   1.0243202032e+02   1.2553146913e+01    0.3912192    0.2677269  83.25  0.001317125    2.318    0.569
       144  -8.9228    123.9073    199.3405   1.0771604802e+02   1.6925421293e+01    0.2845442    0.1973136  83.72  0.001114925    1.830    0.454
       145  -9.3384    112.9298    198.6148   1.0984055430e+02   1.8875950086e+01    0.4268766    0.2462856  71.96  0.001713144    2.398    0.583
       146  -9.2237     88.7268    198.4902   1.1470810111e+02   2.2646712969e+01    0.3834145     0.212646  85.19  0.001732745    2.435    0.589
       147  -9.4626    237.0243    198.5516   8.5780366578e+01  -2.9617708015e+00     0.266832    0.1706697 -30.65 0.0008834825    1.617    0.382
       148  -8.4151    176.9038    199.0868   9.7061972534e+01   7.5812254562e+00    0.1960064     0.172915  67.02 0.0006327501    1.347    0.258
       149  -8.2466    202.3358    197.9614   9.1972315660e+01   3.1451552767e+00    0.1758544     0.159997  -2.50 0.0004717994    1.136    0.120
       150  -9.0466     61.4604    197.1035   1.1995447968e+02   2.6665831197e+01    0.3699014    0.1853529  73.50  0.001811603    2.306    0.566
       151  -8.7005     12.7278    197.4796   1.2907845733e+02   3.1941152965e+01    0.2651095    0.1042471  81.59  0.001360833    2.509    0.601
       152  -8.9521    215.8747    195.4862   8.8992533820e+01   1.0917698118e+00    0.2556064    0.1861169 -43.05 0.0008383169    1.681    0.405
       153  -8.0287    133.0169    196.0198   1.0537162945e+02   1.5990507111e+01    0.2026286    0.1486245  77.35 0.0005212217    1.644    0.392
       154  -8.8385    224.6063    194.1437   8.7147332550e+01  -2.5220727509e-01    0.3073484    0.1893592 -40.73  0.001192099    1.903    0.474
       155  -8.3122    224.8039    189.1978   8.6158061325e+01   4.0930799698e-01    0.1863436    0.1357005  10.20  0.000348373    1.328    0.247
       156  -7.7728    209.2709    195.6117   9.0238752959e+01   2.2491252228e+00    0.1194702     0.106373 -79.55 0.0006990635    1.714    0.417
       157  -8.9509    185.1110    194.8161   9.4705053783e+01   6.7691964817e+00    0.2374782    0.2132573 -82.67 0.0007555071    1.489    0.328
       158  -8.7950    161.0103    194.5080   9.9435320580e+01   1.1256915279e+01    0.2906916    0.2058878  66.21  0.000977378    1.784    0.439
       159  -9.3259    245.5175    193.4754   8.3340897732e+01  -3.7085760612e+00    0.2390697    0.2205269  27.92 0.0008230217    1.387    0.279
       160  -8.2347    230.7222    194.1971   8.6061912978e+01  -1.3171361528e+00    0.1836362    0.1574196 -34.54 0.0005839653    1.432    0.302
       161  -8.8495     77.0208    193.7950   1.1651761950e+02   2.5259990827e+01    0.2448718    0.1671499  83.28 0.0007109252    1.429    0.300
       162  -8.8473     43.5732    193.1513   1.2305825222e+02   2.9622718567e+01    0.3451356    0.1573666  74.52  0.001679484    2.515    0.602
       163  -7.6944    205.2175    191.9603   9.0314315528e+01   3.5257809359e+00    0.1610107    0.1066808 -34.16 0.0004351358    1.613    0.380
       164  -8.2862    198.8813    192.0218   9.1530446729e+01   4.6759437276e+00    0.1867729    0.1780959  48.00 0.0005129827    1.256    0.204
       165  -7.9855    178.8976    191.5968   9.5346826419e+01   8.4468215163e+00    0.1984059    0.1641235 -47.81 0.0006555506    1.398    0.285
       166  -8.2168    172.2104    191.8266   9.6719874971e+01   9.6521401500e+00    0.1992222    0.1753289  62.26 0.0006483742    1.269    0.212
       167  -9.2529    139.6391    190.7970   1.0318961514e+02   1.5800653121e+01    0.3602583    0.2507763  85.55  0.001189034    2.069    0.517
       168 -10.5288     92.0928    188.7323   1.1281212890e+02   2.4103563402e+01    0.9004816    0.2728051  51.07  0.003230594    3.582    0.721
       169  -8.0848     20.8492    190.5170   1.2715435914e+02   3.2551187379e+01    0.3675845    0.1039647  64.01  0.001267801    5.487    0.818
       170  -8.3283      6.6588    191.3243   1.2979438056e+02   3.3699002961e+01    0.1169508   0.05684098  67.90 0.0007050994    1.729    0.422
       171  -8.3302    148.4679    189.4397   1.0113897025e+02   1.4459025745e+01    0.2251797    0.1735431  82.01 0.0006676844    1.667    0.400
       172  -8.9797    129.3377    188.7583   1.0501090627e+02   1.8008687561e+01    0.2988192    0.2066504  80.68  0.001029125    1.911    0.477
       173  -8.2514    237.1006    188.3524   8.3800123293e+01  -1.6157732425e+00    0.2171336    0.1548725 -13.75 0.0005995479    1.330    0.248
       174  -8.8855    216.7320    187.9840   8.7398878859e+01   2.0286399007e+00    0.2742385    0.2401092 -70.72  0.001252222    1.757    0.431
       175  -8.9024    191.5970    187.7374   9.2133423639e+01   6.7067530107e+00    0.3213274    0.2400557  78.39  0.001093626    2.283    0.562
       176  -9.3904    156.0278    187.4354   9.9234966082e+01   1.3434556108e+01    0.3841166    0.2433782 -63.22  0.001201042    2.116    0.528
       177  -9.8168    120.8648    186.8355   1.0649497742e+02   1.9848265835e+01    0.5065998    0.2814873 -75.60  0.002167567    2.744    0.636
       178  -8.8231     34.3046    188.2306   1.2443148594e+02   3.1647339573e+01    0.3146073    0.1457085  80.04   0.00139926    2.298    0.565
       179  -8.8167    242.6034    188.1769   8.2807439404e+01  -2.5280753745e+00    0.1769581    0.1094785 -16.29 0.0005777806    1.605    0.377
       180  -8.9725    165.0383    186.9299   9.7296046898e+01   1.1842915048e+01    0.3051415    0.2390957  87.68  0.000962046    1.805    0.446
       181  -9.1516     54.9155    187.1873   1.2026962635e+02   2.9507527845e+01    0.3726283    0.1739359  67.28  0.001565086    2.464    0.594
       182  -8.1679    230.5296    187.1364   8.4724078531e+01  -3.0808752291e-01    0.1868659    0.1215183 -28.71  0.001012506    1.537    0.349
       183  -9.3740    109.4098    186.0041   1.0879474289e+02   2.1931360149e+01    0.3710835    0.2456905  85.65  0.001063204    1.899    0.473
       184  -8.7566    249.1647    185.6887   8.1191267889e+01  -3.2974760994e+00    0.2102071    0.1579344 -28.79 0.0006197909    1.387    0.279
       185  -9.0599    182.8902    184.9514   9.3326007850e+01   8.8102770651e+00    0.2877761    0.2007922 -40.92 0.0008920055    1.565    0.361
       186  -8.8884    210.1601    184.3862   8.7922129410e+01   3.7715938020e+00    0.2339975    0.1865714 -33.22 0.0004882229    1.349    0.259
       187  -8.6954    202.8163    184.7620   8.9391452807e+01   5.0798427216e+00    0.2370653     0.185243 -46.94 0.0006692137    1.550    0.355
       188  -9.1345     66.6733    184.5720   1.1759226478e+02   2.8560919055e+01    0.3598924    0.1942637  67.08  0.001227692    1.993    0.498
       189  -8.5801    224.0967    183.8451   8.5232357398e+01   1.3057326650e+00    0.2248679    0.1766359 -24.03 0.0006881146    1.275    0.216
       190  -8.0179    197.2140    184.0977   9.0342969700e+01   6.2377898666e+00    0.1749306    0.1658326 -89.45 0.0007197174    1.377    0.274
       191  -8.9134    174.2429    183.5339   9.4799701473e+01   1.0698956996e+01    0.2867232    0.2283632 -84.23 0.0009346384    1.827    0.453
       192  -8.1846      1.9240    183.9069   1.3021879369e+02   3.5579536526e+01    0.1745028   0.08910073  67.30  0.001096782    1.635    0.388
       193  -9.0018    241.1890    181.4891   8.1718267771e+01  -1.3800320557e+00    0.4009816    0.2608786 -54.24  0.001904414    2.761    0.638
       194  -9.0944     44.3798    182.3105   1.2191926295e+02   3.1767586420e+01    0.3118815    0.1687957  77.56 0.0008882696    1.866    0.464
       195  -9.3700    147.5305    180.7477   9.9836507401e+01   1.6260899807e+01    0.3666625    0.2707064  88.83  0.001236235    1.892    0.472
       196  -8.9981     26.7898    181.1770   1.2532231985e+02   3.3877980370e+01    0.3139521     0.143452  65.16  0.001662726    2.150    0.535
       197  -8.9041     24.3182    176.9641   1.2547171610e+02   3.5000823985e+01    0.3268065    0.1406237  84.13  0.001392521    2.477    0.596
       198  -8.7343    137.5214    179.3175   1.0172030173e+02   1.8385265774e+01    0.2848579    0.2011225  80.22 0.0008075979    1.932    0.482
       199  -9.3473    191.3754    178.3238   9.0357368266e+01   8.3007862075e+00    0.2629376    0.2440004 -75.33 0.0005299401    1.380    0.275
       200  -7.9392    169.4541    178.9472   9.4916834076e+01   1.2430316975e+01    0.1841053    0.1241077 -71.66 0.0008076566    2.446    0.591
       201  -9.5792    248.2836    176.4609   7.9475440757e+01  -1.9116920643e+00    0.4076905    0.2660937 -45.74  0.002084731    2.064    0.516
       202  -8.6308    250.5306    172.9137   7.8363182796e+01  -1.8115680245e+00    0.1874536     0.139844 -17.95 0.0004950373    1.204    0.169
       203  -8.5724    217.7549    177.4648   8.5114350832e+01   3.4195592488e+00    0.2469027    0.1734979 -48.53  0.000779017    1.831    0.454
       204  -8.8595    205.1104    177.7006   8.7552173570e+01   5.7669180384e+00    0.2294128    0.1844272 -41.88  0.000607389    1.415    0.293
       205  -8.6267    129.0026    177.2587   1.0320749580e+02   2.0336040376e+01    0.2468813    0.1853168  89.19  0.000814384    1.630    0.387
       206  -8.7845     89.0760    176.8895   1.1186642126e+02   2.7026036767e+01    0.2904858     0.177347  85.17 0.0008792743    2.038    0.509
       207  -9.1446     35.7034    176.5029   1.2314030156e+02   3.3944867804e+01    0.4340739    0.1777196  85.30  0.001829512    3.233    0.691
       208  -8.5704    231.1212    176.6400   8.2506240686e+01   1.0873710936e+00    0.2730865    0.1617074 -36.26 0.0007000071    1.746    0.427
       209  -9.2314    183.1422    176.3639   9.1618315774e+01   1.0232591106e+01    0.2433777    0.2266166 -81.58 0.0006397192    1.329    0.248
       210  -7.8745     97.5320    177.4995   1.1011017227e+02   2.5595397174e+01    0.1299955    0.1188905  78.08 0.0002225595    1.058    0.055
       211  -9.3952     81.5668    154.8937   1.1032453090e+02   3.2974129612e+01    0.4075738    0.2544616  84.92   0.00132717    2.000    0.500
       212 -10.7669     76.2225    171.0303   1.1388878604e+02   3.0157274042e+01     1.131927    0.4552732 -78.56  0.003790127    4.379    0.772
       213  -8.7530     78.8667    158.6578   1.1153720722e+02   3.2518067552e+01    0.3811607    0.1733421  26.40  0.001458732    3.556    0.719
       214  -9.9615     57.3024    173.2495   1.1828630754e+02   3.2169253184e+01    0.7874004    0.3398922  82.14  0.002696893    4.662    0.786
       215  -7.9006    211.5027    176.4863   8.6087486425e+01   4.7453369541e+00    0.1401649     0.120835  12.20 -5.984363e-05    1.033    0.032
       216  -9.4100    158.5911    175.0163   9.6444382526e+01   1.5250630257e+01    0.4538361     0.287562  71.81  0.001465554    2.660    0.624
       217  -9.4689    104.3022    174.6844   1.0820406528e+02   2.5104608141e+01    0.4911786    0.2831721  73.32  0.001758502    2.527    0.604
       218  -8.0646    241.4853    174.4799   8.0233899897e+01  -4.5445019370e-01    0.1352368    0.1122083   3.96 1.359007e-05    1.013    0.013
       219  -8.3785    224.0892    173.8730   8.3208085180e+01   2.7864979332e+00     0.236077    0.1653514 -44.76 0.0009554207    1.723    0.420
       220  -9.3146    175.6618    172.1509   9.2312453052e+01   1.2446138716e+01    0.3773822    0.2309248 -45.44  0.001216257    1.772    0.436
       221  -8.3458    142.9899    172.9649   9.9410530523e+01   1.8622984828e+01    0.2227868    0.1676828  78.87 0.0006435109    1.698    0.411
       222  -8.5124    134.5028    171.9404   1.0107975106e+02   2.0409643152e+01    0.2588731    0.1843639  59.38  0.000732957    1.471    0.320
       223  -9.6319    121.3695    170.3923   1.0371593304e+02   2.3102224956e+01    0.3883528    0.2607196 -75.23  0.001053269    1.820    0.451
       224  -9.3357     45.1040    171.2358   1.2067048365e+02   3.4047069967e+01    0.3231429    0.1724913  78.37  0.001245376    2.016    0.504
       225  -9.0295    230.2618    170.2960   8.1342350694e+01   2.1801613804e+00    0.2249798    0.1790143 -20.56 0.0005710218    1.196    0.164
       226  -8.4593    205.9637    170.4712   8.5906074183e+01   6.7718090736e+00    0.2519256     0.194205 -52.48  0.000846505    1.649    0.394
       227  -8.3747    198.3680    170.4985   8.7391301368e+01   8.2528121689e+00    0.2314457    0.2006879  62.10 0.0006693038    1.411    0.291
       228  -8.2467    237.1942    169.6727   7.9979536904e+01   1.0028370980e+00    0.2187774    0.1684824 -33.35 0.0006116536    1.367    0.269
       229  -9.1870    167.3433    168.8354   9.3390150149e+01   1.4701370131e+01    0.3732823     0.258899  73.64  0.001040211    2.219    0.549
       230  -8.7355    149.7156    169.5452   9.7309881165e+01   1.8016027576e+01    0.2680505    0.2067028 -83.92 0.0006821331    1.712    0.416
       231  -8.0406    244.4843    169.0865   7.8590528997e+01  -2.2102679292e-01    0.1930232    0.1200837 -29.16 0.0004688429    1.517    0.341
       232  -8.7792    111.7539    167.4447   1.0537381708e+02   2.5397022359e+01    0.3821549    0.2378325  83.67  0.001431189    2.435    0.589
       233  -8.5475     88.7511    168.8755   1.1079261217e+02   2.8799601883e+01    0.2460235    0.1680408  89.64 0.0009316774    1.603    0.376
       234  -8.5521    218.8339    168.1681   8.2983045701e+01   4.6556466643e+00    0.1970422    0.1903501 -29.56 0.0006144364    1.263    0.208
       235  -9.1251    191.9433    166.7942   8.7896603792e+01   1.0159150462e+01    0.3337126     0.198593 -44.26  0.000647918    1.829    0.453
       236  -8.7328     13.0328    167.5299   1.2699195326e+02   3.8024670938e+01    0.2329746   0.08721507  70.92  0.001015492    3.251    0.692
       237  -8.8973    185.0116    166.5822   8.9255988978e+01   1.1584670634e+01    0.2557554      0.19908 -57.13 0.0007170102    1.585    0.369
       238 -10.1626     95.1344    163.2264   1.0847479727e+02   2.9048004866e+01    0.8056856     0.417056  77.36  0.002671878    4.348    0.770
       239  -8.8987     20.8114    166.4632   1.2531621141e+02   3.7560893272e+01    0.3183287    0.1139453  56.34  0.001227563    2.907    0.656
       240  -9.9474    136.6782    164.3634   9.9201560472e+01   2.1549505848e+01    0.6137158    0.3186918  60.02  0.001991206    2.655    0.623
       241  -8.1138    250.5543    165.4887   7.6800268543e+01  -7.8397612630e-01    0.1346824    0.1118838  -2.04 3.957973e-05    1.006    0.006
       242  -8.5193    233.9711    164.9851   7.9553169407e+01   2.2872522689e+00    0.2069868    0.1806741  -9.53 0.0005211118    1.084    0.078
       243  -8.9409    159.5489    164.2826   9.4143662347e+01   1.7117968537e+01     0.305856    0.2403523 -72.93  0.000871355    1.625    0.385
       244  -9.6770     33.6280    163.4224   1.2233031248e+02   3.6980911730e+01    0.5249775    0.1981834  58.56  0.002290124    3.092    0.677
       245  -8.1562    240.0252    164.3107   7.8345897037e+01   1.2718218621e+00    0.1889972    0.1605383  11.84  0.000531407    1.065    0.061
       246  -8.4876    212.9272    163.7664   8.3153701411e+01   6.5035448478e+00    0.2403508    0.1920114 -28.64 0.0006971555    1.248    0.199
       247  -8.9904     12.8250    176.5082   1.2769310674e+02   3.6159237472e+01    0.2835684    0.1314705  74.71  0.001013666    2.034    0.508
       248  -8.7701    246.0620    162.9229   7.7010838677e+01   3.7947410874e-01    0.2355697     0.176634 -10.45 0.0006331338    1.210    0.174
       249  -8.7312    204.7644    162.7501   8.4502723583e+01   8.2875800924e+00    0.2709704    0.1846196 -41.50  0.000635124    1.567    0.362
       250  -9.5113      3.3149    162.2611   1.2856810367e+02   3.9934707581e+01    0.3802115    0.1569469  60.37  0.001912824    2.360    0.576
       251  -9.1157    177.4271    160.6864   8.9586740715e+01   1.4192231885e+01    0.3141439    0.2543591 -57.67 0.0007708254    1.456    0.313
       252  -8.9101    151.6575    161.0042   9.5208140493e+01   1.9330733673e+01    0.3136337    0.2401538 -72.01 0.0009686524    1.634    0.388
       253  -8.6160     60.6925    160.3613   1.1596937346e+02   3.4584076077e+01    0.3305796    0.1830548  77.21  0.001498526    2.219    0.549
       254  -8.4614    227.5164    159.3827   7.9497155661e+01   4.3638563345e+00    0.2728108    0.2086105 -59.89  0.001070812    1.960    0.490
       255  -9.7716    105.8243    157.8533   1.0509164574e+02   2.8484470628e+01    0.5150687    0.3447886 -85.15  0.001675726    1.878    0.468
       256  -9.7464    250.1848    157.8604   7.5223637772e+01   3.6767088394e-01    0.3407193    0.1726319 -29.57 0.0007861491    1.817    0.450
       257  -8.4808    237.0011    159.0152   7.7728345268e+01   2.6188176050e+00    0.1991722    0.1689935 -57.46 0.0006549294    1.652    0.395
       258  -8.5117    128.1733    158.8442   1.0008125425e+02   2.4298321464e+01    0.3099165    0.2158981 -89.61  0.001199638    2.018    0.504
       259  -8.5789    196.7207    157.9500   8.5045090017e+01   1.0736216835e+01    0.2538739    0.1966576 -54.31 0.0008423604    1.582    0.368
       260  -8.2616    188.0067    157.8024   8.6774353300e+01   1.2550511656e+01    0.2519246    0.1842116 -52.66 0.0006132356    1.617    0.382
       261  -9.1571    167.6902    157.3475   9.0946644772e+01   1.6816338485e+01    0.3468109    0.2670937  79.73  0.001258443    1.815    0.449
       262  -8.4739    217.8945    156.6243   8.0659664972e+01   6.6843826771e+00    0.2677923    0.1747542 -48.76 0.0007986119    1.888    0.470
       263  -9.1740    157.5679    156.1352   9.2898303593e+01   1.9118350610e+01    0.3399317     0.237593 -63.48  0.001100728    1.793    0.442
       264  -9.4467    119.6552    155.3749   1.0139713279e+02   2.6606933324e+01    0.4105193    0.2654509 -85.33  0.001620585    2.317    0.568
       265  -8.7368    144.5717    155.2789   9.5628336764e+01   2.1896255415e+01    0.3434531    0.2399035  65.94   0.00102872    1.764    0.433
       266  -9.1788     49.4379    155.3279   1.1790837094e+02   3.7070104963e+01    0.3344118    0.1933566  77.06  0.001597534    1.911    0.477
       267  -9.8161    241.8368    154.2396   7.5841862254e+01   2.4311164630e+00    0.4105102    0.2873017  82.69  0.001690524    3.569    0.720
       268 -10.0300    243.1685    149.7735   7.4622375903e+01   2.8523993379e+00    0.3153514    0.2874305  89.72  0.001848857    1.607    0.378
       269  -9.1416    240.3840    145.2576   7.4079417200e+01   4.0712956663e+00    0.2734427    0.1779046 -39.24 0.0006518983    1.565    0.361
       270  -9.1862    242.6704    143.3134   7.3249562446e+01   3.9290003652e+00    0.2108793    0.2003833 -43.32 0.0007235678    1.301    0.232
       271  -8.1420    243.7062    140.3423   7.2397119313e+01   4.1844192751e+00    0.1967304    0.1230633 -22.05 0.0004654867    1.526    0.345
       272  -7.7395    204.5862    155.5145   8.2955232881e+01   9.5506310109e+00    0.1436075    0.1326481   1.91 0.0001643681    1.029    0.028
       273  -9.7159    132.8535    152.9997   9.7853064005e+01   2.4656645819e+01    0.4831844    0.3577279  86.02  0.001399979    1.789    0.441
       274  -9.2277    133.4891    148.5102   9.6785245050e+01   2.5492655054e+01    0.3156922    0.2521298 -30.64  0.001273104    1.433    0.302
       275  -9.7145     68.0400    153.6722   1.1334443924e+02   3.5141144463e+01    0.4647074    0.2767117  83.65  0.001678254    2.041    0.510
       276  -8.1898    232.9819    153.9997   7.7331461108e+01   4.1485375107e+00    0.2031315    0.1716865 -62.21 0.0005598504    1.683    0.406
       277  -8.2902    151.7945    152.9643   9.3514822739e+01   2.0926330043e+01    0.2359316    0.1690274 -75.13 0.0006290671    1.957    0.489
       278  -9.1593     20.0965    152.6228   1.2423349439e+02   4.0638952185e+01    0.2041609    0.1278701 -89.61 0.0006841964    1.321    0.243
       279  -8.6682      8.8175    153.3837   1.2675023901e+02   4.1409892853e+01    0.1257314    0.1119954   5.98 0.0009498725    1.692    0.409
       280  -9.7293    248.9130    149.6062   7.3620836758e+01   1.8042169830e+00    0.4169721    0.1982232 -33.17 0.0008589045    1.927    0.481
       281  -8.9729    247.0253    143.8920   7.2652344065e+01   3.0099240937e+00    0.2979828    0.1799828 -23.69 0.0005862093    1.551    0.355
       282  -9.7255     29.3142    150.6277   1.2197019139e+02   4.0239615776e+01    0.4457776    0.1975871  73.03  0.001945735    3.007    0.667
       283  -8.9627    189.4458    150.4456   8.4848646814e+01   1.3586225918e+01    0.3147773    0.2432342 -57.42 0.0009001626    1.591    0.371
       284  -7.9295    182.4245    151.2894   8.6491885836e+01   1.4906028229e+01    0.1951741     0.140958 -49.75 0.0005281158    1.538    0.350
       285  -8.2430    162.5489    150.8007   9.0654001514e+01   1.9157333531e+01    0.2016239    0.1421196 -57.10 0.0008681147    1.641    0.391
       286  -8.6391     98.2094    150.6529   1.0562844704e+02   3.1353552219e+01    0.2896682    0.1989088 -89.20 0.0009717193    1.776    0.437
       287  -8.2837    212.8557    150.0124   8.0127047016e+01   8.7940247113e+00    0.2059993    0.1930344 -41.33 0.0004102247    1.225    0.184
       288  -8.8635      2.8290    149.9872   1.2776005746e+02   4.2600518406e+01    0.1968296   0.09354065  77.31  0.001075903    2.013    0.503
       289  -8.5640    198.8006    149.0309   8.2637574158e+01   1.1876526392e+01    0.2130275    0.1976308 -59.03 0.0004433216    1.279    0.218
       290 -10.3053    149.1158    145.1333   9.2429835057e+01   2.3082666901e+01    0.6117689    0.4117708 -83.68  0.001566527    2.584    0.613
       291 -10.2787     39.8662    146.6664   1.1907424434e+02   4.0081001571e+01    0.7008444    0.3723896 -74.76  0.002747766    1.619    0.383
       292  -9.8546    233.4961    147.1984   7.5713080263e+01   5.1095083632e+00    0.3508003     0.207964 -18.71 0.0008614602    1.804    0.446
       293  -8.8479     78.3009    147.2510   1.0988471919e+02   3.5188096876e+01    0.3357707    0.1922266  82.18  0.001033067    2.614    0.617
       294 -10.4358     54.3507    143.7703   1.1521182204e+02   3.9131210229e+01    0.8914151    0.4447106  88.43  0.003099432    2.890    0.654
       295  -9.0199     57.5070    135.6742   1.1321676422e+02   4.0628708832e+01    0.2841967    0.1235172  29.90  0.001231493    2.849    0.649
       296  -8.5021    223.4457    147.0956   7.7490083525e+01   7.1248624334e+00    0.2098084    0.2053668 -78.75 0.0006144311    1.294    0.227
       297  -9.9312    139.1947    145.1556   9.4736012156e+01   2.5085936931e+01    0.4738956    0.3204032 -76.37   0.00129373    2.163    0.538
       298 -10.3680    106.4951    144.0457   1.0237685825e+02   3.1449484737e+01    0.7570537    0.4732041 -79.17  0.002071464    2.186    0.543
       299  -9.0470     13.2426    146.1787   1.2515594723e+02   4.2638292992e+01    0.2909029    0.1465031  75.93  0.001174125    2.024    0.506
       300  -7.9587    206.7649    146.6054   8.0516924947e+01   1.0634485554e+01    0.1893071    0.1398652  54.44 0.0005020436    1.534    0.348
       301  -8.3709    175.4716    146.3081   8.6839423646e+01   1.7319127505e+01    0.2459913    0.1846569  68.67 0.0007395949    1.729    0.422
       302  -9.8855    125.0830    142.8658   9.7604490240e+01   2.8332804290e+01    0.5259974    0.3383555 -80.53  0.001581349    2.432    0.589
       303  -7.6020    218.3085    144.6528   7.7874953718e+01   8.5729469957e+00    0.1411228    0.1161557 -66.93 0.0007044133    1.704    0.413
       304  -7.7350    194.3725    144.1437   8.2401792405e+01   1.3689077692e+01    0.2069305    0.1352174 -47.51 0.0005442064    1.689    0.408
       305  -8.9757    165.5846    144.1444   8.8497187637e+01   1.9843013229e+01    0.3033167    0.2167748  54.89 0.0006061375    1.499    0.333
       306 -10.7517     69.4790    141.3172   1.1109747529e+02   3.7784551301e+01    0.6756235      0.45719  88.85  0.002721384    1.621    0.383
       307  -9.5887     69.9830    133.9863   1.0973786201e+02   3.9422219198e+01    0.4527294    0.2848851  14.08  0.002090714    2.613    0.617
       308  -9.2250      2.6436    141.8771   1.2714623621e+02   4.4381521813e+01    0.3241037    0.1567931  77.17  0.001545055    2.031    0.508
       309  -8.4021    182.0528    141.6833   8.4372243356e+01   1.6791946950e+01    0.2547106    0.2036928 -48.70 0.0005313873    1.345    0.257
       310  -8.4763    250.4776    140.5036   7.1317104986e+01   2.8664031594e+00    0.2316118    0.1146003 -39.98 0.0005743445    2.018    0.504
       311  -9.7508     23.3997    137.9996   1.2197262664e+02   4.3624397174e+01    0.5214609    0.2361413  73.64  0.002308261    2.949    0.661
       312  -8.0676    218.6187    138.7195   7.6433192437e+01   9.5013431211e+00    0.1947085    0.1311409 -39.96 0.0003344053    1.498    0.333
       313  -9.1306    172.2483    138.1931   8.5652513192e+01   1.9588697041e+01    0.3776175    0.2530507 -55.55  0.001068147    1.768    0.434
       314  -9.5669    168.3873    129.5210   8.4409026975e+01   2.2151681791e+01    0.3715487    0.2772962 -75.62 0.0004683944    1.925    0.480
       315  -9.4383    139.7288    137.3614   9.2884428962e+01   2.6642336308e+01    0.4677471    0.3165723   7.10  0.001856741    2.551    0.608
       316  -8.3353    207.6347    138.1552   7.8372661865e+01   1.1920102130e+01    0.2276591    0.1784257 -49.43 0.0006060736    1.447    0.309
       317  -8.6397    197.4830    137.6009   8.0234398958e+01   1.4205304877e+01    0.2767887    0.2350587 -53.98 0.0008197302    1.353    0.261
       318 -10.0888     89.2613    146.3714   1.0704797208e+02   3.3751030420e+01    0.6236712     0.342138 -87.81  0.002325559    3.230    0.690
       319  -8.6503    151.5004    135.6688   8.9726294107e+01   2.4556222040e+01    0.2700776    0.1400537  45.32  0.001070173    1.922    0.480
       320  -8.5465    162.5417    136.3599   8.7367109976e+01   2.2055116909e+01    0.2601975    0.2158222 -68.38 0.0006077078    1.430    0.301
       321  -8.9739     39.1329    136.3140   1.1793156349e+02   4.2528332184e+01    0.2358079    0.1537984  70.52 0.0007259725    1.622    0.384
       322  -9.2700    248.4004    135.4246   7.0492714841e+01   4.0290200463e+00    0.3779221    0.2234842 -30.02 0.0007014959    1.522    0.343
       323  -9.0146    250.6693    130.7489   6.9046032364e+01   4.3013477016e+00    0.4392858    0.1182224 -31.41  0.001402908    3.504    0.715
       324  -8.4957    246.8280    130.3702   6.9575067966e+01   5.1083676059e+00    0.2424349    0.1684278 -36.85 0.0006111278    1.376    0.273
       325  -7.9136    187.6791    135.8639   8.1814740194e+01   1.6664244044e+01    0.2190028    0.1332269 -46.71  0.000421506    1.760    0.432
       326  -8.5917    179.6122    134.0420   8.3070906114e+01   1.8784295645e+01    0.3119752      0.22176 -58.19 0.0008176973    1.733    0.423
       327 -10.3557     83.3978    132.8291   1.0605139806e+02   3.7773819022e+01    0.5720121    0.3084717 -69.94  0.001347112    2.064    0.516
       328  -8.7433     84.1363    123.6009   1.0402827627e+02   3.9813316128e+01    0.5032812    0.3412781   1.77  0.002212214    2.613    0.617
       329  -8.1054    237.5000    133.5135   7.1858939111e+01   6.4732031150e+00    0.2470132    0.1191863 -42.14 0.0009155893    2.143    0.533
       330  -8.2733    231.6501    134.1567   7.3016616082e+01   7.5571737856e+00    0.2214625    0.1691585 -43.24 0.0007172299    1.402    0.287
       331  -9.2336    112.7267    133.2559   9.8605247475e+01   3.2779438313e+01    0.3421283    0.2448336  86.08 0.0009487022    1.894    0.472
       332  -9.1534    143.1238    131.8519   9.0798943529e+01   2.7120475406e+01     0.349332    0.2707176 -82.64 0.0008415739    1.697    0.411
       333 -10.0933    132.3270    130.9996   9.3211394372e+01   2.9516941452e+01    0.6242075    0.4019035 -62.54  0.001962761    1.832    0.454
       334 -10.4535     98.1990    130.3690   1.0171428098e+02   3.5985540060e+01    0.7226464    0.3446675 -53.29  0.001527685    1.964    0.491
       335  -8.9753     98.7055    121.1171   9.9576119685e+01   3.8031723288e+01    0.6428431    0.3996076  -4.83  0.002145315    4.223    0.763
       336  -9.5524    152.8221    128.7304   8.7759436740e+01   2.5719958229e+01    0.5478036    0.2872288 -55.19  0.001195576    2.326    0.570
       337 -10.1422     73.1648    129.2416   1.0805734623e+02   4.0095238811e+01    0.4945888    0.2910767 -81.42  0.001528766    2.130    0.530
       338 -10.0807     12.8144    129.0574   1.2355117633e+02   4.6503375073e+01    0.5142135    0.2388908  86.59  0.002263096    2.304    0.566
       339  -8.3328      1.9421    130.7637   1.2633281303e+02   4.6882625308e+01    0.1862971   0.09806389  62.40  0.001077105    1.997    0.499
       340  -7.6616    220.5809    129.8204   7.3948960589e+01   1.0584469490e+01    0.2022587    0.1312202 -42.81 0.0005787673    1.588    0.370
       341  -7.9023    204.5035    130.5034   7.7134315693e+01   1.3946937992e+01    0.1495761    0.1425418 -13.67 -6.054666e-05    1.056    0.053
       342  -8.1779    192.7369    130.2443   7.9408709938e+01   1.6593463777e+01    0.2294883    0.1859825 -56.25 0.0005957844    1.435    0.303
       343  -8.2352    161.6713    130.3192   8.6111591837e+01   2.3469210102e+01    0.1557637    0.1243135 -86.51 0.0007047434    1.685    0.407
       344  -7.9738    211.6471    129.3623   7.5489435270e+01   1.2586849835e+01    0.2181006    0.1775181 -69.00 0.0008175723    1.660    0.397
       345 -10.4372     60.1221    125.3898   1.1083075114e+02   4.2714646378e+01    0.7003735     0.392454  77.91  0.002695852    2.814    0.645
       346 -10.7883     44.8286    123.4787   1.1460124693e+02   4.4920094063e+01     1.084613    0.5286668  81.59  0.004003422    3.874    0.742
       347  -9.9438    118.0786    125.0346   9.5394660212e+01   3.3633023111e+01    0.6019785    0.4197212 -67.91  0.001990652    1.670    0.401
       348  -8.7689    179.3203    124.8240   8.0854752060e+01   2.0627337381e+01    0.2776772     0.239193  88.78 0.0006463495    1.457    0.313
       349 -10.2288     28.6593    122.5163   1.1873763715e+02   4.6713240579e+01    0.6919523    0.3260155  78.84  0.002857996    3.304    0.697
       350  -8.2059    212.0000    123.5365   7.3987817083e+01   1.3521853506e+01    0.3263521   0.08219694 -35.52 0.0009180025    3.801    0.737
       351  -8.0333    188.5132    124.0768   7.8736224917e+01   1.8689842899e+01    0.2294593    0.1483693 -38.62 0.0006061833    1.519    0.342
       352  -9.8555    130.8100    118.5545   9.0582517639e+01   3.2546126652e+01    0.5147606    0.3434183 -75.95  0.001305579    2.324    0.570
       353 -10.6784    133.3845    109.2038   8.7509457748e+01   3.4034717899e+01    0.7861699    0.3406629 -42.44  0.002742053    2.258    0.557
       354  -9.3372    158.6381    121.6880   8.4653082789e+01   2.5900416160e+01    0.3998594    0.2760906 -66.70  0.001169328    1.988    0.497
       355  -8.0771    195.0234    122.0662   7.6903934195e+01   1.7588098429e+01    0.2397806    0.1860268 -66.26 0.0006222002    1.693    0.409
       356  -8.5379    172.0435    121.6208   8.1617684739e+01   2.2899916192e+01    0.2553737    0.2096593 -50.55 0.0003898908    1.283    0.221
       357  -9.6423     71.0320    119.6367   1.0679428933e+02   4.2642911646e+01    0.4043261    0.2405558 -71.10  0.001088157    1.750    0.429
       358 -10.1523    141.6029    117.9854   8.7755178603e+01   3.0402191756e+01    0.6918863    0.3336553 -49.26  0.001356117    2.138    0.532
       359  -9.4445      3.0454    117.3922   1.2473875813e+02   4.9801474907e+01    0.4409695    0.1949052  74.53  0.002071867    2.892    0.654
       360  -7.6379    231.4900    117.5349   6.9035735363e+01   1.0292172092e+01    0.1463183    0.1338029 -26.22 0.0008085684    1.071    0.066
       361 -10.2871    109.3638    113.5162   9.4918236048e+01   3.7868400330e+01    0.8416793    0.3940532 -55.97  0.002245676    2.272    0.560
       362  -8.9161     59.4180    115.4408   1.0920411280e+02   4.5139329395e+01    0.3910525    0.2511546 -16.08  0.001638834    2.709    0.631
       363  -8.3526    193.0724    115.5682   7.5627895138e+01   1.9230439359e+01    0.2597658    0.2019991 -44.75 0.0005533542    1.315    0.240
       364  -8.1301    185.7135    116.1767   7.7288712279e+01   2.0817033374e+01    0.2420539    0.1859895 -51.06 0.0005536398    1.411    0.291
       365 -11.2388    248.4176    106.6834   6.3675015218e+01   8.4499833870e+00    0.8450139    0.3351988 -38.89  0.003304002    2.267    0.559
       366  -8.0543    167.2823    114.4299   8.0803374803e+01   2.5410632941e+01    0.2106344    0.1529304  60.85 0.0006723978    1.575    0.365
       367 -10.1841     92.7421    112.3800   9.9194439228e+01   4.1048823336e+01    0.6302747    0.3565092 -69.50  0.001439073    2.340    0.573
       368  -9.0626     93.3025    105.3164   9.7324929297e+01   4.2575125877e+01    0.5266089    0.3149411   9.69  0.001887033    3.535    0.717
       369  -7.7112    203.1460    122.1506   7.5324729085e+01   1.5738893751e+01    0.2048494    0.1770218 -57.50 0.0004057469    1.333    0.250
       370  -8.5539    174.8393    112.2038   7.8548020110e+01   2.4100441030e+01    0.2742696     0.205301 -49.88 0.0007010969    1.415    0.293
       371 -10.0363    121.9283    112.6307   9.1361360931e+01   3.5646421760e+01    0.3907016    0.3106204 -88.80  0.001074574    1.612    0.380
       372 -10.2630    120.3997    107.0837   9.0317950336e+01   3.7173217659e+01    0.5845651    0.3035217  50.48  0.002304794    2.143    0.533
       373  -8.4954     26.7311    113.5850   1.1798747043e+02   4.8946467875e+01    0.1509376    0.1108593  49.37 0.0008260602    1.564    0.360
       374 -10.0293     14.2362    111.3489   1.2108323934e+02   5.0429574696e+01    0.4045521    0.2090637  68.18  0.001899806    2.474    0.596
       375  -8.7854    159.0391    111.5323   8.1907052811e+01   2.7879547658e+01     0.300368    0.2145364 -56.23 0.0008140205    1.588    0.370
       376 -10.2293     66.4667    110.3594   1.0618597538e+02   4.5433390661e+01    0.5223506     0.314108 -74.79  0.001952588    1.903    0.475
       377  -7.9951    182.7292    109.4959   7.6145147376e+01   2.2773691881e+01    0.2701665    0.1345944 -37.15  0.000624837    1.957    0.489
       378  -8.9974     43.4285    109.5808   1.1265195754e+02   4.8318838178e+01    0.2796049    0.1370155  19.59  0.001268588    2.973    0.664
       379  -8.1926    189.3957    107.8346   7.4329754012e+01   2.1515457325e+01    0.2950421    0.1430212 -39.81 0.0007338414    1.998    0.500
       380  -9.6027    139.9197    104.3035   8.4532414064e+01   3.3662857775e+01    0.5047433    0.3068195 -53.58   0.00124953    1.819    0.450
       381 -10.5427     45.8292    102.4871   1.1062375785e+02   4.9724413742e+01    0.7718135     0.424921  71.89  0.003205176    3.237    0.691
       382 -10.6620     22.7170    102.5669   1.1744102584e+02   5.1816391544e+01    0.6951835    0.3516978  81.67  0.002955308    2.977    0.664
       383  -7.8665    214.3320    105.3005   6.8918032114e+01   1.6145509548e+01    0.1562787     0.115311  13.48 0.0007033133    1.650    0.394
       384  -8.5113    166.5444    104.2687   7.8221573508e+01   2.7588091500e+01    0.2712609    0.2113215 -54.77 0.0005228583    1.408    0.290
       385  -9.6206    150.5536    103.1517   8.1612888787e+01   3.1518450846e+01    0.4555348    0.2960155 -59.50  0.001204385    1.940    0.484
       386 -10.8443    108.7212     98.6365   9.1217968619e+01   4.1310508032e+01    0.9729739    0.5457971  66.41  0.001012819    3.557    0.719
       387  -8.9819    107.6259     92.7117   8.9867511179e+01   4.2812057088e+01    0.4906535    0.3190639  16.82  0.002033355    2.280    0.561
       388  -9.8140      6.7418    102.5305   1.2199384254e+02   5.2930439624e+01    0.4042835    0.1879533 -79.02  0.002120253    1.847    0.459
       389 -10.1989    128.5472    102.1529   8.6837326693e+01   3.6567490576e+01    0.3824697    0.3063747 -77.27  0.001045109    1.576    0.365
       390  -8.1527    175.4405    102.2291   7.5709201582e+01   2.5876349213e+01    0.2220264    0.1452181 -47.43 0.0005015584    1.597    0.374
       391  -8.2323    159.8185    101.1167   7.8868450188e+01   2.9785942500e+01    0.2391041    0.2087982 -63.13 0.0005155551    1.273    0.214
       392  -9.4148     82.0784     99.9831   9.9247120730e+01   4.5605378647e+01     0.398813    0.2721353 -82.11  0.001193179    2.073    0.518
       393 -10.4197     64.2672     95.3680   1.0348973955e+02   4.9203204969e+01     1.094417     0.432234 -54.35  0.002940858    2.144    0.534
       394  -9.4182     94.9594     97.0288   9.4704263574e+01   4.4165623507e+01    0.3571018     0.256805 -69.47  0.000575927    1.665    0.399
       395  -7.3455    183.6959     97.3037   7.2611569414e+01   2.4816902570e+01    0.1568057     0.124173 -70.63 0.0002256711    1.597    0.374
       396  -8.7715    151.2933     95.4174   7.9239197388e+01   3.2905219630e+01     0.343436    0.2173402  15.71  0.001242711    2.623    0.619
       397 -10.0606     78.8493    112.4179   1.0310112994e+02   4.3218888092e+01    0.6011804    0.3708807 -84.93  0.002168506    2.481    0.597
       398  -8.4748    176.4896     93.4813   7.3028282247e+01   2.7267046113e+01    0.2810977    0.1374143 -46.37 0.0006434926    2.188    0.543
       399  -7.9736    164.6981     94.1953   7.5791108640e+01   2.9978243435e+01    0.2442869    0.1887362 -55.59 0.0005031488    1.439    0.305
       400  -9.4747    139.0218     92.1067   8.1276731969e+01   3.6377371894e+01    0.5081476    0.3342195 -50.78  0.001379086    1.613    0.380
       401 -10.3156    123.8197     91.2650   8.4978106792e+01   3.9865009547e+01    0.5685596    0.4643837  21.90  0.001322114    1.368    0.269
       402  -9.4637      4.9558     92.1530   1.2108634620e+02   5.5378652021e+01    0.2853312    0.1664469  65.30  0.001370912    2.163    0.538
       403  -8.0839    157.9196     91.9390   7.6673956160e+01   3.2029876419e+01     0.245181    0.1937698 -74.04  0.000490427    1.638    0.389
       404  -9.5493     34.7433     89.9251   1.1151751272e+02   5.3713702418e+01    0.4450819    0.2431594 -83.64  0.001693991    2.482    0.597
       405  -8.9786     22.6123     90.3807   1.1541598352e+02   5.4617934811e+01    0.2930622    0.1749858 -42.55  0.001137647    1.637    0.389
       406  -8.2338    151.1173     89.1874   7.7453381060e+01   3.4172077933e+01    0.2224416    0.1860794 -63.00 0.0005264707    1.367    0.268
       407  -8.3444    102.7694     88.1926   8.9956035628e+01   4.4703078531e+01    0.1961858    0.1669203 -13.07 0.0003293477    1.278    0.217
       408 -10.1605     86.3834     86.1138   9.4247833181e+01   4.8029507885e+01    0.5787975    0.3666367 -59.81  0.001413387    1.720    0.419
       409  -7.6483    164.2573     87.6113   7.3967628369e+01   3.1331248115e+01    0.1636597    0.1205045 -62.43 0.0006967342    1.685    0.407
       410  -9.7965     48.4894     84.3315   1.0584778060e+02   5.3613456439e+01    0.4560008    0.2970704  78.69  0.001703142    2.536    0.606
       411  -9.7989    104.6509     83.0216   8.7867445477e+01   4.5446675979e+01    0.5304642    0.3083434 -58.16  0.001249195    2.127    0.530
       412  -8.5370    106.2147     76.7735   8.5469323782e+01   4.6434647719e+01    0.3187529    0.1889064  34.04  0.001138167    1.895    0.472
       413  -8.4181    157.8824     84.1273   7.4361390449e+01   3.3526091777e+01    0.2359826     0.213913 -63.06 0.0004265702    1.209    0.173
       414  -9.1738    140.8746     82.8384   7.8019245488e+01   3.7793184332e+01    0.3904913     0.236052 -46.76 0.0009437138    1.708    0.415
       415  -8.7032     45.6211     92.6292   1.0865917683e+02   5.2028615746e+01    0.2862169    0.1660599  -0.43  0.001285102    3.023    0.669
       416  -9.5030     10.0944     81.3027   1.1777538529e+02   5.7515769764e+01    0.3504369    0.1917779  65.39  0.001499829    2.755    0.637
       417  -9.6083     24.6965     80.7232   1.1288693063e+02   5.6646024121e+01    0.4050965    0.2370857  89.98  0.001233294    2.384    0.581
       418  -8.3436    150.2937     80.6506   7.5061871029e+01   3.5999362535e+01    0.2911437    0.1767208 -46.51 0.0007587845    1.718    0.418
       419  -9.1373    119.3146     80.0262   8.2785041877e+01   4.3116886381e+01    0.4500249    0.2533864 -49.04  0.001297564    1.860    0.462
       420  -8.8071     74.4968     80.4303   9.6350483690e+01   5.1132058868e+01    0.3232221    0.2126836 -65.97 0.0009772957    1.834    0.455
       421  -8.4976     78.7649    105.0318   1.0144209608e+02   4.4946984213e+01     0.288484     0.220175  -8.10  0.001284109    1.782    0.439
       422  -8.1005    166.7381     79.8871   7.1115834382e+01   3.2141984876e+01    0.2161584    0.1973164 -31.56 0.0004442591    1.073    0.068
       423  -7.9686    184.3333     78.2800   6.7036438132e+01   2.8044984056e+01    0.2232242    0.1360032 -41.13 0.0004813767    1.613    0.380
       424  -7.5380    174.6954     78.3254   6.8972657267e+01   3.0444514390e+01     0.160997    0.1224697 -67.17 0.0005230138    1.644    0.392
       425 -10.0179     63.4883     74.0191   9.8116917240e+01   5.4076967416e+01    0.6323326    0.2997416 -63.55  0.002415048    2.957    0.662
       426  -9.5698    128.1964     75.7470   7.9032596784e+01   4.2036537417e+01    0.4226351    0.2812856 -59.64 0.0007230765    1.967    0.492
       427  -8.5887    140.3610     75.4599   7.5834410739e+01   3.9317323242e+01    0.2643352    0.1754348 -52.88 0.0006840295    1.733    0.423
       428  -9.7705     82.2776     72.6258   9.1499100101e+01   5.1586103460e+01    0.4220379    0.2872002 -61.51  0.001048745    1.771    0.435
       429  -8.1542    163.4088     73.2653   6.9807198664e+01   3.4141328373e+01    0.2219822    0.1424768 -43.98 0.0007094356    1.589    0.371
       430  -8.6675    115.4494     72.8272   8.1552300255e+01   4.5351343846e+01    0.3657367    0.2067907 -40.34  0.001157478    1.686    0.407
       431  -9.9367    117.4296     66.7890   7.8991770112e+01   4.6083738444e+01    0.2816537    0.2621906  12.71 0.0002740062    1.066    0.062
       432  -8.9366    121.5183     66.0140   7.7608800421e+01   4.5341856006e+01    0.2720935    0.2381826 -79.34 0.0006158053    1.445    0.308
       433  -9.2361    105.9666     71.8528   8.3953512762e+01   4.7469305374e+01    0.3091608    0.2090683 -50.90  0.000630783    1.572    0.364
       434  -9.2996     28.6628     70.6699   1.0929667326e+02   5.8564398929e+01    0.4484064    0.1936298 -30.50  0.001854733    3.309    0.698
       435  -7.6837    175.4846     72.5413   6.7071236531e+01   3.1244245563e+01    0.1554893    0.1508557   1.38 8.981046e-05    1.025    0.024
       436  -9.2582     95.1738     71.1627   8.6970294385e+01   4.9657540633e+01    0.3502146     0.229537 -56.08 0.0009116572    1.766    0.434
       437  -9.4722     51.4707     69.8869   1.0105095298e+02   5.6470236762e+01    0.4739472    0.2450885 -67.37  0.001490377    2.677    0.626
       438  -7.5512    170.5011     71.4621   6.7754681956e+01   3.2680914665e+01    0.1547951    0.1520216 -15.19  0.000286628    1.012    0.011
       439  -8.8396     16.6709     70.2147   1.1341447527e+02   5.9560376023e+01    0.2475497    0.1694978 -86.17 0.0009516228    1.706    0.414
       440  -8.8015    146.9927     68.4350   7.1973828157e+01   3.9016911159e+01    0.2901798     0.205886 -48.49 0.0004924897    1.517    0.341
       441  -9.0001    138.5354     66.3693   7.3330219775e+01   4.1400838031e+01    0.3586834    0.2267081 -50.40  0.001029977    1.808    0.447
       442  -8.4607     42.6485     72.6941   1.0489892390e+02   5.6824906438e+01    0.2383244    0.1746461  83.40 0.0008398849    2.004    0.501
       443  -8.7385     83.2681     65.3207   8.8808932167e+01   5.2912979272e+01    0.3782965    0.2177842  11.17   0.00142609    3.175    0.685
       444  -8.9708     64.3532     64.0223   9.4765420843e+01   5.6067897667e+01    0.5531572    0.3061996 -14.32   0.00211182    3.368    0.703
       445  -8.8048     37.2379     64.1837   1.0453867611e+02   5.9205323330e+01    0.2854451    0.2012581 -83.65 0.0009530731    2.025    0.506
       446  -7.6935    130.5376     64.4941   7.4713655022e+01   4.3594045981e+01    0.1523598    0.1459285 -15.35  4.69621e-05    1.033    0.032
       447  -8.8506    110.2554     63.7239   7.9971229537e+01   4.8162672671e+01    0.2826793    0.2328015 -70.65 0.0007045078    1.613    0.380
       448  -7.5463    187.4565     63.5021   6.2073758160e+01   2.9686042905e+01    0.1523419    0.1480227 -44.68 0.0001182606    1.024    0.023
       449  -8.0693    158.2673     61.9499   6.7331983303e+01   3.7346341377e+01    0.2156327    0.1920451 -31.97 0.0003069206    1.114    0.102
       450  -9.7475     73.2384     59.3001   9.0119399190e+01   5.5718674940e+01    0.4968864    0.2220263 -50.13  0.001164638    2.281    0.562
       451  -8.1389     89.1242     59.8562   8.5042355232e+01   5.2965290806e+01    0.2116845    0.1861724 -53.43 0.0006436123    1.293    0.227
       452  -9.5241     97.8511     60.0967   8.2391326232e+01   5.1305704485e+01    0.4910878    0.3007535 -29.54  0.001636159    1.622    0.384
       453  -8.3720    146.8498     59.3093   6.9000115166e+01   4.0609752579e+01    0.2195014    0.1876598 -39.99 0.0004281339    1.190    0.160
       454  -9.8540     23.4113     56.5269   1.0762101071e+02   6.2024875657e+01    0.4272815    0.2671181 -85.65  0.002159458    2.623    0.619
       455  -8.3114    130.8248     58.1400   7.2466373340e+01   4.4631857509e+01    0.2264648    0.2040114 -57.43  0.000444784    1.259    0.206
       456  -9.5525      7.3990     57.2504   1.1392124976e+02   6.2925291978e+01    0.2657307    0.1802979 -81.39 0.0009020331    1.657    0.397
       457  -8.5625    139.9887     56.4547   6.9636514002e+01   4.2744921592e+01    0.2916567    0.2000921 -47.31 0.0005884406    1.597    0.374
       458  -9.5126    119.1521     55.5537   7.4614408271e+01   4.7716516529e+01    0.4591065    0.2321672 -45.09  0.001498209    2.157    0.536
       459  -9.4571     54.3078     55.6635   9.5629620056e+01   5.9088083780e+01    0.3496108    0.2089522 -57.77  0.001230923    1.861    0.463
       460  -8.7206     44.0729     55.5643   9.9426845200e+01   6.0307262902e+01    0.2416135    0.1603437 -59.33 0.0009534213    1.573    0.364
       461  -8.6336    105.5225     53.3001   7.7642538135e+01   5.1007648755e+01    0.2702262    0.2313491 -50.13 0.0008068602    1.329    0.247
       462  -9.4977     92.3938     50.5889   8.0636712035e+01   5.4060025538e+01    0.4233076    0.2281862 -44.65  0.001246016    1.919    0.479
       463  -8.4148    144.5678     48.9784   6.6004603766e+01   4.2808327986e+01    0.2291418    0.1458774 -30.60 0.0005193635    1.564    0.360
       464  -8.4949    129.8712     49.1954   6.9552403652e+01   4.6314344149e+01     0.222703    0.2038736 -59.21 0.0004497606    1.260    0.206
       465  -8.6601    120.8805     47.6009   7.1271808315e+01   4.8636062030e+01    0.2410102    0.1936491 -14.10 0.0005368657    1.239    0.193
       466  -8.5721    112.1722     46.7999   7.3330167783e+01   5.0689672380e+01    0.2501884    0.1865334 -42.02 0.0006139995    1.419    0.295
       467  -8.9883     82.0526     46.5841   8.2482390058e+01   5.6632808294e+01    0.2493965    0.2064593 -41.62 0.0006535299    1.276    0.216
       468  -7.9511    156.3147     46.6770   6.2705287102e+01   4.0209452841e+01    0.1554939    0.1169402 -65.35 0.0005242481    1.661    0.398
       469  -8.5322     45.0488     44.6767   9.5353734124e+01   6.2347142778e+01    0.2072787    0.1555488 -49.32 0.0005469389    1.319    0.242
       470  -9.1264     16.6231     44.7653   1.0698722692e+02   6.4944403371e+01     0.204136    0.1584669 -78.08  0.000651999    1.651    0.394
       471  -8.8211    132.8182     43.5814   6.6812109779e+01   4.6470350383e+01    0.3104768    0.2244272 -47.89  0.001007909    1.571    0.363
       472  -8.5928     92.7963     43.0529   7.7621884046e+01   5.5258303967e+01    0.2822567     0.187296 -11.57  0.001351084    1.681    0.405
       473  -8.8977     58.1490     42.5815   8.9481636460e+01   6.1079976850e+01    0.3232265    0.1967738 -57.64  0.001177152    2.317    0.568
       474  -9.3167     69.5612     41.6768   8.4905464376e+01   5.9556071812e+01    0.3154569    0.2231458 -51.50  0.001010573    1.709    0.415
       475  -9.5506      4.8999     41.5850   1.1098984617e+02   6.6305300987e+01    0.3599494    0.2018272 -76.45  0.001959209    2.307    0.566
       476  -8.6192    106.0000     41.4672   7.3039203115e+01   5.2845877865e+01    0.2679095    0.1894771 -43.53 0.0006877959    1.554    0.356
       477  -7.8616    140.4488     41.4911   6.4300679350e+01   4.4922273777e+01    0.1466507    0.1430717   7.91 0.0002013537    1.050    0.047
       478  -8.6346     36.8010     40.8988   9.7321646152e+01   6.3965220544e+01    0.2132055    0.1581929 -58.49 0.0007456551    1.562    0.360
       479  -7.7596    160.7098     39.6941   5.9499846793e+01   4.0067224036e+01    0.1534986    0.1109799  25.59 0.0003111351    1.574    0.365
       480  -8.7757     95.3859     37.8429   7.4750523436e+01   5.5575470784e+01    0.3312381    0.2024879 -37.42  0.001263179    1.626    0.385
       481  -8.1705     80.6124     36.7752   7.9067120630e+01   5.8520658486e+01    0.1882984    0.1181452 -41.01 0.0004258798    1.632    0.387
       482  -9.5764     26.2313     35.5595   9.9860297863e+01   6.5985225230e+01    0.2949961    0.1964667 -56.64 0.0009382315    1.574    0.365
       483  -7.6389    133.6457     36.3055   6.3964811480e+01   4.7301136469e+01    0.1484675    0.1156037 -69.30 0.0007041268    1.715    0.417
       484  -8.0687    125.9458     35.7158   6.5559717111e+01   4.9219078182e+01    0.1993397    0.1781221  40.24 0.0003119514    1.094    0.086
       485  -8.2629    111.8928     34.8944   6.8832371845e+01   5.2541212799e+01    0.2088433    0.1719132 -60.44 0.0005232255    1.598    0.374
       486  -8.4280    119.0657     33.0851   6.6256533710e+01   5.1175045632e+01     0.307817     0.171823 -48.75  0.001033108    2.361    0.576
       487  -7.9246     88.5225     34.0764   7.5357000733e+01   5.7480996252e+01    0.2110224     0.126222 -30.72  0.001024253    1.569    0.363
       488  -9.0023     48.4825     33.2826   8.9577332953e+01   6.4002935186e+01    0.2789471    0.1933518 -43.44 0.0008531315    1.407    0.289
       489  -8.8384     60.6339     32.4988   8.4459230593e+01   6.2463046052e+01    0.2331385    0.1786546 -32.79 0.0005900919    1.210    0.173
       490  -7.5228    139.6425     32.3071   6.1177235106e+01   4.6361046542e+01    0.1495893    0.1138501 -68.49 0.0007041305    1.727    0.421
       491  -8.6872     72.0498     31.2735   7.9725906207e+01   6.0857508085e+01    0.2235028    0.1741533 -47.97 0.0006126696    1.609    0.378
       492  -9.1170     12.9278     30.4386   1.0396648781e+02   6.7994182816e+01    0.2749574    0.1444656 -57.75  0.001184981    1.790    0.441
       493  -8.5693    101.4731     29.4977   6.9547726568e+01   5.5532930548e+01    0.2225271    0.1861544 -60.79 0.0005965117    1.634    0.388
       494  -7.4286     42.2755     30.5834   9.1028600447e+01   6.5228841715e+01    0.1163052   0.09427446 -61.14 0.0005764541    1.799    0.444
       495  -8.9008     81.4605     27.6170   7.4913520524e+01   5.9746042793e+01    0.2572941    0.2144665 -61.84 0.0009154993    1.802    0.445
       496  -9.7725    248.5744    242.5037   9.1473214890e+01  -9.7821572134e+00    0.3879358    0.1859367 -36.28  0.001812641    2.650    0.623
       497  -8.1869     34.5049     23.4841   9.1370785013e+01   6.7313160584e+01    0.1782436    0.1097758  39.95  0.001015195    2.193    0.544
       498  -7.7526    104.3418     22.7287   6.5939756703e+01   5.5790172901e+01    0.1285148    0.1109412 -71.22 0.0003477265    1.610    0.379
       499  -9.1110     63.4575     20.9065   7.8248410665e+01   6.3793649177e+01    0.3488805     0.196984 -43.84   0.00115912    2.135    0.532
       500  -8.9175     48.3007     21.7937   8.4653915937e+01   6.5899202112e+01    0.2226214    0.1918401 -32.46 0.0006839249    1.343    0.256
       501  -7.8632    120.5859     20.8016   6.1071834609e+01   5.2345617025e+01    0.1987054    0.1230979 -36.26 0.0009408891    1.729    0.422
       502  -9.1651     74.1383     19.8573   7.3924105881e+01   6.2131397112e+01    0.3108599    0.1751661 -41.18 0.0009723095    2.055    0.513
       503  -8.2647     19.5011     21.5118   9.7460792899e+01   6.9105722828e+01    0.1175443   0.08996596 -31.05 0.0004502335    1.062    0.059
       504  -8.8244     11.8181     20.6041   1.0080241397e+02   6.9867994292e+01    0.1341693    0.1021465  25.50 0.0005821291    1.692    0.409
       505  -8.0868     87.6498     17.7750   6.8592904225e+01   5.9853341168e+01     0.183001    0.1130798 -32.19  0.000377267    1.642    0.391
       506  -8.2616     38.5569     18.0790   8.7114146538e+01   6.7712208166e+01    0.1891496   0.09976964 -36.98  0.001032077    1.613    0.380
       507  -7.8284    112.6425     16.8206   6.1356939263e+01   5.4622741243e+01    0.1843552    0.1212379 -31.29  0.000307928    1.587    0.370
       508  -8.8564     91.6614     26.2329   7.1072181557e+01   5.7982392555e+01    0.2847841     0.207171 -47.12 0.0008501367    1.740    0.425
       509  -8.0416     30.0106     16.0615   9.0060688300e+01   6.8998994670e+01    0.1617185    0.1401813 -51.43 0.0006867528    1.689    0.408
       510  -8.0123      7.6103     15.8370   1.0095687030e+02   7.0996785947e+01    0.1514689   0.09080855 -54.92   0.00062712    1.707    0.414
       511  -7.9916    191.5001    249.5061   1.0213975491e+02  -1.9869672401e+00    0.1165181   0.08975924  34.85 0.0008101845    1.049    0.046
       512  -8.9914    175.7226    247.6336   1.0461946234e+02   7.2185463862e-01    0.2676857    0.2136194 -83.10  0.001074337    2.002    0.500
       513  -8.5988    156.4130    248.4277   1.0808569120e+02   3.6614410035e+00    0.2857165    0.1503503  58.46  0.001158735    2.332    0.571
       514  -8.8481    132.5150    248.1570   1.1221170247e+02   7.4119260023e+00    0.2708815    0.1674793  71.36 0.0007575768    2.124    0.529
       515  -7.6904     83.4950     11.4611   6.6984089883e+01   6.1397051021e+01    0.1319191    0.1130715   9.87 0.0001512263    1.043    0.041
       516  -9.2607    103.7486    246.8149   1.1702760882e+02   1.1900550544e+01    0.3608505     0.195059 -83.89  0.001839848    2.662    0.624
       517  -8.9187    242.7813    247.2362   9.3165653619e+01  -9.4323274232e+00    0.2559243    0.1334828 -28.94  0.001314838    2.148    0.535
       518  -8.9658    232.7080    246.9726   9.4786149039e+01  -7.9538557597e+00    0.2364173    0.1246992 -29.53  0.001436564    2.165    0.538
       519  -8.7140    218.5087    247.2939   9.7213686757e+01  -5.8800702896e+00    0.2529814    0.1098947 -34.18  0.001165051    2.750    0.636
       520  -8.1298     63.1849    248.6000   1.2390743613e+02   1.7094465391e+01    0.1400563   0.08783933  38.43  0.000949878    1.718    0.418
       521  -9.9846    223.9798    244.1053   9.5809962789e+01  -6.3552475807e+00     0.378345    0.2187953 -41.35  0.002273882    2.401    0.583
       522  -9.1417    147.1646    246.2434   1.0943910315e+02   5.4166104534e+00    0.2648957     0.169304  71.31  0.001321114    2.230    0.552
