#   1 NUMBER                 Running object number                                     
#   2 MAG_AUTO               Kron-like elliptical aperture magnitude                    [mag]
#   3 X_IMAGE                Object position along x                                    [pixel]
#   4 Y_IMAGE                Object position along y                                    [pixel]
#   5 X_WORLD                Barycenter position along world x axis                     [deg]
#   6 Y_WORLD                Barycenter position along world y axis                     [deg]
#   7 A_WORLD                Profile RMS along major axis (world units)                 [deg]
#   8 B_WORLD                Profile RMS along minor axis (world units)                 [deg]
#   9 THETA_WORLD            Position angle (CCW/world-x)                               [deg]
#  10 FWHM_WORLD             FWHM assuming a gaussian core                              [deg]
#  11 ELONGATION             A_IMAGE/B_IMAGE                                           
#  12 ELLIPTICITY            1 - B_IMAGE/A_IMAGE                                       
         1 -12.6220    144.6247    191.3598   1.0488761687e+02   1.4840817735e+01     1.584052    0.4975037 -45.14  0.005810509    3.462    0.711
         2 -13.6582     67.8181    144.1268   1.1807607106e+02   3.7813993015e+01     2.588036     1.427391  79.21  0.005312656    2.790    0.642
         3 -13.7897    193.9277     32.8878   5.8793127737e+01   3.2315980171e+01     1.519758     1.247568  11.09  0.007511898    1.731    0.422
         4 -11.9902     42.1874      4.6499   8.2015902659e+01   7.3145897756e+01      0.53543      0.40494   3.84  0.003139652    1.392    0.282
         5 -13.7751    204.3286     20.4069   5.4709560470e+01   3.1398527448e+01      1.18784    0.9757332   7.18  0.003588299    1.760    0.432
         6 -10.1988     93.0261    236.0693   1.2253019661e+02   1.4089061931e+01    0.1880311    0.1674848  62.36 0.0003539815    1.257    0.204
         7 -11.1750    189.7989    236.4831   1.0241261483e+02   1.4134368292e+00    0.4309918     0.231723 -14.08  0.002352581    2.268    0.559
         8 -11.6232    198.6957    242.0571   1.0156711557e+02  -3.5213433621e-01    0.4428038    0.2754652   6.33  0.002171194    1.411    0.291
         9 -11.3234    193.6982    242.5667   1.0254001797e+02   1.6830105075e-01    0.3784126    0.1961097  16.82   0.00174798    1.743    0.426
        10 -10.2692    179.1970    250.2615   1.0624344683e+02   9.0988495670e-01    0.2632441    0.1562765  31.40  0.001064001    1.426    0.299
        11 -11.8258    184.7806    247.6695   1.0486481725e+02   5.7739714395e-01    0.6125316    0.3521421  -9.69  0.003144791    1.979    0.495
        12 -12.2135    125.0954    245.1486   1.1645599821e+02   8.4148506755e+00     2.105386    0.5306556  24.47  0.004483893   10.877    0.908
        13 -10.6653    100.8228    250.3046   1.2214818145e+02   1.0686758394e+01    0.4628305    0.1564271  29.18  0.002053195    2.374    0.579
        14 -10.1563    106.0355    249.5098   1.2095909408e+02   1.0160556092e+01    0.3214312    0.1635488  33.39  0.001362244    1.465    0.317
        15 -15.2531     54.3214    205.7464   1.2907254106e+02   2.4921739765e+01     4.638809     3.028452 -75.38   0.02597947    1.699    0.411
        16 -11.0826    122.4685    221.4140   1.1425675372e+02   1.2708136791e+01    0.4773726    0.3769194 -86.27  0.001893042    1.825    0.452
        17  -8.7732     89.9849    230.4614   1.2268441048e+02   1.5491891932e+01    0.1862923     0.101672  32.11 1.012652e-05    1.456    0.313
        18 -12.8999     31.5865    206.2049   1.3481662313e+02   2.7346059081e+01    0.9003822    0.3292399  45.57  0.001483511    2.091    0.522
        19 -11.8327    158.7928    227.4311   1.0720687922e+02   6.6821404688e+00     0.703286    0.2164387  26.30  0.002522206    3.718    0.731
        20  -9.2487     91.5750    218.0711   1.2105892394e+02   1.7611760380e+01    0.2831346    0.1908846  64.72  0.001286084    1.735    0.424
        21  -9.8624    184.5803    215.7706   1.0036328735e+02   4.9388413076e+00    0.1477398    0.1148734 -43.29  0.000948716    1.631    0.387
        22 -10.2447    103.7512    213.8972   1.1768579586e+02   1.6732030591e+01    0.2949566    0.2518532  32.10  0.001011987    1.036    0.035
        23 -12.3327    152.4293    182.1081   1.0156310746e+02   1.5296214712e+01      1.63267     1.089011 -75.88  0.007101735    2.993    0.666
        24 -12.9656    143.1653    179.8639   1.0329902587e+02   1.7253181503e+01     1.498442     1.050533  78.87  0.006687544    2.668    0.625
        25 -12.1775    138.9943    196.6397   1.0701529414e+02   1.4747474490e+01    0.9212462    0.4853066 -53.54  0.004330066    2.279    0.561
        26 -10.6067     96.9819    246.6884   1.2264508288e+02   1.1762280294e+01    0.5339898    0.3016158  21.85  0.002654636    1.660    0.397
        27 -11.6125    193.5067    193.8743   9.5112438417e+01   6.9628294585e+00    0.6655687     0.489727 -57.85  0.003794214    2.161    0.537
        28 -10.3367    169.1896    191.8190   9.9595764992e+01   1.0911367290e+01     0.452968    0.2466982 -47.87  0.002228653    2.131    0.531
        29  -8.7109    180.2332    192.4211   9.7443228935e+01   9.1360787788e+00    0.1742385    0.1115445  40.78 0.0005074971    1.623    0.384
        30 -12.8445    124.1322    201.1867   1.1116766159e+02   1.6178615155e+01     1.136351    0.7641479 -18.20  0.004434969    2.020    0.505
        31 -10.4966    208.5557    182.6664   9.0405650037e+01   6.4922062148e+00    0.3811647    0.2366742  -4.79  0.002059225    1.850    0.459
        32 -15.8545      2.1352     18.3468   1.2155188190e+02   7.6045431239e+01     10.65072     1.376269 -66.93   0.02431928   10.003    0.900
        33 -11.2312     73.5002    180.5399   1.2143846483e+02   2.8095642959e+01    0.4464651     0.286276 -35.45  0.002077592    2.142    0.533
        34 -11.1892     77.5459    175.1372   1.1962328213e+02   2.8780914227e+01    0.3599409    0.2763228 -29.87 0.0009657426    1.666    0.400
        35  -8.6891     99.4474    180.7392   1.1440462055e+02   2.4206811569e+01        0.176    0.1357375 -43.73 0.0006468012    1.481    0.325
        36 -10.6446    195.7687    170.1819   9.0442135434e+01   1.0341281723e+01    0.4252027    0.2584321 -39.62  0.002097224    1.634    0.388
        37  -9.8573    193.6880    164.7122   8.9791616318e+01   1.1564073344e+01    0.3136293    0.2311898 -45.86  0.001782752    1.515    0.340
        38 -17.2675      8.3707    233.9207   1.4136309835e+02   2.3898884409e+01     9.581986     2.204604 -81.05   0.03899037    4.518    0.779
        39 -12.6888    127.2278    190.5255   1.0884011902e+02   1.7766241214e+01     1.368144    0.4932052  41.88  0.003896689    2.560    0.609
        40 -12.7688    119.1454    229.3690   1.1596325201e+02   1.1786644638e+01     1.346268    0.4289517  32.87  0.005533974    2.454    0.593
        41 -12.2519     85.5003    164.8447   1.1589771936e+02   3.0022908970e+01     2.060169      0.42289  44.38 0.0005447093    5.021    0.801
        42 -13.2288     74.7127    159.0218   1.1820452248e+02   3.3065671176e+01     1.162952     0.615254 -45.42  0.004806622    2.263    0.558
        43 -10.3458    199.1168    232.0103   1.0006869547e+02   8.6461847302e-01    0.2625224    0.1511544  12.19  0.001163683    1.604    0.377
        44  -8.9640    140.1895    156.9652   9.9783254643e+01   2.2357865458e+01    0.2153341    0.1928363  77.24 0.0007070315    1.339    0.253
        45  -9.7370    189.8424    154.1543   8.8442149322e+01   1.3972494566e+01    0.4732423    0.1918785  42.18   0.00196579    2.527    0.604
        46 -10.0149    175.0104    149.0090   9.0323385994e+01   1.7500605004e+01    0.2153121    0.2028417  -4.19 0.0006831692    1.037    0.035
        47 -10.1189    133.9041    144.9569   9.8910544405e+01   2.6068357801e+01    0.9237559    0.2098486 -53.58  0.002036182    7.180    0.861
        48 -11.1065    144.9463    230.4321   1.1049269078e+02   8.0924518124e+00    0.4207209    0.2334776 -57.09  0.002223375    2.578    0.612
        49 -11.0234     45.7175    148.4328   1.2586443827e+02   3.9616220131e+01    0.3424875    0.1789587 -58.92  0.001499901    1.928    0.481
        50 -11.3233     97.5734    226.8826   1.2057971293e+02   1.5146893389e+01    0.9670041    0.2271213  40.74  0.003480389    3.254    0.693
        51  -9.1322    103.6851    143.3180   1.0684160737e+02   3.2109220158e+01    0.2549504    0.2312655 -77.87 0.0008781892    1.179    0.152
        52  -9.2946    105.9963    140.2494   1.0555217005e+02   3.2414249416e+01    0.3987944    0.2662224 -13.94  0.001564504    2.485    0.598
        53 -11.5350     92.5575    142.3024   1.0996506255e+02   3.4320163342e+01    0.2873152    0.2685643 -23.02  0.000419919    1.191    0.160
        54  -9.8622     76.9729    133.7124   1.1328360940e+02   3.9069014877e+01    0.2196296    0.1864122  43.31 0.0004392337    1.122    0.109
        55  -9.3913    105.8491    130.5204   1.0354057518e+02   3.4748509284e+01    0.3053038    0.2670375 -69.31  0.001551112    1.218    0.179
        56 -11.5642     46.0697    129.6770   1.2324849817e+02   4.4484125574e+01    0.5021703    0.2603833  30.21  0.002144733    1.869    0.465
        57  -9.2318    136.0000    129.0102   9.4860508254e+01   2.9083152442e+01    0.2504385   0.08718651 -46.75 0.0008030799    2.947    0.661
        58 -10.3818    118.1477    127.0818   9.9201682470e+01   3.3139315664e+01    0.5223729    0.2533886 -46.66  0.001985697    2.139    0.533
        59 -10.1648    100.4606    128.0551   1.0462880386e+02   3.6360431220e+01    0.3124744    0.2587385 -15.08 0.0006857365    1.487    0.328
        60  -9.0646    126.1426    127.9560   9.7200453309e+01   3.1326010393e+01    0.2536122    0.1826923 -83.05 0.0006836073    2.020    0.505
        61  -9.5333    113.2266    131.4867   1.0159637737e+02   3.3098126728e+01    0.3193391    0.2473263  -7.66 0.0009707044    1.726    0.421
        62 -11.8572     39.8802    124.6086   1.2475656626e+02   4.6543768205e+01    0.7256082    0.3093182 -55.65  0.002852556    2.266    0.559
        63 -12.6081     41.5104    114.5926   1.2260939754e+02   4.9029121676e+01    0.7994677    0.5019112 -29.70  0.003500693    2.073    0.518
        64  -9.1855    109.0160    120.0165   1.0019408678e+02   3.6609345236e+01    0.2302515     0.218699  47.21 0.0003433665    1.018    0.018
        65  -8.9646    110.1939    115.8345   9.8829448654e+01   3.7346967491e+01    0.2322317    0.2067338  78.84 0.0005123521    1.211    0.174
        66 -12.2292    112.0199    220.2333   1.1650014850e+02   1.4386008228e+01    0.6674106    0.5114911  -1.26  0.001832023    1.531    0.347
        67  -9.3288    134.6140    111.3069   9.0908259252e+01   3.3162751589e+01     0.308437     0.147187 -49.29   0.00114194    2.197    0.545
        68 -10.8293    119.9265    111.1600   9.4826603105e+01   3.6375230856e+01    0.4767513    0.2843438  66.28   0.00174321    2.506    0.601
        69  -9.3617    205.5599    110.0149   7.6207899689e+01   1.8501049969e+01    0.2383287    0.1834535  28.03 0.0007690402    1.529    0.346
        70 -12.4227     98.2674    204.2865   1.1785899060e+02   1.9404887794e+01    0.5427811    0.4617619  78.96  0.002010784    1.360    0.265
        71  -9.2157    167.5983    112.5593   8.3634531051e+01   2.5754212594e+01     0.331612    0.2225889 -76.36  0.001368649    2.459    0.593
        72  -8.9276    134.4989    102.9527   8.8752077511e+01   3.4945642915e+01    0.2390214    0.1532778 -44.04  0.001030176    1.581    0.368
        73  -9.1823     24.7797     82.2584   1.2410879797e+02   5.9268766230e+01    0.1909194    0.1476129 -41.13 0.0003730858    1.289    0.224
        74  -9.1516     63.5120     69.9033   1.0255308611e+02   5.7249835908e+01    0.2217246    0.1474687 -52.25 0.0005322312    1.524    0.344
        75 -10.1846    159.6259     61.3513   7.1395239076e+01   3.6627472513e+01    0.3234007    0.2430972 -85.05  0.000766106    1.457    0.314
        76  -9.1912     84.5627    234.3288   1.2428249139e+02   1.5483320207e+01    0.2092278    0.1792733 -35.65 0.0009346918    1.503    0.334
        77  -9.4907    161.6309     54.9420   6.9166105035e+01   3.7122458872e+01    0.2531213    0.1844402 -74.20 0.0005549345    1.477    0.323
        78 -12.8480    184.5191     40.3097   6.1786899996e+01   3.3589555083e+01    0.8365113    0.6571862  43.28  0.002012301    1.573    0.364
        79  -9.5468     77.8780    243.6730   1.2657076261e+02   1.4645515244e+01    0.2025453    0.1553996  34.49 0.0007943476    1.059    0.056
        80 -11.0704    113.7566    247.6203   1.1912512807e+02   9.4828624161e+00    0.6195726    0.1911194  26.56  0.002410731    3.151    0.683
        81  -8.5588    150.5280     23.4176   6.1125283901e+01   4.4185405234e+01    0.1441108    0.1217382 -80.26 0.0001786764    1.070    0.065
        82 -11.0184     92.1694    157.7786   1.1283919662e+02   3.0644835745e+01    0.6499634    0.4253254 -24.90   0.00211556    2.281    0.562
        83 -11.1843    119.6656    238.6804   1.1690748657e+02   1.0157839551e+01    0.3008365    0.1997749 -22.99  0.001525864    2.032    0.508
