#   1 NUMBER                 Running object number                                     
#   2 MAG_AUTO               Kron-like elliptical aperture magnitude                    [mag]
#   3 X_IMAGE                Object position along x                                    [pixel]
#   4 Y_IMAGE                Object position along y                                    [pixel]
#   5 X_WORLD                Barycenter position along world x axis                     [deg]
#   6 Y_WORLD                Barycenter position along world y axis                     [deg]
#   7 A_WORLD                Profile RMS along major axis (world units)                 [deg]
#   8 B_WORLD                Profile RMS along minor axis (world units)                 [deg]
#   9 THETA_WORLD            Position angle (CCW/world-x)                               [deg]
#  10 FWHM_WORLD             FWHM assuming a gaussian core                              [deg]
#  11 ELONGATION             A_IMAGE/B_IMAGE                                           
#  12 ELLIPTICITY            1 - B_IMAGE/A_IMAGE                                       
         1 -13.3445    228.0467    100.7636   5.1953485378e+01   1.4938935951e+01     2.490599    0.7816994 -38.09  0.004557509    2.803    0.643
         2 -13.7049    179.7109     77.1673   5.4019514356e+01   2.9642087862e+01     5.768638     0.787235 -41.60   0.01342271    6.125    0.837
         3 -14.5986    240.5262     87.9305   4.7361221786e+01   1.4553754553e+01     8.494598     1.494145 -39.52   0.02551781    4.316    0.768
         4 -13.5166    235.5732     64.0501   4.2696265940e+01   1.9203909892e+01     2.912552     1.198101 -60.58  0.007444236    3.697    0.729
         5 -14.8706    236.4597     45.1534   3.8473425704e+01   2.1668350422e+01     8.978807     1.230556  62.18    0.0275469    5.774    0.827
         6 -12.5160    249.6902     24.6291   3.3075705335e+01   2.1575965386e+01    0.8396792     0.267829 -32.86  0.002464284    3.110    0.679
         7 -11.0259    144.7574     28.7737   4.6328609001e+01   4.5078867380e+01     0.526265    0.2117455 -28.05  0.002134884    2.724    0.633
         8 -11.2096    227.6313     17.0002   3.3226509809e+01   2.6998709167e+01     0.391546    0.1942284 -31.55  0.002045343    2.119    0.528
         9 -11.5907    233.1697      7.4716   3.0823013911e+01   2.6870570335e+01    0.5030185    0.2648601 -26.93  0.001930623    2.277    0.561
        10  -9.8219    214.2591     14.7657   3.3862130468e+01   3.0152126637e+01    0.2471361    0.2014534  18.92  0.001356931    1.858    0.462
        11  -9.0310    189.4646     14.6214   3.6207326836e+01   3.5826011662e+01    0.2345776    0.1840985 -70.59 0.0005432864    1.172    0.147
        12 -10.5363    135.0371     13.5156   4.3179411138e+01   4.9010862455e+01     0.271728    0.2257299   2.59   0.00149777    1.417    0.294
        13  -9.1916    197.2457     12.4830   3.4898181294e+01   3.4239921804e+01    0.3435464    0.1682536 -67.60  0.001591636    2.308    0.567
        14  -6.9458    224.1087      8.4168   3.1679263696e+01   2.8684433080e+01    0.3357653     0.138364 -33.19  0.001662392    2.392    0.582
        15  -8.1011    184.0643     10.8793   3.5840019907e+01   3.7474825451e+01    0.1610297    0.1370042  55.36 0.0003837149    1.284    0.221
        16  -8.3870    139.6389      8.3137   4.0786509725e+01   4.8371936624e+01    0.1353624   0.09124032 -71.96 5.659353e-05    1.754    0.430
        17  -9.7043    119.8467      5.4090   4.3130658606e+01   5.3319946562e+01    0.2853933    0.1785972 -29.99   0.00113764    1.806    0.446
        18 -10.1789    249.0764      4.1179   2.9126301996e+01   2.4005018148e+01    0.1883043    0.1459904  88.48 0.0005258282    1.226    0.185
        19  -9.1312    184.9934      4.8066   3.4221695977e+01   3.7840804485e+01    0.1912891    0.1159175 -55.63 0.0009376526    1.626    0.385
        20  -8.9980    113.0197      3.0000   4.3548523421e+01   5.5097624465e+01    0.2175515   0.06310396  64.55 0.0008037334    2.951    0.661
        21  -9.8719      5.4828    173.5200   1.2042923480e+02   3.7065648632e+01    0.2734359    0.1529634 -74.33  0.001350335    1.473    0.321
        22 -10.4385    248.5724    248.9680   7.8006612211e+01  -1.1641699319e+01    0.3477758    0.1938249  22.28  0.002175482    1.548    0.354
        23  -9.6528    235.8092    179.7385   6.7707873779e+01  -3.1958163232e-03     0.224776    0.2062624  13.90 0.0004925214    1.227    0.185
        24  -8.1738     44.5825    177.4634   1.1133711533e+02   3.2361937226e+01    0.1328966    0.1148022  89.71 0.0001444731    1.012    0.012
        25 -10.9548     68.0565    144.2961   1.0011842936e+02   3.7636906761e+01     1.528235    0.8361686  26.86  0.005144903    2.103    0.525
        26 -13.2627     32.5100    159.3912   1.1231649974e+02   3.8077922795e+01     1.696197     1.100918   5.81  0.001995894    2.241    0.554
        27 -12.9607     43.5745    154.2052   1.0865671822e+02   3.8201211687e+01     1.093415    0.9695297 -22.20  0.002917109    1.372    0.271
        28 -11.0655    230.1963    168.3581   6.6389831751e+01   2.8025175045e+00    0.5787995    0.2738882 -31.20  0.002542631    2.038    0.509
        29  -8.6398    202.2014    245.1108   8.5792002957e+01  -5.1006861505e+00    0.1777683    0.1366128   4.35 0.0002605898    1.126    0.112
        30 -12.1370    201.8086     77.1200   5.0295227643e+01   2.4519634072e+01     1.211446    0.4794069  45.98   0.00440544    3.084    0.676
        31 -12.1052    246.3047     54.4578   3.9481508899e+01   1.8397163121e+01    0.9762731    0.3205583 -48.28  0.001731207    2.656    0.623
        32  -9.1460    201.4104    227.8601   8.3120204614e+01  -2.4286274226e+00    0.2365216    0.2174969 -86.66 0.0009015616    1.766    0.434
        33  -8.6105    249.6772    222.3006   7.3293361719e+01  -8.3535946352e+00   0.09907886   0.09506542 -15.34 0.0002866096    1.630    0.386
        34 -10.1093    156.4176    136.9409   7.4495396837e+01   2.3194706491e+01     0.491709    0.2493723  55.30  0.001765986    2.501    0.600
        35 -10.3661    221.2083    221.3909   7.8218934744e+01  -4.3550935548e+00    0.2138175    0.1840547  -7.46 0.0001562094    1.153    0.132
        36  -8.3024     92.8439    129.8930   8.9860537224e+01   3.7370167170e+01    0.2202107    0.1954588 -27.52 0.0004429693    1.187    0.157
        37 -10.1410    161.1899    128.3427   7.1281875002e+01   2.4017832774e+01    0.4030431    0.2890431 -57.91  0.001806671    1.569    0.363
        38  -9.7453    208.7605    126.9825   6.1177308196e+01   1.4196678444e+01    0.2503179    0.2170517  46.05 0.0009204401    1.257    0.204
        39 -10.9969    216.4750    124.5090   5.9245955396e+01   1.3100898767e+01    0.5271349    0.3137709 -19.67  0.002224887    2.248    0.555
        40 -10.0540    214.4039    120.8946   5.8769917732e+01   1.4171507551e+01    0.2523793    0.2268206   7.32 0.0004396549    1.230    0.187
        41  -9.7508    162.7498    119.8788   6.8800382450e+01   2.5453231963e+01    0.2964751     0.214062  80.47  0.001243475    2.044    0.511
        42 -11.6969    204.4140    111.3300   5.8258409837e+01   1.7989746488e+01    0.7283505    0.5123661  -7.69  0.002691892    2.022    0.506
        43 -10.1654    168.2599    113.7005   6.5988879132e+01   2.5490700012e+01    0.5560001    0.3463493 -31.77  0.002353666    1.718    0.418
        44 -10.0931    134.6427    109.5263   7.2926165309e+01   3.3857050453e+01    0.9810669    0.1627337 -45.13  0.002132123    6.045    0.835
        45  -8.1944     77.5752    108.3438   8.9446338992e+01   4.5102896988e+01    0.1407414    0.1379662 -33.07 0.0001264602    1.055    0.052
        46 -10.3372      5.8155    107.5089   1.1341915347e+02   5.2953849211e+01    0.2511072    0.1541578 -69.44  0.001416727    1.324    0.245
        47  -8.2920    127.4813    105.4628   7.3711663325e+01   3.6284937501e+01    0.1552538    0.1518075 -13.98 9.058803e-05    1.008    0.008
        48  -8.7070    215.3451    103.3046   5.4500162103e+01   1.7114692598e+01    0.1408445    0.1112758   8.12 0.0006664329    1.690    0.408
        49  -9.5392    150.3726    102.1072   6.6988103462e+01   3.1890093942e+01    0.3099456    0.2723224   8.15 0.0007405889    1.282    0.220
        50  -9.0768    167.8292     99.6293   6.2392763296e+01   2.8365312896e+01    0.3536156    0.1844615 -25.13    0.0012371    2.731    0.634
        51  -9.0356    189.3338    221.9504   8.4510702656e+01   3.6701480711e-01    0.2502094    0.1649234  32.04 0.0009955073    1.373    0.271
        52 -10.5277    161.8496     96.4578   6.2827554969e+01   3.0360216414e+01    0.6086656    0.3409463  37.04  0.002397617    2.128    0.530
        53  -9.1350    136.1128     98.0857   6.9381045549e+01   3.5937543024e+01    0.2593668    0.2264194  70.93 0.0005106586    1.282    0.220
        54  -9.3101    197.1127     97.1937   5.6086976528e+01   2.2143087975e+01    0.3076115     0.203701  67.34 0.0008812412    1.775    0.437
        55  -9.8201    169.3522     93.9225   6.0543024936e+01   2.9095558010e+01    0.3453923     0.273719 -77.22 0.0009729307    1.523    0.344
        56 -10.0982    144.4901     92.2483   6.5641391646e+01   3.5201038778e+01    0.3184935    0.2825163 -49.63 0.0006588489    1.142    0.124
        57  -7.6271    209.3031     92.2826   5.2837205092e+01   2.0314643030e+01    0.1348717    0.1121358  10.39 0.0004287995    1.554    0.357
        58 -10.2727     95.0648     89.2749   7.8529195641e+01   4.6372479322e+01    0.2508442    0.2175187 -35.64 0.0002827342    1.113    0.102
        59  -8.6500      2.3192     90.3257   1.1199644686e+02   5.7206303562e+01    0.1348195   0.06995986 -43.73 0.0003320408    1.678    0.404
        60 -11.4534    160.4933     87.2205   6.0575551637e+01   3.2418587572e+01    0.3513946    0.3036462 -19.63 0.0006860236    1.260    0.206
        61 -11.4129    187.1559     84.2439   5.4550927628e+01   2.6689274729e+01    0.6123841    0.3890544 -48.37 0.0003628584    1.549    0.355
        62 -10.4239     18.8539     81.8400   1.0415515119e+02   5.8155373093e+01    0.6429006    0.2361001 -71.08   0.00234417    3.507    0.715
        63  -9.1060    190.7606    217.2106   8.3402619695e+01   9.2757000929e-01    0.2155538    0.1842019  17.23 0.0003745843    1.058    0.055
        64  -9.3050    161.0816     77.3793   5.7683443250e+01   3.4042811750e+01    0.4284644    0.2490052 -50.02  0.001811754    1.849    0.459
        65 -11.1787    136.2150     72.7043   6.1863442816e+01   4.0762975744e+01     0.629487    0.2192633  42.54  0.001981528    3.242    0.692
        66 -10.8000      7.2491     71.8535   1.0660082736e+02   6.1148999198e+01    0.3181569    0.1777111 -56.14 0.0005803119    1.398    0.285
        67  -9.3422    134.3938    147.3006   8.2357141834e+01   2.5409785599e+01    0.7105171    0.2559465 -55.93  0.002058298    3.687    0.729
        68  -8.7096    131.2794    138.6932   8.1182338311e+01   2.8017527881e+01    0.4810359    0.3331488  86.86  0.001404659    2.436    0.590
        69  -9.3403    222.7835    145.0603   6.2751282432e+01   8.1819236844e+00    0.2128111    0.2004264  11.82 0.0003615751    1.133    0.118
        70 -11.9588      4.5762     59.7741   1.0494970353e+02   6.3912384070e+01    0.8157121    0.3001704 -62.17   0.00377212    2.301    0.565
        71 -13.2938    220.5512     68.1557   4.5460678197e+01   2.1768236589e+01     1.207037     1.094352  32.47  0.007380493    1.376    0.273
        72 -10.4319    192.0285    143.4840   6.8207356637e+01   1.4428422289e+01    0.4739103    0.2807805 -48.73  0.001574664    1.746    0.427
        73  -9.5827    124.0759     54.2756   5.8963001915e+01   4.6633228189e+01    0.2514288    0.2108208 -30.81 0.0003702983    1.244    0.196
        74 -10.5965    186.4104    139.0300   6.8329178563e+01   1.6458487279e+01    0.3548922     0.303838 -29.57 0.0001424146    1.122    0.109
        75  -9.5262    192.1858     42.8882   4.3027045000e+01   3.1841768765e+01    0.4734221    0.2446183 -54.82  0.001737559    2.077    0.518
        76  -8.6221    195.2879     39.6398   4.1798651197e+01   3.1537564120e+01    0.2528765    0.2100478 -83.93 0.0008544903    1.116    0.104
        77 -10.8165    191.1769    136.1086   6.6671241364e+01   1.6053471704e+01    0.3462312    0.2977572  19.63 0.0009136322    1.252    0.201
        78 -10.5659    155.8105     37.6132   4.7086781577e+01   4.1318600962e+01     0.487972    0.2031734  70.52  0.001806232    2.772    0.639
        79 -10.3788    230.8222     32.1156   3.6194276593e+01   2.4533062660e+01    0.5198488    0.4099554 -38.98  0.003338275    1.313    0.238
        80  -8.6441    231.3846     26.2669   3.4887781918e+01   2.5126886440e+01    0.2470569    0.1607049 -73.47  0.001454667    1.422    0.297
        81  -8.8263    190.1763     35.6761   4.1444342970e+01   3.3246978135e+01    0.2199299    0.1621659 -48.44 0.0006542882    1.317    0.241
        82  -8.6557    115.6526     36.3242   5.4894582720e+01   5.1103431917e+01    0.1393951     0.108074 -75.87 0.0007049654    1.745    0.427
        83  -9.8898    138.0832     33.6073   4.9094698765e+01   4.6130134496e+01    0.2588257    0.2084297  -8.60 0.0009445027    1.448    0.309
        84  -9.0515    158.7554    143.1167   7.5405751757e+01   2.1366599283e+01    0.2709689    0.2123187  53.25 0.0008064527    1.379    0.275
        85  -9.7532     37.6918    213.1453   1.1642963261e+02   2.4923887664e+01    0.2227855    0.1415771  51.66    0.0012876    1.387    0.279
        86 -10.0516    179.2619     24.0530   3.9806622257e+01   3.7228561040e+01    0.4644765    0.3269624  86.38  0.002247833    1.362    0.266
        87  -8.4562    154.6549     26.3084   4.3921604664e+01   4.2944336398e+01    0.1415612   0.09706778 -72.25  0.000704405    1.699    0.411
        88  -9.3185    250.1470    211.2650   7.1236232907e+01  -6.8838598970e+00    0.2169284    0.1581408 -30.93  0.000706048    1.344    0.256
        89  -9.0998    231.6133     17.6847   3.3052316999e+01   2.6078045852e+01    0.2618439    0.1145061 -29.57  0.001202945    2.537    0.606
        90  -8.5863    191.1405    212.5262   8.2498062458e+01   1.6565680539e+00    0.1935575    0.1206724  32.12 0.0004188135    1.486    0.327
        91 -10.8930    177.8027    140.5679   7.0511189912e+01   1.7932091304e+01    0.4330128    0.3350919 -77.44  0.001996894    1.806    0.446
        92 -10.3960    121.6396     26.3840   5.0050805217e+01   5.0894014944e+01    0.2513185    0.1762826 -20.34  0.001341993    1.598    0.374
        93  -9.4115    118.9474     17.4929   4.7518432336e+01   5.2454974643e+01    0.2102991    0.1180362  61.26 0.0008502356    1.588    0.370
        94 -10.0576    158.2970    206.9311   8.8463084396e+01   8.1634343241e+00    0.2392899    0.2339343 -23.40 0.0004012816    1.136    0.120
        95  -8.0049    166.9876     16.5185   3.9339783803e+01   4.0988624494e+01     0.182409    0.1157426  70.74 0.0009661556    1.399    0.285
        96  -8.0907    221.8729    205.8282   7.5272614404e+01  -2.0629797090e+00    0.1575366    0.1473561  16.58 0.0003954027    1.315    0.239
        97  -9.1430    247.2063    203.1451   7.0243628238e+01  -5.3149511562e+00     0.158691    0.1397471 -28.15 0.0006486325    1.370    0.270
        98  -7.8417    110.2842    203.7078   9.8883450832e+01   1.6935515003e+01    0.1386049    0.1021626  67.41 0.0002230684    1.536    0.349
        99  -9.8894    190.4712    190.9108   7.8603050115e+01   5.5971975195e+00    0.7465127    0.4646969 -73.62  0.002337017    5.568    0.820
       100  -8.5745    236.0455    197.3410   7.1093742617e+01  -2.8477986094e+00    0.1800109    0.1498509   2.51  0.000723263    1.085    0.078
       101  -9.1665     42.8824    193.0752   1.1343517989e+02   2.8856066993e+01    0.1856127    0.1609715  83.65 0.0002960777    1.036    0.035
       102  -8.7988    180.8383    192.2297   8.0880033981e+01   7.0384351625e+00    0.1949044    0.1814939  24.70 0.0003088274    1.118    0.105
       103  -9.2623    181.8903    183.3848   7.8922176950e+01   8.5370668012e+00    0.3595685    0.2660261  74.41  0.001394276    2.309    0.567
       104 -10.7766      1.7058    176.9064   1.2154908061e+02   3.6569623509e+01    0.6725007    0.1716466 -76.99  0.002311121    3.229    0.690
