#   1 NUMBER                 Running object number                                     
#   2 MAG_AUTO               Kron-like elliptical aperture magnitude                    [mag]
#   3 X_IMAGE                Object position along x                                    [pixel]
#   4 Y_IMAGE                Object position along y                                    [pixel]
#   5 X_WORLD                Barycenter position along world x axis                     [deg]
#   6 Y_WORLD                Barycenter position along world y axis                     [deg]
#   7 A_WORLD                Profile RMS along major axis (world units)                 [deg]
#   8 B_WORLD                Profile RMS along minor axis (world units)                 [deg]
#   9 THETA_WORLD            Position angle (CCW/world-x)                               [deg]
#  10 FWHM_WORLD             FWHM assuming a gaussian core                              [deg]
#  11 ELONGATION             A_IMAGE/B_IMAGE                                           
#  12 ELLIPTICITY            1 - B_IMAGE/A_IMAGE                                       
         1 -12.3893    202.1255     33.5320   4.8666872405e+01   3.0509893851e+01     1.144615    0.9283695  41.40  0.005029628    1.402    0.287
         2 -12.0469    216.2706     18.3182   4.2974959460e+01   2.8843936651e+01    0.7738501    0.6750246 -56.81  0.002823631    1.089    0.082
         3 -10.1998     12.3887     16.9746   9.8126031334e+01   7.0930086512e+01    0.2939951    0.1193946 -51.27  0.001523443    2.182    0.542
         4  -8.8938     33.0000      4.5023   8.1507933847e+01   7.0813160740e+01    0.3760146   0.05666339 -37.35  0.001158102    5.952    0.832
         5  -9.6148     17.9852      3.0241   8.8559115754e+01   7.2664487046e+01    0.1509887    0.1397867 -45.19  0.001142614    1.743    0.426
         6 -10.6488     52.1290    242.4089   1.2336149497e+02   1.8795574079e+01    0.3158815    0.2713029 -60.66  0.002450272    1.685    0.407
         7 -10.9548     64.7404    238.8814   1.2091238595e+02   1.7830995274e+01    0.6482214    0.3680257  26.33  0.003496435    2.761    0.638
         8 -10.5598     63.8471    245.3385   1.2154796000e+02   1.6815156906e+01    0.5495482    0.2688108  34.84  0.003093225    2.229    0.551
         9 -12.4913     94.0940    243.7476   1.1606038177e+02   1.2971370191e+01     1.445703    0.3718944  35.99  0.005101142    4.565    0.781
        10 -12.2310     86.7179    250.0129   1.1792586129e+02   1.2963988627e+01     2.140231    0.5174283  34.58   0.00604199    7.809    0.872
        11 -11.4921     71.9246    248.4629   1.2038202636e+02   1.5228206447e+01     1.004051    0.4377622  37.04  0.005421201    2.236    0.553
        12 -10.1354     63.9645    250.5354   1.2189813426e+02   1.5912883486e+01    0.7455655   0.09220456  40.81  0.002676966    4.805    0.792
        13 -12.8811     46.9807    220.0134   1.2270913996e+02   2.3546069235e+01     1.632051     1.303103 -70.98  0.006361476    1.449    0.310
        14 -13.7253     50.0361    198.0489   1.2034203893e+02   2.7586726089e+01     4.047043     1.394628  60.22   0.01597109    3.516    0.716
        15 -10.0475    143.2250    228.1239   1.0504701686e+02   7.9843593160e+00    0.3433874    0.1312117  51.64  0.001392387    2.819    0.645
        16 -10.1224    164.2005    226.6275   1.0077474660e+02   4.7314305967e+00    0.3231359    0.1311966 -42.28  0.001444976    3.029    0.670
        17  -9.8558    164.6904    222.3244   1.0005031372e+02   5.3287084999e+00    0.2012256    0.1683231  51.19  0.001277642    1.184    0.155
        18 -15.4399      7.9790    242.3667   1.3060017973e+02   2.3663612117e+01     14.79492     1.654522 -78.61  0.003187685    8.448    0.882
        19 -10.0230     95.3838    224.7096   1.1395013721e+02   1.6142533573e+01     0.444086    0.2765469  87.88  0.002467677    1.881    0.468
        20  -8.8127    153.3331    229.3067   1.0324943206e+02   6.1206704472e+00    0.1231617   0.09147703  14.56 0.0007040018    1.666    0.400
        21  -8.4410    192.5088    192.4898   8.9566170105e+01   5.2790069863e+00    0.1376482    0.1204336  20.29 0.0008104035    1.026    0.025
        22  -9.6504     59.0543    188.3437   1.1753664757e+02   2.8527316641e+01    0.3165818    0.2204149 -82.97  0.001900411    1.299    0.230
        23  -9.1931     73.5946    188.2101   1.1438873677e+02   2.6616563719e+01    0.3241383    0.1880357  69.37  0.001388268    1.836    0.455
        24 -10.2423     66.4840    180.1256   1.1501088128e+02   2.9352961549e+01    0.3877623    0.2534462 -41.52  0.001944255    2.196    0.545
        25 -10.2890     71.4509    174.5703   1.1321110426e+02   2.9916106133e+01    0.3402033     0.254391 -45.03  0.001097038    1.683    0.406
        26  -8.3402     99.4869    180.4969   1.0761374006e+02   2.4399869777e+01    0.1359866    0.1215927  71.80 4.902969e-05    1.014    0.014
        27 -10.2575    140.7076    237.6522   1.0674797845e+02   6.8526694193e+00    0.2312207    0.1741662  13.26  0.001399242    1.773    0.436
        28  -8.1294    193.7765    166.3576   8.4169181253e+01   9.5696790850e+00    0.1926236     0.181528 -23.19  0.001107118    1.105    0.095
        29 -10.8882     80.8280    164.4229   1.0962396690e+02   3.0883201173e+01    0.6600532    0.4666941 -85.25  0.001102481    1.429    0.300
        30 -10.7047     86.5459    158.2819   1.0729344733e+02   3.1440063919e+01    0.5947045    0.4057409 -32.34  0.001824634    2.152    0.535
        31 -11.6254     67.9759    160.9710   1.1223292137e+02   3.3495613210e+01     0.470118    0.3022698 -45.96   0.00106934    1.864    0.464
        32 -10.6286     72.6137    152.9963   1.0993716732e+02   3.4721465018e+01    0.5719159    0.3164227  66.96  0.002511382    2.296    0.564
        33 -11.6750     68.3351    144.3057   1.0968324342e+02   3.7367953461e+01    0.7483842    0.5139555  77.06  0.003249492    1.602    0.376
        34 -13.5429      9.7830    206.7925   1.2864573494e+02   3.0097040257e+01     1.250182    0.9774595 -88.66  0.005687458    1.233    0.189
        35  -8.2825     39.5163    146.4755   1.1735045020e+02   4.0300057032e+01    0.1288017    0.1053936 -87.39 0.0002895498    1.019    0.019
        36  -9.4473    101.6173    141.9814   1.0058569420e+02   3.2798430637e+01    0.5306339    0.3030391 -31.96  0.002034082    2.823    0.646
        37  -8.3998     83.9422    144.1367   1.0559022290e+02   3.5160501578e+01    0.2235914    0.1814876  77.77  0.001223537    1.248    0.199
        38 -10.4604     88.8812    142.0880   1.0393201136e+02   3.4878275381e+01    0.2844445    0.2500372 -51.77 0.0004272257    1.186    0.157
        39 -10.8696     59.5039    134.0749   1.1038865106e+02   4.0965653205e+01    0.8256814    0.2761437 -70.59  0.002745006    3.603    0.722
        40 -10.2896     57.3620    128.1718   1.1000341739e+02   4.2649056376e+01    0.5069202    0.2493083 -66.74   0.00230632    1.843    0.457
        41  -8.9152     25.4839    137.4753   1.1982781170e+02   4.3759912160e+01    0.2046066   0.09407461  43.73  0.001028845    2.271    0.560
        42  -9.9033     30.0874    156.1934   1.2071383456e+02   3.8994735979e+01    0.3550117    0.1513703  36.71  0.001774305    2.408    0.585
        43  -8.8373    110.6121    131.6971   9.6099110346e+01   3.3602786635e+01    0.2587722    0.1864316  27.46 0.0008534049    1.642    0.391
        44  -8.3994    106.1174    130.8889   9.7120825445e+01   3.4610069202e+01    0.2387633    0.2020274  87.40  0.001238565    1.273    0.214
        45  -9.2380     98.1215    128.0368   9.8671105249e+01   3.6687674688e+01    0.2879015     0.218328 -37.28 0.0006016479    1.471    0.320
        46  -9.4091     32.5793    125.2295   1.1641392714e+02   4.6008335330e+01    0.2532499    0.1082799 -73.16  0.001139638    2.074    0.518
        47  -8.1758    116.2208    125.3945   9.3191206696e+01   3.4009026078e+01    0.2202686    0.1402516  52.12 0.0009571248    1.679    0.404
        48  -8.0474    107.6504    120.0196   9.4258525313e+01   3.6872388049e+01     0.204298    0.1798493 -53.39 0.0003458334    1.094    0.086
        49  -8.2217    168.1892    112.7764   7.7119425762e+01   2.5561975845e+01    0.2628693    0.1741789 -81.16 0.0009438297    2.756    0.637
        50 -11.3662     22.3496    109.9319   1.1716081453e+02   5.0497295708e+01     0.477868    0.2919887 -83.21  0.002675698    1.526    0.345
        51  -8.2082    205.5134    110.4651   6.8829251236e+01   1.7348213977e+01    0.1508453    0.1444217 -29.01  0.000186045    1.011    0.011
        52  -8.0084    134.4985    112.5085   8.5201348734e+01   3.3196063859e+01    0.1546285    0.1521505 -32.07 0.0008105188    1.024    0.023
        53  -8.8151    134.7204    103.4258   8.2718715385e+01   3.5124479428e+01     0.280792    0.1935422 -23.90  0.001184476    1.803    0.445
        54  -8.9796     33.0000    101.8365   1.1265060177e+02   5.1519167393e+01    0.3689061   0.06169191 -65.31   0.00105015    4.924    0.797
        55  -9.3665    238.9748     97.8331   6.0052402888e+01   1.2088449133e+01    0.2362973    0.1618298  22.94  0.001100189    1.992    0.498
        56 -11.7531    123.3423    227.4089   1.0882400682e+02   1.1338215580e+01    0.6887562    0.5324128  79.55  0.004358192    1.426    0.299
        57 -10.4693     90.0348    230.1997   1.1552770460e+02   1.5924082084e+01    0.3724928    0.2188986  88.23  0.001262078    2.030    0.507
        58 -10.5557    134.2701    230.8274   1.0712790756e+02   8.9987814671e+00    0.2337818    0.2103921 -53.68  0.001576333    1.356    0.262
        59  -9.6479    144.5366     49.2630   6.3545309659e+01   4.3013536340e+01    0.4899367    0.3241461 -86.35  0.001602127    2.417    0.586
        60 -10.5615     12.3184     48.7023   1.0875608386e+02   6.4900544544e+01    0.2713187    0.1431059 -63.07  0.001515594    1.670    0.401
        61 -11.9587     41.0625    208.0711   1.2292899195e+02   2.6590873671e+01    0.8947139    0.6347883 -24.05  0.004932956    3.231    0.690
        62 -11.3354    193.4366     39.6412   5.1586076816e+01   3.1909809446e+01    0.5679469    0.3608953  42.40  0.001658701    1.798    0.444
        63  -7.9501    173.6674    248.3175   1.0200093121e+02   2.6449233897e-02    0.1157774   0.08293277  59.24  0.000162579    1.691    0.408
        64 -10.5992    210.6576     24.8298   4.5275228622e+01   2.9458941662e+01    0.4729715    0.3364178  29.95  0.001178977    1.909    0.476
        65 -11.0462    114.5683    243.4964   1.1229715136e+02   9.9925232716e+00    0.3296852    0.3037488 -88.80  0.002257482    1.274    0.215
        66 -11.4531    103.1378    228.7366   1.1288302716e+02   1.4249898402e+01     0.751166    0.2149768  46.14  0.003073164    2.808    0.644
        67 -10.6622    114.0181    229.0151   1.1081982086e+02   1.2529771859e+01    0.3337439    0.2856242  54.72   0.00228481    1.071    0.066
        68 -10.5794    119.6256    242.2292   1.1122809152e+02   9.4284631522e+00     0.232219    0.2142413 -49.55  0.001675394    1.421    0.296
        69 -11.0310    133.4608    239.7029   1.0836061957e+02   7.6802237846e+00    0.3477296    0.1907199  30.21   0.00180783    2.022    0.506
