#   1 NUMBER                 Running object number                                     
#   2 MAG_AUTO               Kron-like elliptical aperture magnitude                    [mag]
#   3 X_IMAGE                Object position along x                                    [pixel]
#   4 Y_IMAGE                Object position along y                                    [pixel]
#   5 X_WORLD                Barycenter position along world x axis                     [deg]
#   6 Y_WORLD                Barycenter position along world y axis                     [deg]
#   7 A_WORLD                Profile RMS along major axis (world units)                 [deg]
#   8 B_WORLD                Profile RMS along minor axis (world units)                 [deg]
#   9 THETA_WORLD            Position angle (CCW/world-x)                               [deg]
#  10 FWHM_WORLD             FWHM assuming a gaussian core                              [deg]
#  11 ELONGATION             A_IMAGE/B_IMAGE                                           
#  12 ELLIPTICITY            1 - B_IMAGE/A_IMAGE                                       
         1 -13.2314    198.4715     38.7234   4.3354888027e+01   3.1009741944e+01     1.661608     1.064737  24.88     0.007599    2.408    0.585
         2 -12.2777    226.5857      7.9092   3.2838507528e+01   2.8171428720e+01    0.8804494    0.7132056 -51.42  0.003985081    1.005    0.005
         3 -10.3138     50.1557      6.7207   6.3382171571e+01   7.0994891366e+01    0.2014558    0.1758237  67.23  0.001216632    1.445    0.308
         4  -9.5998     58.4702      2.3137   5.6841849499e+01   6.9838026486e+01    0.2388686    0.1157541  55.93  0.001086701    2.038    0.509
         5  -9.6906    101.5789    245.2998   1.0482325217e+02   1.2581908145e+01      0.26127      0.11514 -65.84  0.001406895    3.112    0.679
         6 -18.4961     11.6980    173.5409   1.1939700082e+02   3.6411085090e+01     17.63421     3.775105 -83.52   0.05959304    4.670    0.786
         7 -10.1446    121.3855    196.9283   9.5387324600e+01   1.8075788133e+01    0.3509415    0.2284551 -77.33  0.001079182    2.285    0.562
         8  -9.8528    193.5059    195.2986   8.0497726683e+01   7.5644169685e+00    0.4672689    0.2758635 -61.99  0.001839002    5.073    0.803
         9 -10.0442    114.7367    195.9901   9.6737395044e+01   1.9227871552e+01    0.4431926    0.1142169 -48.25  0.001532039    4.494    0.777
        10  -8.7628     81.8341    195.3717   1.0418084652e+02   2.3960265081e+01    0.2546685    0.1570531   3.82  0.001144185    2.940    0.660
        11 -10.2042    106.6914    249.5613   1.0421376531e+02   1.1314167909e+01    0.3003073    0.1909775  27.84  0.002000532    1.354    0.262
        12  -8.4961    147.1497    187.2968   8.8361754968e+01   1.5879993838e+01    0.2064646    0.1511713  16.77 0.0006421508    1.414    0.293
        13 -10.7467    102.6686    239.5846   1.0409938782e+02   1.3333981781e+01    0.3577124    0.2165241  12.85  0.002009935    2.237    0.553
        14  -9.2463    114.6062    185.2102   9.5284521150e+01   2.1316964551e+01    0.1771861    0.1218229 -44.34 0.0009553296    1.652    0.395
        15  -8.2767     91.4315    182.9935   1.0046107225e+02   2.5183645349e+01    0.1800958     0.128407 -66.97 0.0004701763    1.527    0.345
        16  -9.2389     99.2725    180.8609   9.8292983594e+01   2.4491340518e+01    0.2201054    0.2033618  26.03   0.00072226    1.136    0.120
        17  -9.0549     83.8439    245.5561   1.0828883675e+02   1.4680196285e+01    0.1746877    0.1493429  73.64 0.0006734192    1.293    0.227
        18  -9.4224    186.8692    175.4880   7.8286018913e+01   1.1550733637e+01    0.2810878    0.2375724 -30.00  0.001138527    1.229    0.186
        19 -10.3834    109.5158    171.4911   9.4455916313e+01   2.4883857810e+01    0.3830197    0.3200236 -44.63  0.002224735    1.318    0.241
        20  -8.5088     84.0219    173.5216   1.0107035496e+02   2.8260589936e+01    0.2012556    0.1210217  36.98 0.0005527512    1.524    0.344
        21 -10.8764     73.4910    171.4996   1.0349237865e+02   3.0160570410e+01    0.3865539    0.3029958 -44.52  0.002213347    1.526    0.345
        22 -10.7574     77.9686    166.2462   1.0166955788e+02   3.0731331746e+01    0.4087405    0.3099529 -26.12  0.002170528    1.819    0.450
        23 -10.1248    102.9209    171.8126   9.6119491029e+01   2.5839915896e+01    0.3600725    0.1661528  39.56  0.001542113    1.950    0.487
        24  -7.7959    146.4479    171.5279   8.5873872568e+01   1.8854777154e+01    0.1334253    0.1236359  25.10 0.0002154241    1.028    0.027
        25 -10.8730     46.7595    171.5078   1.1038169502e+02   3.3461662984e+01    0.3992127    0.3705967 -81.19  0.002648893    1.190    0.160
        26  -9.8654     96.0310    168.2372   9.7309085182e+01   2.7659271562e+01    0.3203905    0.1675951  48.63  0.001444382    1.881    0.468
        27  -9.3709     50.5158    165.5138   1.0882163880e+02   3.4415469168e+01    0.2421721    0.2084563  25.20  0.001097457    1.321    0.243
        28 -10.5282     92.4133    151.6966   9.5679900380e+01   3.1928219748e+01    0.5981432      0.45448 -11.81  0.002273381    1.871    0.465
        29 -10.1831    134.1904    147.7409   8.4242730979e+01   2.5681034495e+01    0.7260883     0.209711 -52.78  0.002189337    4.127    0.758
        30  -9.6233    104.7898    137.7236   8.9793839607e+01   3.3117138497e+01     0.539493    0.3237171 -23.42  0.002003557    3.074    0.675
        31  -9.4369    106.0159    130.8708   8.8067879299e+01   3.4486212924e+01    0.3445127    0.3142441 -76.83  0.001391125    1.115    0.103
        32 -10.7552     92.6827    137.3477   9.3089945505e+01   3.5244197556e+01    0.2812856    0.2595669 -46.79 0.0002970305    1.154    0.133
        33 -10.8250    148.7906    228.6116   9.3856256167e+01   8.9888846505e+00    0.3785591    0.2094501  36.74  0.001947912    1.488    0.328
        34 -10.3039    113.6777    129.0963   8.5591483105e+01   3.3503802822e+01    0.3833231    0.3103472  37.12  0.000960923    1.247    0.198
        35  -9.1964    100.3830    124.8735   8.8387644804e+01   3.6891135657e+01    0.2612876    0.2294987   9.57 0.0005085571    1.328    0.247
        36  -9.8322    119.3641    123.7416   8.2867446733e+01   3.3642363455e+01    0.2888529    0.1805615  51.07  0.001264377    1.696    0.410
        37  -8.2719    109.0042    118.2341   8.4438808393e+01   3.6868171840e+01    0.2052978    0.1894535  53.05 0.0003616359    1.087    0.080
        38  -8.9686    231.3477    113.7029   5.7970136007e+01   1.3552905950e+01    0.2395497    0.2003553  -9.14 0.0007938436    1.140    0.123
        39  -9.4115    134.8429    113.0051   7.6265410900e+01   3.2899045144e+01    0.3727523    0.1071874 -45.19  0.001105675    3.424    0.708
        40 -10.4955     55.3339    110.3512   9.9717221652e+01   4.7527749481e+01    0.3796092    0.1835494  47.67  0.001552418    2.217    0.549
        41 -10.8076    145.3867    223.8925   9.3927638917e+01   1.0149687352e+01    0.3154468    0.2168067 -13.35  0.001905103    1.872    0.466
        42  -8.4638    168.2088    112.8134   6.8607481532e+01   2.5959386442e+01    0.2478987    0.1636628 -76.57 0.0009550598    2.862    0.651
        43 -10.6632    119.9908    111.4702   7.9751950674e+01   3.6265441309e+01    0.3735022    0.2722699  58.64  0.001602875    1.528    0.346
        44  -8.4327    204.8443    110.6142   6.1300515737e+01   1.8921253951e+01     0.275245    0.1179463  41.62  0.001104847    2.684    0.627
        45  -9.7813    134.6588    211.5351   9.4501455935e+01   1.3600012216e+01    0.2402375    0.1766331 -11.99  0.001434784    1.719    0.418
        46  -8.8439     89.6940    211.7291   1.0411445861e+02   1.9760398820e+01    0.2176954    0.1629191  45.49 0.0006143901    1.116    0.104
        47  -9.3602     71.2862    209.9397   1.0798480750e+02   2.2436493314e+01    0.2938788    0.2159373 -55.88  0.001869003    1.636    0.389
        48  -9.5900    142.5034    209.0608   9.2554537590e+01   1.2883103286e+01    0.2049526    0.1547686  46.03  0.001278989    1.330    0.248
        49 -11.4364    182.6960     52.5527   4.9356839462e+01   3.2866148556e+01     0.528533     0.432429  -0.56  0.001223159    1.473    0.321
        50  -9.6830    139.8343    248.7436   9.7876273736e+01   7.3151147954e+00    0.1882797    0.1642557 -76.76  0.001460006    1.662    0.398
        51 -10.1994    110.9974    203.7368   9.8553934430e+01   1.8329413194e+01    0.3532927    0.2220908  73.32  0.001767888    2.414    0.586
        52 -10.3638    107.3299    203.8692   9.9376449420e+01   1.8822222219e+01    0.4227329    0.1452396  45.09  0.001724861    2.703    0.630
        53 -10.8132    125.1922    245.0119   1.0024879632e+02   9.6802469296e+00     0.488684    0.3001932 -60.20  0.003162734    2.205    0.546
        54  -9.9619    120.2629    245.6161   1.0125137361e+02   1.0212969073e+01    0.2754559    0.1441355  47.86  0.001615566    1.824    0.452
