#   1 NUMBER                 Running object number                                     
#   2 MAG_AUTO               Kron-like elliptical aperture magnitude                    [mag]
#   3 X_IMAGE                Object position along x                                    [pixel]
#   4 Y_IMAGE                Object position along y                                    [pixel]
#   5 X_WORLD                Barycenter position along world x axis                     [deg]
#   6 Y_WORLD                Barycenter position along world y axis                     [deg]
#   7 A_WORLD                Profile RMS along major axis (world units)                 [deg]
#   8 B_WORLD                Profile RMS along minor axis (world units)                 [deg]
#   9 THETA_WORLD            Position angle (CCW/world-x)                               [deg]
#  10 FWHM_WORLD             FWHM assuming a gaussian core                              [deg]
#  11 ELONGATION             A_IMAGE/B_IMAGE                                           
#  12 ELLIPTICITY            1 - B_IMAGE/A_IMAGE                                       
         1 -12.0298    224.0149     21.3191   2.8928175378e+02   6.2401268492e+00   0.04657885   0.02275113 -57.54  0.004223636    1.951    0.487
         2  -9.6740    233.4430     20.1415   2.8916497373e+02   6.1988468450e+00    0.0179138  0.008626501   7.47  0.001304257    3.459    0.711
         3  -9.9424     29.6235     12.9217   2.9149847904e+02   7.4646333261e+00    0.0148449   0.01201575  48.84 0.0001874321    1.294    0.227
         4  -8.2582     80.3026     12.4703   2.9090384405e+02   7.1771517825e+00   0.01187396  0.008146043  86.70  0.001174579    1.878    0.468
         5  -7.8209     38.6206     11.1589   2.9138278943e+02   7.4331837535e+00  0.009246493  0.005761866 -50.36 0.0002709812    1.569    0.363
         6  -8.8776     34.4815     10.0912   2.9142474380e+02   7.4694470781e+00  0.009857739  0.006449344 -61.79 0.0006566114    1.512    0.339
         7 -10.0441    132.2030      6.6041   2.9026291477e+02   6.9444775406e+00   0.01796389   0.01008637 -74.34  0.001279723    2.108    0.526
         8  -9.3569    117.8018      8.9203   2.9044484346e+02   7.0011487766e+00   0.01180675  0.009691627  45.34 0.0006033122    1.254    0.203
         9 -10.5870     18.1258      7.2703   2.9159895051e+02   7.5964606356e+00    0.0249661   0.01710569 -34.77  0.002592887    1.603    0.376
        10 -10.2952      2.8831      5.7426   2.9176794877e+02   7.7019641324e+00    0.0290466   0.01652465 -53.52  0.002828337    1.691    0.409
        11  -9.4002    128.1085      7.5259   2.9031621830e+02   6.9575453277e+00   0.01090252  0.008923206 -78.73 0.0003334695    1.310    0.237
        12 -10.0442    105.3742      6.9412   2.9057796949e+02   7.0961210825e+00   0.02038669    0.0134801  77.37   0.00195566    2.068    0.516
        13  -9.1408     55.4739      3.2504   2.9113845298e+02   7.4276052502e+00   0.01842919  0.006238802 -61.28  0.001381904    2.832    0.647
        14  -8.1568     46.7165      7.4425   2.9126591372e+02   7.4295618361e+00  0.008976949    0.0064677   7.65 0.0004913578    1.567    0.362
        15  -8.3291    121.4591      5.9560   2.9038435428e+02   7.0143100851e+00  0.009247554  0.005713345  81.37 0.0006147014    2.410    0.585
        16 -10.4906    110.5898      4.5436   2.9050269356e+02   7.0936960985e+00   0.01913249    0.0135364  83.62            0    1.793    0.442
        17  -9.7212     50.8337      3.6888   2.9119529008e+02   7.4493217091e+00   0.01129006    0.0104893 -57.07 0.0002397695    1.066    0.062
        18  -8.3176    153.2171      3.2222   2.8999751229e+02   6.8616837961e+00  0.009093009  0.007682157  65.47 0.0004913726    1.302    0.232
        19  -7.8444    125.2745      3.3156   2.9032396692e+02   7.0227921402e+00  0.006826657   0.00486595 -31.40 0.0002244452    1.564    0.360
        20  -9.4776     79.3661      1.6434   2.9084975886e+02   7.3081202430e+00   0.01782388  0.009157518  24.14  0.001615465    2.011    0.503
        21  -9.0762    240.2151    231.5780   2.9035521287e+02   3.7062337460e+00   0.01262526  0.009084426 -64.85 0.0008448565    1.400    0.286
        22 -11.3039    234.2449    217.0347   2.9033751672e+02   3.9097141753e+00    0.0804131   0.04189723  43.64  0.007347177    2.021    0.505
        23 -13.4347    246.1423     53.4526   2.8921773051e+02   5.7388158760e+00    0.2333566   0.06894341 -67.88   0.01425444    4.551    0.780
        24 -10.9549    248.6782    233.5095   2.9026851765e+02   3.6347235915e+00   0.06238724   0.01880244 -63.80   0.00431407    3.429    0.708
        25 -11.4802    239.7719    126.5579   2.8973103984e+02   4.9279327314e+00   0.04895386   0.02516359 -57.60  0.004542465    1.861    0.463
        26 -12.9057    242.0615    185.0079   2.9005494933e+02   4.2361777285e+00    0.1131422   0.07006862 -71.20   0.01117188    1.757    0.431
        27 -10.4852    240.3128    207.5741   2.9021041674e+02   3.9843468686e+00   0.02736923   0.01906438  87.19  0.002414662    1.820    0.451
        28 -12.7792    243.9778    160.2404   2.8988423376e+02   4.5125580254e+00   0.09528729   0.06437418 -80.03  0.009693655    1.733    0.423
        29  -8.8763    224.7583    248.7291   2.9063724904e+02   3.5967176552e+00   0.02018338  0.009654672 -79.81  0.001494167    3.316    0.698
        30  -9.0415    216.8711    222.5023   2.9057203425e+02   3.9469879008e+00   0.03010964   0.01147122 -71.17  0.002093131    3.564    0.719
        31  -9.4154    210.5060    242.5168   2.9076564037e+02   3.7514536389e+00   0.02280426   0.01645571 -56.80  0.001598463    1.353    0.261
        32  -9.3219    213.6972    240.6585   2.9071746703e+02   3.7545403482e+00   0.01522765   0.01197028 -55.40  0.001626771    1.246    0.197
        33  -9.9852    215.5570    233.3051   2.9065190369e+02   3.8291549435e+00   0.02546019   0.01597866 -73.80  0.001925947    1.786    0.440
        34  -9.1093    217.0000    228.9816   2.9060928797e+02   3.8709986133e+00   0.01867042  0.009229149 -68.47  0.001218638    2.215    0.549
        35  -8.1574    201.7520    250.5020   2.9091504156e+02   3.7094364185e+00   0.00901711  0.006429182   3.49 0.0007787827    1.639    0.390
        36 -10.0457    193.0807    246.6668   2.9099287024e+02   3.8042078668e+00   0.03405533   0.01240724 -59.45  0.002686097    2.570    0.611
        37  -8.9448    184.5056    250.6555   2.9111632616e+02   3.8075379872e+00   0.01291103  0.006668518  26.07 0.0008295204    1.955    0.489
        38  -8.9905    187.0682    246.6176   2.9106243678e+02   3.8396015846e+00   0.01516912  0.009108406 -54.68  0.001494499    1.606    0.377
        39 -10.1944    168.4044    249.6319   2.9129732832e+02   3.9126426744e+00   0.02290936   0.01453683 -26.80 0.0004643225    1.965    0.491
        40 -10.3808    169.5590    241.2949   2.9123413828e+02   4.0028177192e+00   0.02376502   0.01408959 -46.43  0.001932967    1.698    0.411
        41  -8.2436    225.0000    230.9478   2.9052812576e+02   3.8017836248e+00   0.01087447  0.003740428 -62.72 0.0007941624    2.885    0.653
        42  -8.4409    201.5376    231.0235   2.9080113399e+02   3.9369092790e+00   0.01121325   0.00779477 -44.03  0.001177473    1.460    0.315
        43  -9.1033    198.9241    225.8361   2.9080049238e+02   4.0123052820e+00    0.0184001   0.01039315 -68.84  0.001725797    1.899    0.473
        44  -9.0131      1.4536    230.5022   2.9312569380e+02   5.0985791300e+00   0.01370307  0.008482521 -41.45 0.0005631312    1.706    0.414
        45  -9.1991      2.4961    226.9943   2.9309272036e+02   5.1333789592e+00   0.01237524  0.009683405  25.01  0.000778479    1.290    0.225
        46  -7.7788    178.7117    230.6839   2.9106437575e+02   4.0730942229e+00  0.006897732   0.00488867 -30.30 0.0004270716    1.590    0.371
        47  -8.6624    211.8194    226.3544   2.9065376092e+02   3.9315413726e+00   0.02069401  0.006417968 -54.93  0.001530113    2.871    0.652
        48  -9.0131    235.7529    226.1660   2.9037464513e+02   3.7949478717e+00    0.0146735  0.008056652 -53.19 0.0008351445    1.750    0.429
        49  -8.4385    229.0000    226.1027   2.9045268852e+02   3.8348476103e+00   0.01787807  0.003740399 -62.77  0.001030121    4.744    0.789
        50  -8.9424    223.2179    226.0228   2.9051936686e+02   3.8693057919e+00   0.01941035  0.008289067 -54.13   0.00164579    2.194    0.544
        51  -8.6827    184.6002    226.7803   2.9097260718e+02   4.0843339141e+00   0.01294744  0.005868646 -57.14  0.001118483    2.082    0.520
        52  -8.7705    206.2670    223.5687   2.9070161198e+02   3.9960802381e+00   0.01695253  0.009950796 -42.13  0.001626045    1.803    0.445
        53  -9.5897     16.6963    224.2421   2.9291104162e+02   5.0836882807e+00   0.01477291   0.01064631  73.62  0.001176305    1.725    0.420
        54  -8.4115    201.5604    220.6904   2.9073909097e+02   4.0567935041e+00   0.01337851  0.005889871 -56.89  0.001141556    2.135    0.532
        55  -9.2632    211.1493    215.8254   2.9059857211e+02   4.0577063444e+00   0.03265309  0.005596109 -54.64  0.001969138    4.339    0.770
        56 -10.0909    192.7144    215.8676   2.9081305988e+02   4.1640829815e+00   0.02645967   0.01845927  14.42  0.002782736    1.561    0.359
        57  -9.4158    201.0462    212.8456   2.9069815089e+02   4.1508905380e+00   0.01918266   0.01378656  -7.16   0.00199548    1.687    0.407
        58 -11.6602    240.1714      3.2612   2.8898506458e+02   6.3551587151e+00   0.04511861   0.03128326  20.90  0.004789588    1.499    0.333
        59 -10.4602    175.8985    210.0143   2.9097355369e+02   4.3295214142e+00   0.03371093   0.02204962 -17.30  0.003257202    1.999    0.500
        60  -9.2227    210.6738    250.6031   2.9081201444e+02   3.6565749022e+00    0.0251891   0.01465198 -85.17  0.001794992    2.417    0.586
        61  -9.0394    206.4805    208.3973   2.9060838747e+02   4.1710476689e+00   0.02309465   0.01191424 -67.22  0.002076092    2.056    0.514
        62  -9.2916    171.3845    206.7908   2.9100677288e+02   4.3931238740e+00   0.01495828  0.009904848 -54.97  0.001192552    1.465    0.317
        63 -10.5347      6.5328    204.6447   2.9291287116e+02   5.3700710673e+00   0.03309929   0.01830613  82.70  0.002563088    3.261    0.693
        64 -10.1480      5.2460    198.7249   2.9289265158e+02   5.4463155997e+00   0.03193934   0.01429272 -38.71  0.002506533    2.815    0.645
        65  -9.2995    229.2336    206.3146   2.9033155946e+02   4.0632586150e+00   0.02118287  0.009569011 -66.29  0.001773511    2.352    0.575
        66 -10.0135    230.5133    196.7471   2.9025941257e+02   4.1669223345e+00    0.0400402   0.01443939 -52.95  0.003158958    2.562    0.610
        67  -8.6967    224.6356    207.0237   2.9038921850e+02   4.0817006274e+00    0.0153366  0.006242178 -62.73  0.001238579    2.441    0.590
        68  -8.5071    217.4586    203.5646   2.9045189885e+02   4.1635023226e+00   0.01341781    0.0048606 -50.75  0.001033836    2.621    0.619
        69 -10.0147    214.1379    198.2865   2.9045889412e+02   4.2440608102e+00   0.03955382   0.00956498 -54.18  0.002667044    3.490    0.713
        70  -9.7010    173.2507    202.7163   2.9096071042e+02   4.4296496998e+00   0.01702693  0.008241976 -54.48  0.001362159    1.959    0.489
        71  -9.3848    223.6057    200.5155   2.9036222523e+02   4.1632487625e+00   0.01647068   0.00540576 -57.05  0.001239813    2.750    0.636
        72  -8.4075    170.3161    195.3421   2.9095074359e+02   4.5323272317e+00   0.01040025  0.006225959 -57.03  0.000837958    1.613    0.380
        73  -9.4391    167.4978    194.0088   2.9097554907e+02   4.5641458146e+00   0.01613159  0.009812748  89.62  0.001286559    2.353    0.575
        74  -9.2586    219.8256    194.8905   2.9037247090e+02   4.2504992831e+00   0.01203218  0.009334452 -72.68  0.001162037    1.354    0.261
        75  -8.9580    185.2193    192.7650   2.9076201352e+02   4.4758922514e+00   0.02070599  0.007811405 -58.23  0.001576798    2.463    0.594
        76 -11.1922    242.6481    136.5249   2.8975742914e+02   4.7955418723e+00    0.1090947   0.02876471 -69.52  0.005114337    7.819    0.872
        77  -7.9866    197.7455    175.9856   2.9051592996e+02   4.5981519282e+00  0.009051484  0.005631253 -61.94 0.0008948051    1.590    0.371
        78  -8.7844    223.1053    172.7739   2.9020189236e+02   4.4882771133e+00   0.01495097  0.009555836 -84.32  0.001413637    1.990    0.497
        79  -7.3677    187.6657    171.6800   2.9060736571e+02   4.7066281911e+00   0.00711531  0.004904816 -27.28 0.0007049413    1.701    0.412
        80  -8.9585    218.4516    167.6304   2.9022516115e+02   4.5750155598e+00   0.02010143  0.008569117 -54.24  0.001703807    2.197    0.545
        81  -8.6409    191.6069    166.8351   2.9053251657e+02   4.7400407260e+00  0.009509864  0.006412477 -78.95 0.0009490972    1.717    0.418
        82  -9.0031    199.1967    163.8660   2.9042646670e+02   4.7304878426e+00   0.01684678  0.009738753 -70.75  0.001586743    1.901    0.474
        83  -8.8094    221.3724    161.4127   2.9015394941e+02   4.6302512102e+00   0.01290263  0.008191423 -66.43  0.001162561    1.617    0.382
        84  -9.7205    226.6243    157.6160   2.9007014819e+02   4.6438309880e+00   0.02854414  0.008462997 -65.97  0.001855271    3.906    0.744
        85  -9.4222    228.2855    150.5792   2.9000864942e+02   4.7158741414e+00   0.02255389  0.008517607 -54.71  0.001814739    2.439    0.590
        86 -11.0536    249.3678    151.0336   2.8976640030e+02   4.5880975907e+00   0.07144655   0.02286511 -71.46  0.003994318    5.579    0.821
        87  -8.3767    204.7559    160.6504   2.9034255819e+02   4.7355683445e+00   0.01425562   0.01065341 -32.70  0.001545661    1.449    0.310
        88  -9.2851    197.0566    157.0121   2.9041029336e+02   4.8225027554e+00   0.01782403  0.009551778 -67.15  0.001632975    1.967    0.492
        89  -8.1730    216.0000    154.9158   2.9017745904e+02   4.7368797693e+00    0.0109942  0.003740851 -62.70 0.0007987171    2.917    0.657
        90  -8.8010    205.5903    153.7009   2.9029121126e+02   4.8114239882e+00   0.01295923  0.005964052 -57.71  0.001126608    2.058    0.514
        91  -8.7069    221.5817    151.7903   2.9009383412e+02   4.7407526900e+00   0.01325234  0.009154708 -66.60  0.001391272    1.479    0.324
        92  -9.3066    215.1939    148.5295   2.9014854594e+02   4.8157088521e+00   0.01289922  0.009333751 -64.06  0.001088082    1.385    0.278
        93  -9.2319    234.3507    145.7526   2.8990921180e+02   4.7366635181e+00   0.02045471   0.01020533 -48.79  0.001844359    1.978    0.494
        94  -9.4339    223.1807    145.9581   2.9004027601e+02   4.7991742683e+00   0.01591411  0.009604701 -60.75  0.001577017    1.625    0.385
        95  -7.8153    143.3205    147.3635   2.9097781970e+02   5.2461644702e+00  0.007290191  0.004805829 -30.19 0.0007040857    1.779    0.438
        96  -9.0403    207.7198    144.5895   2.9021183225e+02   4.9048565897e+00   0.01273779  0.007525177 -51.93 0.0008070891    1.641    0.391
        97 -10.5876    217.6386    136.7520   2.9004949701e+02   4.9382427452e+00   0.03355573   0.01851725 -82.26  0.002851763    2.560    0.609
        98  -9.1834    214.2016    141.6765   2.9011899394e+02   4.9010355666e+00   0.01891124  0.008992101 -60.78  0.001279801    2.043    0.511
        99  -8.2517    189.5240    143.5175   2.9041704654e+02   5.0229292109e+00  0.006533492  0.006462969  73.02 0.0002002085    1.032    0.031
       100  -9.1187    229.9611    140.7636   2.8993030622e+02   4.8200810632e+00   0.01711448  0.009629531 -69.33  0.001480613    1.924    0.480
       101  -8.7820    224.1087    139.6554   2.8999168942e+02   4.8669493703e+00    0.0130976  0.009312603 -54.82 0.0008410839    1.370    0.270
       102  -8.8267    218.3062    144.0120   2.9008527454e+02   4.8500811336e+00   0.01070984  0.008929384 -31.72 0.0008408566    1.255    0.203
       103  -8.7699    233.7028    134.7549   2.8985076778e+02   4.8680804682e+00   0.01294326  0.007923116  87.78 0.0009796915    2.369    0.578
       104  -8.6069    225.5356    133.2288   2.8993654942e+02   4.9332583868e+00   0.01593194  0.006021416 -59.19  0.001250782    2.483    0.597
       105  -9.1819    233.5033    128.4635   2.8981533557e+02   4.9422607251e+00   0.01371127  0.006534978 -63.41  0.001193362    2.107    0.525
       106  -7.7795    126.1786    144.6042   2.9116091875e+02   5.3774976368e+00  0.008688908  0.006394342   8.68 0.0004373573    1.512    0.339
       107  -9.1828    227.3986    124.5396   2.8986275456e+02   5.0232861777e+00   0.01368668  0.007785957 -59.38   0.00131621    1.707    0.414
       108 -10.6524    230.2655    114.5598   2.8976952481e+02   5.1224406424e+00   0.02359246   0.01225415 -77.79  0.001963636    2.591    0.614
       109  -8.7316    224.5174    116.0173   2.8984510539e+02   5.1389435736e+00   0.01030878  0.006396104 -60.20  0.001025685    1.578    0.366
       110 -12.3126    248.2696    207.7271   2.9011893692e+02   3.9363922356e+00    0.1754672   0.01535143 -61.32  0.007955151    7.866    0.873
       111  -8.6170    205.6014    105.2584   2.9000053358e+02   5.3737495013e+00   0.01297683  0.006615361 -69.08  0.001134068    2.162    0.537
       112  -8.8172    213.4623    104.5010   2.8990454246e+02   5.3368556630e+00  0.006521097  0.006466283 -51.30 0.0002024241    1.011    0.011
       113  -8.0288    209.3427     99.8103   2.8992430480e+02   5.4152360665e+00  0.009840841  0.005590641 -51.84 0.0005409578    1.704    0.413
       114  -8.6018    224.8688     99.0132   2.8973892959e+02   5.3342220610e+00   0.01159233  0.006504994 -40.99  0.001068042    1.937    0.484
       115  -8.0252    216.4878     99.4848   2.8983923493e+02   5.3774797357e+00  0.006573452  0.006426946 -32.03 0.0002062437    1.014    0.014
       116  -9.5720    221.0000     97.5116   2.8977490459e+02   5.3741425217e+00   0.02322436   0.00856542 -75.83   0.00125573    6.052    0.835
       117  -8.7817    215.6824     94.3210   2.8981759450e+02   5.4420822211e+00  0.009940774  0.005860888 -52.45  0.000964722    1.642    0.391
       118 -10.3529    217.6364     90.1670   2.8976991745e+02   5.4789212591e+00   0.01751875   0.01501723  89.30  0.002052468    1.276    0.216
       119  -7.7786     14.7441     96.3589   2.9217164411e+02   6.5816614588e+00  0.006749637   0.00503446  71.51 0.0005625377    1.617    0.382
       120  -9.7147    224.9611     93.2742   2.8970338771e+02   5.4002728469e+00   0.00926937  0.008932764   3.90 0.0009016246    1.047    0.045
       121  -8.0760    188.6696     93.3261   2.9012594392e+02   5.6106107079e+00  0.007057521  0.004959525  62.22 0.0007050845    1.706    0.414
       122  -8.4668    196.3702     91.8017   2.9002716749e+02   5.5835657784e+00  0.009814067  0.005737175 -51.99 0.0009474491    1.658    0.397
       123 -10.2286    242.9934    200.6243   2.9013767037e+02   4.0494739708e+00   0.02321692   0.01288691 -65.83   0.00173254    1.857    0.461
       124  -8.0407    183.0000     90.0282   2.9017214616e+02   5.6818183839e+00   0.01105885  0.003740614 -62.69 0.0008013292    2.935    0.659
       125  -8.4818    225.8097     87.8321   2.8966082870e+02   5.4584756224e+00   0.00926764  0.007809893  69.82 0.0007166238    1.318    0.242
       126  -9.3841    230.6235     83.0147   2.8957590299e+02   5.4863561375e+00    0.0195765  0.006814646 -66.85  0.001382403    3.304    0.697
       127  -8.0871    217.7118     84.4987   2.8973499208e+02   5.5442474525e+00   0.01193948  0.005907094 -63.24  0.001056179    2.024    0.506
       128  -8.8377      9.6456     84.0258   2.9215745491e+02   6.7543011058e+00  0.009024702  0.008303129 -61.85  0.000418372    1.082    0.076
       129  -9.3549    225.1319     81.8506   2.8963277484e+02   5.5318083124e+00    0.0103825  0.008986767  66.18 0.0008720272    1.256    0.204
       130 -12.1337    247.0317     15.7776   2.8898065227e+02   6.1701987171e+00    0.1088759   0.02642338 -57.09  0.007374033    3.487    0.713
       131  -8.7072    200.9035     77.6510   2.8988942841e+02   5.7214238977e+00   0.01322465   0.00965274 -72.70  0.001419379    1.458    0.314
       132  -9.1746    184.1427     77.8862   2.9008594435e+02   5.8160938996e+00   0.01027166  0.009053095  65.12 0.0008205763    1.221    0.181
       133 -10.2465      6.1316     74.9383   2.9214416172e+02   6.8800881743e+00   0.02198755  0.009023269  26.16  0.001796039    2.461    0.594
       134  -8.9673    227.6315     73.7957   2.8955529845e+02   5.6106978124e+00  0.009342493  0.006351881 -77.02  0.000833985    1.665    0.399
       135 -12.2630    248.2585    125.9804   2.8962895171e+02   4.8852865948e+00    0.1697582   0.04209469 -67.02  0.009166582    5.775    0.827
       136 -10.0386    223.5727     66.4841   2.8955856270e+02   5.7191164686e+00   0.02136546   0.00766783 -54.20  0.001679642    2.554    0.608
       137  -8.0908    176.0000     70.9844   2.9013931347e+02   5.9434815770e+00   0.01098161    0.0037403 -62.68 0.0006870619    2.915    0.657
       138  -8.0533    163.0000     71.0348   2.9029103061e+02   6.0183828976e+00   0.01110414  0.003740333 -62.70 0.0008031394    2.947    0.661
       139  -7.8312    102.2420     69.9548   2.9099274488e+02   6.3831332964e+00  0.008317229  0.005586593 -64.20  0.000291552    1.496    0.331
       140  -9.8468    194.9871     66.9930   2.8989426500e+02   5.8794669786e+00   0.02006455   0.01261721 -39.59  0.001992997    1.711    0.416
       141  -8.2740    182.2788     68.0279   2.9004843943e+02   5.9413136028e+00  0.009654512  0.008442196 -61.21   0.00114111    1.136    0.120
       142  -8.6025    203.3837     66.1966   2.8979174547e+02   5.8398889944e+00   0.01200934  0.008736752 -74.45  0.001280647    1.485    0.327
       143  -7.4953    208.3354     64.6381   2.8972475145e+02   5.8291696929e+00  0.007228218  0.004927649  63.81 0.0007037101    1.817    0.450
       144 -10.4025      7.4844     64.7478   2.9206743478e+02   6.9906550226e+00   0.01820133    0.0106011  84.25    0.0011373    2.759    0.638
       145  -8.0500     30.8302     61.8721   2.9177763814e+02   6.8895527738e+00  0.008835764  0.007502556  59.33 0.0002629327    1.270    0.213
       146  -9.0029    217.2329     58.6284   2.8958509436e+02   5.8471107722e+00   0.01392499  0.008592399 -60.90 0.0007814593    1.593    0.372
       147  -8.7997     26.2223     59.9966   2.9182021317e+02   6.9378928940e+00   0.01060296  0.009335217  20.94 0.0003458691    1.149    0.130
       148  -7.9146     32.8383     58.1021   2.9173162592e+02   6.9217488520e+00  0.008807223  0.007409283 -22.88            0    1.272    0.214
       149  -7.7410     63.5302     57.5109   2.9136980323e+02   6.7514702088e+00  0.006510417  0.006473763 -56.00 0.0002117153    1.015    0.015
       150  -9.5932      2.9762     54.5139   2.9205887414e+02   7.1354392965e+00   0.01703996  0.009020796 -40.65    0.0015271    2.093    0.522
       151  -9.8237      6.8670     52.8462   2.9200345408e+02   7.1324077246e+00   0.01325449   0.01124321  -2.97 0.0008485416    1.269    0.212
       152  -8.5490     95.4915     53.0112   2.9096987441e+02   6.6188937479e+00   0.01016613  0.006491801 -62.95 0.0005252605    1.561    0.359
       153  -8.4651     91.1081     52.9290   2.9102052096e+02   6.6452130711e+00  0.009707481  0.008822394  75.14 0.0003896192    1.177    0.151
       154  -8.3278    213.4642     46.4679   2.8955583171e+02   6.0100509538e+00  0.006512871  0.006456196  74.93 -1.066548e-05    1.029    0.028
       155 -11.0312    230.5026     49.8891   2.8937817111e+02   5.8712071659e+00    0.0271649   0.01351352 -76.39  0.002208258    2.705    0.630
       156 -10.1744      6.4606     38.3989   2.9192173892e+02   7.3024630517e+00   0.01197443   0.01180663  27.87 0.0002391805    1.025    0.025
       157  -8.2826    149.3654     35.5253   2.9023662832e+02   6.5095141968e+00   0.01316277  0.006345653 -80.86 0.0009544669    3.403    0.706
       158  -7.5886     92.3289     36.7313   2.9090910066e+02   6.8261255349e+00  0.006798183  0.004906835  57.39 0.0002812893    1.579    0.367
       159  -7.9384    127.7922     34.0335   2.9047919556e+02   6.6519796065e+00  0.008699651  0.005281997 -63.37 0.0002308235    1.648    0.393
       160  -8.2360     26.6716     34.0045   2.9165932534e+02   7.2370342330e+00  0.009215345  0.008046177 -52.91 0.0003363013    1.127    0.112
       161  -7.6147    140.3135     33.3161   2.9032887942e+02   6.5876707437e+00   0.00699977  0.004907736 -28.23 0.0007035231    1.643    0.391
       162 -10.1048      8.7929     32.0388   2.9185641176e+02   7.3628518725e+00   0.01410066   0.01258926 -80.03 0.0004610515    1.172    0.147
       163 -10.2294     10.5491     27.4588   2.9180846498e+02   7.4058891910e+00   0.01969801   0.01419215  20.85  0.002129013    1.432    0.302
       164  -9.3895     54.9643     31.1922   2.9131203898e+02   7.1064218423e+00   0.01202512  0.009281895 -52.95 0.0004304013    1.268    0.212
       165  -9.3743    242.4639    246.8997   2.9042074950e+02   3.5153205312e+00   0.02473538  0.008972361 -55.56  0.001959258    2.521    0.603
       166  -9.1476     41.6875     27.1318   2.9144274613e+02   7.2301819263e+00    0.0211174   0.01203173  79.48  0.001581996    3.026    0.670
       167  -9.3429    136.8509     24.6556   2.9031721388e+02   6.7082057644e+00   0.01402995  0.008226564 -56.00  0.001085924    1.643    0.391
       168  -7.9437    118.7769     24.9428   2.9052974029e+02   6.8096924540e+00  0.008696612  0.005337428 -60.64 0.0004894419    1.599    0.375
       169  -9.0449     84.8164     21.8019   2.9090717366e+02   7.0428031807e+00    0.0133514   0.01043513 -80.10  0.000632709    1.404    0.288
       170  -8.1117     68.4730     23.4653   2.9110795744e+02   7.1180226224e+00  0.006558155  0.006410263 -30.41 7.770924e-05    1.014    0.014
       171  -9.4409    218.2917    246.8351   2.9070102240e+02   3.6561871475e+00   0.02472582   0.01306743 -68.37  0.002242097    2.039    0.510
       172  -8.1014     59.7998     20.8524   2.9119355643e+02   7.1984564088e+00  0.008712977  0.007554808  66.11 0.0003000874    1.255    0.203
       173  -8.3973     74.4641     20.5163   2.9102031100e+02   7.1175967759e+00  0.006620839  0.006351611 -31.20 -8.125858e-05    1.039    0.038
       174  -8.5597     27.7739     18.9781   2.9155639871e+02   7.4050396607e+00   0.00979158  0.008582763  69.93 0.0004382564    1.242    0.195
       175  -9.1344     92.0388     15.7332   2.9078643012e+02   7.0713945221e+00  0.009162309  0.008785113   6.75 0.0002843237    1.052    0.049
       176  -8.4393     23.6500     15.9133   2.9158621076e+02   7.4643685505e+00  0.009004255  0.008233854 -66.04  0.000397508    1.099    0.090
       177  -8.5898      2.5637     15.9957   2.9183311470e+02   7.5848673310e+00   0.00985874  0.008603769  27.54 0.0002142694    1.150    0.131
       178  -8.0762     97.3703     21.1713   2.9075686010e+02   6.9774543992e+00  0.008967917  0.006341616 -77.38   0.00036451    1.581    0.368
       179  -8.5465    105.0266     14.0148   2.9062452617e+02   7.0161116835e+00  0.008000539  0.007512748 -57.67 0.0003200409    1.056    0.053
       180  -8.0326     86.4958     14.4401   2.9084336848e+02   7.1184739816e+00  0.006618727  0.006326409 -25.32 4.332381e-05    1.050    0.048
       181  -8.2824     45.9569     14.0671   2.9131452986e+02   7.3571100008e+00   0.01034299   0.00745487 -29.21 0.0003730025    1.561    0.359
       182  -8.4298    151.0916    249.3718   2.9149701834e+02   4.0158479898e+00  0.009350376   0.00838341  30.92 0.0006236155    1.120    0.107
       183  -8.9474    228.4885    246.8482   2.9058269169e+02   3.5969366747e+00   0.01423039   0.01112054 -63.24  0.001000069    1.277    0.217
       184  -9.2684    232.6002    245.4539   2.9052661499e+02   3.5892901751e+00   0.02109561  0.009685552 -52.50  0.001846758    2.071    0.517
       185 -10.1582    176.4693    244.7804   2.9117463279e+02   3.9223179560e+00   0.03209383   0.01371353 -45.30  0.002622125    2.474    0.596
       186  -8.3643    236.5614    235.2273   2.9041946533e+02   3.6850558059e+00   0.01380451  0.008223531 -81.62  0.001051262    2.176    0.540
       187  -9.5623    237.4133    243.6891   2.9046018207e+02   3.5818758879e+00   0.01792417   0.01082498 -66.20 0.0009610977    1.702    0.413
       188  -9.7231    239.4983    240.0442   2.9041417801e+02   3.6121015100e+00   0.01608155   0.01239143 -76.39 0.0009376404    1.399    0.285
       189  -8.8552    157.1667    245.2942   2.9140206359e+02   4.0280766735e+00   0.01050341  0.008253208  -8.35  0.000574518    1.447    0.309
       190  -9.1218    224.9180    240.1074   2.9058385169e+02   3.6959008506e+00   0.02473037  0.009747535 -63.87   0.00196267    2.583    0.613
       191  -8.5725    201.8921    240.4467   2.9085333509e+02   3.8254085627e+00   0.01465522  0.007462276 -46.57  0.001317236    1.991    0.498
       192  -8.7183    219.5147    239.4112   2.9064244161e+02   3.7353062501e+00   0.01340404  0.006477281 -62.64  0.001047655    2.054    0.513
       193  -8.9984    183.8521    237.3580   2.9104450170e+02   3.9657894859e+00   0.02293907  0.006170735 -53.18  0.001595078    3.257    0.693
       194  -8.5212    206.0000    236.0538   2.9077935658e+02   3.8526252817e+00   0.01635645  0.009917685 -72.96  0.001572707    1.848    0.459
       195  -8.6337    207.5946    232.1712   2.9073762206e+02   3.8884754915e+00   0.01288282  0.007514413 -48.61 0.0007772795    1.694    0.410
       196  -9.2491    189.1542    234.4956   2.9096578235e+02   3.9683292181e+00   0.01905712   0.01277926  84.42  0.001656581    1.982    0.495
       197  -8.4925    191.4585    230.5010   2.9091513336e+02   4.0013802478e+00    0.0131645   0.01027791 -29.04  0.001459679    1.391    0.281
       198  -8.1308    159.5211    234.9829   2.9131314318e+02   4.1342613141e+00  0.009849052  0.004707274 -40.77 0.0008082563    2.401    0.583
