#   1 NUMBER                 Running object number                                     
#   2 MAG_AUTO               Kron-like elliptical aperture magnitude                    [mag]
#   3 X_IMAGE                Object position along x                                    [pixel]
#   4 Y_IMAGE                Object position along y                                    [pixel]
#   5 X_WORLD                Barycenter position along world x axis                     [deg]
#   6 Y_WORLD                Barycenter position along world y axis                     [deg]
#   7 A_WORLD                Profile RMS along major axis (world units)                 [deg]
#   8 B_WORLD                Profile RMS along minor axis (world units)                 [deg]
#   9 THETA_WORLD            Position angle (CCW/world-x)                               [deg]
#  10 FWHM_WORLD             FWHM assuming a gaussian core                              [deg]
#  11 ELONGATION             A_IMAGE/B_IMAGE                                           
#  12 ELLIPTICITY            1 - B_IMAGE/A_IMAGE                                       
         1 -14.0854    166.0338     43.1172   7.5675356317e+01   3.8485094913e+01     1.217108     1.080201  -4.69  0.004154361    1.337    0.252
         2 -14.0576    181.4491     10.6284   6.4492520275e+01   3.8530256569e+01     1.252789     1.012174  78.05  0.005145001    1.053    0.050
         3 -11.6231    125.0779    243.4481   1.2923542147e+02   6.9683071763e+00    0.3316051     0.162795 -55.40 0.0009299095    2.342    0.573
         4 -14.8508    100.5013    244.2859   1.3401244705e+02   1.0839713119e+01    0.7938141    0.6026678 -61.32  0.004865971    1.528    0.345
         5 -19.8485     62.8896    168.4254   1.3237573899e+02   3.2913472416e+01     19.67155     5.027602 -64.32   0.06486738    3.633    0.725
         6  -9.3894    138.7594    200.3810   1.2012116956e+02   1.2948583456e+01    0.2121621    0.1664621  48.01  0.001125771    1.181    0.153
         7  -9.4942    141.5474    198.7097   1.1922966724e+02   1.2770177509e+01    0.2425541    0.2028031  77.53  0.000713113    1.260    0.207
         8 -11.4952    175.4373    195.9608   1.1144672495e+02   6.7384471893e+00    0.2981804    0.2558975 -17.50  0.001626775    1.317    0.241
         9  -9.8595    112.3553    196.8943   1.2534670502e+02   1.8533127422e+01    0.2908569    0.2221693   6.32  0.001406852    2.160    0.537
        10 -11.4162    180.3578    193.3409   1.0991336238e+02   6.2808007764e+00    0.4252852    0.3062782 -83.93  0.001920584    2.209    0.547
        11 -10.4534    169.8015    195.3962   1.1253407195e+02   7.9569216027e+00    0.2048833    0.1315389  34.77 0.0006696502    1.582    0.368
        12  -9.5777    103.8604    194.4144   1.2684518738e+02   2.0558162293e+01    0.3575136    0.2043892  26.63  0.001494794    2.593    0.614
        13 -11.6478    169.4003    182.0511   1.1004469289e+02   1.0740112281e+01    0.5464407    0.2905801  45.64  0.001938713    1.814    0.449
        14 -12.1449    172.5252    188.8041   1.1069662438e+02   8.7334534019e+00    0.4884702    0.3416512  33.99  0.001261969    1.460    0.315
        15 -12.2589    176.0663    186.4623   1.0948255694e+02   8.4932612591e+00    0.5049741    0.3848147  89.87  0.002250313    1.849    0.459
        16 -10.4172    152.7197    192.7618   1.1573369665e+02   1.1853595452e+01    0.3066563    0.2510765  85.74  0.001337043    1.413    0.292
        17 -11.8809    164.3948    187.3143   1.1216292286e+02   1.0666031869e+01    0.4509857    0.3388892 -11.59  0.002119985    1.871    0.466
        18  -9.9642    152.7095    185.9765   1.1447432832e+02   1.3283312996e+01     0.210565    0.1934967 -59.45 0.0008038502    1.132    0.116
        19  -9.7668     28.6217    240.1536   1.4649124239e+02   2.1600389815e+01    0.1362424   0.09690379  79.96 0.0002754719    1.048    0.045
        20 -11.4759     29.7556    183.3842   1.4159203729e+02   3.3430312474e+01    0.2731167    0.1732728  62.25  0.001632312    1.496    0.332
        21  -9.1987      9.0288    184.1096   1.4588128165e+02   3.5300853151e+01    0.1711139    0.1000411  75.74 0.0002629464    1.512    0.338
        22 -10.0171     21.8429    238.7386   1.4752578421e+02   2.2648484727e+01   0.09040713   0.06285477 -77.81 0.0001827352    1.383    0.277
        23  -9.6402     23.5570    182.7808   1.4282264211e+02   3.4209282613e+01     0.104616   0.08688945 -39.08 0.0006825236    1.729    0.422
        24 -10.1695      3.7785    180.1944   1.4660463884e+02   3.6615011802e+01    0.1809533    0.1257586  70.68 0.0007640423    1.276    0.216
        25 -11.9289    204.6263    176.4848   1.0152852103e+02   4.6958238042e+00    0.5046433    0.4665771 -66.85  0.001560252    1.235    0.191
        26 -12.0353    203.4189    166.1516   9.9576753889e+01   6.9300562054e+00    0.6565967    0.5205284 -22.27  0.002069187    1.357    0.263
        27  -9.3722    136.8999    179.5208   1.1682027846e+02   1.7815706081e+01    0.2172067    0.1422456  43.50 0.0003737449    1.485    0.327
        28 -10.0783    198.2688    177.4317   1.0301071799e+02   5.7902746211e+00    0.2864584    0.1870397  49.26 0.0007796388    1.577    0.366
        29 -12.2608    193.5302    166.2296   1.0161232777e+02   8.9681438072e+00    0.9632353    0.4511418 -54.34  0.001641506    2.754    0.637
        30 -10.7428    190.0625    156.0356   1.0009725196e+02   1.1770604204e+01    0.4556682    0.4054913  52.84  0.002393518    1.148    0.129
        31  -9.7263    168.2934    176.7621   1.0922306353e+02   1.2066813504e+01    0.2270303    0.1831992 -70.74  0.001122777    1.439    0.305
        32 -11.9555    143.0649    174.8608   1.1451202979e+02   1.7628571407e+01    0.6280912    0.3936557  40.45  0.002809313    1.597    0.374
        33 -11.1948    137.3317    171.3022   1.1514027322e+02   1.9571201041e+01      0.34461    0.2838751 -22.61 0.0009983993    1.544    0.352
        34 -12.4932    133.0282    168.7074   1.1563793049e+02   2.1013672673e+01     0.597355    0.4361483  49.14  0.002117428    1.340    0.254
        35 -11.4793    126.6119    172.8042   1.1794027518e+02   2.1329218995e+01     0.520245    0.3360206  65.67     0.001687    1.855    0.461
        36  -9.7774     10.9235    174.5986   1.4468119389e+02   3.7232851644e+01    0.1659429    0.1209276 -74.85 0.0003135325    1.160    0.138
        37  -9.3987    131.1663    236.6419   1.2716624156e+02   7.1708527538e+00    0.1173222   0.08827831 -88.58 0.0002864768    1.540    0.351
        38 -10.1327     13.6661    233.6244   1.4855566789e+02   2.4534384876e+01     0.099997   0.07509463 -58.90 0.0007021118    1.855    0.461
        39  -9.4464    149.8539    229.8438   1.2248049522e+02   5.1280606744e+00    0.2112294    0.1770179 -40.93    0.0012629    1.416    0.294
        40  -9.2518    150.9702    242.9945   1.2416321621e+02   2.6108762897e+00      0.14067    0.1345505  78.26 0.0004583804    1.169    0.144
        41  -9.6301     13.3066    163.2031   1.4309150627e+02   3.9584338875e+01    0.1654996    0.1106195 -81.26 0.0003916748    1.164    0.141
        42 -12.9364    135.7844    128.1290   1.0601888976e+02   2.9754883167e+01     2.195049    0.3234621 -49.81  0.003996146    8.802    0.886
        43 -13.3436    133.8074    145.2789   1.1052205023e+02   2.6247042922e+01     1.564882    0.4355671 -54.88   0.00396785    4.751    0.790
        44  -9.6751    174.7194    149.1106   1.0182913411e+02   1.6569942715e+01    0.2693957    0.2133606  61.65 0.0006742117    1.357    0.263
        45 -12.1497    144.1854    145.8570   1.0812615339e+02   2.3940468956e+01    0.5723771    0.3543879 -68.43  0.002240178    2.167    0.539
        46 -11.7018      5.7828    137.7021   1.4209588519e+02   4.5954964097e+01    0.4315879    0.2820387 -72.86  0.002031029    1.164    0.141
        47 -10.7954     12.8007    137.6219   1.4036903424e+02   4.5452924075e+01     0.335051    0.2007431 -11.38  0.001770343    2.948    0.661
        48 -10.4115    152.6680    139.2403   1.0457221693e+02   2.3596216486e+01    0.2829092    0.2430125 -88.65 0.0009497288    1.294    0.227
        49 -10.8130     21.7078    138.0694   1.3820497122e+02   4.4622506528e+01    0.1942107    0.1805952 -22.68 0.0004782659    1.388    0.280
        50 -11.4948      2.6731    127.2012   1.4162963661e+02   4.8528123237e+01    0.5294983    0.1966265 -79.82   0.00234085    2.681    0.627
        51 -10.6897    160.6040    127.9724   9.9995615383e+01   2.4302283987e+01    0.4139209     0.295965 -59.92   0.00183142    1.531    0.347
        52  -9.7964     12.8219    242.6870   1.4923100796e+02   2.2879390763e+01    0.1686965    0.1064083 -47.52  0.001008584    3.058    0.673
        53  -9.4018    109.0265    240.3594   1.3194459824e+02   1.0202566244e+01    0.1714638    0.1631039  13.21 0.0006870041    1.456    0.313
        54 -11.2326      6.9394    119.8048   1.3957407116e+02   4.9905942963e+01    0.2468834    0.1580961  -4.53  0.001482503    2.310    0.567
        55 -12.3469    128.9719    143.9948   1.1143325983e+02   2.7533154387e+01     0.508124    0.3667912 -76.99  0.002132136    1.699    0.412
        56 -11.6585    132.1195    129.1296   1.0718471818e+02   3.0303661293e+01     0.353005    0.3012872  17.11  0.001073765    1.397    0.284
        57 -10.9198      2.7703    112.9996   1.3976669918e+02   5.1684170940e+01    0.2728808    0.1543883 -52.54  0.001367405    1.475    0.322
        58 -11.5666      7.3164    111.0430   1.3823433472e+02   5.1834460615e+01    0.4261954    0.1745999 -54.27  0.002215456    1.868    0.465
        59  -9.5846    167.7785    112.8499   9.4545401934e+01   2.5850087480e+01    0.3090624    0.2113305  82.14  0.001231649    2.128    0.530
        60  -9.7707    205.5418    110.2070   8.6191803300e+01   1.7477046786e+01    0.2693442    0.2120789  55.19  0.000600924    1.312    0.238
        61  -9.7616    110.7338    211.7668   1.2790259337e+02   1.5613080702e+01    0.1738793    0.1333767  82.39 0.0003399572    1.316    0.240
        62 -11.9263    106.0931    204.5857   1.2786441509e+02   1.7939031873e+01    0.3928028    0.3220009 -83.27  0.001396187    1.185    0.156
        63 -10.6746      7.2623    102.1479   1.3688468537e+02   5.3796399636e+01    0.2239841     0.211138  23.97  0.001046822    1.361    0.265
        64 -12.2323     11.7194    205.9285   1.4704945560e+02   3.0358797298e+01     0.317039    0.2489071  34.02  0.001868778    1.737    0.424
        65 -10.5357    169.0158    201.7209   1.1386658591e+02   6.8671972864e+00     0.203821     0.181204  45.23  0.001065359    1.049    0.046
        66  -9.3705    153.1906    200.8436   1.1707960542e+02   1.0100006014e+01     0.216564    0.1877122  78.75 0.0008347007    1.238    0.193
        67 -13.4884    154.3817     57.7696   8.2176417440e+01   3.9208039184e+01     1.277143    0.9581864  50.70  0.001028131    1.270    0.212
        68  -9.4983     15.5088    246.6144   1.4903036320e+02   2.1847988734e+01    0.1396892   0.07505911  82.31 0.0009050671    1.463    0.317
        69 -12.1808    170.4516     35.1965   7.2686335510e+01   3.8436354816e+01    0.3866588    0.3746303  60.48 0.0008301119    1.114    0.102
        70 -10.1585     13.4942     59.9474   1.2618572620e+02   6.2127277237e+01    0.1674078    0.1578912  32.07 0.0004224349    1.418    0.295
        71  -9.8809    137.8672     31.4308   7.7569213029e+01   4.6755488048e+01    0.2845968    0.1775919  76.52  0.001333665    1.963    0.491
