#   1 NUMBER                 Running object number                                     
#   2 MAG_AUTO               Kron-like elliptical aperture magnitude                    [mag]
#   3 X_IMAGE                Object position along x                                    [pixel]
#   4 Y_IMAGE                Object position along y                                    [pixel]
#   5 X_WORLD                Barycenter position along world x axis                     [deg]
#   6 Y_WORLD                Barycenter position along world y axis                     [deg]
#   7 A_WORLD                Profile RMS along major axis (world units)                 [deg]
#   8 B_WORLD                Profile RMS along minor axis (world units)                 [deg]
#   9 THETA_WORLD            Position angle (CCW/world-x)                               [deg]
#  10 FWHM_WORLD             FWHM assuming a gaussian core                              [deg]
#  11 ELONGATION             A_IMAGE/B_IMAGE                                           
#  12 ELLIPTICITY            1 - B_IMAGE/A_IMAGE                                       
         1 -12.6596    248.6959    133.0875   8.5588646255e+01   3.9159606584e+00     1.239308     0.653202 -37.19  0.005598732    1.720    0.419
         2 -14.1406    202.0311     17.5754   6.4930937532e+01   3.2778355879e+01     1.943934     1.201272  43.25  0.008401043    1.985    0.496
         3 -13.8682    207.0397     10.5955   6.2691322372e+01   3.2346807265e+01     2.940525     1.579117  28.01  0.001431182    4.269    0.766
         4 -13.1613      4.4261      8.5703   1.1432737236e+02   7.0938061414e+01     1.258183    0.4306592 -36.41  0.007004741    2.229    0.551
         5 -11.3362    189.8542     15.5503   6.5913264138e+01   3.5952341844e+01    0.2419428    0.2309928 -63.42 0.0008874694    1.169    0.145
         6  -9.0700    205.3061    250.3225   1.1641203469e+02  -7.3860503325e+00    0.1236521   0.08434471  11.97 0.0007033035    1.641    0.391
         7  -9.8419    193.0152    249.3323   1.1852495338e+02  -5.2286993981e+00    0.2309666    0.1785561 -23.89 0.0009073448    1.512    0.338
         8  -9.7087    193.8475    245.1301   1.1772484554e+02  -4.7593354650e+00    0.1761407    0.1530055  46.15 0.0003368253    1.200    0.167
         9  -9.9093    184.1240    250.2162   1.2030827114e+02  -3.8717663752e+00    0.1893963    0.1501686  21.29 0.0005606388    1.250    0.200
        10 -11.7426    150.0487    248.7118   1.2647005754e+02   2.1440046750e+00    0.4717088    0.3159999  52.05  0.002775764    1.299    0.230
        11 -11.1893    143.4993    249.3763   1.2778272009e+02   3.1449539562e+00    0.3526286    0.2253776  64.01  0.001325471    1.718    0.418
        12 -11.3392    133.4281    249.2953   1.2964904183e+02   4.8506279066e+00    0.6864178    0.2457408  52.77  0.002780588    2.847    0.649
        13 -10.0136    123.0006    249.9791   1.3166127217e+02   6.4603031381e+00    0.2642308    0.1848558 -85.44  0.001580017    1.692    0.409
        14 -10.1930    126.6116    248.8142   1.3085533998e+02   6.0657472198e+00    0.3374225    0.2303205  79.74   0.00151899    1.730    0.422
        15 -10.5168    121.5195    244.7207   1.3130961913e+02   7.6208449654e+00    0.3654048    0.1654326  51.03  0.001153894    1.907    0.476
        16 -11.7210    126.1987    240.4596   1.2990218480e+02   7.5985768805e+00    0.4235193    0.3605374 -86.68  0.001969635    1.246    0.197
        17 -10.7764    116.6479    246.5144   1.3242843391e+02   8.1029967928e+00     0.773596     0.372491  77.34  0.002378342    6.433    0.845
        18 -10.8509    115.2524    250.2602   1.3311517113e+02   7.6721243248e+00    0.4987994    0.1523893  44.39   0.00207977    2.651    0.623
        19 -11.1322    109.8623    247.7612   1.3382037044e+02   8.9777274463e+00    0.3417484    0.2860866  71.21   0.00128212    1.087    0.080
        20 -10.0874    108.7558    242.9841   1.3348519740e+02   1.0013882090e+01    0.2795286    0.1608842 -57.90  0.001550054    1.972    0.493
        21  -9.4907     93.9453    217.0047   1.3325622578e+02   1.7422062632e+01    0.3339549    0.1752207  84.08  0.001383889    2.943    0.660
        22 -12.0118    100.0197    247.0172   1.3553462806e+02   1.0666327537e+01    0.6150857    0.4460625  44.75  0.003916389    1.322    0.244
        23 -11.8784     95.9592    238.1833   1.3532800632e+02   1.2930669148e+01    0.7882663    0.3889083 -86.96   0.00338136    3.237    0.691
        24 -11.5740    103.3237    238.6556   1.3400557740e+02   1.1681313885e+01     0.758675    0.4937382  15.13  0.003332044    3.730    0.732
        25 -11.2071     98.5045    231.5257   1.3409936818e+02   1.3802598962e+01    0.3816904    0.3033382 -59.46 0.0008576422    1.472    0.320
        26 -10.6395     92.7549    226.0732   1.3457262751e+02   1.5776458907e+01    0.2810505    0.1825033  58.18 0.0005514229    1.336    0.251
        27 -11.7312     98.8173    223.5370   1.3309186661e+02   1.5322999603e+01    0.5020564    0.2928331  42.52  0.001292565    1.622    0.383
        28 -10.9148    112.7319    230.1325   1.3119004498e+02   1.1762079518e+01    0.3857644    0.2456449  57.32  0.001423014    1.398    0.285
        29 -11.0459    106.0919    229.2575   1.3237047036e+02   1.3022421274e+01    0.5534143    0.2338973  47.86 0.0009975459    2.037    0.509
        30  -9.6675     83.7710    242.3877   1.3800005243e+02   1.3995144289e+01      0.15603    0.1500453 -29.91 0.0008032527    1.626    0.385
        31 -10.1287     87.7248    250.6020   1.3809989841e+02   1.1896547485e+01    0.4320645    0.1312493  39.30  0.001510903    3.323    0.699
        32 -11.1274     81.0570    245.9519   1.3883250279e+02   1.3732457485e+01    0.5475207    0.2874113  83.84  0.002797634    2.332    0.571
        33 -11.0402     88.1653    247.1834   1.3768691075e+02   1.2451089898e+01    0.3428919    0.1937762  41.38  0.001651755    1.703    0.413
        34 -10.2769     63.3859    249.8008   1.4224379997e+02   1.5523745931e+01    0.1860453    0.1598996 -63.74  0.001244992    1.604    0.376
        35 -11.5438     66.9193    244.1003   1.4114966510e+02   1.6095724275e+01    0.4140475    0.2794361  27.03  0.002404797    2.381    0.580
        36 -14.9353     15.2563    168.5194   1.4404341913e+02   3.8026261756e+01     3.041231     1.376598 -60.10   0.01641346    1.932    0.482
        37 -13.9713      2.4759    221.0089   1.5038335658e+02   2.8170479528e+01     2.542514    0.4787264 -72.73   0.01070947    3.870    0.742
        38 -13.6431      8.9710    206.8481   1.4838196269e+02   3.0391407820e+01     1.306156    0.8631112  38.11  0.009078005    1.834    0.455
        39 -14.1965      6.2125    246.2350   1.5118900003e+02   2.3017324984e+01     1.070301    0.6164405  80.83  0.007779811    1.256    0.204
        40 -13.0542     13.9017    238.6991   1.4958545654e+02   2.3613426026e+01    0.6727433    0.2908406  66.65  0.003964697    1.939    0.484
        41 -12.9010     42.0585    228.5590   1.4419028417e+02   2.2362309093e+01    0.3338207    0.3229026  75.85 0.0007800619    1.556    0.358
        42 -14.6928     47.9781    219.2832   1.4234024039e+02   2.3497450534e+01     1.730047     1.472142  50.80  0.007429942    1.398    0.284
        43  -8.4718    158.2953    241.3772   1.2389623497e+02   1.9313836940e+00    0.1242958   0.09705116   6.05 0.0007023525    1.747    0.428
        44 -10.6397    115.8116    239.8739   1.3179824277e+02   9.4326458606e+00    0.2274415    0.1996808  72.71 0.0004736797    1.103    0.094
        45 -11.1202    144.2626    240.3758   1.2644299766e+02   4.5322643349e+00    0.2581784    0.1400963  49.80  0.001315565    1.602    0.376
        46  -9.4288    150.6836    239.3025   1.2506218585e+02   3.6033419443e+00     0.129349   0.09092899  67.38 0.0007023339    1.620    0.383
        47 -11.2065     89.8004    237.3764   1.3638395055e+02   1.4033452341e+01    0.3407759    0.2186403 -82.50  0.001353677    1.613    0.380
        48  -9.8291     83.5080    238.4198   1.3764963883e+02   1.4783691042e+01    0.2205287    0.1191123  53.27 0.0005207178    1.549    0.354
        49  -9.5615     86.4555    237.4568   1.3700994639e+02   1.4525540055e+01    0.1915339    0.1419315  86.96 5.773308e-05    1.249    0.199
        50 -11.6711    249.6360    241.6474   1.0703933287e+02  -1.3102045262e+01    0.5648433    0.1756973 -36.58  0.002467061    3.383    0.704
        51 -11.6125    122.6220    232.7773   1.2960647760e+02   9.6040941890e+00    0.4529327    0.4119695  32.53  0.002958814    1.316    0.240
        52 -11.5050    128.5024    233.5437   1.2856504437e+02   8.4610095670e+00      0.46512    0.3384178 -84.48  0.002679095    1.604    0.377
        53 -10.5762    165.7342    235.1882   1.2155500533e+02   1.6576039625e+00    0.2454532    0.2056529 -53.64  0.001367304    1.401    0.286
        54 -10.4359    161.9606    232.9512   1.2195161316e+02   2.7036913499e+00    0.3570139    0.2212692  76.95  0.001535257    3.054    0.673
        55  -9.7905     77.8952    233.0552   1.3813696977e+02   1.6646835310e+01    0.2710934    0.1629339 -89.38  0.001169164    1.712    0.416
        56 -11.1571    156.6314    231.6641   1.2280100347e+02   3.8727828324e+00     0.244923    0.2349331   9.73  0.000540412    1.197    0.164
        57 -10.4044    141.8615    230.4401   1.2552478035e+02   6.7066857828e+00     0.319766    0.2411056  14.76 0.0009943945    1.881    0.468
        58  -9.4496     56.9661    230.6313   1.4171941195e+02   2.0046136419e+01    0.2797854    0.1224003  51.62   0.00146698    1.939    0.484
        59 -10.6244     84.7238    229.6049   1.3650116454e+02   1.6309718875e+01    0.2641057    0.2151956  41.15 0.0008633296    1.422    0.297
        60 -10.5546     77.6081    221.0665   1.3693220393e+02   1.9083440756e+01    0.2724546    0.1734551  64.35 0.0003955503    1.403    0.287
        61 -10.6800     80.5215    227.4646   1.3706558116e+02   1.7362499833e+01    0.3054385    0.2761691 -29.98 0.0008434432    1.742    0.426
        62 -10.1334     78.9635    224.5531   1.3704975652e+02   1.8176475545e+01    0.2377422    0.2082444   1.57 0.0008381837    1.926    0.481
        63 -11.3441    244.9874    240.5126   1.0765748696e+02  -1.2277995389e+01    0.2495554       0.1646  24.88  0.001552672    1.300    0.231
        64  -9.4191    179.7644    228.4142   1.1776285565e+02   2.9071308773e-01    0.2347846    0.1681625  84.77 0.0009177305    2.376    0.579
        65 -10.4248    165.5186    226.8347   1.2031044922e+02   3.1204421298e+00    0.3828018    0.2488223 -64.29  0.001694828    2.069    0.517
        66 -11.3571    160.7771    223.2793   1.2069281515e+02   4.6069088829e+00    0.5881623    0.3300062  30.10   0.00191622    2.063    0.515
        67 -10.2996    222.9451    244.2213   1.1221747645e+02  -9.3844552577e+00    0.2096154    0.1199754  17.88  0.001081121    2.000    0.500
        68  -9.7723    197.5934    226.8699   1.1405012883e+02  -2.6233266512e+00    0.2890362     0.220695 -87.38  0.001515526    2.278    0.561
        69  -9.0935    190.8104    228.1602   1.1557468953e+02  -1.6331351001e+00    0.1728136    0.1404984  13.67  0.000268833    1.275    0.216
        70  -9.5561    136.1997    227.8475   1.2627468723e+02   8.1779214076e+00    0.2035993    0.1642792  67.03 0.0009825749    1.194    0.163
        71 -10.8630    132.4755    224.5350   1.2654645841e+02   9.4534246269e+00    0.2684386    0.2415738 -15.15  0.001090807    1.493    0.330
        72 -10.6026    129.6984    221.1418   1.2662063987e+02   1.0591094618e+01    0.3022584    0.2035056  78.89  0.001534878    1.847    0.459
        73  -9.7685    147.2083    225.0869   1.2368281655e+02   6.7325888941e+00    0.1937894    0.1736611  16.48 0.0004468254    1.317    0.241
        74  -9.8349    149.7979    222.4358   1.2276268750e+02   6.7536320891e+00    0.2350302    0.2042814   5.37 0.0007955233    1.447    0.309
        75 -11.6931    141.9568    221.7914   1.2424366925e+02   8.2874822340e+00     0.370754    0.3407522  41.98 0.0003878016    1.131    0.116
        76 -11.2621    138.1451    214.2893   1.2388337990e+02   1.0414910087e+01    0.5501194    0.3599606  37.31  0.001306235    1.520    0.342
        77 -10.5094    105.4368    219.5316   1.3127899903e+02   1.5050957488e+01      0.46979    0.2382541  70.71  0.000728898    2.975    0.664
        78 -11.2560     70.2148    218.9339   1.3812525213e+02   2.0589240205e+01    0.6572155    0.3352732 -83.33  0.003247133    2.159    0.537
        79 -11.0210     72.3040    210.2416   1.3676976004e+02   2.2108024486e+01    0.4171224    0.2851709  35.20   0.00225748    1.744    0.427
        80  -9.3723    177.2341    220.3923   1.1694005091e+02   2.1086367038e+00    0.2011313     0.114272  50.19 0.0009541611    1.724    0.420
        81 -10.8775    117.3649    224.3192   1.2952833825e+02   1.2106391830e+01    0.2337015     0.205957  64.04 0.0002645307    1.060    0.057
        82  -9.9602    246.8032    218.3908   1.0340621153e+02  -9.5969142855e+00    0.1825714    0.1023698  27.63 0.0009527275    1.741    0.425
        83 -10.0293     22.7559    216.2241   1.4662836436e+02   2.7070224179e+01    0.3369768    0.1541768  79.85  0.001428888    2.133    0.531
        84 -10.5388    165.2226    242.0245   1.2266641613e+02   6.2263233991e-01    0.2465127    0.1995073  10.63 0.0006165514    1.501    0.334
        85  -8.9628    182.7733    213.9735   1.1473751074e+02   2.2065802275e+00    0.1650385    0.1139106 -42.53  0.000396412    1.596    0.374
        86  -9.9843     88.1740    212.9764   1.3391764705e+02   1.9161109105e+01    0.2337091    0.1729767 -80.01 0.0006716441    1.288    0.224
        87 -11.6063    135.7987    241.1270   1.2816084572e+02   5.8544786887e+00    0.3759233    0.2499289  63.97 0.0004140421    1.550    0.355
        88  -9.8948    102.2437    212.1752   1.3096200491e+02   1.7081037754e+01    0.3565657    0.1894895  67.15  0.001567399    2.338    0.572
        89  -9.9466    110.7278    221.4720   1.3047414267e+02   1.3784530762e+01    0.3180216    0.1781653 -58.08  0.001319817    1.915    0.478
        90  -9.7212     33.3997    211.4776   1.4434353883e+02   2.6864736723e+01    0.1603717    0.1443725  65.92 0.0005847528    1.368    0.269
        91 -10.6828    174.2339    211.0522   1.1595015689e+02   4.3235110211e+00    0.4676746    0.1883902 -56.76  0.001599734    3.979    0.749
        92  -9.9899    175.4028    205.4669   1.1472697083e+02   5.1274016587e+00    0.2453727    0.2143361  20.44 5.851559e-05    1.183    0.155
        93  -9.5245    178.2917    204.7003   1.1399778409e+02   4.7179716276e+00    0.2099916    0.1831288  53.69 0.0002358647    1.152    0.132
        94 -10.0976    109.0560    207.7259   1.2894646596e+02   1.6871698564e+01    0.3380941    0.1839498 -64.64  0.001152943    1.951    0.488
        95  -9.2762    119.8130    208.8266   1.2686149587e+02   1.4787571263e+01    0.1880662    0.1441479  72.24 0.0002403632    1.296    0.229
        96  -9.5329    135.1944    207.9652   1.2351273700e+02   1.2207356646e+01    0.2497151    0.1784229  28.50  0.001115444    1.660    0.398
        97 -12.3355     93.4967    202.8072   1.3152068400e+02   2.0483128038e+01    0.5514498    0.4612508 -71.89  0.001826496    1.202    0.168
        98 -10.8948    102.9228    202.7312   1.2952767626e+02   1.8960494504e+01    0.5095518    0.2591923  42.90  0.002371629    1.867    0.464
        99 -10.6009     98.7142    196.8248   1.2958272929e+02   2.0935936181e+01    0.4998986    0.3127097  56.54  0.001850779    1.530    0.347
       100 -11.1337    246.5264    206.2294   1.0117468900e+02  -7.7955556633e+00    0.3506965    0.1832245  22.47  0.001605167    2.353    0.575
       101  -8.9482     32.6934    207.2450   1.4411608825e+02   2.7830431286e+01     0.150697   0.08687352 -72.45 0.0006553014    1.500    0.333
       102  -9.5354    125.9204    205.7099   1.2511099688e+02   1.4346647398e+01    0.1998266    0.1612775  55.23   0.00048086    1.120    0.107
       103  -8.9603    149.1775    205.2068   1.2013022336e+02   1.0163202763e+01    0.2322982    0.1588576  -3.17 0.0009584907    2.912    0.657
       104  -9.5115    166.9601    203.2523   1.1607499377e+02   7.1592907749e+00    0.1935644    0.1645769  45.11 -0.000430966    1.083    0.077
       105  -9.6131    133.1588    202.7027   1.2310473899e+02   1.3652278162e+01    0.2241763    0.1990578 -63.43 0.0004437779    1.197    0.164
       106 -10.2942    134.0540    197.9522   1.2213700498e+02   1.4472363015e+01    0.2393458    0.1982726 -86.55 0.0003423803    1.281    0.220
       107 -12.3953    135.2294    236.7230   1.2768622285e+02   6.7303244924e+00    0.5378353    0.4325341 -64.91  0.001294426    1.409    0.290
       108  -9.8077     64.1889    202.1676   1.3748593284e+02   2.4980845467e+01    0.2176335    0.1766617  35.85 0.0005517799    1.538    0.350
       109  -9.7381     32.9200    201.9166   1.4360870726e+02   2.8933463139e+01    0.1714791    0.1328489  86.65 0.0002917472    1.039    0.038
       110 -10.3253    197.2873    200.6976   1.0941619888e+02   1.8247902949e+00    0.3206256    0.2367607  54.96  0.001570533    1.502    0.334
       111 -10.4125    112.8902    193.5741   1.2602317564e+02   1.9237203954e+01    0.4863242    0.2747181 -65.77   0.00122263    1.903    0.475
       112 -11.1158    115.2617    200.2122   1.2653460133e+02   1.7390421020e+01    0.2424185    0.2295672 -78.93 0.0002478317    1.156    0.135
       113 -10.4138    119.9771    199.1178   1.2535466381e+02   1.6790491404e+01     0.333965    0.2245326  67.28    0.0003499    1.610    0.379
       114  -9.2031    169.7024    200.5197   1.1501480350e+02   7.1541104052e+00    0.1926673    0.1276123  53.01 0.0007271748    1.521    0.343
       115  -9.9550     44.0659    199.3057   1.4120363836e+02   2.8196788914e+01    0.2601811    0.2087483  56.74  0.001094338    1.276    0.216
       116 -11.1965    249.2578    194.5504   9.8426130860e+01  -6.4773260738e+00    0.3186329    0.2766966   0.11  0.002025728    1.023    0.023
       117  -8.9168     86.2651    199.2698   1.3256844925e+02   2.2389296764e+01    0.1612187    0.1561653  11.61 0.0001974029    1.414    0.293
       118  -9.4579     85.9711    195.9694   1.3219042704e+02   2.3159584559e+01    0.2407465    0.1725402 -72.56 0.0003878855    1.321    0.243
       119 -11.3587     53.2509    198.1127   1.3924910228e+02   2.7314813857e+01    0.5344162    0.1967974  47.64  0.002423143    2.519    0.603
       120 -10.4661     56.4231    193.8759   1.3813562170e+02   2.7837004680e+01     0.376961    0.2072836 -75.96  0.001474197    1.660    0.398
       121 -11.6546     67.1537    194.9945   1.3603890916e+02   2.6143675198e+01    0.4075418    0.2959996 -45.98  0.001674393    1.802    0.445
       122  -9.4031     77.1862    188.8253   1.3311729358e+02   2.6081650498e+01    0.1970451    0.1560048  75.72 0.0002919868    1.137    0.120
       123 -11.9168     72.6389    187.4344   1.3391755142e+02   2.7057839812e+01    0.3528514      0.31696 -48.26 0.0008567982    1.411    0.291
       124  -8.9360    107.4680    196.4608   1.2764365162e+02   1.9546901690e+01    0.1396592    0.1216875  75.04 0.0001249567    1.020    0.020
       125 -10.6490     38.7643    192.3669   1.4156701220e+02   3.0334817638e+01    0.2906942    0.1633393 -68.73 0.0001020611    1.541    0.351
       126  -9.3525     41.9259    188.6163   1.4054217652e+02   3.0794883172e+01    0.2932491    0.1695049  87.40  0.001291637    1.650    0.394
       127  -9.3095     31.0874    195.2182   1.4335678989e+02   3.0575797753e+01    0.2273622    0.1258909  59.06 0.0009350637    1.682    0.406
       128  -9.8654    159.6712    193.9713   1.1593941839e+02   1.0390376534e+01    0.3114965     0.204507  55.71  0.001140057    1.580    0.367
       129 -10.2613    138.0630    201.5567   1.2187437708e+02   1.2980693458e+01     0.236377    0.2014932 -63.87 0.0002953663    1.238    0.192
       130 -10.8481    119.2634    191.5021   1.2429545985e+02   1.8557247310e+01    0.5413821     0.359389  89.09 0.0008851057    1.942    0.485
       131  -8.8938     82.2367    194.3616   1.3277148786e+02   2.4087899781e+01    0.1825164    0.1282499  43.53 0.0001936088    1.458    0.314
       132  -8.7677     84.6916    192.3469   1.3197251776e+02   2.4160396876e+01    0.1389545    0.1241213  86.57 0.0005706486    1.085    0.078
       133  -9.8148     72.9523    193.0582   1.3457808434e+02   2.5751930928e+01    0.1950585    0.1627076  82.71            0    1.008    0.008
       134  -9.0799     47.8218    192.5919   1.3975857432e+02   2.9208274930e+01    0.1555565    0.1441151  89.65  0.001079543    1.281    0.219
       135  -9.7009     26.0808    193.0644   1.4413561293e+02   3.1578835440e+01    0.1803067    0.1347676 -87.04 0.0006180562    1.058    0.055
       136  -9.9351     20.4303    191.9751   1.4513249587e+02   3.2394391609e+01    0.2662933    0.1395847  77.37  0.001485842    1.804    0.446
       137 -10.2272    191.4182    191.4043   1.0881353452e+02   4.6434585959e+00    0.2727658    0.2461913   9.29 0.0006125615    1.123    0.109
       138  -9.5723    172.8566    192.0739   1.1279034835e+02   8.1729836301e+00     0.233076     0.165668 -16.54  0.001075234    1.969    0.492
       139  -9.4717    135.2127    190.0188   1.2053652089e+02   1.5931220303e+01    0.2150719    0.1812761  80.87 0.0004762512    1.227    0.185
       140 -10.2003     32.5711    189.3601   1.4251191293e+02   3.1689871935e+01    0.3200497     0.275526   9.28  0.002177799    1.847    0.458
       141 -11.8926    249.8981    187.6094   9.6934599796e+01  -5.5031343631e+00    0.7703989    0.2114054 -36.57  0.002697018    3.491    0.714
       142 -10.8123    236.4508    145.9250   9.0494679901e+01   4.0581728102e+00    0.3644404    0.2067101  43.73 0.0009453545    1.890    0.471
       143 -12.7302    248.2350    101.5340   7.8599757155e+01   9.5181853741e+00    0.8900151    0.5265815 -36.54  0.004246243    1.574    0.365
       144 -12.4909    248.4147    171.9953   9.4005184964e+01  -2.7196433070e+00    0.7014085     0.500106 -23.76  0.003825184    1.338    0.253
       145 -13.7841    244.8722    158.0974   9.1683735256e+01   2.8151536606e-01     2.440182    0.8908728 -46.44   0.00876375    3.023    0.669
       146 -10.5534    140.8390    182.7083   1.1797999863e+02   1.6420773825e+01    0.4811525    0.3052525  21.46 0.0007732396    2.433    0.589
       147  -9.4730     85.8758    183.4629   1.3045497931e+02   2.5978252299e+01    0.2808678    0.2050765  11.21  0.000560103    2.332    0.571
       148  -9.2808     37.4854    184.1863   1.4099125569e+02   3.2289080112e+01    0.2163785       0.1535  46.22  0.001361589    1.505    0.336
       149  -9.4662     53.8215    182.2366   1.3732560039e+02   3.0777852292e+01    0.2415057    0.1933839 -21.29  0.001299305    2.054    0.513
       150  -9.6732     65.9319    181.9609   1.3466006555e+02   2.9242901740e+01    0.1935136    0.1644145  87.81  0.000317541    1.024    0.024
       151 -13.0209    248.4193    113.8883   8.1351884814e+01   7.3388972595e+00     1.430031    0.9295375 -18.82  0.006599527    2.008    0.502
       152 -10.0299    174.8522    179.7269   1.0995726368e+02   1.0225278739e+01    0.3795322    0.1665165  48.07  0.001430432    2.271    0.560
       153  -9.3064    170.2117    179.9927   1.1100567821e+02   1.1116958606e+01    0.1928108     0.188244 -38.79  0.001087287    1.067    0.063
       154  -8.6338    104.3790    180.5424   1.2583355765e+02   2.3616231899e+01    0.1400634    0.1257743 -89.48 0.0001101309    1.029    0.028
       155  -9.2121     48.0000    179.6006   1.3826408968e+02   3.2094944919e+01    0.1665054    0.1169278  44.58 0.0005132478    1.523    0.343
       156  -9.4158    109.3204    178.0879   1.2429699009e+02   2.3315289110e+01    0.2020518    0.1659873 -69.62 0.0005168267    1.180    0.153
       157 -11.4373     81.8436    175.6539   1.3020515915e+02   2.8389917756e+01    0.4170342    0.3196334  43.47  0.001410954    1.384    0.277
       158  -9.8902     77.1968    175.7048   1.3127271294e+02   2.9074471368e+01    0.2097464    0.1630035 -83.02 0.0006118194    1.170    0.146
       159 -11.7968     68.8169    173.3271   1.3283727260e+02   3.0828468411e+01    0.5603095    0.2467566 -53.41  0.001460203    2.249    0.555
       160 -10.9362     68.9413    166.8537   1.3186807377e+02   3.2318358969e+01    0.2995614    0.2050109 -52.62 0.0003670786    1.500    0.334
       161  -9.4287    114.8165    176.5649   1.2277261370e+02   2.2681469999e+01    0.1967258    0.1278024  55.79 0.0003331394    1.555    0.357
       162 -10.3872    169.6006    248.5877   1.2278450583e+02  -1.1687905619e+00    0.3130402    0.1988079  21.05 0.0008875591    2.026    0.506
       163  -9.7594     95.2784    172.8185   1.2665773425e+02   2.6918497988e+01    0.2467099     0.178441  63.93 0.0005806059    1.406    0.289
       164  -9.6126     91.1220    172.7942   1.2761991856e+02   2.7600643594e+01    0.2781926    0.2047293 -33.16   0.00106406    1.898    0.473
       165 -10.5422     89.9078    160.4992   1.2584455578e+02   3.0671726198e+01    0.3357291    0.2204772 -60.12 0.0006119732    1.422    0.297
       166  -9.6549     93.3641    169.2882   1.2651967491e+02   2.8052259005e+01    0.1923954    0.1782917   1.21 0.0008668637    1.412    0.292
       167 -12.4432     87.8686    166.8570   1.2741278792e+02   2.9503104969e+01     0.890932     0.567382 -50.17  0.004398715    1.626    0.385
       168 -11.3837     28.4281    171.4251   1.4154783183e+02   3.6119505218e+01    0.3975138    0.2449703 -65.29  0.001207843    1.403    0.287
       169  -8.8165    167.2025    170.0757   1.0964280434e+02   1.3788132869e+01    0.2023629    0.1195685 -45.04 0.0008597259    1.739    0.425
       170  -8.8915    100.5624    170.4842   1.2503054032e+02   2.6575709643e+01    0.1433704    0.1290298 -89.55   3.9211e-06    1.008    0.008
       171 -10.8993     43.7125    168.8748   1.3791353970e+02   3.5049249233e+01    0.3636815    0.3078827 -48.38  0.001546867    1.440    0.306
       172  -9.4489    126.5818    167.7595   1.1842201010e+02   2.2492137357e+01    0.2083139    0.1393695 -67.10 0.0009428735    1.637    0.389
       173  -9.6965    107.3051    168.2013   1.2304245159e+02   2.5938592229e+01    0.2226755    0.1907552  40.29  0.000348758    1.263    0.208
       174  -8.9567     58.4935    167.4874   1.3438114582e+02   3.3570686225e+01    0.1336141    0.1111763 -86.59 0.0002522293    1.020    0.020
       175  -8.9306    136.1754    165.4058   1.1571869105e+02   2.1152484440e+01    0.2051604    0.1362667  56.06 0.0001346311    1.571    0.363
       176  -9.1542     53.9669    164.7713   1.3505083046e+02   3.4774951939e+01    0.1766548    0.1469254 -82.72 0.0003545085    1.006    0.006
       177  -8.3804     45.3072    187.6331   1.3974061273e+02   3.0613000545e+01    0.1354874   0.07844472  75.51 0.0007036627    1.751    0.429
       178  -9.4534     80.7748    163.9788   1.2862676435e+02   3.1275292083e+01    0.1971809    0.1631663 -73.48 0.0009885959    1.090    0.082
       179 -10.0961     48.2790    168.8075   1.3688146251e+02   3.4530828074e+01     0.296764    0.1782404  46.95  0.001628507    1.723    0.420
       180  -9.3907    154.6981    161.8906   1.1072261876e+02   1.8152093588e+01      0.20839    0.1875601 -64.85 0.0003831442    1.134    0.118
       181  -9.2107     36.9806    162.5352   1.3864858093e+02   3.7252956216e+01    0.1599652    0.1203576  43.81 0.0004674589    1.497    0.332
       182 -10.9157     73.6018    157.9275   1.2936768762e+02   3.3758608745e+01     0.453384    0.3502081 -79.41  0.002086691    1.197    0.165
       183 -10.9370     96.0035    157.2299   1.2377424885e+02   3.0444529007e+01    0.5094743    0.2048057 -61.31  0.001874398    2.568    0.611
       184 -11.0062    100.7090    151.0849   1.2144966970e+02   3.1095644445e+01    0.5288298    0.4251101  22.56  0.002176875    1.556    0.357
       185  -9.8116    103.5000    146.0186   1.1974128373e+02   3.1803947841e+01    0.3556131    0.2598863 -31.04  0.001111323    1.742    0.426
       186  -9.2408     79.0683    158.8617   1.2819466333e+02   3.2737546309e+01    0.2074835    0.1691963  83.78 0.0004407448    1.196    0.164
       187 -12.0949     51.5805    237.5334   1.4325829149e+02   1.9404684816e+01    0.8356694    0.4655928  76.15  0.003114741    1.633    0.388
       188  -9.0693     52.2699    158.4265   1.3456382215e+02   3.6463519102e+01    0.1646709    0.1162308  53.63 0.0008485659    1.480    0.324
       189  -9.9540    134.4906    155.9953   1.1418787942e+02   2.3616941875e+01    0.2286422    0.1480474 -51.98  0.000370037    1.537    0.350
       190  -9.2930    228.4342    155.1514   9.3967263952e+01   3.9872115760e+00    0.2208798     0.133721 -38.14 0.0005716927    1.565    0.361
       191  -8.4833    175.7157    155.2542   1.0458575853e+02   1.5093856489e+01     0.145607    0.1200936  85.27            0    1.474    0.321
       192  -9.6322     52.9655    146.3188   1.3259210010e+02   3.9221832152e+01    0.2719122    0.1836135  86.86 0.0007027743    1.600    0.375
       193 -10.3618     60.2549    151.1012   1.3153680403e+02   3.7188311713e+01     0.469371     0.268834  76.87  0.001727127    2.421    0.587
       194 -10.5957     55.7839    150.2594   1.3250634097e+02   3.7950730381e+01    0.2821269    0.2460311  67.42  0.001091166    1.189    0.159
       195 -10.5274    113.6947    151.1221   1.1823012796e+02   2.8763795580e+01    0.4115728    0.3106276 -50.04 0.0007621386    1.314    0.239
       196  -9.2305     90.3358    149.9197   1.2382468760e+02   3.3104090455e+01    0.2051382    0.1692012 -63.93 0.0006159202    1.121    0.108
       197  -9.1659     49.2529    150.5801   1.3415404854e+02   3.8660297431e+01    0.1549557    0.1305813  10.66 0.0009412308    1.631    0.387
       198 -10.8252     60.7382    137.7069   1.2918245338e+02   4.0290325562e+01    0.2275433    0.1941911  36.82 0.0006914383    1.357    0.263
       199 -13.0038     67.5410    144.2534   1.2857337051e+02   3.7844620487e+01     0.767755    0.5536795  84.50  0.004024654    1.538    0.350
       200 -12.1114     73.8540    139.6592   1.2611975289e+02   3.8052482099e+01    0.7000033    0.5073749  84.41  0.003041559    1.597    0.374
       201 -10.8230    134.0000    145.0325   1.1193989431e+02   2.6215518621e+01    0.5757983    0.1980877 -49.84  0.001858768    2.883    0.653
       202 -10.8385    133.3416    140.2437   1.1102480404e+02   2.7442732336e+01    0.4459164     0.318421 -44.03  0.001313491    1.415    0.294
       203 -12.9175     12.5150    186.3779   1.4618764045e+02   3.4364622572e+01    0.9016692    0.6988072  22.18  0.002705094    1.936    0.484
       204 -12.0629      2.8362    145.0285   1.4440708727e+02   4.4252857887e+01    0.4695418    0.2248971 -64.92  0.002700031    1.587    0.370
       205 -12.6561      7.6884    142.1180   1.4298532715e+02   4.4549237848e+01    0.6267347     0.381436  89.47   0.00382079    1.496    0.331
       206  -9.7514    158.9991    145.0990   1.0603148292e+02   2.0909390549e+01    0.2230301    0.2185091  88.54  0.001187778    1.004    0.004
       207  -8.6162     93.4839    145.5096   1.2218230240e+02   3.3634268005e+01    0.1467995    0.1313153 -83.58 0.0008095651    1.064    0.061
       208 -11.0531     37.1426    143.8496   1.3614595389e+02   4.1560497740e+01    0.1926842    0.1517699  88.12 0.0004653215    1.194    0.162
       209 -12.1679     32.0590    139.7665   1.3682556371e+02   4.3013033201e+01    0.4107257    0.2447109  69.34  0.001425921    2.024    0.506
       210  -9.8684     42.1149    140.6589   1.3444040038e+02   4.1781670037e+01     0.229472    0.1386218  52.91  0.001222961    1.870    0.465
       211 -14.5430     30.9578    246.3400   1.4734483422e+02   2.0279459412e+01     2.154341      1.23351  62.90   0.01457429    1.342    0.255
       212 -12.4322     47.2221    138.3825   1.3278924419e+02   4.1753118043e+01    0.4597204    0.3568205  -1.50  0.002670845    1.862    0.463
       213  -9.0790    122.1233    148.1088   1.1552083648e+02   2.7869144158e+01    0.1995321    0.1705433  89.89  0.001016658    1.237    0.192
       214 -10.3841    111.4869    136.1755   1.1561236281e+02   3.2666419067e+01    0.3963003     0.296055  25.26  0.001215463    1.642    0.391
       215 -11.6092     20.9367    133.9571   1.3879561624e+02   4.5349189554e+01    0.2375773    0.1916107  80.17 0.0003387537    1.253    0.202
       216 -12.2895      2.4969    129.8117   1.4282195152e+02   4.7656177707e+01    0.6725965    0.2134922 -73.98  0.002976177    2.597    0.615
       217 -10.3989     30.2983    183.3684   1.4238437974e+02   3.3255981892e+01    0.2900723    0.2024746 -82.66  0.001176894    1.142    0.125
       218 -11.8481     67.6245    128.3056   1.2560508077e+02   4.1599375738e+01    0.4285602     0.376213  87.84  0.001242974    1.175    0.149
       219  -9.0010     98.3741    133.9607   1.1854069142e+02   3.5534582740e+01     0.427147    0.1829141 -37.43  0.001352863    3.655    0.726
       220  -9.1707    106.0000    127.8855   1.1517664953e+02   3.5603087447e+01    0.2562035   0.08133305 -51.47 0.0002632393    2.986    0.665
       221 -11.3641     38.4231    121.5174   1.3231854703e+02   4.6603724252e+01     0.292228    0.1981816  60.78  0.001642694    1.796    0.443
       222 -11.1716      9.7144    127.4013   1.4074405872e+02   4.7700418588e+01    0.2251291    0.1204479 -79.67 0.0008061013    1.643    0.391
       223 -10.5095    209.7784    125.8411   9.0731562948e+01   1.3487045455e+01    0.3085122     0.258235 -33.55 0.0004770793    1.182    0.154
       224 -12.2593     31.1728    126.9641   1.3515658719e+02   4.6048189359e+01    0.3694282     0.263486  37.39  0.001461605    1.663    0.398
       225  -9.5159     86.1094    126.1065   1.2012190096e+02   3.9402159427e+01    0.3116683     0.204501  -2.76   0.00125411    2.925    0.658
       226 -12.6999     31.4992    117.1094   1.3346672185e+02   4.8270995745e+01    0.5144438    0.3795028 -15.32  0.003110617    1.807    0.447
       227 -13.1474     20.3896    121.2491   1.3713601293e+02   4.8280043080e+01    0.7024134    0.3504574 -40.14   0.00357706    2.309    0.567
       228 -11.6693     24.3032    121.4119   1.3611878066e+02   4.7922451977e+01    0.2663949    0.2138036 -20.20  0.001104863    1.590    0.371
       229 -10.6470     58.8365    125.2030   1.2739942191e+02   4.3466373092e+01    0.3466543    0.1637394  33.33   0.00156665    2.422    0.587
       230 -10.3163     54.8576    120.7840   1.2764795510e+02   4.4978094568e+01    0.2511363    0.1909766   5.06  0.001405399    1.770    0.435
       231 -12.0796     15.4116    114.7672   1.3749757281e+02   5.0117290461e+01    0.3769977    0.1578468 -63.00  0.001210488    1.780    0.438
       232 -11.0574    249.5378    151.0031   8.9364434953e+01   6.3241240405e-01    0.5561365    0.3062921 -43.02  0.002598294    1.708    0.415
       233 -11.0628    168.0287    113.2330   9.6176573698e+01   2.5680695014e+01    0.3829769    0.3088153 -78.70 0.0008133341    1.474    0.322
       234  -9.0110    134.3206    114.3293   1.0448465296e+02   3.3044482555e+01     0.157824    0.1247031  -3.30 0.0007048384    1.690    0.408
       235 -10.1169     50.1158    112.9563   1.2744775450e+02   4.7327401253e+01    0.1992776     0.169619 -60.31 0.0004728853    1.018    0.018
       236 -12.5011     44.2086    129.8704   1.3218122295e+02   4.4072311820e+01    0.5434258    0.4032129  79.23  0.003167869    1.497    0.332
       237 -11.9400    247.8814    142.5029   8.7793344170e+01   2.4240118327e+00    0.6344823    0.5841488   8.09  0.003801644    1.144    0.126
       238 -10.6645     64.8788    111.8784   1.2296803115e+02   4.5771993530e+01    0.2058349    0.1688285 -39.19 0.0003828969    1.203    0.168
       239  -9.1965    203.5103    111.5155   8.8437731194e+01   1.7682637308e+01     0.151425    0.1472269 -43.49 0.0003238293    1.042    0.040
       240  -8.9376     83.8293    111.1425   1.1735199965e+02   4.3208237596e+01    0.1874158    0.1583526 -27.91 0.0003350296    1.265    0.209
       241 -10.0867     69.9723    111.0422   1.2131053769e+02   4.5275114322e+01    0.2050591    0.1831334 -51.96            0    1.013    0.013
       242 -10.9660     57.2565    110.2137   1.2481709086e+02   4.7115841779e+01    0.3635564    0.2342957  12.74  0.001637292    2.161    0.537
       243 -10.4682     31.9568    110.9450   1.3226155547e+02   4.9624884683e+01    0.1934534    0.1587343 -63.59 0.0004271649    1.029    0.028
       244  -8.6713    114.3512    107.2639   1.0786251468e+02   3.8684241979e+01    0.1490284    0.1186493   1.22 0.0004744963    1.616    0.381
       245 -10.0413     62.3136    107.0665   1.2264839203e+02   4.7196303155e+01    0.2004092    0.1608094 -58.91  0.001158029    1.125    0.111
       246 -11.2356     27.6511    106.3047   1.3266025984e+02   5.1041762333e+01    0.2470546    0.1944107 -64.74  0.001613205    1.070    0.066
       247  -9.0437     86.5965    117.0106   1.1794904745e+02   4.1432280739e+01    0.3067354     0.133315 -60.84    0.0011183    2.615    0.618
       248 -11.2333     25.1091    184.3371   1.4352864620e+02   3.3582432689e+01    0.3842041    0.2364416  81.02  0.002325278    1.439    0.305
       249  -9.5262     33.0051    100.0016   1.2988140971e+02   5.1970362817e+01    0.1571329    0.1172376 -57.37 0.0003775693    1.091    0.084
       250  -8.5927     85.7491     97.2699   1.1331470683e+02   4.5975246791e+01    0.1287376    0.1088627 -83.38 0.0006805616    1.445    0.308
       251  -8.5945     80.2960     97.7258   1.1505020916e+02   4.6734889177e+01    0.1308297     0.109211  86.64 0.0001981708    1.526    0.345
       252  -9.0688     72.0442     90.2804   1.1560065692e+02   4.9556244729e+01    0.1757962    0.1655958 -14.35 0.0002000264    1.094    0.086
       253  -8.4594     50.6592     67.2838   1.1614851054e+02   5.6981703912e+01    0.1135048    0.1002299  82.13 0.0005597722    1.634    0.388
       254  -8.7963    123.9645     51.0256   8.8551939775e+01   4.7222790034e+01    0.1651729    0.1560366   0.72            0    1.053    0.051
       255 -10.7298    172.8311    239.7106   1.2087004283e+02  -3.2759570038e-01    0.3522192     0.207319 -54.49  0.001838916    2.158    0.537
       256  -9.8323    199.9067    245.9077   1.1671814200e+02  -5.8830275410e+00    0.1749897    0.1457096  66.05 0.0005014417    1.604    0.376
       257 -11.3118     59.9063    245.1491   1.4245159251e+02   1.6857649077e+01    0.3518948    0.2472311  88.91 0.0009389043    1.238    0.192
