#   1 NUMBER                 Running object number                                     
#   2 MAG_AUTO               Kron-like elliptical aperture magnitude                    [mag]
#   3 X_IMAGE                Object position along x                                    [pixel]
#   4 Y_IMAGE                Object position along y                                    [pixel]
#   5 X_WORLD                Barycenter position along world x axis                     [deg]
#   6 Y_WORLD                Barycenter position along world y axis                     [deg]
#   7 A_WORLD                Profile RMS along major axis (world units)                 [deg]
#   8 B_WORLD                Profile RMS along minor axis (world units)                 [deg]
#   9 THETA_WORLD            Position angle (CCW/world-x)                               [deg]
#  10 FWHM_WORLD             FWHM assuming a gaussian core                              [deg]
#  11 ELONGATION             A_IMAGE/B_IMAGE                                           
#  12 ELLIPTICITY            1 - B_IMAGE/A_IMAGE                                       
         1 -14.5983    161.9350     40.7770   8.1663181937e+01   3.9431396599e+01     1.309691     1.005564  -6.67  0.003954446    1.445    0.308
         2 -14.1561    174.9920      7.7715   6.8943476726e+01   3.9803703420e+01    0.9481031     0.908829  50.13   0.00395954    1.056    0.053
         3 -10.2666    135.6601    196.3185   1.2567407315e+02   1.6441038477e+01    0.2053241    0.1674762  89.80 0.0006770102    1.391    0.281
         4 -19.8050     75.3239    188.1925   1.3661105014e+02   2.7421456076e+01      14.5971     5.639231 -66.11   0.06786147    2.604    0.616
         5 -13.9669    167.0516    191.1495   1.1869813089e+02   1.1717325722e+01    0.6155193     0.490279  81.37  0.003502718    1.673    0.402
         6 -12.9556    180.3634    192.6765   1.1640441151e+02   9.0221667596e+00    0.3846322    0.3569893  75.63  0.001279366    1.291    0.225
         7 -13.8002    175.0444    193.7606   1.1760540258e+02   9.8270886493e+00    0.6107681    0.3926924 -51.59  0.002737542    1.901    0.474
         8 -13.7659    176.6000    188.2942   1.1635371275e+02   1.0417613792e+01    0.7481267    0.4040737 -59.11  0.003179619    3.045    0.672
         9 -12.3003    210.7810    188.3374   1.0996719129e+02   4.0833665960e+00     0.254698     0.213397 -68.25  0.001487206    1.819    0.450
        10 -11.5631    157.4782    203.5285   1.2254975369e+02   1.1414442086e+01    0.2568313    0.1906078  89.91 0.0008964736    1.959    0.490
        11 -10.1267    126.6100    237.6938   1.3268015229e+02   1.1153535968e+01    0.1260701    0.1038171 -89.53 0.0009060367    1.368    0.269
        12 -11.5530     31.5750    183.3469   1.4470635718e+02   3.3658356096e+01    0.4728605    0.2596427  52.40  0.001939284    1.640    0.390
        13 -10.5704     28.4763    179.4654   1.4498234141e+02   3.4751736938e+01    0.1896499    0.1638857 -67.00 0.0008523693    1.411    0.291
        14 -10.0174     25.6979    184.9975   1.4595210609e+02   3.3929392033e+01    0.1468403    0.1080536  88.13 0.0002963848    1.071    0.067
        15  -9.9227     25.0077    181.7842   1.4583381437e+02   3.4634574458e+01    0.1569025    0.1413312  41.12  0.000365935    1.499    0.333
        16 -10.5344    123.7720    185.0673   1.2635849451e+02   2.0536654330e+01    0.2323885    0.1610871  65.03 0.0007820095    1.525    0.344
        17 -13.8144    207.1092    179.5784   1.0896584870e+02   6.0449720459e+00    0.7913839    0.4469621  32.69  0.003203334    1.734    0.423
        18 -13.3606    196.7128    172.3875   1.0949773176e+02   9.1447383631e+00    0.7242569    0.4032373 -45.01  0.002698297    2.056    0.514
        19 -11.9934      4.8493    178.3083   1.4936915295e+02   3.7162471986e+01    0.2686337    0.2241819  70.48  0.001250106    1.248    0.199
        20 -10.9067     36.2116    177.1051   1.4326329753e+02   3.4426392367e+01     0.314636    0.1710335  22.00  0.001656241    3.096    0.677
        21 -11.5073    153.1517    194.1929   1.2191250634e+02   1.3731652090e+01    0.1907855    0.1654979  30.92 0.0004080629    1.157    0.136
        22 -12.9982    138.9200    172.3710   1.2112772604e+02   2.0258391474e+01    0.5363188    0.3785398 -79.03  0.001983513    1.902    0.474
        23 -12.5894    148.0090    173.0112   1.1934239354e+02   1.8448349963e+01    0.3871723    0.2616677  65.96  0.001674044    1.809    0.447
        24 -13.2666    144.2498    168.4147   1.1929442148e+02   2.0019112734e+01    0.5532421    0.3236503  44.73   0.00203034    1.597    0.374
        25 -13.2231    178.1544    171.6949   1.1296636763e+02   1.2881617707e+01    0.5065955    0.3534986 -45.27  0.002654938    1.579    0.367
        26 -10.7876     13.5030    233.1604   1.5093647108e+02   2.6359163136e+01    0.1248687   0.08440397  79.18 0.0003464394    1.101    0.092
        27 -12.2628    133.8124    247.5452   1.3253046042e+02   8.6222585665e+00    0.1738264    0.1499709  58.94 0.0003065535    1.139    0.122
        28 -11.3495     29.0550    227.5248   1.4821869499e+02   2.5724816685e+01    0.1521257    0.1115897 -89.23 0.0003291776    1.244    0.196
        29 -11.4032    123.4338    166.4361   1.2339938866e+02   2.4218230929e+01    0.3120048    0.2178859  67.45  0.001283802    1.619    0.382
        30 -11.2858    202.0106    165.7348   1.0714723714e+02   9.1692063941e+00    0.2406806    0.2011896 -65.44  0.001323082    1.630    0.387
        31 -10.5922     25.3138    165.1584   1.4438260155e+02   3.7986021513e+01    0.1584471    0.1481519  77.32 0.0006771213    1.323    0.244
        32 -11.2051    223.8595    163.7505   1.0273063738e+02   5.2209050323e+00    0.2402125    0.1886976 -34.30  0.000456462    1.348    0.258
        33 -10.2839    237.6641    159.3153   9.9397809704e+01   3.2492221534e+00    0.1238248    0.1089765 -70.47 0.0007047345    1.693    0.409
        34 -11.1824     25.1151    225.4811   1.4872973672e+02   2.6490954788e+01    0.2052963    0.1107628 -70.51 0.0009255728    1.843    0.458
        35 -10.5601     22.9547    156.1345   1.4404596996e+02   4.0097841515e+01    0.1711323    0.1360735 -89.03 0.0005491153    1.044    0.042
        36 -14.1524    134.2106    145.7699   1.1709567928e+02   2.6411940057e+01     1.362408    0.3835126 -52.79  0.004018813    4.300    0.767
        37 -13.7908    135.9391    127.6195   1.1272904979e+02   2.9809159136e+01     1.868153    0.2821013 -48.52  0.003845308    7.941    0.874
        38 -11.4870    174.6073    148.7420   1.0895681641e+02   1.7657623831e+01    0.2970256    0.2480604  77.44  0.000802743    1.489    0.329
        39 -10.1961    219.3956    224.2449   1.1469447054e+02  -2.0738784974e+00    0.1377148    0.1112081 -36.29 0.0003576397    1.582    0.368
        40 -10.1051    218.2723    218.6614   1.1397749602e+02  -1.2232430189e+00    0.1032454     0.095089  69.66  0.000286028    1.606    0.377
        41 -14.2106    143.9620    145.2500   1.1479308066e+02   2.4604554291e+01    0.9150664    0.5004219 -60.22  0.003717941    2.379    0.580
        42 -10.2477     24.0883    213.2955   1.4817791325e+02   2.8747337016e+01    0.2873731    0.1158071 -61.19  0.001640788    2.750    0.636
        43 -10.2295      1.7986    139.9342   1.4716635696e+02   4.5254373189e+01    0.1572317    0.1171035 -72.73 0.0004934949    1.185    0.156
        44 -11.2218      7.9387    138.2824   1.4565537231e+02   4.5155871479e+01     0.264731    0.2106729 -10.89  0.001286786    1.971    0.493
        45 -11.0412    125.1591    245.0046   1.3371643303e+02   1.0294525035e+01    0.3598744    0.1373756 -55.00  0.001857742    3.257    0.693
        46 -10.2725    150.9017    246.0157   1.2947475034e+02   6.1990335404e+00    0.1586659    0.1304762  46.06 0.0003999966    1.062    0.059
        47 -12.0286    168.8929    202.6825   1.2025448404e+02   9.5283536162e+00    0.2187677    0.1972279  71.63 0.0002372644    1.273    0.214
        48 -12.2444    160.5519    128.2006   1.0726173676e+02   2.4526234606e+01     0.369548    0.3012125 -42.48  0.001750523    1.241    0.194
        49 -13.8675    162.8721    202.8362   1.2141754862e+02   1.0573497405e+01    0.9204302     0.390551 -53.99  0.002683682    3.260    0.693
        50 -13.0784    153.9563    188.5132   1.2082316206e+02   1.4561897563e+01    0.4323186    0.2787605 -42.38  0.002297057    1.761    0.432
        51  -9.5462    182.6822    149.3178   1.0743392138e+02   1.5869657916e+01    0.1414872     0.116621 -87.63 0.0003510246    1.657    0.396
        52 -10.6543    205.4444    110.1489   9.3647654604e+01   1.7703015348e+01    0.3285738    0.2107072  40.66 0.0008653594    1.612    0.380
        53 -12.9010     11.8370    205.9242   1.4979247876e+02   3.1289354402e+01    0.3746322    0.2787723  28.73    0.0025965    1.964    0.491
        54 -10.5231    157.5468    106.2915   1.0239187394e+02   2.9447542431e+01    0.3164915    0.2352593  80.14  0.001404113    1.863    0.463
        55 -11.6194    156.4674    199.2195   1.2207042024e+02   1.2297293538e+01    0.2596904    0.1885978 -56.25 0.0009147354    1.633    0.388
        56  -9.0173    138.3121    242.5544   1.3121529971e+02   8.6376472878e+00    0.3625803    0.2026438  24.74   0.00154828    2.882    0.653
        57 -10.7142     13.9021    240.2144   1.5120548302e+02   2.5156234663e+01    0.2362437   0.04892531 -79.35  0.001031376    4.910    0.796
        58 -11.3025    139.4580    249.8710   1.3183754524e+02   7.4402145088e+00    0.2246968    0.1532417  48.48 0.0008917465    1.128    0.113
        59 -11.5440    139.8280    199.5397   1.2533906696e+02   1.5160469702e+01    0.4173118    0.2019604  49.07  0.002000827    1.865    0.464
        60  -9.9128    143.6582     79.7243   9.8036238992e+01   3.7657854597e+01    0.1560583    0.1178232  16.56 0.0002948002    1.619    0.382
        61 -14.1123    150.8848     55.5420   8.8737934094e+01   4.0052083410e+01      1.02977    0.7942885  22.26  0.001033902    1.447    0.309
        62 -12.6931    168.6451    246.0816   1.2648114336e+02   3.4045235547e+00    0.3518757     0.251584  49.39  0.001163582    1.220    0.181
        63 -12.6273    165.6048     32.5387   7.8308250759e+01   3.9556147454e+01    0.3931866    0.3630228  16.45 0.0008706024    1.109    0.098
        64 -10.7666     13.4021     59.8752   1.3242512329e+02   6.1755036209e+01    0.1628769    0.1538901 -72.82 0.0004908359    1.258    0.205
