#   1 NUMBER                 Running object number                                     
#   2 MAG_AUTO               Kron-like elliptical aperture magnitude                    [mag]
#   3 X_IMAGE                Object position along x                                    [pixel]
#   4 Y_IMAGE                Object position along y                                    [pixel]
#   5 X_WORLD                Barycenter position along world x axis                     [deg]
#   6 Y_WORLD                Barycenter position along world y axis                     [deg]
#   7 A_WORLD                Profile RMS along major axis (world units)                 [deg]
#   8 B_WORLD                Profile RMS along minor axis (world units)                 [deg]
#   9 THETA_WORLD            Position angle (CCW/world-x)                               [deg]
#  10 FWHM_WORLD             FWHM assuming a gaussian core                              [deg]
#  11 ELONGATION             A_IMAGE/B_IMAGE                                           
#  12 ELLIPTICITY            1 - B_IMAGE/A_IMAGE                                       
         1 -17.3204    238.2398     52.3121   6.4783715413e+01   2.0258521975e+01     6.082158     3.425323 -35.32   0.02203276    1.887    0.470
         2 -10.2205    203.4391     12.8973   5.9875870702e+01   3.3256656405e+01    0.3770969    0.2798319 -20.67  0.001404866    1.824    0.452
         3  -8.5523     80.3366     12.9831   8.1652760342e+01   6.0775654835e+01    0.2353461    0.1719144 -42.24 0.0009132633    1.798    0.444
         4 -10.3822    131.8986      9.0400   6.8572449000e+01   5.0367538494e+01    0.3979236    0.1728583  76.77  0.001574371    3.122    0.680
         5  -9.6062    144.5205      7.6553   6.6057400270e+01   4.7594926843e+01    0.2970742    0.2080971 -74.27   0.00151111    1.688    0.407
         6  -8.0973    208.3488      5.0682   5.7652238367e+01   3.2961123273e+01    0.1631887    0.1488069  28.37 0.0009058901    1.562    0.360
         7  -8.6491    106.1592      2.0416   7.1237207756e+01   5.6572115848e+01    0.2196336    0.1519244  57.86  0.001065476    1.252    0.202
         8  -9.4280     16.0217      2.5054   1.0105188646e+02   7.1210426200e+01    0.1509367   0.08693648  24.75  0.001038484    1.608    0.378
         9  -7.7239     11.4977    206.4940   1.4506707317e+02   2.9907623610e+01    0.1204886   0.08822764  84.39 0.0008106226    1.014    0.014
        10 -11.4301    195.8470    248.3819   1.1313365370e+02  -6.4924386517e+00    0.7841181    0.3128211  37.30  0.003519952    2.208    0.547
        11 -10.4696      3.4941    248.2570   1.4909602310e+02   2.2112657560e+01    0.3609389    0.2374794  77.94  0.002663262    1.057    0.054
        12  -7.9422     32.8177    213.3953   1.4151028453e+02   2.6101829847e+01    0.1445547    0.1169978  32.41 0.0009431736    1.652    0.395
        13 -10.6110    192.6892    195.3474   1.0436077424e+02   3.2711406221e+00    0.8952256    0.4694471 -67.21  0.002452809    6.134    0.837
        14 -10.3064      4.2373    239.2983   1.4848800152e+02   2.3787724742e+01    0.3051792    0.1123921  51.57  0.001658643    2.169    0.539
        15 -10.8168     53.0846    153.2833   1.2977910738e+02   3.7838582254e+01    0.3718152    0.3554166 -41.58 0.0009116566    1.245    0.197
        16 -12.7114     64.6400    146.5457   1.2560108802e+02   3.7989707313e+01     1.553018     1.164328 -20.19  0.004477418    1.878    0.467
        17  -8.3943    144.1319    148.6234   1.0534417689e+02   2.3277412909e+01    0.2774556     0.209351 -60.68 0.0005797683    1.370    0.270
        18 -10.8660    210.9348    178.4438   9.7260957261e+01   3.0622634258e+00    0.6166602    0.3253738  34.04  0.002599222    2.140    0.533
        19  -8.0912    106.0445    143.2373   1.1382643927e+02   3.2151488530e+01    0.1998077    0.1884615  75.82            0    1.068    0.064
        20  -8.0140    176.1280    146.1446   9.7381068570e+01   1.6904115816e+01    0.2311794    0.2096179 -13.64 0.0003781862    1.226    0.184
        21  -8.1316    188.9967    139.5269   9.3095211626e+01   1.5490151043e+01    0.2421179    0.2083163 -47.61 0.0009844437    1.118    0.105
        22  -9.1080    136.0043    130.7535   1.0314294077e+02   2.9141478132e+01    0.4033166    0.1865045 -56.23   0.00137958    2.489    0.598
        23  -9.0597    160.7965    129.5879   9.6872622280e+01   2.3948742424e+01    0.4721926    0.3188195 -59.33  0.002019986    1.622    0.383
        24 -11.6029     26.8534    168.4389   1.3828428483e+02   3.7099238866e+01    0.6783099    0.4601672  34.74  0.004033915    1.741    0.426
        25 -10.2883    134.6001    120.7903   1.0101338954e+02   3.1709165499e+01     0.483599    0.3742893  57.11  0.001679219    1.365    0.268
        26 -10.2722    133.8911    115.2418   9.9764969744e+01   3.3099349272e+01    0.6168073    0.2364408 -44.95  0.001691203    2.560    0.609
        27 -11.2056    133.8941    108.4382   9.7968203568e+01   3.4583881870e+01    0.8861027    0.3329341 -42.02  0.002342708    2.691    0.628
        28  -8.1036     70.9031    123.2468   1.1924288033e+02   4.2777644337e+01    0.1854469    0.1792281 -37.19 0.0004080596    1.104    0.095
        29  -8.0004    171.9595    121.9410   9.2470277938e+01   2.3061087713e+01    0.2434409    0.1862389 -78.29 0.0005225095    1.601    0.375
        30  -8.7634    160.6567    117.8785   9.3971622942e+01   2.6525493941e+01    0.4570727      0.29688  88.27  0.001657372    2.687    0.628
        31  -9.0473    167.4049    113.7422   9.1398953798e+01   2.5841550058e+01     0.448351     0.319728  87.40  0.001885143    1.939    0.484
        32 -10.7327    123.3121    112.4449   1.0178657849e+02   3.5968123971e+01    0.5104632    0.3591254 -40.42  0.002335794    1.426    0.299
        33 -10.8240    113.8071     96.6851   1.0007894498e+02   4.1323310162e+01     2.163453    0.8428939  59.30  0.004428547    8.908    0.888
        34 -10.6792    111.6050    106.2463   1.0331837741e+02   3.9716228698e+01     1.300085    0.5085201 -60.22   0.00314492    5.919    0.831
        35 -10.8855    112.0038    101.7544   1.0198767735e+02   4.0611912260e+01    0.9451516    0.5829603  86.36  0.002882125    4.529    0.779
        36 -11.4891    124.2278    106.4495   9.9946627756e+01   3.7089679300e+01    0.7923657    0.4476126  46.57  0.003282483    1.812    0.448
        37 -11.6394    118.7423    104.1002   1.0077947428e+02   3.8740528294e+01    0.8773692    0.5403053 -32.78  0.003698423    1.845    0.458
        38  -9.9511    144.3902    104.5595   9.4313162174e+01   3.3068021851e+01    0.3790342    0.2599767  42.91  0.001295552    1.507    0.336
        39  -9.9651    153.1613    100.4423   9.1122189973e+01   3.1900337558e+01    0.5155833    0.2466825  43.05  0.001902884    2.242    0.554
        40  -9.4967    198.4074     98.9249   8.1427168322e+01   2.1523104193e+01    0.3877154    0.3164456  35.02   0.00175663    1.473    0.321
        41 -10.9469    131.3754     97.4100   9.5600124757e+01   3.7457439204e+01    0.6013024    0.3035402 -41.74  0.002357842    1.976    0.494
        42  -9.6816    166.6073     92.9500   8.6122723665e+01   3.0209809901e+01    0.5330932    0.3597472  40.80  0.001322729    1.637    0.389
        43  -9.1907    137.4912     94.0582   9.3120904092e+01   3.6777223236e+01    0.2340917    0.1500875 -41.91 0.0006063235    1.557    0.358
        44 -10.3759    118.3003     92.5716   9.7681501849e+01   4.1246938556e+01    0.4060864    0.2567892  66.26  0.001655807    2.255    0.557
        45  -9.4171    150.3780     91.1190   8.9215784785e+01   3.4398416818e+01    0.2752561    0.2387906  48.20 0.0003265907    1.158    0.137
        46  -8.7211    172.6661     90.0350   8.4087715900e+01   2.9314949112e+01      0.25441    0.2118676  51.49 0.0003176582    1.221    0.181
        47 -10.6496    184.8113     79.0931   7.8875517492e+01   2.8375939379e+01      0.55956    0.5319107 -41.57  0.002389017    1.140    0.123
        48  -9.9923    179.7998     85.1999   8.1403725916e+01   2.8494380754e+01    0.4202473    0.2856908 -59.19  0.001918511    1.586    0.369
        49  -9.9234    184.0599     84.4450   8.0401229638e+01   2.7606275166e+01    0.4075422    0.2536873  41.01 0.0009942644    1.905    0.475
        50  -9.7225    116.3649     85.5606   9.6175281124e+01   4.3046807150e+01    0.3685178    0.1382698 -37.86  0.001247041    2.855    0.650
        51  -9.7358    132.7038     84.0571   9.1461183969e+01   3.9801790788e+01    0.2152165    0.1995929 -37.27  0.000681708    1.088    0.081
        52 -10.6577    163.2241     80.7341   8.3521480168e+01   3.3293409689e+01    0.4288702    0.3431556 -10.33  0.001012556    1.613    0.380
        53 -10.7174    120.6426     79.1001   9.3106407930e+01   4.3374489878e+01    0.4378729    0.2933181 -32.93  0.002053277    1.561    0.360
        54 -10.5980    129.1496     77.6174   9.0463027579e+01   4.1791199282e+01    0.5073661    0.2370092  42.60  0.001960163    2.212    0.548
        55  -8.6078    129.0000     72.9374   8.9101055614e+01   4.2662297939e+01    0.2424714   0.08340038 -38.53 0.0002169258    2.969    0.663
        56  -9.0467    120.9628     68.0277   8.9649892093e+01   4.5279894799e+01    0.2132985     0.201692  22.04 0.0003013264    1.034    0.033
        57 -10.5985    154.1705     65.1721   8.1044710794e+01   3.8132055076e+01    0.3544654    0.2733359  51.55  0.001630762    1.253    0.202
        58  -8.0606    100.5112     63.0412   9.3676518396e+01   5.0345677037e+01    0.2062867     0.133902 -36.27 0.0007537478    1.544    0.353
        59  -7.6013     49.5472     61.4173   1.0991723613e+02   5.8814720310e+01    0.1253396    0.1070809 -20.96 8.999591e-05    1.024    0.023
        60 -11.3040     27.4496    162.9262   1.3749779349e+02   3.8352596740e+01    0.6852729    0.3822849  30.92  0.003667095    2.147    0.534
        61  -9.2483    141.0145     55.5115   8.1019737003e+01   4.2756890261e+01    0.3050886    0.1583863 -51.36 0.0008074478    2.387    0.581
        62  -8.5010     95.0578     53.2499   9.2024774921e+01   5.2979033417e+01    0.2426414    0.1876384 -37.74 0.0006759888    1.350    0.259
        63 -10.6362    150.3703     48.0649   7.6861333768e+01   4.1628943863e+01    0.4545781    0.3145104  25.13  0.001346432    1.912    0.477
        64 -10.9785    132.8651     44.5914   7.9468739545e+01   4.6205236967e+01    0.5989906    0.2885312 -32.49  0.001666284    2.229    0.551
        65 -11.8914    142.3501     40.9865   7.6361228041e+01   4.4483794682e+01      1.00331    0.5579248  79.65  0.002443232    2.674    0.626
        66  -9.7605    133.6208     32.4713   7.5528625952e+01   4.7570864058e+01    0.3253334    0.1791239 -34.30  0.001133612    1.965    0.491
        67 -10.3273    192.1434     38.7656   6.7393488225e+01   3.2808118811e+01    0.6034354     0.380643 -60.92  0.003052329    1.655    0.396
        68  -8.4115    122.8582     43.3189   8.1348468174e+01   4.8634387219e+01     0.190346    0.1764903 -40.83   0.00115113    1.183    0.155
        69  -8.3907    166.6297     39.7724   7.1543207950e+01   3.8839188881e+01    0.2217906    0.1878524 -85.83 0.0004706812    1.169    0.144
        70  -9.3747    167.1161     33.5066   6.9748530565e+01   3.9516076906e+01    0.5643033    0.2761194 -19.56  0.002307449    3.038    0.671
        71  -7.5931    117.6636     40.7086   8.1740461003e+01   5.0122470979e+01    0.1410597   0.09593889  26.88 0.0005778763    1.640    0.390
        72  -9.9551    159.1680     34.4514   7.1325011767e+01   4.1312358537e+01    0.4911595    0.2441544 -25.20  0.002156094    2.475    0.596
        73  -7.6416     92.0000     36.9926   8.7257776061e+01   5.5878113712e+01    0.1935332   0.07188707 -32.04 0.0003473667    2.801    0.643
        74  -8.5082    154.9370     35.6463   7.2402441406e+01   4.2178309135e+01    0.1928817    0.1619166  68.73 0.0004201354    1.084    0.077
        75  -7.7862     45.6251     33.1093   1.0145254449e+02   6.3908052745e+01     0.165822   0.09351419 -24.66 0.0004717808    1.679    0.404
        76  -7.9403     93.4904     32.4602   8.5208361858e+01   5.6161772220e+01    0.1277477    0.1136701  24.91 3.689629e-05    1.038    0.036
        77  -9.5307    153.8017     26.5560   6.9995059509e+01   4.3524720577e+01    0.2412356    0.1782477  56.81 0.0008485446    1.211    0.174
        78  -7.9355    177.5890     25.0118   6.5928864459e+01   3.8007031241e+01      0.18406    0.1294776 -33.08  0.001018532    1.600    0.375
        79  -9.8865    133.9561     22.6548   7.2408342338e+01   4.8590843257e+01    0.2104928    0.1787363  15.63 0.0007865954    1.319    0.242
        80  -9.4662    125.6633     22.4672   7.3998576658e+01   5.0492476843e+01    0.2061968    0.1227806 -25.11 0.0007368529    1.898    0.473
        81  -8.5230     84.7527     21.7431   8.3743100529e+01   5.9064714442e+01    0.1941037    0.1886721  69.96 0.0006312984    1.348    0.258
        82  -8.6649    199.2152     19.0968   6.1760166629e+01   3.3549307843e+01    0.3612799    0.1572111  68.61 0.0008588573    2.003    0.501
        83 -11.7700    246.7475    237.4111   1.0183778027e+02  -1.2605460160e+01    0.2237992    0.1934466   4.45 0.0003929069    1.149    0.130
        84  -9.3843     75.1331     17.5761   8.4991226151e+01   6.1261331956e+01    0.2382972    0.2095013 -25.89 0.0005492319    1.348    0.258
        85  -8.5365      3.0597     17.1704   1.1364878869e+02   7.0450296762e+01    0.1434783    0.1156993  36.39  0.001090383    1.990    0.497
        86  -8.6666    155.0278     15.1896   6.6578158324e+01   4.4435359437e+01    0.1912813    0.1881093 -51.31 0.0005027432    1.183    0.155
        87 -10.6347     11.8024    235.1429   1.4697146699e+02   2.3835752725e+01    0.2748523    0.2051584  45.67  0.001072933    1.534    0.348
        88  -7.9450    250.8512    159.0980   8.5996225481e+01  -6.8136076433e-01    0.1742298   0.08461369 -40.79 0.0002758008    1.801    0.445
        89  -9.3114    188.1167    233.9053   1.1228351382e+02  -2.8938074544e+00    0.2002356    0.1759481  58.28  0.001200658    1.326    0.246
        90  -9.2469    159.6005    215.7000   1.1506291259e+02   5.4967668492e+00    0.2493314    0.2302587  37.77 0.0004065412    1.030    0.029
        91 -11.8971    218.5348    208.9538   1.0184929507e+02  -3.8529738685e+00    0.6507211     0.498519   3.39  0.003665329    1.371    0.270
        92  -8.2772    107.8760    158.4986   1.1652918048e+02   2.8102433477e+01    0.2119998    0.1915249 -67.65 0.0003262273    1.054    0.051
        93  -9.8282    123.9977    206.0102   1.2119347933e+02   1.4049962343e+01    0.2025379    0.1831839  67.29            0    1.012    0.011
