#   1 NUMBER                 Running object number                                     
#   2 MAG_AUTO               Kron-like elliptical aperture magnitude                    [mag]
#   3 X_IMAGE                Object position along x                                    [pixel]
#   4 Y_IMAGE                Object position along y                                    [pixel]
#   5 X_WORLD                Barycenter position along world x axis                     [deg]
#   6 Y_WORLD                Barycenter position along world y axis                     [deg]
#   7 A_WORLD                Profile RMS along major axis (world units)                 [deg]
#   8 B_WORLD                Profile RMS along minor axis (world units)                 [deg]
#   9 THETA_WORLD            Position angle (CCW/world-x)                               [deg]
#  10 FWHM_WORLD             FWHM assuming a gaussian core                              [deg]
#  11 ELONGATION             A_IMAGE/B_IMAGE                                           
#  12 ELLIPTICITY            1 - B_IMAGE/A_IMAGE                                       
         1 -10.3903    116.4935     12.0085   3.5679354214e+02   5.4553387305e+01    0.2045507    0.1177518  15.96 0.0008104974    2.684    0.627
         2 -12.6934     72.1614      7.4497   5.1556594120e+00   6.6306943937e+01    0.3906901    0.2557491 -19.76  0.001046471    1.640    0.390
         3 -10.3867     92.3928      8.2005   3.5996509783e+02   6.1222453140e+01    0.1950268    0.1239389 -37.46 0.0009427734    1.637    0.389
         4 -11.1132     83.0701      7.0540   1.7169682261e+00   6.3690693188e+01    0.2042279    0.1946573  61.10 0.0003877561    1.029    0.028
         5 -11.0473     39.1052      4.0797   1.7331847126e+01   7.3867756064e+01    0.3376023    0.1599822  38.96  0.001172832    2.114    0.527
         6 -10.2721    110.9397      1.9815   3.5339848997e+02   5.6973308744e+01    0.1684431    0.1500405  76.93 0.0003613155    1.031    0.031
         7 -10.2090     25.2693      2.0013   2.4926056522e+01   7.6585162964e+01    0.1759529    0.1477338 -17.01 0.0005037039    1.104    0.094
         8 -10.5800     99.3216    246.7766   5.5881284744e+01   1.2673638754e+01     0.196567     0.129372  30.92 0.0005622327    1.191    0.161
         9 -12.1764    238.4913    250.5759   3.1536797273e+01  -3.8805191541e+00    0.1611919   0.08208701  25.28  0.001153205    1.576    0.366
        10 -11.7647    139.5169    248.8135   4.8217313109e+01   7.4729950114e+00    0.2484787    0.2318138 -29.43  0.001260645    1.392    0.282
        11 -11.1087    114.4357    248.5427   5.3041458359e+01   1.0577757162e+01    0.2289964    0.1855072 -84.16  0.001159395    1.743    0.426
        12 -10.2587     87.4786    250.5248   5.8552300570e+01   1.3502650187e+01    0.1142654   0.08371185  39.43  0.000809549    1.034    0.032
        13 -13.0157     30.2816    247.0941   6.9787819984e+01   2.0252258802e+01     1.045109    0.2585039  43.46  0.004740678    2.372    0.578
        14 -12.5604     13.5364    216.0842   7.2131872468e+01   2.7469931231e+01    0.5490869    0.2319599  59.37  0.002999737    1.918    0.479
        15 -14.3895     20.9270    215.8051   7.0498201478e+01   2.6846337167e+01     1.134018    0.7888144  29.13  0.007576103    1.397    0.284
        16 -12.0544     13.9370    210.3578   7.1842652177e+01   2.8562062549e+01    0.3211251    0.1696845  46.00 0.0002660522    1.412    0.292
        17 -14.1197     15.0428    228.5713   7.2224078156e+01   2.4967117104e+01     1.639837    0.5522664  77.93  0.007728624    3.259    0.693
        18 -13.6843     10.3711    239.5379   7.3495116559e+01   2.3410944965e+01    0.4544262    0.4401948 -73.20  0.002549908    1.484    0.326
        19 -14.6153      4.8177    247.0148   7.4756875347e+01   2.2603414903e+01     0.818011    0.3113943  34.93  0.004236769    1.820    0.450
        20 -12.8992      2.9926    238.9837   7.4942150044e+01   2.4147561615e+01    0.2583448    0.2167631 -75.46  0.001315918    1.558    0.358
        21 -13.7563      7.4999    234.1766   7.3932276131e+01   2.4615786146e+01     0.573335    0.2517057  31.55  0.002060926    1.806    0.446
        22 -11.6786     36.0016    246.5530   6.8628167553e+01   1.9778249188e+01    0.3360835    0.1398095  59.32  0.001888126    2.151    0.535
        23 -12.2423     32.3116    239.9274   6.9088740942e+01   2.1283450325e+01    0.3449309    0.2416913  52.14 0.0009218496    1.083    0.076
        24 -12.8991     35.5795    231.0123   6.8008951722e+01   2.2543359246e+01    0.4957114    0.2802818 -67.39   0.00239848    2.111    0.526
        25 -10.3178    132.1221    244.8971   4.9220668306e+01   8.9247746654e+00    0.1718058    0.1231919  39.89 0.0007871967    1.254    0.202
        26 -10.3919    204.8594    243.8064   3.5930678120e+01   3.4228251933e-01    0.1358408    0.1073171  23.85  0.001076805    1.356    0.262
        27 -10.8202    142.9495    243.3659   4.6966956495e+01   7.7920122086e+00     0.192422    0.1600327 -20.89  0.001368453    1.398    0.285
        28 -10.5170    193.0002    242.7342   3.7788394718e+01   1.8134558452e+00    0.1458904    0.1018948  18.94 0.0002416538    1.086    0.079
        29 -10.5010    185.3414    242.2573   3.9052676297e+01   2.7650021692e+00    0.1926712    0.1500077  40.56  0.001427987    1.627    0.385
        30 -10.2406    127.5885    242.7675   4.9881668891e+01   9.7935846809e+00    0.1248585    0.1095118  84.26  0.000306925    1.595    0.373
        31 -10.2775    231.1936    247.1607   3.2183528281e+01  -2.8226825135e+00    0.1254634    0.0942391  15.26 0.0008972551    1.284    0.221
        32 -11.2836    117.1453    241.4443   5.1816105946e+01   1.1293891767e+01    0.2471827    0.1536719  45.98 0.0008696122    1.493    0.330
        33  -9.9936    180.2907    240.5838   3.9728673383e+01   3.5678184687e+00    0.1577316   0.08188472  21.77 0.0009399146    1.657    0.396
        34 -11.0197    101.9231    238.4768   5.4612702931e+01   1.3648465527e+01    0.1775087    0.1699866  79.75 0.0004999022    1.299    0.230
        35 -10.3017    137.8196    236.2559   4.7157684782e+01   9.4416506256e+00    0.1866132    0.1163341  42.45 0.0008871454    1.492    0.330
        36 -11.8161     73.2111    229.5637   5.9879556623e+01   1.8641968842e+01    0.6364259    0.2398131 -50.23  0.002909508    3.718    0.731
        37 -10.2176     47.4070    235.2240   6.5738202589e+01   2.0556243416e+01    0.1478178   0.09168459  73.33 0.0009412178    1.661    0.398
        38 -10.8393    165.9306    234.2244   4.1527499440e+01   6.1442060624e+00     0.166755    0.1254349  32.59 0.0004213644    1.240    0.193
        39 -10.6065    158.2980    233.5015   4.2870233259e+01   7.2093749489e+00    0.1727218      0.14977 -17.65 0.0006399805    1.303    0.233
        40 -10.5347    207.1088    236.4930   3.4575795786e+01   8.9979728248e-01    0.1600241   0.08341737  27.97  0.001024224    1.564    0.361
        41 -10.6941     24.9680    228.2697   7.0129877235e+01   2.4095175229e+01    0.1925938    0.1245342 -61.75 0.0005400787    1.984    0.496
        42 -12.9069     17.7954    238.0230   7.1963256737e+01   2.3007457790e+01    0.6156697    0.2374932 -71.18  0.002683229    2.960    0.662
        43 -11.2009     24.9745    232.3241   7.0289246579e+01   2.3352737920e+01     0.195439    0.1420626  45.27  0.000760524    1.065    0.061
        44 -11.7102    152.3507    229.7718   4.3543121511e+01   8.4955728425e+00    0.2677507    0.2116846  36.70  0.001323386    1.246    0.197
        45 -10.6935     61.3440    231.1585   6.2537500753e+01   1.9740444334e+01    0.1669074    0.1209641  35.74 0.0005422329    1.147    0.128
        46 -10.7793    194.6233    228.5490   3.5598672357e+01   3.3038282273e+00    0.1904943    0.1250821 -34.04   0.00130138    1.695    0.410
        47 -11.3693    138.3628    227.9676   4.6077900083e+01   1.0593288609e+01     0.203962    0.1892904  11.22  0.000467346    1.193    0.162
        48 -11.6129    106.3897    226.5553   5.2516171701e+01   1.5018046487e+01    0.2543311    0.2278029 -58.95  0.001845868    1.390    0.280
        49 -11.4543     30.1553    226.8482   6.8967627114e+01   2.3852138350e+01    0.2767664    0.1464356  56.12 0.0009771049    1.525    0.344
        50 -11.5734     33.4454    224.0658   6.8130222353e+01   2.4042448373e+01    0.2169458    0.1675813 -42.82  0.001052109    1.878    0.468
        51 -10.5395     80.2428    226.5120   5.8115606002e+01   1.8330676160e+01    0.1968717    0.1632839  87.56   0.00137966    1.397    0.284
        52 -11.1583      1.9875    227.0276   7.4885918832e+01   2.6390131534e+01    0.4119635    0.1660489 -78.08  0.002303136    2.645    0.622
        53 -13.8044      4.0180    200.9181   7.3779837407e+01   3.1325855196e+01     1.001087    0.5001408  85.81  0.005728117    1.872    0.466
        54 -12.0445      3.9891    220.6830   7.4319289896e+01   2.7413117956e+01    0.2330079    0.1709762  57.87 0.0006038691    1.047    0.045
        55 -13.1026      1.8603    216.8489   7.4678360063e+01   2.8325247952e+01    0.4892732    0.3429067 -58.85  0.001250416    1.915    0.478
        56 -12.2887    147.6321    224.6414   4.3819525349e+01   9.8607037217e+00    0.2783506    0.2534124  -1.53 0.0006696013    1.201    0.167
        57 -12.5780    144.5297    215.7655   4.3289726540e+01   1.1629148309e+01    0.5168638    0.3659781  64.25  0.002162786    2.202    0.546
        58 -11.4720    140.3419    207.8589   4.3087264348e+01   1.3479303550e+01    0.2652177    0.2272719  64.54  0.001201423    1.495    0.331
        59 -10.1675    136.1500    206.1610   4.3738038855e+01   1.4359395111e+01    0.1656689    0.1289174  45.59 0.0002393313    1.298    0.230
        60 -12.5247    160.0874    223.1550   4.1191304626e+01   8.4213386662e+00    0.3730654    0.3036776  40.99  0.001349867    1.360    0.265
        61 -10.0224    246.3310    245.2168   2.9658293176e+01  -4.1442850072e+00    0.1126518   0.07472514 -23.33  0.000206424    1.540    0.351
        62 -12.2396    173.1631    220.4990   3.8344091069e+01   7.0663825070e+00    0.3801218    0.3510543  27.34  0.002871784    1.346    0.257
        63 -10.6482     23.3065    224.1020   7.0315881323e+01   2.5031140523e+01    0.1602328    0.1170734  59.70    0.0006459    1.111    0.100
        64 -12.6903    127.6079    214.3417   4.6620425041e+01   1.4200501374e+01    0.3721317    0.2718201  62.61 0.0005530419    1.777    0.437
        65 -12.5355    124.6897    221.7659   4.8135947145e+01   1.3383331561e+01    0.3925815    0.2673976  40.51  0.001533755    1.274    0.215
        66  -9.7839     61.4574    223.4971   6.1976564406e+01   2.1111626966e+01    0.1181001   0.09601872  43.02 0.0003162524    1.063    0.059
        67 -10.0869    213.5236    221.0968   3.1326282014e+01   1.9196805764e+00    0.1420699   0.09477255 -25.84 0.0005613575    1.475    0.322
        68 -12.3704    115.4483    224.6100   5.0397255810e+01   1.4152872617e+01    0.4812337    0.2812159 -69.30  0.002663387    2.510    0.602
        69 -10.9406    190.4317    219.9930   3.5120850197e+01   4.8987447656e+00    0.2008853    0.1258246  18.97 0.0004092846    1.368    0.269
        70 -13.2085    194.1384    211.9033   3.3267090558e+01   5.4743141974e+00    0.2994441    0.2153976 -23.25 0.0006181999    1.374    0.272
        71 -10.6448     91.9865    224.9115   5.5433114794e+01   1.7146565790e+01    0.1803411    0.1473863  38.07 0.0004455574    1.029    0.028
        72 -10.2885     77.0566    219.7109   5.8229990009e+01   1.9943606404e+01    0.1746128    0.1281725  40.59 0.0005582224    1.086    0.079
        73 -11.7333     49.4021    219.8674   6.4393174737e+01   2.3150368436e+01    0.2122935    0.1791794  47.69  0.001512406    1.099    0.090
        74 -10.5744     64.3844    218.6876   6.0969514629e+01   2.1663228663e+01    0.1355955    0.0679359  53.33 0.0007019985    1.815    0.449
        75 -12.1054    250.5757    215.6678   2.4780843515e+01  -1.6580351587e+00    0.1766264   0.09267911 -27.50 0.0003429731    1.691    0.409
        76 -10.8504     92.4484    217.1142   5.4573236813e+01   1.8464300614e+01    0.2972952    0.1394675  35.50  0.001003606    1.693    0.409
        77 -11.7508    108.4121    214.5718   5.0784801402e+01   1.6795183731e+01    0.2665468    0.2479539 -31.64  0.001492429    1.285    0.222
        78 -10.1847     52.8535    216.0987   6.3370812747e+01   2.3485177884e+01    0.1466839    0.1324593  22.15 0.0004034843    1.301    0.231
        79 -10.6687    121.5188    217.4842   4.8296433281e+01   1.4515086596e+01     0.193402    0.1719171  47.57 0.0006718921    1.191    0.160
        80 -10.6380     84.5792    214.4609   5.6069147671e+01   1.9964119664e+01    0.3761745    0.1371011  47.68  0.001627363    2.556    0.609
        81 -11.7054    156.9020    213.7651   4.0533658919e+01   1.0227235057e+01    0.1872897    0.1730564 -25.82 0.0003988388    1.288    0.224
        82 -11.1256    115.1558    213.9240   4.9239999201e+01   1.5988429391e+01    0.1809203     0.144234  46.45 0.0003327471    1.192    0.161
        83 -10.7700     41.7818    211.8177   6.5606861623e+01   2.5535677038e+01     0.309966    0.2160132  -9.30  0.001756366    2.342    0.573
        84 -10.9170    172.3430    211.1660   3.7163020037e+01   8.4871077749e+00    0.2542246    0.1409411 -48.81  0.001059982    2.331    0.571
        85 -10.2271     72.7561    212.0597   5.8529440703e+01   2.1905906154e+01    0.1652319    0.1377053  48.12 0.0003064931    1.036    0.034
        86 -10.7562     97.4872    210.2144   5.2726273887e+01   1.9051964375e+01    0.3022816    0.1584744 -72.72   0.00144448    2.667    0.625
        87 -12.9557    180.1913    207.6224   3.5155901160e+01   7.9189308660e+00    0.2844564    0.2257695  -3.88 0.0005915728    1.161    0.139
        88 -12.2403    161.4855    207.8979   3.8790320772e+01   1.0475035439e+01    0.3183675    0.2861318 -65.68  0.001029859    1.583    0.368
        89 -10.5768     53.2976    209.1862   6.2780005258e+01   2.4783926240e+01    0.3422451    0.1259401  62.73  0.001318365    3.673    0.728
        90 -10.9260    120.0210    214.0000   4.8197983250e+01   1.5306451407e+01    0.1960811    0.1474925  45.23 0.0007510495    1.248    0.199
        91 -12.3528     36.7941    206.5406   6.6440269738e+01   2.7117995557e+01    0.4474279     0.332138  29.86  0.001877044    1.321    0.243
        92 -10.3591    103.5853    205.7092   5.0839103452e+01   1.9049667101e+01    0.1518846    0.1221642 -86.49 0.0008757153    1.531    0.347
        93 -10.4837     20.9985    204.1513   6.9985280880e+01   2.9169834356e+01    0.2032875    0.1489153  79.99 0.0009981099    1.282    0.220
        94 -12.0821    145.3534    201.2077   4.1098768080e+01   1.3850997229e+01    0.5043039    0.3444362  61.75  0.002241863    2.195    0.544
        95 -10.5048    115.4660    204.0512   4.7964447284e+01   1.7685036905e+01    0.1647837    0.1275882 -56.65 0.0004390701    1.529    0.346
        96 -12.2183     91.4962    198.6073   5.2814102168e+01   2.2067644622e+01    0.7209086    0.2533883 -54.17   0.00275825    3.159    0.683
        97 -10.1615    214.2934    202.0353   2.8266705887e+01   4.1420103866e+00    0.1657797    0.1251449  66.47 0.0008954864    3.440    0.709
        98 -12.3055     84.4262    198.8717   5.4517828747e+01   2.2973464964e+01     0.543315    0.3683795 -58.72   0.00302866    1.693    0.409
        99 -12.0538    122.6851    196.3848   4.5334655581e+01   1.8027920847e+01    0.3124276    0.2538261  58.55  0.001559059    1.370    0.270
       100 -13.1334     21.6916    196.4363   6.9463434385e+01   3.0709958005e+01    0.5927741    0.4394847  11.22  0.003728548    1.697    0.411
       101 -11.3531     15.9293    183.5567   7.0261254434e+01   3.4022508765e+01    0.4066896    0.1559141 -51.99  0.001521509    3.756    0.734
       102 -12.0274     13.5926    194.8232   7.1328450211e+01   3.1787720863e+01    0.2921799    0.1994035 -81.33 0.0006041302    1.500    0.333
       103 -11.8667      6.3995    191.7225   7.2932166214e+01   3.3059056197e+01    0.5048966    0.1052888  32.07  0.002102299    3.067    0.674
       104 -11.9876     12.3435    189.6734   7.1419658330e+01   3.2998505412e+01    0.2631563    0.2445614  35.74 0.0007168214    1.285    0.222
       105 -11.3034    176.9758    198.3310   3.4324347089e+01   9.7141077343e+00    0.1804083    0.1617658  31.39  0.001001646    1.277    0.217
       106 -11.4107    173.0123    197.0049   3.4876140556e+01   1.0482851031e+01    0.2158951    0.1941087  72.24  0.001425791    1.673    0.402
       107 -11.6904    150.2973    197.4869   3.9515810400e+01   1.3738553887e+01    0.2768286    0.1563174 -40.37   0.00146505    1.966    0.491
       108 -10.6501    135.4169    198.1998   4.2781659001e+01   1.5822428466e+01    0.1558069    0.1257866 -69.96 0.0009397325    1.646    0.393
       109 -11.3101     35.8223    196.3586   6.6051102596e+01   2.9326454710e+01    0.4664784    0.1175339  41.81   0.00191618    2.692    0.629
       110 -12.2483    193.0426    193.9170   3.0627026657e+01   8.0761558744e+00    0.2387524    0.1940802 -13.19 0.0005808232    1.146    0.128
       111  -9.9673    160.4978    193.4623   3.6797206562e+01   1.2877818589e+01    0.1266262    0.1077552  16.57 0.0003553335    1.008    0.008
       112 -10.4838     52.5785    192.5461   6.1661261979e+01   2.8286835012e+01    0.1749872    0.1487404  52.06 0.0001071061    1.038    0.037
       113 -10.0479     50.2891    190.3202   6.2048368645e+01   2.9028458739e+01    0.1751479    0.1203681  57.86 0.0003642747    1.278    0.218
       114 -10.5098    164.1476    191.8583   3.5804572840e+01   1.2589779401e+01    0.1832809    0.1611236  41.02  0.000688309    1.278    0.218
       115 -11.5083    133.3515    190.9290   4.2171667134e+01   1.7416592340e+01    0.3270022    0.2317254 -12.25  0.001759136    1.837    0.456
       116  -9.5777     41.6689    195.7238   6.4586501431e+01   2.8839219272e+01    0.1110547   0.09555025 -17.70 0.0002950377    1.598    0.374
       117 -11.7102    110.7519    189.1112   4.7076679851e+01   2.1167194612e+01    0.3772569    0.2182148 -70.55  0.001802081    2.388    0.581
       118 -12.0259    117.9775    188.6065   4.5318275502e+01   2.0180575990e+01    0.3821861    0.1732454  29.71  0.001659327    2.157    0.536
       119 -10.2234    174.9259    188.7767   3.3171219566e+01   1.1463599681e+01    0.1663072   0.09182274  33.08 0.0005544625    1.648    0.393
       120  -9.7213    104.3039    188.2805   4.8493732029e+01   2.2284542228e+01    0.1253008    0.1000023  -2.11 0.0002414412    1.552    0.356
       121 -11.9225     20.9932    188.1140   6.9219961750e+01   3.2561996407e+01    0.4698249    0.1323051  29.95  0.001636815    2.809    0.644
       122 -11.0833    225.9866    186.5034   2.3797561825e+01   4.5948014512e+00    0.1944916    0.1459227 -35.24 0.0006780293    1.512    0.339
       123 -10.2771    187.0259    186.7319   3.0528944996e+01   9.9822864703e+00    0.1698979    0.1399196  13.42 0.0004336316    1.050    0.047
       124 -11.5998    127.7013    186.0229   4.2704666914e+01   1.9182105820e+01    0.2546326    0.2028111  46.84  0.001150225    1.235    0.190
       125 -10.6466    209.0243    186.2733   2.6539269825e+01   6.9064447254e+00    0.1648897    0.1306195  10.56 0.0002739521    1.084    0.078
       126 -11.5146    164.2211    184.4587   3.4577292352e+01   1.3779073662e+01    0.4348327    0.2787265 -68.18  0.001984964    3.165    0.684
       127 -12.3282     25.8892    183.4005   6.7729455395e+01   3.3136024359e+01    0.3876814    0.2245109  38.66  0.002173037    1.460    0.315
       128 -12.0868      2.5036    184.2459   7.3630179004e+01   3.4986106692e+01    0.2958707    0.1890543 -84.43 0.0008859576    1.511    0.338
       129 -11.2671      3.2094    168.1927   7.2891039803e+01   3.8536963669e+01     0.466755    0.1312009  33.28  0.002029086    2.663    0.624
       130 -12.3395      2.0016    173.9035   7.3413330348e+01   3.7323983037e+01    0.6044065    0.1586441 -87.15  0.002297986    3.652    0.726
       131 -11.2165    105.0716    183.1567   4.7611212727e+01   2.3195733655e+01    0.2103128    0.1901381 -59.50 0.0006056621    1.242    0.195
       132  -9.6934    205.5136    183.5052   2.6663083559e+01   7.7785948106e+00     0.120132   0.09966495   0.78 0.0002174451    1.025    0.024
       133 -11.3761     94.8010    180.3460   4.9755944652e+01   2.5299669396e+01    0.3542123    0.2079334 -56.90  0.001312611    1.872    0.466
       134 -10.5818     58.8837    180.1999   5.8941801510e+01   3.0216412114e+01     0.195214    0.1503433  56.04 0.0002917004    1.139    0.122
       135 -10.9322     56.0107    177.7794   5.9457205752e+01   3.1109572801e+01    0.1942581    0.1652105  56.27            0    1.005    0.005
       136 -10.1361    156.8476    179.1907   3.5210634956e+01   1.5821845890e+01    0.1733143    0.1382651   6.38 0.0002594604    1.267    0.211
       137 -10.7649      8.3297    184.6494   7.2206536415e+01   3.4430954352e+01    0.3349874    0.1792724 -37.33  0.001585177    3.274    0.695
       138 -11.5290    116.2922    178.0899   4.4166249385e+01   2.2490405440e+01    0.3528119    0.1765295  19.62  0.001347338    2.999    0.667
       139 -10.6299    191.4008    177.2535   2.8074025252e+01   1.0749211459e+01    0.1593025    0.1136235 -42.13 0.0005572689    1.564    0.361
       140 -11.7462    137.2700    176.4561   3.9018125447e+01   1.9458775097e+01    0.3289073    0.2580367 -77.27  0.001266224    1.764    0.433
       141 -13.0485    128.4962    175.0797   4.0805624555e+01   2.1138769771e+01    0.5322722    0.4398727 -55.88  0.003116814    1.364    0.267
       142 -10.5897     63.0561    176.9441   5.7514822954e+01   3.0418716423e+01    0.2697798     0.177737  -2.73  0.001260686    2.474    0.596
       143 -11.8586     30.9894    175.9434   6.5927325541e+01   3.4313486812e+01    0.3325603    0.2138679 -69.83  0.001602884    1.615    0.381
       144 -11.7737    106.8536    175.4080   4.6060459191e+01   2.4507036613e+01    0.2717677    0.2258859  42.28 0.0006811259    1.085    0.078
       145 -10.6978    153.8399    176.1341   3.5323498322e+01   1.6836360263e+01    0.1913996    0.1774328  47.12 0.0009205477    1.218    0.179
       146 -11.7282      2.6074    162.2529   7.2823686187e+01   3.9961603453e+01    0.4225559    0.2127479 -51.19  0.001016941    2.534    0.605
       147 -12.5733     20.4161    173.5896   6.8580428339e+01   3.5866715290e+01     0.356113    0.2951867  76.28  0.002325894    1.094    0.086
       148 -11.5674     14.0946    171.0276   7.0121823007e+01   3.7013290922e+01    0.1955696    0.1585834  46.73            0    1.139    0.122
       149 -12.9081     16.3739    167.1499   6.9301758806e+01   3.7718156012e+01     0.549232    0.2994613  41.85  0.001074294    1.557    0.358
       150 -11.1235      7.6631    163.1828   7.1480186130e+01   3.9363590242e+01    0.2130998    0.1390198  45.19  0.000389891    1.324    0.244
       151 -12.3118     91.2291    171.5016   4.9453735144e+01   2.7716749010e+01    0.4278699    0.2697578 -53.90  0.001467866    1.731    0.422
       152 -11.1947     79.5573    173.2435   5.2735008589e+01   2.9027724142e+01    0.3167555    0.2138194  42.30  0.001047558    1.309    0.236
       153 -10.0703     50.5071    174.0199   6.0560042867e+01   3.2621401705e+01    0.1844687    0.1246783 -81.57 0.0003808943    1.513    0.339
       154 -11.1469    149.0344    173.3204   3.5872806861e+01   1.8120375596e+01     0.189466    0.1576737  29.29  0.000309551    1.098    0.090
       155 -11.0886    143.4153    172.7376   3.7010429643e+01   1.9149203484e+01     0.344513    0.1621759  50.56  0.001394715    2.645    0.622
       156 -11.7727    197.4100    170.2951   2.5727153796e+01   1.0880338173e+01    0.3958936     0.180786  35.73  0.001905937    2.159    0.537
       157 -11.7968    153.2995    170.2234   3.4402656209e+01   1.7976230969e+01    0.2895722    0.2591291 -78.87   0.00100599    1.459    0.315
       158 -11.7742    152.7270    165.2882   3.3633551505e+01   1.8966330158e+01    0.3938878    0.2271602  57.03  0.001706802    2.524    0.604
       159 -11.8404    120.4462    168.4096   4.1624164204e+01   2.3772975450e+01    0.3941943    0.2320588  26.23  0.001826451    1.822    0.451
       160 -10.6528     30.9218    168.1758   6.5388008263e+01   3.6117767428e+01    0.2499066    0.1267014  38.85  0.001243771    1.687    0.407
       161 -11.9312     12.3652    161.7981   7.0113495544e+01   3.9315527321e+01    0.2874318      0.27661  53.53  0.001586671    1.226    0.184
       162 -11.2014    127.0623    166.6918   3.9741087051e+01   2.3024876555e+01    0.2005517     0.171754  32.04 0.0007302676    1.082    0.075
       163 -10.5303    218.0854    164.7889   2.1187896918e+01   8.5759570116e+00    0.1654428    0.1469809 -10.41 0.0003793467    1.167    0.143
       164 -11.5568    170.1118    165.1221   2.9956394544e+01   1.6075622667e+01    0.2464831    0.1734096  39.96  0.001183679    1.404    0.288
       165 -12.7155    110.3957    163.7216   4.3341868503e+01   2.6393635692e+01    0.6629709    0.3708476 -38.94  0.001583198    2.227    0.551
       166 -11.4859     83.7331    167.0126   5.0801668572e+01   2.9817299063e+01    0.2674335    0.1643461  53.43 0.0008429847    1.619    0.382
       167 -11.4120     93.7436    163.4928   4.7625451224e+01   2.9096137229e+01    0.2691551    0.2101581  69.10 0.0002275488    1.383    0.277
       168 -11.4136     80.1740    163.1489   5.1226856265e+01   3.1211746907e+01    0.1958992    0.1868275  22.26 0.0003441325    1.160    0.138
       169 -12.1001     37.5516    160.6789   6.2919664312e+01   3.7209674657e+01    0.4267327    0.1742777  42.75  0.001514524    2.075    0.518
       170 -11.6088    170.3213    160.3465   2.9008747121e+01   1.6858708384e+01    0.2822464    0.1712379 -23.61  0.001356026    1.949    0.487
       171 -10.4671    168.5690    156.5262   2.8624686332e+01   1.7822272299e+01     0.228207    0.1849752 -89.17 0.0001192967    1.941    0.485
       172 -10.5163     48.9988    160.9421   5.9679139557e+01   3.5857889999e+01    0.1994227    0.1805281  67.59 0.0003601731    1.052    0.050
       173 -10.4271    192.7715    159.9507   2.4616849199e+01   1.3196603790e+01    0.1700471   0.09905279 -34.88 0.0007163493    1.650    0.394
       174 -11.4877     25.2510    159.6843   6.6350387711e+01   3.8686116135e+01    0.2496804     0.210664  30.19 0.0008709726    1.274    0.215
       175 -11.1265    104.5130    158.0084   4.3907273067e+01   2.8590999027e+01    0.3842337    0.2077347  72.67  0.001208084    4.481    0.777
       176 -10.2013    151.8356    158.6384   3.2584433838e+01   2.0346939378e+01    0.2047106    0.1197726  47.79 0.0009517068    1.809    0.447
       177 -11.7020    132.5083    156.9496   3.6697540074e+01   2.4051232928e+01    0.3206641    0.2859473 -35.77  0.001853509    1.180    0.152
       178 -11.5470    134.0141    153.4764   3.5682835951e+01   2.4486802100e+01    0.2109386    0.1925095  67.60 7.428147e-05    1.216    0.178
       179 -10.6806    211.2857    157.0180   2.0827900197e+01   1.0707052076e+01    0.1801813    0.1439855 -17.59 0.0006121177    1.094    0.086
       180 -11.9415    118.7002    156.8902   4.0069579308e+01   2.6452234672e+01    0.3185137    0.2192203   3.59  0.001436173    2.157    0.536
       181 -12.3565     42.8392    155.3028   6.0878079358e+01   3.7929435609e+01    0.2768903    0.2324234  56.89 0.0003340539    1.059    0.056
       182  -9.7890     20.6412    155.2422   6.7362279186e+01   4.0181792005e+01    0.1394269   0.07685744  52.91 0.0003621881    1.594    0.373
       183 -12.9987      3.9692    150.7574   7.1949875382e+01   4.2602351879e+01    0.6015844    0.4291131 -30.56  0.003464498    1.921    0.480
       184 -12.6382     11.4346    143.4858   6.9331491081e+01   4.3834774336e+01    0.5130718    0.2353448  89.47  0.002356706    2.041    0.510
       185 -12.7531     83.4487    150.7081   4.8465595823e+01   3.3609231395e+01    0.6018698     0.401046  -9.92    0.0025304    2.614    0.617
       186 -12.8748     74.7434    150.7368   5.0966605973e+01   3.4905748733e+01    0.4757019     0.389367  51.98  0.002131984    1.132    0.117
       187 -11.1355     60.6055    155.8998   5.5767755765e+01   3.5622365031e+01    0.2214587    0.1851991  25.36 0.0004617332    1.289    0.224
       188 -11.2235     27.7875    150.3436   6.4880739876e+01   4.0719153059e+01    0.3258174    0.2308073 -27.52  0.001217572    1.979    0.495
       189 -11.3455    109.2382    149.4057   4.1152993036e+01   2.9693751479e+01    0.3103019    0.2507759  60.65 0.0009915323    1.300    0.231
       190 -10.6388    249.4488    157.4654   1.5148551951e+01   5.1563782771e+00    0.2143215    0.1086117  41.63  0.001233814    2.272    0.560
       191 -10.9434     96.0868    148.8281   4.4608611445e+01   3.2036893174e+01     0.222948    0.1852446  62.84 0.0004787721    1.220    0.180
       192 -10.4041     20.9148    148.5002   6.6798654768e+01   4.1808869258e+01    0.1951939    0.1199441  31.36  0.001027074    1.588    0.370
       193 -10.3420    182.0918    145.3354   2.3691499593e+01   1.7384076448e+01    0.1793036    0.1617422  23.45 0.0003273106    1.108    0.097
       194  -9.9349    121.8429    145.6253   3.7162076361e+01   2.8297246073e+01    0.2013592    0.1270682  48.62 0.0003705023    1.599    0.375
       195 -12.0046    102.9619    142.6682   4.1595927346e+01   3.2289314891e+01    0.4989875    0.3328791  78.59  0.001374507    2.178    0.541
       196 -11.1816    172.4356    152.2718   2.6998401966e+01   1.7892404378e+01    0.2596222    0.1254365 -36.29  0.001138121    2.115    0.527
       197 -10.7318     61.5265    145.0236   5.4056842997e+01   3.8148472365e+01    0.2048028    0.1353488 -69.64 0.0004343278    1.516    0.341
       198 -10.8536     53.8337    143.8671   5.6250584339e+01   3.9437878633e+01    0.2552654    0.1908816 -86.00 0.0002617789    1.322    0.244
       199 -10.8528     50.4970    141.9963   5.7041830282e+01   4.0320553439e+01    0.2623343    0.1689354  45.59 0.0006121119    1.443    0.307
       200 -10.3837     47.3571    141.7844   5.7995038327e+01   4.0753140129e+01    0.2392115    0.1971178 -70.79 0.0008823144    1.212    0.175
       201 -10.8403    170.7001    145.1626   2.5898419570e+01   1.9449294360e+01     0.234669    0.1829093  48.08  0.001073476    1.386    0.278
       202 -10.5889     37.7035    142.9914   6.1149901162e+01   4.1542470949e+01    0.1901155     0.159974  89.85  0.000336252    1.107    0.096
       203 -10.2024    165.1537    141.1240   2.6190998133e+01   2.1190589707e+01    0.1807469    0.1680993  79.35 0.0006991361    1.305    0.233
       204 -11.5824     72.8270    139.1866   4.9735420002e+01   3.7987593263e+01    0.2591653    0.2218045  41.96 0.0002936806    1.136    0.120
       205 -12.3527     68.6366    137.0186   5.0671608657e+01   3.9137825408e+01    0.3210234    0.2572754  46.17 0.0003145444    1.185    0.156
       206 -10.7335     60.1868    139.8084   5.3724921764e+01   3.9622770664e+01    0.1930513    0.1697493 -35.62  0.001071881    1.350    0.259
       207 -11.5953      1.6340    138.1049   7.2049356654e+01   4.5863115149e+01     0.342625     0.131293 -86.01  0.001063261    2.332    0.571
       208 -11.0411     96.3035    138.5684   4.2688512637e+01   3.4379308432e+01    0.3026221    0.1852812  13.02  0.001174718    2.645    0.622
       209 -11.0995     52.9739    138.9664   5.5866060574e+01   4.0773761048e+01     0.171514    0.1550484  73.03 0.0003323054    1.006    0.005
       210 -11.9270     19.2305    138.6342   6.6560072811e+01   4.4419597580e+01    0.2776141    0.2225417 -29.34 0.0006271725    1.599    0.375
       211 -11.1481    133.1741    136.6118   3.2477476876e+01   2.8106916641e+01    0.3890902     0.269605 -28.03  0.001820442    1.737    0.424
       212 -11.1938     41.0863    137.2906   5.9436876453e+01   4.2613145560e+01    0.3813123    0.1816285  48.92  0.001527219    2.013    0.503
       213 -10.0676    239.5376    135.9893   1.2394225308e+01   9.3356039199e+00    0.1758529   0.09917689 -30.97 0.0001506597    1.479    0.324
       214 -10.1224     32.3043    136.3216   6.2158101705e+01   4.3793658829e+01    0.1356412   0.09941422 -42.68 0.0004319748    1.635    0.388
       215 -12.4576    126.4141    134.2422   3.3660189868e+01   2.9891973992e+01    0.4978748    0.3323371  44.35  0.001461383    1.464    0.317
       216 -12.1903     13.0893    134.4354   6.8205061991e+01   4.5977748164e+01    0.3015682    0.2725289 -79.42  0.000992747    1.152    0.132
       217 -12.2976     19.8325    132.0720   6.5820358559e+01   4.6036095405e+01    0.3734931    0.2351903  42.38 0.0004005056    1.493    0.330
       218 -11.4378      6.8903    134.5228   7.0200282510e+01   4.6407701696e+01      0.22659    0.1463375  65.51 0.0006962336    1.371    0.271
       219  -9.9963    196.5286    134.4901   1.8761771752e+01   1.6615183008e+01    0.1320217    0.1192942 -18.09 0.0008096314    1.037    0.036
       220 -11.2602     45.2871    133.5058   5.7603780440e+01   4.3096550376e+01    0.2707682    0.2467685  82.34  0.001592857    1.032    0.031
       221 -11.8885     51.0217    129.8235   5.5208933140e+01   4.3342475516e+01    0.4984046    0.2947807 -22.53   0.00195482    3.013    0.668
       222 -12.3020     57.6875    126.8753   5.2546070327e+01   4.3229220655e+01    0.5382856    0.3707181 -11.05  0.002411787    2.235    0.553
       223 -11.1765    102.9559    133.5155   3.9808599934e+01   3.4394239411e+01    0.2369691    0.1413977  39.88  0.001039048    1.615    0.381
       224 -12.4720     82.2758    130.5041   4.5315747734e+01   3.8649085449e+01    0.6199442    0.4342685  -1.07  0.002354941    2.241    0.554
       225 -10.7141     68.1729    131.1456   4.9845250712e+01   4.0670776208e+01    0.2039471    0.1602428  67.49 0.0004869241    1.289    0.224
       226 -11.0452    121.8371    128.2615   3.3537107588e+01   3.2063398421e+01     0.255519    0.2075934 -67.53 0.0008300621    1.365    0.267
       227 -11.2381    101.1053    128.6053   3.9323968908e+01   3.5868219094e+01    0.2795526    0.2252546  74.92 0.0006407954    1.400    0.286
       228 -10.4830    110.0009    127.9605   3.6668418977e+01   3.4381409810e+01    0.1799481    0.1745554 -74.28 0.0004068999    1.045    0.043
       229 -11.2256     27.0478    125.7112   6.2778235275e+01   4.7033283389e+01      0.18812    0.1723575  62.87 0.0006418851    1.083    0.076
       230 -11.8494      9.9153    126.1276   6.8650227351e+01   4.8328247598e+01    0.2196467    0.1560423  64.58  0.001237272    1.269    0.212
       231 -11.2252     22.9315    124.0968   6.4026079328e+01   4.7824332231e+01    0.2054332    0.1578197  63.32  0.001151309    1.207    0.171
       232 -12.4450      4.8832    122.8405   7.0130672046e+01   4.9506752564e+01    0.2797008    0.2639432 -61.75  0.001840352    1.210    0.174
       233 -10.1030    179.0110    121.9697   1.9172030688e+01   2.1979117159e+01    0.1645934    0.1557501 -10.46 0.0003582659    1.022    0.022
       234 -13.4925     13.5232    119.4283   6.6872678036e+01   4.9795174465e+01    0.7199544    0.3006132  39.98  0.002190887    2.212    0.548
       235 -10.7545    105.1921    121.2080   3.6535059076e+01   3.6836201983e+01     0.213109    0.1745636  69.41 0.0007369684    1.339    0.253
       236 -11.0392     27.9496    120.3913   6.1867503260e+01   4.8332876392e+01    0.3401527    0.2474445  46.13  0.001219834    1.332    0.249
       237 -12.1318     21.7584    117.9148   6.3795858841e+01   4.9535358602e+01    0.4154784    0.1941475  47.38  0.001314764    2.071    0.517
       238 -12.3204     95.6707    118.7273   3.8791146049e+01   3.9187683274e+01    0.4954249    0.3330708 -60.60  0.002269238    1.538    0.350
       239 -11.1102     82.6937    119.2855   4.2950575821e+01   4.1335332645e+01    0.2988662    0.2319832  41.52 0.0003766957    1.268    0.211
       240 -11.0635     82.3425    116.2661   4.2420553107e+01   4.2139231170e+01    0.2625889    0.2289436  11.03 0.0002573855    1.349    0.259
       241 -10.7298     51.0245    120.2022   5.3727208677e+01   4.5822074149e+01    0.1956036     0.113369  29.63 0.0008719861    1.781    0.438
       242 -10.4276    211.4077    118.7860   1.2885060571e+01   1.6420567990e+01    0.1824265    0.1132226 -24.54 0.0004364749    1.563    0.360
       243 -11.6547    121.9980    117.9354   3.1114059560e+01   3.4294106520e+01    0.2284887    0.2137836 -52.57            0    1.078    0.072
       244  -9.8119     38.5112    118.5024   5.7872587814e+01   4.7750063042e+01    0.1407767     0.129519 -87.74 -0.0001528154    1.043    0.042
       245 -11.9154    201.7024    114.2287   1.3397274306e+01   1.8909476943e+01    0.2323235    0.2132392 -32.11 0.0003041159    1.071    0.067
       246 -10.5543    169.5376    115.0655   1.9390603712e+01   2.5097512466e+01    0.2119706    0.1354335 -38.91 0.0003211666    1.501    0.334
       247 -12.9652     62.1880    110.8363   4.8112461618e+01   4.6711921817e+01    0.5911919    0.3214704 -61.09  0.001182326    1.768    0.434
       248 -12.9838      8.3061    109.8361   6.7940937841e+01   5.2650294328e+01    0.4795927    0.2596029  41.16  0.002382348    1.800    0.445
       249 -12.5996      2.6335    107.0834   6.9848037705e+01   5.3704245693e+01    0.5632843    0.2581251 -63.22  0.002611734    1.968    0.492
       250  -9.7773     36.6171    110.2725   5.7359317187e+01   5.0115054805e+01    0.1535162   0.09438489  58.05  0.000699626    1.705    0.414
       251 -10.6636     71.4519    118.4947   4.6455213087e+01   4.3359904052e+01    0.1483105    0.1397788  82.01 3.087007e-05    1.005    0.005
       252 -10.3711    139.2237    107.2150   2.4074281565e+01   3.2979345611e+01    0.2121959    0.1810908 -89.72  0.001069227    1.374    0.272
       253 -13.1339     75.1337    114.4266   4.4395892453e+01   4.3796817758e+01    0.8136189    0.5044404  63.94  0.003425577    2.007    0.502
       254 -11.4217     12.5246    104.6817   6.5855299704e+01   5.3718045295e+01    0.2730691    0.1834568 -37.22  0.001236128    1.742    0.426
       255  -9.9743    104.9776    102.4632   3.2030866764e+01   4.1207684646e+01    0.2307532     0.150346  43.72 0.0003909219    1.532    0.347
       256 -11.6570     55.9073    101.0621   4.8400873454e+01   5.0132965219e+01     0.254579    0.2236723 -79.05 0.0004646418    1.091    0.083
       257 -11.0670     57.9357     97.5093   4.6855700786e+01   5.0757380471e+01    0.2770627     0.254064  34.71 0.0007418711    1.151    0.131
       258 -12.1048      5.4830     95.0280   6.7714950382e+01   5.6689877108e+01    0.3380965    0.2521864 -66.79  0.001222784    1.223    0.183
       259 -11.7570      9.0945    100.4400   6.6777797945e+01   5.5057629392e+01    0.3255078    0.2135987 -27.97  0.000715177    1.884    0.469
       260 -12.1822      5.2279     99.6061   6.8239128788e+01   5.5507058452e+01    0.3522855    0.2452811  -1.38  0.001930956    1.772    0.436
       261  -9.7871    155.2121    100.0058   1.8558429442e+01   3.0922683903e+01     0.195537       0.1167 -39.90 0.0003971133    1.626    0.385
       262 -11.2019     94.1113     98.4501   3.4331580303e+01   4.4300332021e+01    0.3125988    0.2601128  75.74 0.0007595324    1.332    0.249
       263 -10.9977     64.5229     98.4987   4.4600825246e+01   4.9512269582e+01    0.1502066    0.1406417  87.15 -4.569085e-05    1.033    0.032
       264 -11.1604    178.1527     96.4670   1.3126692110e+01   2.6577561536e+01    0.3083812    0.1713038 -51.03   0.00132256    1.972    0.493
       265 -10.0505    104.1422     96.7991   3.0761893607e+01   4.2670340568e+01    0.2028268    0.1813826  -7.42 0.0002272132    1.317    0.241
       266 -11.1788     98.3550     96.7166   3.2520535441e+01   4.3865594269e+01    0.2532601    0.2242151  85.76 0.0006128344    1.203    0.169
       267  -9.5359     32.6360     97.3252   5.6843367329e+01   5.3946014785e+01    0.1559053   0.09604386  61.83 0.0007039555    1.794    0.442
       268 -11.7775     83.0956     93.6156   3.6701170235e+01   4.7549251066e+01    0.3559502    0.2991701  -8.70  0.001008829    1.500    0.333
       269 -10.1779     89.8312     94.3417   3.4620134673e+01   4.6100643865e+01    0.2231113    0.1441383  30.79 0.0009465095    1.768    0.434
       270 -11.0694     26.2148     92.0754   5.8639296337e+01   5.5951995553e+01    0.4288034    0.2513851  25.75  0.002058217    1.819    0.450
       271 -10.8340     57.8455     91.6502   4.5531178949e+01   5.2269323859e+01    0.2543628    0.1998372 -63.74 0.0004012376    1.221    0.181
       272 -11.8236     54.6606     85.5562   4.5310807349e+01   5.4286023280e+01    0.5345108    0.4665585 -56.01  0.002901698    1.109    0.098
       273 -10.0307     41.5491     91.8282   5.2158405050e+01   5.4403970632e+01    0.1942632    0.1321791 -85.59 0.0005431419    1.568    0.362
       274 -10.9391    121.0651     89.9414   2.3976137677e+01   4.0537403994e+01    0.3511274    0.2128829 -52.75  0.001065204    1.728    0.421
       275 -11.3638    155.0269     89.6904   1.5811600524e+01   3.2889359394e+01    0.2101091    0.2036866  46.60  0.001167881    1.074    0.069
       276 -11.4093     73.6006     90.0346   3.9118823895e+01   5.0128983784e+01    0.2721542    0.2561171   7.22 0.0007565767    1.184    0.155
       277 -12.0292      2.8842     87.4634   6.8082863604e+01   5.8803507587e+01    0.4682729    0.2385944  88.39   0.00187293    1.845    0.458
       278 -11.8646      7.0093     86.7136   6.6202754706e+01   5.8780820507e+01    0.2414506    0.2283833  82.01 0.0004822557    1.094    0.086
       279 -10.8971    125.1309     88.0792   2.2354422731e+01   4.0013139656e+01    0.3966666    0.2300532 -40.09   0.00116822    1.748    0.428
       280 -10.0568    205.9650     87.0245   6.2962045328e+00   2.2292822342e+01    0.1596512    0.1423959 -36.74 0.0009649114    1.010    0.010
       281 -10.2080    134.6320     84.7774   1.8995044676e+01   3.8505360870e+01    0.2935488    0.1454169 -37.53   0.00111713    2.074    0.518
       282 -11.2680    189.0685     83.6725   7.9812154502e+00   2.6340778581e+01    0.3331812    0.2076439  17.60  0.001349719    2.862    0.651
       283 -10.9900     94.8839     83.5636   2.9854418432e+01   4.7583524457e+01    0.2734224    0.2169905 -58.39 0.0003472431    1.279    0.218
       284 -11.0973     64.6381     81.9132   4.0307957349e+01   5.3645910658e+01    0.3643841    0.2542891  21.04  0.001440625    1.729    0.422
       285 -10.9259     10.5401     81.7148   6.4001307231e+01   5.9880141035e+01    0.3087112    0.1808672 -67.11 0.0008807557    1.478    0.324
       286 -10.9085      9.3107     76.9614   6.3921270469e+01   6.1195441997e+01    0.3185067    0.1922765 -88.67   0.00090449    1.594    0.373
       287 -10.8501     88.8198     79.5641   3.0651644884e+01   4.9730942129e+01    0.3668656    0.2194346 -39.98  0.001529342    1.793    0.442
       288 -11.3701      5.0380     80.2561   6.6346252827e+01   6.0573880448e+01    0.2527319    0.1525598  80.90  0.001270754    1.638    0.389
       289 -10.9075    108.0539     78.7712   2.4271925712e+01   4.5796004704e+01    0.2531153    0.2122917 -49.16 0.0004845334    1.184    0.155
       290 -10.4013    105.2922     73.4594   2.3385943654e+01   4.7528423057e+01    0.3261732    0.1803022 -56.05 0.0009741021    2.095    0.523
       291 -10.2572     45.7500     73.7910   4.6067845414e+01   5.8502107613e+01    0.2000719     0.162404  67.69 0.0007637745    1.372    0.271
       292 -10.2963     84.6329     72.3010   2.9780628343e+01   5.2213955658e+01    0.1593474    0.1202438  81.46 0.0007033608    1.736    0.424
       293 -11.4337     71.2858     69.7388   3.3941412771e+01   5.5386317740e+01    0.4639341    0.3063695 -20.36  0.001891784    2.325    0.570
       294 -11.3019     53.1388     71.2496   4.2032836973e+01   5.8078635617e+01    0.4237687    0.2673625 -24.24   0.00176671    2.301    0.565
       295 -11.0559      2.7621     72.4187   6.6483668326e+01   6.2719014114e+01    0.1751642    0.1215551 -16.40 0.0009366705    1.686    0.407
       296 -11.9132     61.9854     67.8473   3.7129247834e+01   5.7476914680e+01    0.3632783     0.277822  68.83  0.001213548    1.593    0.372
       297 -11.6591     49.1594     66.0325   4.2243631994e+01   5.9937831092e+01    0.3943848    0.2606907 -47.64  0.001089504    1.458    0.314
       298 -11.0427     46.8304     62.8537   4.2336360811e+01   6.1041275205e+01     0.307786    0.2018993  36.48 0.0005876605    1.582    0.368
       299 -10.4275     43.2912     66.9033   4.5264496069e+01   6.0543310036e+01    0.2401832    0.1461671 -35.77   0.00106317    1.896    0.473
       300 -11.6211      8.2307     67.0146   6.2961131098e+01   6.3833082458e+01    0.2359159    0.1650701 -22.25  0.001083736    1.623    0.384
       301 -12.3599     23.5670     55.5443   5.2194096463e+01   6.5596146879e+01    0.7072056    0.3659677 -36.42  0.003111353    2.166    0.538
       302 -13.4818     17.7298     61.6071   5.6905446590e+01   6.4578706303e+01    0.3690608    0.3338491  -0.81 0.0006976631    1.218    0.179
       303 -11.5052     12.5032     59.5551   5.9316229527e+01   6.5476090796e+01    0.2999023    0.2024826 -51.64 0.0005133463    1.340    0.254
       304 -10.4525    136.2999     61.6458   1.1386819605e+01   4.2394438357e+01    0.1615892    0.1137548 -68.02 0.0004819535    1.701    0.412
       305 -10.8207     27.5890     60.4443   5.1340280982e+01   6.3988305939e+01    0.2293691    0.2051733  37.18 0.0006558218    1.207    0.171
       306 -11.2054     42.2125     59.5149   4.3516558072e+01   6.2486103228e+01    0.2635368    0.1923455 -54.92 0.0006008042    1.285    0.222
       307 -12.2178     33.5149     58.3589   4.7613085153e+01   6.3859484736e+01    0.5809429    0.3546185  63.64  0.002551623    2.327    0.570
       308  -9.8398    153.4073     57.5037   6.5977093224e+00   3.8843370708e+01    0.1467983    0.1393737 -55.56 0.0001422089    1.032    0.031
       309 -11.2751    110.6752     55.3079   1.5500787477e+01   4.9813431833e+01     0.296237    0.2226197 -67.78  0.001375951    1.559    0.358
       310 -11.9793    110.0005     51.0028   1.4083791833e+01   5.0744818338e+01    0.4303287    0.2643709  53.37 0.0003336082    1.601    0.375
       311 -10.6548    106.2657     51.0125   1.5124889831e+01   5.1651622315e+01    0.2271708    0.2200075  60.26 0.0001982561    1.033    0.032
       312 -10.2264     96.5567     56.5044   2.0128804952e+01   5.2924818002e+01    0.1494648    0.1478648 -79.32 0.0001179603    1.013    0.013
       313 -11.9209     37.5058     53.7599   4.4034140128e+01   6.4479216066e+01    0.3787944     0.237676 -57.98  0.001341387    1.505    0.336
       314  -9.9273    126.2768     54.6766   1.1302990902e+01   4.6081874779e+01    0.1558461    0.1141606 -67.92  0.000318601    1.583    0.368
       315 -10.0799     42.4878     54.3146   4.1628064438e+01   6.3681192628e+01    0.2460847     0.130573  30.90  0.001074495    1.990    0.497
       316  -9.8260    146.7730     52.9927   6.3921830730e+00   4.1211182909e+01    0.1901685    0.1207699 -34.61  0.000329279    1.554    0.356
       317 -10.8091    122.0111     52.4935   1.1545825664e+01   4.7517703608e+01    0.3292956    0.2015238 -14.87  0.001272792    2.460    0.594
       318 -10.0638    195.4786     52.4985   3.5879057684e+02   2.9544345637e+01    0.1380833    0.1222462 -49.97 0.0001712718    1.006    0.006
       319 -10.4893    151.5040     51.4866   5.0271578695e+00   4.0257314765e+01    0.1476603    0.1399109 -68.55 -6.652094e-05    1.012    0.012
       320 -11.9929     30.0103     50.0257   4.6889609502e+01   6.6270417190e+01    0.2976423    0.2477035  -8.04  0.001462393    1.307    0.235
       321  -9.7979    143.6750     50.7222   6.2359027157e+00   4.2347274969e+01     0.147942    0.1149056  29.81 0.0002497146    1.588    0.370
       322 -11.3195     16.1077     50.0041   5.5002405017e+01   6.7601599973e+01    0.2258064    0.1876078  26.23 0.0003116835    1.318    0.241
       323 -12.2191     98.0777     47.5679   1.6186506559e+01   5.4227895059e+01     0.529148    0.3061678 -62.20  0.001791129    2.524    0.604
       324 -10.8868    128.9256     46.8216   7.9143520464e+00   4.6704248911e+01     0.367221    0.2201384 -29.70   0.00158475    1.770    0.435
       325  -9.7003     44.2566     48.3159   3.8503116551e+01   6.4803043298e+01    0.1411008    0.1031367 -26.71 0.0004017901    1.534    0.348
       326 -10.1167      2.4321     46.8284   6.2654660032e+01   6.9220969581e+01    0.1868341   0.09690736 -59.20 0.0004445326    1.595    0.373
       327 -10.7680    142.3745     45.7866   4.8204832969e+00   4.3433358078e+01    0.2003986    0.1434035 -19.92 0.0003741711    1.614    0.381
       328 -10.1610     49.7198     44.0902   3.3983586699e+01   6.4873876924e+01     0.193195    0.1722587 -37.67 0.0004809019    1.079    0.073
       329 -12.8942     33.2089     40.4820   4.1527102704e+01   6.8088934671e+01    0.4975809    0.2732254  38.85  0.001781092    1.943    0.485
       330 -11.4741     93.8158     40.3625   1.4531362966e+01   5.6489488981e+01    0.2748468    0.2384678   4.40 0.0004164398    1.330    0.248
       331 -10.9803    120.9362     39.4682   6.9672181073e+00   4.9880296022e+01    0.2468328    0.2151175 -24.30  0.001299109    1.234    0.190
       332 -11.0770     80.3154     37.8120   1.7930152516e+01   6.0058184817e+01    0.3937395    0.2421653 -46.16  0.001777238    1.698    0.411
       333 -11.3307     21.9064     36.2450   4.6906138352e+01   7.0348139200e+01    0.3206704    0.1778623 -81.50  0.001322381    2.884    0.653
       334 -11.2535     10.0544     36.8124   5.5126654306e+01   7.1223825683e+01    0.1799595    0.1709081  71.11 0.0003967271    1.196    0.164
       335 -10.7854      4.6024     35.9199   5.8678023079e+01   7.1766050672e+01    0.2889998      0.11002 -69.45  0.001068733    2.330    0.571
       336 -11.1128     17.1978     34.5467   4.9429695165e+01   7.1187691179e+01    0.2875472    0.1848375  55.32  0.001300795    2.083    0.520
       337 -11.2657     86.2142     34.2707   1.4288764924e+01   5.9295006643e+01    0.2716636    0.1789619  50.35  0.001273334    1.474    0.322
       338 -11.6134     42.5596     33.6957   3.3116129997e+01   6.8192280296e+01    0.2985041    0.2373932 -44.61 0.0009864734    1.219    0.179
       339 -11.1457     63.5288     32.4632   2.2069011391e+01   6.4602710642e+01    0.3467978    0.1737616  40.27  0.001447801    2.068    0.516
       340 -11.7836     29.8551     31.5692   3.9740456585e+01   7.0462450852e+01    0.3828602    0.1516195  35.08   0.00157717    2.581    0.613
       341 -11.9896     77.3086     30.4711   1.5590994545e+01   6.1965498159e+01     0.329893    0.2760305 -83.61 0.0009881462    1.455    0.313
       342 -10.6139     72.1763     30.9076   1.7732974154e+01   6.3039324676e+01    0.2087353    0.1931207 -74.59 0.0004950439    1.209    0.173
       343 -10.5129      2.7430     30.4203   5.8490659490e+01   7.3161551232e+01    0.2860438    0.1238792   6.89  0.001294071    2.638    0.621
       344 -10.5967     67.8720     28.5136   1.8255893524e+01   6.4369949545e+01    0.3010902    0.1750703 -50.37  0.001322962    2.008    0.502
       345 -10.9731     61.4965     29.0172   2.1233460563e+01   6.5619431950e+01    0.2126208    0.1367659 -38.53 0.0008023795    1.559    0.359
       346 -11.2749     45.5812     25.8824   2.7454394192e+01   6.9195393616e+01    0.2486213    0.1861937  83.89  0.001194971    2.259    0.557
       347 -12.4415     86.3329     23.8286   9.3429729349e+00   6.0843485650e+01    0.5689951    0.2758492  53.02  0.002377069    1.929    0.482
       348 -10.0459      1.4006     25.2785   5.7970971277e+01   7.4421511393e+01    0.1634403    0.1119075 -79.28  0.000525673    1.521    0.343
       349 -10.1834     98.4894     24.5449   6.2258974917e+00   5.7736045688e+01    0.1441898    0.1377092  64.36 5.727759e-05    1.006    0.006
       350 -11.4614     70.4661     21.2625   1.3455932864e+01   6.4926512927e+01    0.2440247    0.2189022  32.25 0.0006953717    1.087    0.080
       351 -10.2109     19.4604     23.9206   4.3291840054e+01   7.3310497128e+01     0.188618     0.120376 -56.85 0.0006976363    1.528    0.346
       352  -9.9236    141.4177     18.8301   3.5548280207e+02   4.7229876320e+01    0.1804082    0.1399842  -5.71 0.0003928401    1.561    0.360
       353 -10.5767     81.4721     19.4910   8.7044941293e+00   6.2608898088e+01    0.1398914    0.1353486  56.18 9.680961e-05    1.028    0.027
       354 -10.8751    132.8276     16.8755   3.5603990553e+02   4.9711427700e+01     0.208408    0.1852529  46.72 0.0003450213    1.211    0.174
       355 -10.9506    124.8741    247.9754   5.0945535390e+01   9.3832637007e+00    0.2880153    0.1501804 -59.51  0.001699826    2.724    0.633
       356 -11.2450     51.0262    249.3100   6.5760594682e+01   1.7770469535e+01    0.3940249    0.1066819  30.55  0.001794691    2.771    0.639
       357 -10.6325    162.3965    247.4082   4.3792823423e+01   4.8753704284e+00    0.1769257    0.1357578  29.26 0.0005807878    1.180    0.153
       358 -11.1239     68.2130    247.1185   6.2176957125e+01   1.6252587676e+01    0.2566786    0.1542683  64.39  0.001581209    1.760    0.432
       359 -10.8348     58.5268    248.0436   6.4187244218e+01   1.7173240951e+01     0.217701    0.1240505  34.70 0.0007499464    1.329    0.247
       360 -11.1266    178.0563    245.8813   4.0791158612e+01   3.1929806239e+00      0.26929    0.2286912 -71.34  0.001426293    2.275    0.560
