#   1 NUMBER                 Running object number                                     
#   2 MAG_AUTO               Kron-like elliptical aperture magnitude                    [mag]
#   3 X_IMAGE                Object position along x                                    [pixel]
#   4 Y_IMAGE                Object position along y                                    [pixel]
#   5 X_WORLD                Barycenter position along world x axis                     [deg]
#   6 Y_WORLD                Barycenter position along world y axis                     [deg]
#   7 A_WORLD                Profile RMS along major axis (world units)                 [deg]
#   8 B_WORLD                Profile RMS along minor axis (world units)                 [deg]
#   9 THETA_WORLD            Position angle (CCW/world-x)                               [deg]
#  10 FWHM_WORLD             FWHM assuming a gaussian core                              [deg]
#  11 ELONGATION             A_IMAGE/B_IMAGE                                           
#  12 ELLIPTICITY            1 - B_IMAGE/A_IMAGE                                       
         1 -10.9293     39.0149     17.4856   1.1309968543e+02   6.9593054279e+01    0.3203472    0.2070736 -46.77  0.001512724    1.459    0.314
         2 -12.3734    216.8263     16.1170   6.7953896746e+01   2.8967563357e+01    0.5591376    0.4102127 -73.81  0.002130119    1.525    0.344
         3 -12.1538     43.6606      8.2061   1.0531546629e+02   7.0604715838e+01    0.3265013    0.2855416   1.99  0.001125692    1.136    0.120
         4 -13.4103    185.5951      5.5306   6.7766021640e+01   3.7532113850e+01    0.8793981    0.4672464 -58.29  0.003782655    2.210    0.547
         5 -11.1840     56.1632      6.1923   9.7775770860e+01   6.8838399410e+01    0.1775942    0.1595155 -35.84  0.000497261    1.338    0.253
         6 -10.6366     12.9159    227.3132   1.5274813014e+02   2.6614431622e+01    0.1326216   0.09351403  51.87 0.0005489623    1.076    0.071
         7 -10.0566    103.6490    225.1806   1.3610143010e+02   1.7590427381e+01     0.130905   0.09782692 -46.62 0.0009478394    1.718    0.418
         8 -11.2122     95.7058    224.7443   1.3755559203e+02   1.8618028849e+01    0.2635046    0.1734308  55.61  0.001828946    1.442    0.307
         9 -10.9659    149.7513    222.5972   1.2719862265e+02   1.1999076194e+01    0.3389699    0.1656024 -53.87  0.001885807    2.948    0.661
        10 -11.0951    226.4101    221.2383   1.1361088781e+02   1.9097671426e+00    0.1309211   0.09503853 -26.91 0.0009530985    1.689    0.408
        11 -10.0604    218.6416    212.3188   1.1353138053e+02   3.8477003957e+00   0.09831306   0.08468176  40.59 0.0007044341    1.760    0.432
        12 -10.5827    232.6790    211.3207   1.1106719495e+02   2.0943250643e+00   0.09364602   0.08354557  24.08 0.0007044506    1.671    0.401
        13 -10.2531    211.3669    218.1818   1.1564306758e+02   4.1902948280e+00    0.1352724   0.09880787 -33.10 0.0008840394    1.774    0.436
        14 -10.4361    115.8510    210.0093   1.3221656029e+02   1.8354206002e+01    0.1812692     0.122023  70.09  0.001092644    2.042    0.510
        15 -10.6903    186.0013    203.6627   1.1790946957e+02   9.4108716100e+00     0.213177    0.1275904 -48.11  0.001209339    2.461    0.594
        16 -10.5232      4.6318    198.8818   1.5336501298e+02   3.2066328539e+01    0.2675014   0.05806938  53.00  0.001296229    3.095    0.677
        17 -10.7425    112.3835    197.6004   1.3149561773e+02   2.0818552860e+01    0.2003589    0.1100292 -77.62 0.0009513676    3.259    0.693
        18  -9.9562    133.3036    195.6682   1.2696103692e+02   1.8216914189e+01    0.1171413   0.08667623  60.69 0.0004799224    1.656    0.396
        19 -10.0560    215.3271    194.0102   1.1113423797e+02   6.3601164046e+00    0.1602432   0.09122173 -50.97 0.0007045388    4.264    0.765
        20 -12.2954    159.8347    192.5111   1.2118146995e+02   1.4801636904e+01    0.4939458    0.3888738  86.86  0.002892907    2.315    0.568
        21 -10.1548    210.4993    183.0078   1.1007429113e+02   8.4032594861e+00      0.17893    0.1096344 -25.84   0.00104579    1.629    0.386
        22 -10.5188    183.4147    182.9963   1.1505761231e+02   1.2564834904e+01     0.290732    0.1112678 -32.02  0.001243157    3.075    0.675
        23 -11.8128     34.6797    172.9223   1.4594031144e+02   3.4483627441e+01    0.3126349     0.158745 -87.63  0.001766851    1.953    0.488
        24  -9.8233     88.6424    168.3242   1.3310554763e+02   2.9344501318e+01    0.1336682   0.08501196  62.33 0.0007044681    1.773    0.436
        25 -10.5319     98.9999    166.4905   1.3044969209e+02   2.8293851207e+01    0.1873647   0.08836228  53.05 0.0008099188    2.495    0.599
        26 -11.7649    106.0853    157.6290   1.2747843618e+02   2.9018823343e+01    0.5206579    0.3260834  70.26  0.002442539    2.411    0.585
        27 -10.9082    167.2449    157.1314   1.1359337636e+02   1.9144144941e+01    0.2495106    0.1783723  62.00  0.001255407    2.122    0.529
        28 -10.3150      6.7883    155.9509   1.5126717678e+02   4.0220361422e+01    0.1462364   0.07492635 -83.17 0.0005304735    1.685    0.407
        29 -10.7552    189.9750    150.4944   1.0767105211e+02   1.6240159498e+01    0.2403539    0.1878634 -44.69  0.001041694    1.598    0.374
        30 -10.3197     28.5000    155.9839   1.4617003072e+02   3.8532228443e+01    0.1749184   0.07583142  73.61 0.0008104526    2.593    0.614
        31 -11.1836    106.8249    145.4166   1.2530230689e+02   3.1377520375e+01    0.4002018    0.2322012  75.44  0.001462069    3.857    0.741
        32 -10.6110     55.3263    145.6420   1.3852061205e+02   3.8161765683e+01    0.1362955   0.08243251  65.72 0.0007044109    1.780    0.438
        33 -11.7314     82.9519    129.9691   1.2889820283e+02   3.8227173817e+01    0.5367529    0.1866118 -60.83  0.002000273    2.940    0.660
        34 -11.7987     98.8834    128.3027   1.2425705185e+02   3.6241320097e+01    0.5132569    0.3164623  89.49  0.002051983    2.993    0.666
        35 -10.5968     58.9922    124.4878   1.3476108162e+02   4.2543043876e+01    0.2820506    0.1392273  72.86  0.001038982    3.556    0.719
        36 -11.2671     43.0594    122.5209   1.3908983688e+02   4.4701081618e+01    0.4764494    0.2101044  85.42  0.001777477    3.542    0.718
        37 -12.0593     37.6985    121.2125   1.4048511939e+02   4.5516264264e+01    0.2167963    0.1919159  72.15 0.0003229803    1.090    0.082
        38 -11.1842     27.5603    121.7198   1.4347058522e+02   4.6272141822e+01     0.594757    0.2123691  78.53  0.001791386    5.719    0.825
        39 -11.6475    193.0450    118.5273   9.9909154635e+01   2.0624420079e+01    0.5232871    0.3724738 -54.70  0.002532406    2.014    0.503
        40 -10.2682     70.8012    120.1948   1.3065876282e+02   4.2094221123e+01     0.238946    0.1313181  68.57 0.0009549038    2.863    0.651
        41 -11.1595    140.6848    117.5248   1.1108717945e+02   3.1151470325e+01    0.3654368    0.1256251 -41.30  0.001241376    2.941    0.660
        42 -10.6872    108.2679    112.9114   1.1846147379e+02   3.8063276115e+01    0.3836987    0.1797287 -64.15  0.001280636    3.499    0.714
        43 -10.2409    117.6596    125.3408   1.1868017710e+02   3.3784967247e+01    0.1454802    0.1123013  77.48  0.000704948    1.771    0.435
        44 -10.9751     78.1791    111.7156   1.2691269000e+02   4.3067403694e+01    0.4387217     0.226348 -81.64  0.001501478    3.762    0.734
        45 -10.4506    174.2765    111.6324   1.0197925816e+02   2.5520857847e+01    0.2699501    0.1706779 -43.81  0.001067702    1.710    0.415
        46 -11.5080    159.7887    110.7427   1.0491287103e+02   2.8637318168e+01    0.5485607    0.2284667 -45.47  0.001990956    2.657    0.624
        47 -11.8701     13.9767    109.3139   1.4627380516e+02   5.0180177918e+01    0.5421939     0.232863 -83.20  0.002589107    2.071    0.517
        48 -12.2795    140.5547    104.6581   1.0789983436e+02   3.3695404810e+01    0.4749292     0.385682 -88.88  0.002302577    1.793    0.442
        49 -12.1920     44.1667    100.4948   1.3557747895e+02   4.9856483754e+01    0.6763186    0.3439502  89.16   0.00278404    2.733    0.634
        50 -11.6273    150.8223    103.1160   1.0500362850e+02   3.1889196390e+01    0.2294986    0.2169332 -66.28  0.001254602    1.259    0.205
        51 -11.6600    127.9097    101.3776   1.1027822988e+02   3.6873522071e+01    0.4284346    0.2187433 -51.27  0.001685832    2.178    0.541
        52 -10.9049    132.9971    106.6062   1.1031126969e+02   3.4813193851e+01    0.2963301    0.1874746 -41.73 0.0003161472    1.561    0.359
        53 -11.9459    108.0967     98.8146   1.1508760597e+02   4.1167046091e+01    0.6242084    0.4403244 -86.81  0.002662038    2.357    0.576
        54 -10.7047     81.6463    100.3041   1.2342997209e+02   4.5220313435e+01     0.226641    0.1686026  78.89   0.00110797    1.758    0.431
        55 -10.8808     19.7499     97.8332   1.4325547255e+02   5.2551613263e+01    0.3585536    0.1340825 -86.31  0.001400451    2.999    0.667
        56 -10.9422     62.8807     95.6406   1.2846804075e+02   4.8917509606e+01    0.4267946    0.1933888 -79.89  0.001255491    4.910    0.796
        57 -13.2903    170.1866     90.8716   9.7299581493e+01   2.9933819677e+01    0.4783126    0.4008393  82.13  0.001000421    1.653    0.395
        58 -10.6190    173.4364     86.5008   9.5382549589e+01   2.9948007489e+01    0.2591888    0.2058963 -22.40 0.0005788539    1.187    0.158
        59 -10.4057    124.3201     91.6344   1.0858323456e+02   3.9582068123e+01    0.1535093    0.1222751 -81.83 0.0007039153    1.783    0.439
        60 -11.0269     34.1967     87.0012   1.3673333735e+02   5.4082852976e+01    0.6337547    0.1409151 -66.72  0.002079244    3.633    0.725
        61 -11.5305     86.9250     87.2774   1.1853802265e+02   4.7402621345e+01    0.4233861    0.2599857  60.32  0.001769478    2.369    0.578
        62 -11.5842     47.0591     82.2090   1.3114977852e+02   5.4014667105e+01    0.6699139    0.3472373 -76.17  0.002885329    2.233    0.552
        63 -10.4740    140.8030     82.9962   1.0174732601e+02   3.7818077266e+01    0.2523615    0.1755768 -60.88  0.001080306    1.967    0.492
        64 -10.1141    119.3102     80.6541   1.0674975579e+02   4.2841134492e+01    0.1523394    0.1229879 -78.42 0.0007045197    1.705    0.414
        65 -11.2650     82.0887     73.2110   1.1617184796e+02   5.1388008405e+01    0.3873886    0.2367312 -78.70  0.001378618    3.386    0.705
        66 -11.2303    223.6319     71.0981   8.2485694445e+01   2.1163488084e+01    0.2366293    0.2327473  -2.67 0.0004552158    1.182    0.154
        67 -11.0957     62.4076     70.2610   1.2245564735e+02   5.5028673303e+01    0.2871087    0.1180627 -51.25  0.001134753    2.112    0.527
        68 -11.3539    104.1772     83.4513   1.1203450978e+02   4.5226078738e+01    0.3579784    0.2389805 -61.43  0.001575502    1.819    0.450
        69 -10.6072    219.0576     66.6113   8.1912698426e+01   2.2720121985e+01    0.2894987     0.196682 -15.60  0.001463288    1.379    0.275
        70 -12.4117     20.9125     50.7279   1.3482683798e+02   6.3975611206e+01    0.5339298    0.2785459 -65.15  0.002687743    1.588    0.370
        71 -13.5940     27.0869     59.4632   1.3408928374e+02   6.1410381813e+01    0.8455722    0.7276547 -61.28  0.005035808    1.042    0.040
        72 -11.6513    231.7261     60.5628   7.8611551272e+01   2.0774248519e+01    0.3100252    0.1426756  64.33   0.00131833    2.701    0.630
        73 -11.7899      7.6544     55.6750   1.4191669398e+02   6.3538514778e+01       0.6144    0.2200341 -80.22  0.002472556    2.801    0.643
        74 -10.8676     40.0639     52.3065   1.2643489301e+02   6.1936634944e+01    0.3209614    0.1577926 -28.18  0.001280727    2.837    0.648
        75 -10.8654     82.3807     44.8906   1.0611841208e+02   5.7346476199e+01    0.2954537     0.238758 -23.91 0.0007919349    1.163    0.140
        76  -9.8449    157.0383     44.7886   8.5469007201e+01   4.0376203990e+01    0.1964269     0.123771  58.25 0.0004651593    1.658    0.397
        77 -10.4031      9.5570     43.6860   1.3869038261e+02   6.6340709704e+01    0.2417731    0.1614222  27.68 0.0006153188    1.820    0.451
        78 -10.8102      5.3074     42.3110   1.4052503781e+02   6.6864899859e+01    0.3306873    0.1732688  89.31    0.0016079    2.209    0.547
        79 -11.5068     69.9026     41.5721   1.0959995569e+02   6.0221802256e+01    0.4330038    0.2958214 -72.54  0.001836004    2.636    0.621
        80 -10.9616     43.0037     38.5155   1.2038539526e+02   6.4748000973e+01    0.2770228    0.1794515 -47.96 0.0005926647    1.317    0.241
        81 -10.7256    119.1950     33.1452   8.9599744479e+01   5.1404699725e+01    0.3505771    0.1867356 -36.26  0.001018047    1.837    0.456
        82 -10.3927     73.1419     32.3358   1.0427370121e+02   6.1434369650e+01    0.2838103    0.1898781  70.00  0.001160585    2.961    0.662
        83 -11.1744    103.3459     30.2333   9.2775389028e+01   5.5552172983e+01    0.5254685    0.3562319  68.82  0.002236868    2.011    0.503
        84 -11.8257     43.5550     20.7353   1.1230308471e+02   6.8362625889e+01     0.551506    0.2743484  20.70  0.002239098    2.669    0.625
        85 -11.5155    222.3306    249.6723   1.1823292872e+02  -2.5935176844e-01    0.2545722    0.0730583  38.17  0.001281892    2.913    0.657
        86 -10.1936    239.6710     20.9681   6.7309389666e+01   2.3404326636e+01    0.1857891    0.1479138 -25.15 0.0005915789    1.101    0.092
        87 -10.6881     25.5929    241.8053   1.5108141566e+02   2.3299820428e+01    0.1289428   0.06788528  73.74 0.0009513461    1.749    0.428
        88  -9.8728     88.3189     17.6558   9.1559661176e+01   6.0756225255e+01    0.1435988    0.1125027 -58.01 0.0007049306    1.723    0.420
        89 -10.9317      8.3055    240.4339   1.5387871682e+02   2.4960488192e+01    0.1601779   0.07747877  27.91  0.001088134    2.086    0.521
        90 -11.5135     29.6492    233.0520   1.5006967026e+02   2.4272332243e+01    0.4026907    0.1208939  53.34  0.002277066    2.497    0.599
