#   1 NUMBER                 Running object number                                     
#   2 MAG_AUTO               Kron-like elliptical aperture magnitude                    [mag]
#   3 X_IMAGE                Object position along x                                    [pixel]
#   4 Y_IMAGE                Object position along y                                    [pixel]
#   5 X_WORLD                Barycenter position along world x axis                     [deg]
#   6 Y_WORLD                Barycenter position along world y axis                     [deg]
#   7 A_WORLD                Profile RMS along major axis (world units)                 [deg]
#   8 B_WORLD                Profile RMS along minor axis (world units)                 [deg]
#   9 THETA_WORLD            Position angle (CCW/world-x)                               [deg]
#  10 FWHM_WORLD             FWHM assuming a gaussian core                              [deg]
#  11 ELONGATION             A_IMAGE/B_IMAGE                                           
#  12 ELLIPTICITY            1 - B_IMAGE/A_IMAGE                                       
         1 -19.3649    235.2567    157.2799   1.6517630531e+01   7.8536996055e+00     5.372314     4.415533 -36.08   0.02273184    1.216    0.177
         2 -13.5981    223.9121      5.6700   3.4647758714e+02   3.0325007771e+01     1.715942    0.8939805 -73.81   0.01048157    1.719    0.418
         3 -13.3026    235.9335      3.3053   3.4549270925e+02   2.8352730889e+01     2.055866    0.5136722  65.22  0.009123717    4.609    0.783
         4 -12.3220    196.0370      5.1247   3.4773064604e+02   3.5931948885e+01    0.6939113     0.369924  56.63  0.003783373    2.381    0.580
         5 -11.2619    187.5074     10.6551   3.4960948218e+02   3.7191570344e+01    0.2958108    0.2393573  63.55 0.0007967294    1.482    0.325
         6  -9.9248    120.4491      9.4225   3.5561243087e+02   5.3208373474e+01    0.2924974    0.2528301 -37.94  0.001050481    1.255    0.203
         7 -12.5558    247.7865      3.9003   3.4517430053e+02   2.6222958412e+01     1.224425    0.7505673 -22.23  0.008099601    2.007    0.502
         8 -16.3962    205.8310    176.5985   2.4504765246e+01   8.7123161648e+00     1.106504    0.8001261  -3.46   0.00480993    1.397    0.284
         9 -10.4319    132.2429    246.2301   4.9314757795e+01   6.6098654914e+00    0.4313692    0.2512253  59.81  0.002000822    3.627    0.724
        10  -9.7137     35.4513    188.2731   6.6904210498e+01   2.9956002158e+01    0.2460784     0.124555 -70.13  0.001001765    1.998    0.499
        11 -10.8141    182.8511    233.5966   3.7719111164e+01   2.8095662941e+00    0.4004871    0.2094415  42.72  0.002130041    2.680    0.627
        12 -11.4924    177.3260    233.4427   3.8722639788e+01   3.4411676865e+00    0.3601591    0.2914489 -26.09  0.002600027    1.278    0.218
        13  -9.2726     99.9427    147.1888   4.2336760676e+01   3.1447431129e+01     0.247879    0.2125574 -57.17 0.0004114511    1.178    0.151
        14 -11.2623     68.0464    144.0087   5.1528921911e+01   3.7336362033e+01    0.7770725    0.4643421  63.46  0.002706846    2.096    0.523
        15 -12.0575    111.6621    141.4544   3.7885581622e+01   3.0778844726e+01    0.7014199    0.3505874 -52.11   0.00190538    1.988    0.497
        16  -9.0144     52.1341    143.8167   5.6777657479e+01   3.9574609742e+01    0.2199192    0.1909048  76.37  0.000520782    1.132    0.116
        17 -12.0101    119.1617    140.2947   3.5620772123e+01   2.9696248715e+01    0.5809408    0.4222373  40.58  0.002597961    1.385    0.278
        18  -9.9131    104.2309    137.2191   3.9077075960e+01   3.3119444577e+01    0.5526236    0.1932464 -50.41  0.001324587    2.787    0.641
        19  -9.9626    105.4759    129.3502   3.6999937933e+01   3.4789276302e+01    0.6095331    0.2096902 -42.80  0.001828773    3.460    0.711
        20 -12.0292    122.2322    123.5471   3.1039317699e+01   3.2943182822e+01    0.5748932    0.4312891 -70.28  0.002419254    1.561    0.360
        21 -12.3356    124.4179    133.0741   3.2667543261e+01   3.0369558127e+01    0.7825135    0.6415623 -13.82  0.003135452    1.455    0.313
        22 -10.3812    117.7490    130.9905   3.3953850865e+01   3.2103430113e+01    0.2656135    0.2239771 -49.45 0.0005930235    1.167    0.143
        23 -10.5968    115.8280    127.6136   3.3702405811e+01   3.3249781803e+01    0.2930889    0.2765046  82.76 0.0005240605    1.103    0.093
        24 -10.5675    111.8790    132.7637   3.5952688046e+01   3.2788585556e+01    0.2910441    0.2491748  39.58 0.0007801906    1.179    0.152
        25  -9.6785    184.4300    239.3855   3.8235792870e+01   1.8237360142e+00    0.1925486    0.1564645  50.56 0.0007667168    2.082    0.520
        26 -11.4922    114.2774    121.8402   3.2772106743e+01   3.4888317773e+01    0.4970599     0.399189  32.96  0.002450429    1.320    0.243
        27  -9.2173     21.8356    109.7690   6.3125329022e+01   5.2290389214e+01    0.3968081    0.1435404 -61.54  0.001317255    2.366    0.577
        28  -9.8737    105.3408    105.5651   3.1223243141e+01   4.0449045656e+01    0.4066356    0.1360557 -44.93  0.001254488    3.067    0.674
        29  -8.9095     49.0076    106.2486   5.1215443260e+01   5.0189167463e+01     0.202075    0.1938967  27.72 0.0002732642    1.090    0.083
        30 -10.1826     78.9892    104.5338   3.9445221248e+01   4.5813523450e+01    0.3674336    0.2227923 -48.36 4.184937e-05    1.650    0.394
        31 -13.0078     62.2819     83.3972   3.9940909206e+01   5.4028589444e+01     1.172413    0.9302774  14.22  0.001948076    1.472    0.321
        32 -13.2014     76.1202     94.4559   3.7773293361e+01   4.8837067701e+01     1.573992     1.339135  10.73   0.00338534    1.380    0.275
        33 -12.5315     69.6157     86.8727   3.8044912433e+01   5.1880288110e+01    0.9909087     0.673698  22.25  0.004337752    1.786    0.440
        34  -9.3453    127.5370    233.4616   4.8784062115e+01   9.2706487405e+00    0.1235919    0.1024731  15.27 4.148146e-05    1.011    0.011
        35  -9.9367    101.0994     99.9317   3.0970040737e+01   4.2618673815e+01    0.3568235    0.2245075  44.98 0.0006702042    1.603    0.376
        36  -9.7373     55.5682    232.3085   6.5144874533e+01   1.7959079072e+01    0.2063683    0.1857823  24.37 0.0002896725    1.155    0.134
        37 -11.2543    115.6223     93.1020   2.4883310514e+01   4.1059597264e+01     0.688044    0.4026075  41.45  0.002883366    1.831    0.454
        38  -9.1208    143.6730     90.3491   1.7367282494e+01   3.5449459176e+01    0.3126635     0.183291  69.40 0.0008608699    2.271    0.560
        39 -10.0887    148.6287     82.6964   1.4252826132e+01   3.5787535004e+01    0.3272121    0.2454154 -23.89  0.001347077    1.599    0.375
        40 -13.3380     41.2477     75.5712   4.7018953817e+01   5.9258829004e+01     1.049246      1.02529  -2.87  0.003705117    1.038    0.037
        41  -9.8633    139.6787     79.1739   1.5092024094e+01   3.8451761284e+01    0.2726111     0.243786  35.53 0.0006899519    1.298    0.229
        42  -9.0580    238.8306    240.8446   2.9438444719e+01  -3.6021770069e+00     0.120053   0.09315705  -8.04 0.0002450345    1.254    0.202
        43  -9.7577    244.6691     78.2109   1.5844370394e-01   1.7905982330e+01    0.2046844     0.143106  65.75 0.0009694364    1.824    0.452
        44  -9.7462      8.7096     77.5316   6.4184655381e+01   6.2059920111e+01    0.2506764    0.1163847 -72.53 0.0006358449    1.994    0.499
        45  -8.8650    110.2303     76.7867   2.1467247948e+01   4.5651087707e+01     0.204034    0.1821236  10.43 0.0007124286    1.367    0.269
        46 -11.0416    201.8025     69.2561   2.6283090213e+00   2.6748744382e+01    0.4634142    0.3213414 -64.14   0.00206625    1.420    0.296
        47 -10.1241    233.6618     61.6475   3.5773929374e+02   2.1948713090e+01    0.2301354    0.1727935 -39.70  0.000308523    1.152    0.132
        48 -10.7104    225.5030     69.3050   1.1183320584e-01   2.2332234781e+01    0.2314579    0.1985936  81.26 0.0006051015    1.362    0.266
        49  -8.1709    243.4074     69.4517   3.5850894541e+02   1.9283235358e+01    0.1171289   0.08665913 -45.37 0.0001513978    1.014    0.014
        50 -11.0222    149.5518    227.9911   4.3428036336e+01   7.5166918848e+00    0.2695817    0.2234281  43.93   0.00128477    1.482    0.325
        51  -9.6198    118.2314    229.1873   5.0301068421e+01   1.1157831947e+01    0.1672165    0.1334392  43.71 0.0005609409    1.318    0.241
        52 -10.6726    235.4190     67.7587   3.5886046111e+02   2.0831610795e+01    0.4375763    0.2368215 -43.82  0.002573282    1.394    0.283
        53  -8.7869    173.2775     65.3176   5.3515962687e+00   3.3259833633e+01    0.1254064    0.1085249   5.63 0.0002272844    1.573    0.364
        54  -9.0663    221.0596     64.0993   3.5941216147e+02   2.3848554796e+01     0.164951    0.1516841 -27.09 0.0004952427    1.312    0.238
        55  -9.2810    211.9562     64.1433   3.3155683339e-01   2.5531395121e+01    0.1820472    0.1742269  81.88 0.0004555539    1.279    0.218
        56 -11.1787    164.3438     62.3391   5.8781701162e+00   3.5706834695e+01    0.3263237      0.30013 -23.43  0.000790674    1.276    0.216
        57  -9.9015    128.3891    240.5052   4.9451102718e+01   7.9846354769e+00    0.2372384    0.1719036 -15.44    0.0010541    1.486    0.327
        58  -9.1308    208.1430     60.1180   3.5980481687e+02   2.6826267060e+01    0.1736687    0.1519637 -43.80 0.0002851992    1.161    0.139
        59 -11.5989    156.5333    219.6555   4.0827578781e+01   8.0336655590e+00    0.4260317    0.2618372 -24.73  0.002384934    1.736    0.424
        60 -12.7259      3.5062     56.6811   6.3133351020e+01   6.7739356353e+01    0.7429336    0.4026781  14.41  0.003593242    1.936    0.484
        61  -9.1828    224.9866     58.4436   3.5781548186e+02   2.3904917018e+01    0.1777575    0.1317578 -46.07 0.0003542446    1.066    0.062
        62  -9.3142    138.8906    218.2686   4.4338191410e+01   1.0499816149e+01    0.2738189    0.1606159 -38.44  0.001472823    1.804    0.446
        63  -9.3223    158.0047     59.5085   6.0778278503e+00   3.7591804117e+01    0.2013029     0.134664  64.80 0.0005488775    1.535    0.349
        64  -8.7986    143.9632    216.6620   4.3022067821e+01   1.0131502299e+01    0.1746987    0.1388816  19.44 0.0004093394    1.106    0.096
        65 -10.1423    244.5442     56.2249   3.5574736276e+02   2.0816245027e+01    0.1908047    0.1602611 -67.91 0.0004829579    1.221    0.181
        66  -9.4595    196.0237     56.1226   1.5009919628e-01   2.9800718755e+01    0.2237661    0.1658654 -40.21 0.0006068913    1.217    0.178
        67  -9.8764    151.6370    207.8998   4.0101746620e+01   1.0671048631e+01    0.2305516    0.1613571  14.39  0.001328789    1.360    0.265
        68 -10.5272    187.7605     54.8891   7.8194453406e-01   3.1694729506e+01    0.3006645     0.222982  52.96 0.0008824859    1.622    0.383
        69 -11.7494    179.8272     52.2423   1.0527456956e+00   3.3775458697e+01     0.355305    0.2652313  47.56  0.001061484    1.676    0.403
        70  -9.8363    248.2572     51.6246   3.5455509278e+02   2.0783578252e+01    0.1782235    0.1428086 -54.55 0.0004217271    1.115    0.103
        71 -10.4344    236.5498     50.9725   3.5527768668e+02   2.2833875171e+01    0.2057789    0.1632943  85.05 0.0006336192    1.439    0.305
        72 -10.6604    227.6245     49.2892   3.5561741581e+02   2.4625801441e+01    0.4750695     0.221859 -44.65  0.002604185    1.607    0.378
        73 -10.0134    139.3088    203.9431   4.2166302150e+01   1.3046868939e+01    0.2987308    0.2196713 -68.11  0.001483614    1.904    0.475
        74  -9.9365    174.9520     42.8636   3.5915687761e+02   3.6151497938e+01    0.2380025    0.1849133 -87.91 0.0003618067    1.243    0.195
        75 -11.0587     22.3459     43.2891   4.6737733039e+01   6.9304501135e+01    0.3094625    0.1925516  19.36  0.001541863    1.659    0.397
        76 -10.6536     56.0177    204.0019   6.2687102572e+01   2.3971157537e+01    0.2108976    0.1839126  45.77 0.0005487194    1.002    0.002
        77 -11.7213    214.1144     32.8607   3.5303370523e+02   2.9206173802e+01    0.6905363    0.2846309  85.52  0.003204471    2.993    0.666
        78 -10.4887    222.4902     40.4820   3.5410559942e+02   2.6677980861e+01    0.2449997    0.1803943 -37.05 0.0009662327    1.270    0.213
        79 -11.6057    219.8088     38.1794   3.5380046074e+02   2.7466110616e+01     0.522844    0.3229208 -22.09  0.002048741    1.993    0.498
        80 -10.5609    193.0469     38.7471   3.5619113897e+02   3.2753800292e+01    0.3804259    0.2449124 -69.66  0.001831186    1.477    0.323
        81 -10.5245    197.3223     38.3346   3.5569360983e+02   3.1911251749e+01    0.3737636     0.222083  48.88  0.001971334    2.296    0.564
        82  -9.1574    170.1670     38.1323   3.5842942068e+02   3.7860189697e+01    0.1799448    0.1714341 -73.35 0.0003279876    1.185    0.156
        83  -9.7281    156.9025     35.9797   3.5944267636e+02   4.1223687872e+01     0.305099    0.2309528  41.43  0.001426943    1.705    0.413
        84 -10.1480    208.0908     34.4763   3.5386387579e+02   3.0198245998e+01    0.2454565    0.1715365  64.74   0.00153145    1.665    0.399
        85 -10.8297    177.3778     30.8781   3.5569015160e+02   3.7148169336e+01    0.5215599     0.201979  64.78  0.001481603    2.552    0.608
        86 -10.7971    184.6948     26.9500   3.5397680475e+02   3.6001258415e+01    0.4420654    0.2922944 -80.80   0.00157605    1.432    0.302
        87 -10.3585    178.7867     23.6880   3.5364931129e+02   3.7687985074e+01    0.3745309    0.3040804 -85.20  0.002395711    1.146    0.127
        88 -10.5438    202.5243     30.7607   3.5343122835e+02   3.1772475299e+01    0.4533429     0.145127  58.54  0.001901914    3.576    0.720
        89 -12.1805    210.2371     26.4997   3.5186238074e+02   3.0720110284e+01     0.536163    0.2536171 -63.23  0.002606361    1.988    0.497
        90 -11.1615    233.1604     25.6678   3.5022710660e+02   2.6473427252e+01    0.2375919    0.1825355  89.51 0.0008178517    1.394    0.283
        91 -16.3710    192.9448    193.2467   2.9635592459e+01   7.7370401999e+00      3.12754     2.390375  86.63   0.01581109    3.412    0.707
        92  -8.6398      1.4201    203.0613   7.6870038410e+01   2.9490965897e+01    0.1690737    0.1112596  87.88 6.994409e-05    1.452    0.311
        93 -11.8360    202.9188     18.0338   3.5038899844e+02   3.3154002735e+01    0.3461572    0.2083859 -56.09   0.00155147    1.325    0.245
        94 -10.1678    190.1247     15.6465   3.5068091650e+02   3.6100052468e+01    0.2267097    0.1334115 -47.06 0.0008983395    1.386    0.278
        95 -10.9403    102.5573    194.8873   4.9540868651e+01   1.9997883284e+01    0.5708531    0.2639952 -48.14   0.00245231    2.312    0.568
        96 -10.6099     97.9815    192.5278   5.0374389730e+01   2.1153128057e+01    0.4956802     0.265668 -64.13  0.002226945    2.157    0.536
        97  -9.1214     78.2259    191.8345   5.5469110389e+01   2.4008199084e+01    0.2590715    0.1832263 -41.25  0.001325061    1.631    0.387
