#   1 NUMBER                 Running object number                                     
#   2 MAG_AUTO               Kron-like elliptical aperture magnitude                    [mag]
#   3 X_IMAGE                Object position along x                                    [pixel]
#   4 Y_IMAGE                Object position along y                                    [pixel]
#   5 X_WORLD                Barycenter position along world x axis                     [deg]
#   6 Y_WORLD                Barycenter position along world y axis                     [deg]
#   7 A_WORLD                Profile RMS along major axis (world units)                 [deg]
#   8 B_WORLD                Profile RMS along minor axis (world units)                 [deg]
#   9 THETA_WORLD            Position angle (CCW/world-x)                               [deg]
#  10 FWHM_WORLD             FWHM assuming a gaussian core                              [deg]
#  11 ELONGATION             A_IMAGE/B_IMAGE                                           
#  12 ELLIPTICITY            1 - B_IMAGE/A_IMAGE                                       
         1 -15.4733    243.2375    139.3816   5.2700510354e+01   6.2006670661e+00     7.242085     1.305388 -40.98   0.02135322    4.626    0.784
         2 -12.6379     81.6214     12.4964   4.9901055816e+01   6.0844639745e+01     0.376821     0.292035  28.55  0.002396183    1.206    0.171
         3 -12.6107     75.0476     19.9821   5.4843449461e+01   6.1429314386e+01    0.4309387     0.321729  70.67  0.002493633    1.748    0.428
         4 -12.7562     97.7102     14.6299   4.6603427897e+01   5.7201075239e+01    0.5265187    0.2867661 -27.93  0.002765369    2.087    0.521
         5 -11.6632     84.8845     21.2920   5.2424752816e+01   5.9283884841e+01     0.280542    0.2166967  84.36   0.00107717    1.790    0.441
         6 -11.4396     87.1412     13.6717   4.8872117954e+01   5.9575544568e+01    0.1985625    0.1757942 -35.40  0.001186506    1.348    0.258
         7 -10.4377     70.4158      6.2237   5.0560601460e+01   6.3685355306e+01    0.1547408    0.1104816 -33.10 0.0009569601    1.684    0.406
         8 -11.4472    162.9414    225.8292   8.4545295410e+01   3.0433922193e+00    0.5063331    0.3299057  22.80   0.00261785    1.495    0.331
         9 -10.8449    123.4383    224.8020   9.3262287115e+01   9.4349097186e+00    0.3014851    0.2448121 -74.34 0.0009807652    1.468    0.319
        10 -11.1644    126.0282    220.6230   9.2042455250e+01   9.8972106455e+00    0.3321173    0.2629851  48.85  0.000783831    1.261    0.207
        11 -10.1091    116.5272    227.4852   9.5239333216e+01   9.9519402929e+00    0.1369591     0.124245  36.98 6.528647e-05    1.004    0.004
        12  -9.9963    191.7261    226.0321   7.8531456140e+01  -1.3075031598e+00    0.1869459    0.1522315 -18.74 0.0006020946    1.139    0.122
        13 -10.3820     88.5481    224.3944   1.0133768884e+02   1.4825479653e+01    0.4074002    0.1332087 -62.06  0.001490725    3.282    0.695
        14 -10.6619    108.4800    222.9822   9.6483332396e+01   1.2143018175e+01    0.3297136    0.2248431 -28.86  0.001402793    1.973    0.493
        15  -9.7811    148.6115    221.4483   8.7001875769e+01   6.1326365007e+00    0.3794149    0.1331466 -50.49  0.001409276    3.064    0.674
        16 -10.3920    114.5623    221.6140   9.4865657283e+01   1.1493462557e+01    0.2883901    0.2008431 -54.10  0.001074583    1.551    0.355
        17  -9.8009    171.0860    225.7820   8.2784327091e+01   1.8037239113e+00    0.2062409    0.1818769 -27.71 0.0003689417    1.173    0.147
        18  -8.9218     59.3215    222.6566   1.0793895906e+02   1.9246296263e+01    0.1449586   0.08629859  63.84 0.0007050151    1.728    0.421
        19 -10.9314    127.9295    226.1766   9.2431289038e+01   8.4493682387e+00    0.3079457    0.2201625 -37.32  0.001356618    1.581    0.367
        20  -9.5714     83.6674    218.1331   1.0171525320e+02   1.6930371937e+01    0.3372908    0.1516795 -55.20  0.001438362    2.317    0.568
        21  -8.7150     75.6762    219.6824   1.0379756679e+02   1.7716690616e+01    0.1312303      0.10586 -22.93 0.0004256963    1.670    0.401
        22  -9.7998    143.8649    216.8705   8.7336842832e+01   7.8124901719e+00    0.2771226    0.1830339 -43.76  0.001340897    1.597    0.374
        23 -10.1901    118.5806    216.7601   9.3208777498e+01   1.1902465623e+01    0.3269022    0.1425006 -58.99  0.001290842    2.614    0.617
        24  -9.7378    152.6814    215.8129   8.5161644040e+01   6.6020129864e+00     0.301613    0.2052391   5.14   0.00142236    1.834    0.455
        25 -10.0169    131.3270    214.7441   8.9896609645e+01   1.0285075999e+01    0.3069908    0.1645185 -47.96  0.001164417    1.972    0.493
        26  -9.5572    185.7602    214.2281   7.7712859385e+01   1.6752138543e+00    0.1977462    0.1761346 -61.80  0.001065414    1.481    0.325
        27  -9.8697     77.6325    211.1259   1.0229479403e+02   1.9406730143e+01    0.3373326    0.2281541  28.57  0.001711536    1.540    0.351
        28  -8.9523    193.3151    210.6541   7.5522729811e+01   1.1720774370e+00    0.1240745    0.1102962  83.74 0.0007047698    1.718    0.418
        29  -9.0577    176.9960    210.5019   7.8899319207e+01   3.7378083812e+00    0.1810905    0.1151069  55.78 0.0007200398    2.348    0.574
        30 -10.3134    236.7590    230.6876   7.0793779476e+01  -8.0131184372e+00    0.3156643    0.2014259 -17.46  0.001173313    1.377    0.274
        31 -11.5078    212.2564    207.4370   7.1205733458e+01  -1.0683291807e+00    0.3488669    0.2293524  -3.92  0.001831944    1.721    0.419
        32 -10.0575    124.0300    206.0065   9.0229554162e+01   1.3372487976e+01    0.2048849    0.1916709  43.98  0.001167763    1.046    0.044
        33 -10.8800    198.6151    204.6128   7.3355145047e+01   1.4595738975e+00    0.2575418    0.2090682 -53.34  0.001121811    1.511    0.338
        34 -10.9057    185.8023    204.0351   7.5869671499e+01   3.5661045597e+00    0.3507876    0.2150718 -45.49   0.00133085    1.662    0.398
        35 -11.2992    211.7492    202.3319   7.0366707636e+01  -1.0549598366e-01    0.2801178    0.2360347 -78.54  0.001097899    1.964    0.491
        36 -11.4545    164.7589    200.7557   7.9815437463e+01   7.6541081028e+00     0.614207    0.2765909 -44.77  0.002506176    2.225    0.551
        37  -9.9321    165.9492    249.0385   8.7505170012e+01  -1.5153990812e+00    0.2093383    0.1408004  -0.99  0.001134746    1.708    0.414
        38 -10.9734    215.3943    194.0329   6.8127310314e+01   8.1920490510e-01    0.2672931    0.1925536 -53.29  0.001055914    1.696    0.410
        39  -9.3696    148.9878    198.6640   8.3034920315e+01   1.0765332419e+01    0.2866101    0.1920443 -82.86   0.00115768    2.755    0.637
        40 -13.7087    228.8473    185.4714   6.4060697245e+01   3.3149946709e-01    0.9850203    0.7461222 -45.03  0.005843927    1.362    0.266
        41 -10.0724    162.0763    192.6561   7.8916311143e+01   9.7835086754e+00    0.4276385    0.2118522 -48.06  0.001775427    2.046    0.511
        42 -12.7002    211.1510    183.0081   6.6811276021e+01   3.4707138153e+00    0.9931288    0.3465012 -37.02  0.003681454    2.820    0.645
        43 -10.8626    197.3051    182.6218   6.9430255362e+01   5.7936499569e+00    0.4018213    0.2593133 -57.57  0.001886198    1.986    0.496
        44 -13.4237    204.0704    186.6281   6.8876068472e+01   3.9267929435e+00     1.010398    0.6168182 -46.62  0.005007586    1.643    0.391
        45 -12.6957    206.0579    160.5425   6.3256590145e+01   8.5735220359e+00     1.025871    0.6637424  -5.72  0.004479613    2.395    0.582
        46 -12.2233    206.2842    152.6348   6.1562601204e+01   1.0064505788e+01    0.6838963     0.488597  12.18  0.003364739    1.870    0.465
        47 -11.4329    207.3080    145.0999   5.9777155241e+01   1.1337356454e+01    0.6335024    0.3009413 -27.03  0.002232407    3.209    0.688
        48 -13.6739    218.8859    159.9093   6.0786394901e+01   6.5014043544e+00      1.44436    0.5835463 -44.21  0.005921664    2.217    0.549
        49 -10.8515    179.1063    190.9041   7.4823454018e+01   7.2236375664e+00    0.3855883     0.197485 -42.13  0.001372179    1.894    0.472
        50  -9.9407    139.0325    187.7859   8.3413305574e+01   1.4886245473e+01    0.5634763    0.2156171 -44.94  0.001975089    2.703    0.630
        51 -10.4607    217.5509    187.1974   6.6425429773e+01   1.7137424778e+00    0.2490558    0.1184865 -44.41  0.001060032    1.986    0.497
        52  -9.7782    192.3934    187.3150   7.1343461573e+01   5.7020405543e+00    0.2492015    0.1700112 -48.46  0.001106627    1.525    0.344
        53  -9.1007    129.3573    188.2113   8.5866894827e+01   1.6491720997e+01    0.2093629    0.1423706 -64.81 0.0005626338    1.709    0.415
        54 -10.3402    165.1973    185.6218   7.6863251665e+01   1.0717685961e+01    0.4463162    0.2598925 -54.61  0.001588634    1.934    0.483
        55  -9.3497    155.5876    186.3413   7.9203361018e+01   1.2266635262e+01    0.2812448    0.1439285 -53.42  0.001126575    2.130    0.530
        56 -10.8318    183.0697    182.5879   7.2356359331e+01   8.2164047791e+00    0.4754937     0.213505 -48.31  0.001889394    2.267    0.559
        57 -11.5553    174.2462    182.4658   7.4232307289e+01   9.7812402759e+00    0.4817262    0.3005543 -44.17  0.001575206    1.561    0.359
        58 -10.8067    185.9113    192.7090   7.3726004473e+01   5.7269579074e+00    0.4396825    0.1880091 -46.41  0.001764067    2.329    0.571
        59  -9.0726     92.5340    182.9088   9.4434303645e+01   2.3971198474e+01    0.2245325    0.1430318 -57.59    0.0010157    1.562    0.360
        60 -10.1917     13.0209    185.9988   1.1557564238e+02   3.3110434904e+01    0.2183236    0.1269806  65.03  0.001127766    1.668    0.400
        61 -10.4863    147.5821    179.7885   7.9820354436e+01   1.5149674703e+01    0.3384967    0.2761129 -69.23  0.001084517    1.446    0.309
        62 -10.4893    148.7227    175.4167   7.8680326305e+01   1.5921971283e+01    0.3542344    0.2976582 -10.95  0.001315816    1.313    0.238
        63  -9.8516    138.0332    178.1739   8.1828006386e+01   1.7254065530e+01     0.476877    0.2061402 -45.05  0.001744513    2.352    0.575
        64 -10.2260     14.1354    178.3522   1.1464592986e+02   3.4900791174e+01    0.2531568    0.1985008 -65.94 0.0009263867    1.226    0.185
        65 -11.3038    192.3182    175.7628   6.9069858882e+01   7.9811030947e+00    0.6476874    0.2231834 -38.07  0.002215069    3.017    0.668
        66 -10.9459    218.5313    175.8085   6.4032391313e+01   3.6245765346e+00    0.3240031    0.1194013 -44.03  0.001273013    2.477    0.596
        67 -11.0016    183.2243    174.7728   7.0756363893e+01   9.7745437520e+00    0.5464293    0.2234752 -37.80  0.002006987    2.540    0.606
        68 -10.0480    170.6179    176.7361   7.3886946980e+01   1.1626479836e+01     0.260111    0.1861013 -53.38 0.0008111958    1.494    0.330
        69 -12.7670    206.2986    169.2391   6.4993714543e+01   6.8579541643e+00    0.7349218    0.5868917  64.28  0.003675682    1.724    0.420
        70  -9.5049      4.6416    175.3339   1.1679113069e+02   3.6432253107e+01    0.1412749   0.07792147  63.76 0.0002346043    1.803    0.445
        71  -9.3342    173.5694    173.7222   7.2622839393e+01   1.1727130036e+01    0.1994749    0.1392044 -53.74 0.0007709038    1.540    0.351
        72 -11.1528    177.1228    169.9631   7.1075276009e+01   1.1868042191e+01    0.4958236    0.2890942 -40.27  0.001506592    1.650    0.394
        73 -10.2145    199.1873    169.4543   6.6413615528e+01   8.0347970782e+00    0.2686414    0.1852106 -39.36 0.0007742994    1.329    0.247
        74 -10.0980    167.9126    167.6972   7.2634874264e+01   1.4052252563e+01    0.4855339    0.2026599 -47.98  0.001777889    2.367    0.578
        75 -10.1644    149.7630    167.7992   7.6877572224e+01   1.7446604301e+01     0.393824    0.1759242 -43.07  0.001445149    2.259    0.557
        76 -11.4477    192.2300    163.4618   6.6561367970e+01   1.0454912728e+01    0.6963166    0.2241431 -44.31  0.002368182    2.894    0.654
        77 -10.3877    185.0320    166.0856   6.8587405152e+01   1.1227391379e+01    0.3415436    0.2325292 -43.88  0.001123491    1.392    0.282
        78  -9.7836    138.8829    162.6587   7.8475850340e+01   2.0695267463e+01    0.6991779    0.2197054 -50.06  0.002142458    3.164    0.684
        79  -9.7346    159.5060    163.0225   7.3570283628e+01   1.6662905571e+01    0.4418144    0.2472607 -51.86  0.001823207    1.844    0.458
        80 -10.3711      9.8864    161.5312   1.1421109898e+02   3.9474008908e+01    0.3882437    0.1710627  61.15  0.001622321    2.704    0.630
        81 -10.4404    177.5992    158.4217   6.8539402043e+01   1.4203721949e+01    0.5978452    0.2611344 -43.78  0.002276444    2.171    0.539
        82 -10.3241    151.6598    160.2641   7.4833008462e+01   1.8789550519e+01    0.4043448    0.2903045 -69.99  0.001239945    1.806    0.446
        83 -10.4259    188.1769    156.4548   6.5902264218e+01   1.2620073658e+01     0.374253    0.1956343 -38.75  0.001161649    1.835    0.455
        84 -11.5754    196.5647    156.4849   6.4230720416e+01   1.1065611781e+01    0.5900369    0.3170413 -51.01  0.002532796    1.934    0.483
        85 -11.7433    200.0632    147.6698   6.1673961998e+01   1.2170754646e+01    0.7409775    0.3548947 -40.48  0.003024618    1.918    0.479
        86  -9.9089    192.4554    135.8273   6.0535960748e+01   1.5981646954e+01    0.4447507    0.1660894 -35.61  0.001461732    3.101    0.677
        87 -11.6513    189.9419    147.0240   6.3505275116e+01   1.4209419262e+01     1.038562    0.3572398 -38.55  0.003436477    3.003    0.667
        88 -10.5492    195.8978    142.7616   6.1405341603e+01   1.3928983812e+01    0.4320931    0.3453428  -4.73  0.001471181    1.521    0.343
        89  -9.1908    144.0714    159.4820   7.6511033386e+01   2.0436021837e+01     0.235072    0.1520799  41.06  0.001021588    1.566    0.362
        90  -9.2609    157.5548    154.7690   7.2244083401e+01   1.8875010418e+01    0.3088888     0.143968 -42.96  0.001150514    2.111    0.526
        91 -10.0875    167.6585    155.3439   7.0054439017e+01   1.6772648391e+01    0.5580844    0.2495273 -40.46  0.002069033    2.242    0.554
        92  -9.6309    182.2012    149.4461   6.5615740703e+01   1.5201488993e+01    0.3015622    0.1943107 -41.82  0.001390252    1.457    0.314
        93 -10.4723    215.1974    147.2541   5.8824076655e+01   9.5082422169e+00    0.3717419    0.1613285 -45.46  0.001533253    2.086    0.521
        94  -9.5160     40.6717    148.7027   1.0377502995e+02   3.9915747364e+01    0.4188414     0.146012  51.02  0.001293392    4.218    0.763
        95 -12.1273    213.1876    163.0794   6.2455570791e+01   6.8642892180e+00    0.8883708     0.356428 -38.81  0.003545806    2.283    0.562
        96  -9.2577     59.4971    147.7652   9.7891097266e+01   3.7879187704e+01    0.3174378   0.07164414  40.53 0.0008897352    4.337    0.769
        97  -9.9391     14.0551    146.8158   1.1148555305e+02   4.2893825258e+01    0.2294605     0.145569  37.29  0.001112445    1.715    0.417
        98  -9.5438    148.6769    144.5245   7.2070372404e+01   2.2953590708e+01     0.449715    0.2700239 -74.08  0.001514798    3.190    0.687
        99  -9.1700    175.4898    144.9863   6.6044729430e+01   1.7452941696e+01    0.2419165    0.1421136 -43.62  0.001039346    1.611    0.379
       100  -9.3569    165.5587    142.4746   6.7654923992e+01   1.9984153984e+01    0.4316402    0.1410026 -41.36  0.001331498    3.115    0.679
       101  -9.7816    182.0632    140.1452   6.3576842291e+01   1.7159156818e+01    0.4286462    0.1964066 -41.74  0.001659385    2.065    0.516
       102  -9.9490      2.9864    142.0307   1.1420921012e+02   4.4896597891e+01    0.2160031    0.1341554  68.56  0.001134021    1.730    0.422
       103  -9.4619    203.4573    140.4959   5.9490993213e+01   1.2944194733e+01    0.2491679     0.126413 -33.46 0.0006653955    2.085    0.520
       104  -9.9793    205.5848    136.2148   5.8175021089e+01   1.3373933542e+01    0.2757173    0.1318499 -37.28  0.001132601    2.008    0.502
       105 -11.0578    221.1477    128.2178   5.3807708946e+01   1.1987035097e+01    0.3664891    0.1990059 -29.83  0.001615877    2.096    0.523
       106 -11.4194    219.8318    135.2923   5.5518711472e+01   1.0921082999e+01    0.5496669    0.2539979 -27.84  0.001987503    3.205    0.688
       107 -10.2370     24.4807    139.1068   1.0735638271e+02   4.4010313946e+01    0.4259404    0.2102555  56.24  0.001680427    2.585    0.613
       108  -9.3410    148.6354    138.1976   7.0618177222e+01   2.4394200306e+01     0.344012    0.1890515 -25.75  0.001151875    2.981    0.665
       109 -11.5480    205.1651    176.5194   6.6675056778e+01   5.6575236287e+00    0.5361531     0.411807 -29.11  0.002003365    1.190    0.159
       110 -10.4666    197.7232    135.4256   5.9444730223e+01   1.5032765835e+01    0.6400841    0.2403479 -40.33  0.002285034    2.499    0.600
       111  -9.0353    171.8271    136.4733   6.4898358994e+01   1.9994720280e+01    0.3147979    0.1078697 -46.74  0.001014852    2.827    0.646
       112  -9.3344     39.7585    136.6057   1.0216024561e+02   4.3163359919e+01    0.1992016    0.1242639  40.91  0.000949414    1.727    0.421
       113  -9.9185    215.1853    134.8295   5.6199460908e+01   1.1851002183e+01    0.1936821     0.153433 -22.98 0.0006173527    1.343    0.255
       114  -9.5418    187.5891    134.2838   6.1139758552e+01   1.7257052406e+01    0.3627551    0.1353409 -41.24  0.001272319    2.536    0.606
       115  -9.5758    179.5312    132.1088   6.2268143808e+01   1.9331107398e+01    0.3791346    0.1406827 -41.43  0.001300684    2.590    0.614
       116  -9.0511     83.7215    132.1462   8.7288507530e+01   3.8297811816e+01    0.2608241    0.1621756  72.79 0.0009466728    2.751    0.636
       117 -10.1678     13.6152    130.2152   1.0956548005e+02   4.7164938153e+01    0.3598718    0.1931288  57.84  0.001648763    2.321    0.569
       118 -10.1148    204.5545    129.2826   5.6841888266e+01   1.4905834193e+01    0.2852139    0.1253565 -45.71  0.001139304    2.072    0.517
       119  -9.6989    192.8197    128.8470   5.8897438518e+01   1.7299661728e+01    0.3761569     0.187103 -33.24  0.001470943    2.256    0.557
       120  -8.8058    186.4820    128.4634   6.0032886427e+01   1.8655707771e+01    0.1475853    0.1375697 -41.46 0.0001784395    1.023    0.023
       121  -9.0774    168.2399    127.5244   6.3582147583e+01   2.2631058896e+01    0.3399634     0.116048 -34.80 0.0008956238    4.464    0.776
       122 -10.6933     46.0672    124.8431   9.8002564868e+01   4.5490775972e+01    0.7053364    0.3128811  53.05   0.00243748    3.485    0.713
       123  -9.8326     61.1922    126.0349   9.3198672300e+01   4.3268183568e+01    0.4124483    0.2102038  61.48  0.001345279    3.713    0.731
       124 -10.8931     29.7308    123.5248   1.0326690350e+02   4.7535968458e+01    0.6720835    0.3386843  73.34   0.00234723    3.787    0.736
       125  -9.7661    180.0464    122.5501   5.9938558375e+01   2.1178054115e+01    0.4423784     0.237072 -28.30  0.001658182    2.535    0.605
       126  -9.1931    188.5366    122.7364   5.8317137801e+01   1.9379110608e+01    0.2882117    0.1369466 -39.18  0.001138607    2.034    0.508
       127  -9.1958    202.6200    121.1836   5.5384610316e+01   1.6834004418e+01    0.2106498    0.1260126 -33.77 0.0009513174    1.713    0.416
       128  -8.9839    142.4540    120.2631   6.7789249502e+01   2.9698559962e+01    0.2294745    0.1462277 -57.83  0.000948226    1.748    0.428
       129  -9.9530      3.5397    117.8498   1.1120924018e+02   5.0933336105e+01    0.3794719    0.1925472  78.76  0.001651195    2.635    0.620
       130  -9.2150    211.9491    128.2393   5.5331062000e+01   1.3691377953e+01    0.2620883    0.1645936 -32.06  0.001254191    1.626    0.385
       131  -9.0649    192.6761    114.4897   5.5637151012e+01   2.0133634109e+01    0.2718235    0.1256389 -41.78  0.001086725    2.003    0.501
       132  -9.0170    185.6424    114.1871   5.6875011773e+01   2.1664058738e+01    0.2172699    0.1320181 -34.26 0.0009516637    1.726    0.421
       133  -9.5136     80.9861    114.3435   8.3989873031e+01   4.3161125084e+01    0.3941945     0.164116  53.12  0.001128806    4.276    0.766
       134  -9.1866     93.2458    113.1237   7.9755606036e+01   4.1302941251e+01    0.3002057    0.1989001  64.15  0.001041259    2.133    0.531
       135 -10.4095     14.6351    110.5711   1.0632681506e+02   5.2030415069e+01    0.3831492    0.2572441  73.97  0.001773114    1.862    0.463
       136 -11.2008     23.5955    103.0187   1.0173103179e+02   5.3198679807e+01    0.7166004    0.3946691  67.17  0.002896019    3.183    0.686
       137 -13.7690    224.7401    148.7898   5.7508420883e+01   7.5725924464e+00     1.780327    0.5152988 -45.39  0.006162145    3.148    0.682
       138  -9.2590    108.5525     98.6836   7.1204247437e+01   4.1599887891e+01       0.2559    0.1865222  65.28 0.0009680826    1.721    0.419
       139 -10.8369     66.8313     97.6507   8.4521936667e+01   4.9382481200e+01    0.8326439    0.3167347  43.20  0.002920693    3.008    0.668
       140 -11.4079     47.5478    104.0341   9.3095463561e+01   5.0508660452e+01    0.8739631     0.434859  57.90  0.002933352    4.051    0.753
       141 -10.1764     57.9431     92.0802   8.6257498195e+01   5.1964945269e+01    0.2158991    0.1975115 -28.42  0.000401899    1.002    0.002
       142 -10.7704     35.6147     90.6310   9.4437973213e+01   5.5033349569e+01    0.3827189    0.2692902 -86.48  0.001530372    1.991    0.498
       143  -9.1623      5.0167     92.0124   1.0673906764e+02   5.7130371444e+01    0.1975971    0.1441011  65.72  0.001129758    1.763    0.433
       144 -10.0328     91.4826     89.3226   7.3770390385e+01   4.6981643708e+01     0.621937     0.243362  33.15  0.002042738    3.135    0.681
       145  -9.5420     86.7519     87.1362   7.4669965930e+01   4.8332066457e+01    0.2435945    0.1676573  83.28 0.0009467073    2.840    0.648
       146 -11.3433     50.5988     86.0820   8.7407615277e+01   5.4314834354e+01    0.6491141    0.3547912  54.64   0.00254564    3.095    0.677
       147 -10.3895     76.3888     82.0730   7.6681087845e+01   5.1251610364e+01    0.3019951    0.1886582  52.98  0.001333402    2.012    0.503
       148 -10.4265     24.9009     81.0396   9.6424141294e+01   5.8258700579e+01    0.3746471    0.2688881  74.04  0.001531481    2.146    0.534
       149 -10.2674    130.7419    201.1948   8.7810332057e+01   1.3319139546e+01     0.379604    0.2134728 -32.48  0.001536516    2.357    0.576
       150  -8.8809      8.7713     80.6558   1.0304869534e+02   5.9547353471e+01    0.1619893    0.1119242  25.67 0.0007625636    1.668    0.401
       151  -8.6626    139.6057    199.3002   8.5358463312e+01   1.2231697234e+01    0.1525632    0.1114309  65.08 8.510095e-05    1.807    0.447
       152  -9.5745    203.2539    197.5966   7.1130651844e+01   2.0250426474e+00    0.2374447    0.1599721 -49.77 0.0007762411    1.655    0.396
       153 -11.1378     85.0200     74.3610   7.1317074415e+01   5.1239304669e+01    0.7192537     0.317153  50.17   0.00267268    2.697    0.629
       154  -9.7784     43.1871     73.1703   8.6676787542e+01   5.8055888903e+01    0.1731864    0.1655698  86.32 0.0005794938    1.341    0.254
       155 -10.8452    177.3774    197.2337   7.6395828169e+01   6.2531125048e+00    0.3269424    0.2229058 -40.63  0.001236782    1.436    0.304
       156 -11.9097    172.6461    195.5749   7.7111679390e+01   7.3767633775e+00    0.4220323    0.3996837 -10.82  0.001318928    1.066    0.062
       157 -11.8581     53.4108     71.1426   8.1901672903e+01   5.7125182017e+01    0.5275819    0.3462076  48.42  0.002601495    1.940    0.485
       158 -11.0575    172.9801    191.0300   7.6176516979e+01   8.2416434618e+00    0.3655726    0.2915554  83.91  0.001367106    1.939    0.484
       159  -9.3095     16.6966     70.2229   9.7225045062e+01   6.1322917894e+01     0.187303    0.1563666 -75.53 0.0006844592    1.445    0.308
       160 -10.5732     38.0383     64.8489   8.6309518310e+01   6.0388332155e+01    0.2774674    0.2143687  43.48  0.001115802    1.609    0.379
       161 -10.2900    125.6782    196.6057   8.8258542461e+01   1.5206282400e+01    0.3973404    0.3386464  44.09  0.001599022    1.150    0.130
       162 -11.8537     74.4081     60.6513   7.0441142315e+01   5.5738243639e+01    0.4829767    0.3469422  47.51  0.001885026    1.496    0.331
       163 -10.1052    103.7342     62.4355   6.1621242528e+01   4.9614584513e+01    0.2854852    0.1358344  52.73  0.001148695    2.133    0.531
       164  -9.3843     25.1915     59.2088   9.0280319277e+01   6.2891231854e+01     0.159133    0.1554607 -84.63 0.0006124643    1.372    0.271
       165 -11.4722     55.2128     55.0809   7.5789910042e+01   5.9927978790e+01    0.4627959    0.3286167 -70.88  0.002207974    2.602    0.616
       166 -10.5370     44.6107     56.1100   8.0582976678e+01   6.1259434134e+01    0.2669442    0.2289508 -77.21   0.00104424    1.755    0.430
       167  -9.1619      7.3819     57.2102   9.8068113587e+01   6.4718753983e+01    0.1668285    0.1092668 -68.46 0.0009455093    1.758    0.431
       168 -11.7227     64.5313     55.5396   7.2289748112e+01   5.8353440250e+01    0.4662971    0.2829073  41.65  0.002221289    1.667    0.400
       169 -11.9352     96.2295     52.0369   6.0332371364e+01   5.2884804833e+01    0.7246152    0.3189619  53.28  0.002921075    2.315    0.568
       170  -9.9551     31.3093     51.7077   8.5000335995e+01   6.3709863076e+01     0.234734    0.2128775  75.36 0.0009616186    1.680    0.405
       171  -8.7088     20.3479     52.6833   9.0500421539e+01   6.4628306845e+01    0.1138492   0.09787288  58.48 0.0007048014    1.727    0.421
       172 -10.5428     45.3285     49.0469   7.7747229643e+01   6.2433145919e+01    0.2390465    0.2011409  -0.43 0.0003399065    1.036    0.035
       173 -10.3123     44.9878     44.9763   7.6372662287e+01   6.3177006447e+01    0.2518526     0.182649 -49.73  0.000819054    1.673    0.402
       174 -11.6069     83.8916     47.7584   6.2646143697e+01   5.6062614579e+01    0.5018708    0.2333944  50.99   0.00213835    2.189    0.543
       175 -11.6371     58.9149     43.1739   6.9885047044e+01   6.1331077366e+01    0.3362728    0.2764569 -66.58  0.001581683    1.895    0.472
       176  -8.8997     16.6052     44.7745   8.9720409206e+01   6.6460557448e+01    0.1597499    0.1105915 -57.22 0.0009436624    1.668    0.400
       177 -12.4869     71.5982     42.6190   6.4917041060e+01   5.9190692300e+01    0.5682285    0.3268951  57.01  0.002613157    2.315    0.568
       178  -9.7073    113.5424     41.1007   5.1992140785e+01   5.0654758878e+01    0.2110672    0.1684097  55.32 0.0005130483    1.143    0.125
       179  -9.1727      5.1858     41.8428   9.4617648582e+01   6.7884936044e+01    0.2416926   0.09276774 -62.82  0.001007453    3.417    0.707
       180  -9.8739     37.1273     40.8938   7.8335063620e+01   6.4920852902e+01    0.1804381      0.16765   1.24 0.0007837241    1.256    0.204
       181 -11.3561     98.0575     39.2773   5.5364995643e+01   5.4328429032e+01    0.3292341    0.2405912  65.65  0.001768963    1.513    0.339
       182 -11.5079     82.7865     38.2340   5.9504133104e+01   5.7654690090e+01    0.3806172    0.2802948  88.92  0.001874599    2.395    0.582
       183 -11.2859     90.7363     35.6439   5.6132863657e+01   5.6364048279e+01    0.2685108    0.2118278  59.49  0.001546854    1.320    0.243
       184  -8.9485     26.3754     36.1733   8.1644998321e+01   6.7002897584e+01    0.1632719    0.1102505 -49.97 0.0008383105    1.751    0.429
       185 -11.4760     60.8878     32.8763   6.5037054825e+01   6.2506670702e+01    0.2733511    0.2420029  44.08 0.0009889635    1.309    0.236
       186 -12.3472     73.7794     32.3253   6.0185023834e+01   6.0211383829e+01    0.4762965    0.2738393  57.52  0.002316099    2.064    0.515
       187 -10.4623     49.9760     32.6024   6.9300802144e+01   6.4358949680e+01    0.2227805     0.177922 -44.78  0.001070949    1.598    0.374
       188  -9.7076    193.4788    195.5276   7.2698148270e+01   3.9504461367e+00    0.2834994    0.1280487 -43.25  0.001016162    2.120    0.528
       189 -12.4105     82.3637     28.4550   5.5926526890e+01   5.8991620350e+01    0.4999834    0.3461517  80.83  0.002471934    2.407    0.585
       190  -9.2219     42.3019     29.6804   7.1403855714e+01   6.5945105813e+01    0.1061351    0.1016274  70.47 0.0007025618    1.625    0.385
       191 -11.8416     93.4539     27.6222   5.2430175349e+01   5.6767037330e+01    0.3822502    0.2384267  73.25  0.001846537    2.165    0.538
       192 -11.3509     63.4866     21.0029   5.9137671756e+01   6.3534859150e+01    0.2207912    0.2039221  74.95  0.001003831    1.496    0.332
       193  -9.6251    118.4767     24.5156   4.5438876024e+01   5.1519055768e+01    0.1316577    0.1148105  58.34 7.533025e-05    1.005    0.005
       194 -10.2522     48.7008     21.4016   6.5024622149e+01   6.6061461186e+01    0.2034479    0.1448058 -36.49 0.0008267756    1.639    0.390
       195  -9.4328    107.7538    248.9745   9.9974458506e+01   6.9634547340e+00     0.153931    0.1115261 -59.98  0.000884186    1.590    0.371
       196  -9.6517     23.3082    249.2009   1.1774052451e+02   1.7785041436e+01    0.2182805    0.1667203  17.49 0.0009754999    1.778    0.438
       197  -9.4214     40.9310     21.2123   6.8305630589e+01   6.7303337289e+01    0.1690605    0.1450927  15.77 0.0003181032    1.162    0.139
       198  -8.2689     12.6800     21.2926   8.2719458432e+01   7.0800991763e+01   0.09803288   0.08913098  29.81 0.0005744887    1.607    0.378
       199  -8.8956    167.3507    242.3174   8.6203896304e+01  -5.7633985501e-01    0.1363349   0.09152934  -1.68 0.0007047504    1.736    0.424
       200 -10.0395     40.8606     14.0709   6.5039488038e+01   6.8190437635e+01    0.1970333    0.1420025  20.68 0.0002522953    1.154    0.134
       201 -10.2418    108.1371    239.0523   9.8679541227e+01   8.8555589967e+00    0.2192014    0.1502066 -23.81  0.001096244    2.108    0.526
       202 -10.0013     50.4738     15.6973   6.1735947589e+01   6.6441515486e+01    0.2292595    0.1218098  27.57  0.001001616    1.846    0.458
       203 -11.8843     98.9179    225.4835   9.9053836458e+01   1.3056124258e+01    0.4464791     0.321778  38.64  0.001493532    1.255    0.203
