#   1 NUMBER                 Running object number                                     
#   2 MAG_AUTO               Kron-like elliptical aperture magnitude                    [mag]
#   3 X_IMAGE                Object position along x                                    [pixel]
#   4 Y_IMAGE                Object position along y                                    [pixel]
#   5 X_WORLD                Barycenter position along world x axis                     [deg]
#   6 Y_WORLD                Barycenter position along world y axis                     [deg]
#   7 A_WORLD                Profile RMS along major axis (world units)                 [deg]
#   8 B_WORLD                Profile RMS along minor axis (world units)                 [deg]
#   9 THETA_WORLD            Position angle (CCW/world-x)                               [deg]
#  10 FWHM_WORLD             FWHM assuming a gaussian core                              [deg]
#  11 ELONGATION             A_IMAGE/B_IMAGE                                           
#  12 ELLIPTICITY            1 - B_IMAGE/A_IMAGE                                       
         1 -13.5969     59.2247    130.0581   7.6171206542e+01   4.2698197675e+01     2.374584     1.039963 -78.93  0.003354121    3.413    0.707
         2 -13.1886    226.2052     40.0545   1.5179348497e+01   2.3944755766e+01    0.9369049    0.6839063  35.97    0.0056496    1.708    0.414
         3 -13.1497    212.2611     50.2496   1.9018529118e+01   2.5714427881e+01     1.163012    0.9367395  26.35  0.005954514    1.486    0.327
         4 -11.8617      2.9855     22.1210   8.1756784184e+01   7.3694502598e+01    0.6372086    0.2674063 -76.49   0.00279607    2.751    0.636
         5 -11.5355      2.3339      9.0694   7.7851977698e+01   7.6541846320e+01    0.7671898    0.2045634 -65.32  0.002942794    3.563    0.719
         6  -9.0680    158.0440      8.6991   1.3676558255e+01   4.3200348620e+01    0.1945337    0.1627894  82.50 0.0004088142    1.077    0.071
         7 -10.8591    250.0772     17.3602   8.3970660576e+00   2.1550456637e+01    0.5765069    0.1607537 -26.93  0.002515318    3.067    0.674
         8  -9.7292     32.9958      4.5016   4.9358249853e+01   7.4073496241e+01    0.1889916    0.1010557  18.00 0.0008100813    2.497    0.600
         9  -8.7750    166.3390      2.7042   1.0931714261e+01   4.1583736776e+01    0.1442808   0.08823075 -64.13  0.000239085    1.655    0.396
        10  -9.7726    142.9058    219.2996   6.6681637894e+01   1.3041613825e+01    0.2054535    0.1642915 -17.57 0.0008097017    1.424    0.298
        11  -9.6722    112.4833    250.6273   7.6506637358e+01   1.2488775056e+01     0.212648   0.08066543  30.94 5.628805e-05    1.882    0.469
        12 -16.1778     25.7873    172.9887   9.0754010158e+01   3.6429285844e+01     9.823517     3.930288  73.65   0.04161897    3.054    0.673
        13 -10.2957    135.2949    198.7069   6.5554413589e+01   1.7345878750e+01    0.2507375     0.180692  26.92 0.0007524592    1.124    0.110
        14 -10.5042     82.2519    194.5265   7.7754363704e+01   2.5655665930e+01    0.4034887    0.2669716 -86.61  0.001565071    2.032    0.508
        15 -11.2274    116.9387    193.3687   6.9081593355e+01   2.0994651060e+01     0.460301    0.2605428  10.13  0.002025133    2.565    0.610
        16  -9.5891    190.0057    190.4822   5.2786943223e+01   1.0347478991e+01    0.2114722    0.1641241 -65.47 0.0008675116    2.647    0.622
        17 -15.2432      7.4610    207.3925   9.6830797994e+01   3.0988940926e+01     1.686236     1.288584  75.30  0.008607356    1.269    0.212
        18 -10.6274     80.3360    182.6653   7.6916214523e+01   2.8244289969e+01    0.2931301    0.2598904  67.01 0.0007547505    1.208    0.172
        19 -10.3903     76.4855    183.0110   7.7967513870e+01   2.8685254226e+01    0.4913296    0.2677167  74.15  0.002128573    2.923    0.658
        20 -14.1446      5.8669    247.9236   9.8167207914e+01   2.4048178949e+01    0.4170815    0.2949943  32.84  0.001229024    1.216    0.178
        21 -10.2406     98.9084    180.9965   7.1875167282e+01   2.5965853911e+01    0.2801703    0.2423117  28.38 0.0006671202    1.058    0.055
        22 -10.5860    163.6593    193.4837   5.8567115647e+01   1.3878100284e+01    0.3798236    0.2264576 -54.08  0.001591742    2.581    0.613
        23  -9.3289    179.3157    175.5247   5.2317552422e+01   1.4127323120e+01    0.2081516    0.1147814 -36.50 0.0008116523    1.958    0.489
        24 -10.0843    103.6930    171.7504   6.9323993982e+01   2.7068207148e+01    0.3010643    0.1998957  50.25    0.0015474    1.526    0.345
        25 -11.1854     73.2024    243.6325   8.4139036558e+01   1.8177277021e+01    0.5017422     0.290545  51.76  0.002263596    1.589    0.371
        26 -11.9235     69.4537    158.4124   7.6952538809e+01   3.4831754992e+01     1.013775    0.4785796  59.66  0.003513271    2.941    0.660
        27 -11.8622     73.0910    153.9909   7.5291514689e+01   3.5321004852e+01    0.8224227    0.3866201  52.56 0.0004339635    2.408    0.585
        28 -12.5593     59.5739    149.2795   7.8735018459e+01   3.8162336684e+01    0.4817219    0.3808509  17.09    0.0007088    1.323    0.244
        29 -11.2445     57.1408    165.9970   8.1400118693e+01   3.4709140324e+01    0.3548291     0.273167 -12.19  0.001986418    1.680    0.405
        30 -11.7891     62.2730    161.8232   7.9459843361e+01   3.5002350119e+01     0.447688    0.3638212  22.83  0.001252917    1.219    0.179
        31  -8.8965    110.3429    167.0668   6.6862932842e+01   2.6953389383e+01    0.1797637    0.1743246  53.61  0.000473412    1.165    0.142
        32 -10.6870    246.8409    165.2218   3.8758030824e+01   5.4218208382e+00    0.3220967    0.1661703 -28.96  0.001914946    1.733    0.423
        33 -10.3188    245.4935    158.9523   3.7826023208e+01   6.3278038867e+00    0.2527136    0.1563416 -30.66  0.001047994    1.526    0.344
        34  -9.2917    229.5145    165.4919   4.1447745302e+01   7.7976671033e+00    0.1185122   0.09507238   0.85 0.0002121421    1.031    0.030
        35 -14.7062     12.1728    243.4092   9.6814652962e+01   2.4259761377e+01    0.9421356    0.6013643  61.54  0.005230388    1.349    0.258
        36 -13.6860      3.2038    239.1463   9.8514098021e+01   2.5693500866e+01    0.4724509    0.4028981 -76.00  0.002709442    1.544    0.352
        37 -12.0723     81.5476    146.3566   7.1636631313e+01   3.5811192119e+01    0.8649073    0.6003522 -45.82  0.004401168    1.630    0.386
        38 -11.6071     83.8145    134.4840   6.8946231215e+01   3.8137340527e+01    0.3061205    0.2798887 -53.26 0.0004263699    1.193    0.162
        39  -9.5064    134.4198    148.6451   5.7401607734e+01   2.6423164564e+01    0.3185644    0.1421037 -52.58  0.001238103    2.814    0.645
        40  -9.4182    132.9297    141.1521   5.6285982716e+01   2.8133600235e+01       0.5268    0.2190382 -58.71  0.001613664    4.659    0.785
        41 -13.3287     68.6788    144.4460   7.5270744154e+01   3.8081620532e+01     2.278218    0.9985917  62.66  0.005902029    4.651    0.785
        42 -15.2534      7.2581    228.2968   9.7439247164e+01   2.7214673088e+01     2.037775    0.7929476  25.13   0.01134486    2.165    0.538
        43 -13.3472     19.6689    226.3835   9.4738747456e+01   2.6508429596e+01    0.3632589    0.2917789  29.48  0.001001269    1.237    0.192
        44 -10.6782     97.3066    135.7003   6.5056890469e+01   3.5661292159e+01    0.5135199    0.3422587  -1.41  0.002185687    2.306    0.566
        45 -10.4742     73.6132    136.2615   7.2460926710e+01   3.9270536344e+01    0.4262809    0.2241805  72.73  0.001438742    3.826    0.739
        46 -10.3113    106.6989    129.0162   6.0951790315e+01   3.5462391933e+01    0.5510824    0.3640817  -5.82  0.002106257    2.476    0.596
        47 -11.0884     69.2439    128.9880   7.2667485610e+01   4.1591428493e+01    0.3310494    0.2795512  42.28  0.001832838    1.098    0.090
        48  -9.9177     66.5049    125.5008   7.2989431052e+01   4.2800508455e+01     0.293471     0.291734  29.79  0.001637854    1.070    0.065
        49  -9.7207    124.1737    220.1550   7.0830864500e+01   1.5495183347e+01    0.1594021     0.126045  46.27 0.0004513208    1.339    0.253
        50  -9.7213     94.9793    219.9285   7.7345228418e+01   1.9418054001e+01    0.1843774    0.1442852  33.18 0.0004722741    1.021    0.020
        51  -8.9020    115.2065    123.2698   5.7257796349e+01   3.5092093892e+01     0.207096    0.1727803  64.19  0.001056551    1.374    0.272
        52 -11.3542     33.6613    118.5083   8.3480781701e+01   4.8360874387e+01    0.4542744    0.2490798  48.74  0.001716124    1.821    0.451
        53  -9.1352    105.4497    117.0109   5.8713604599e+01   3.8278531532e+01    0.2195147    0.1866634  38.14 0.0002373595    1.085    0.079
        54  -9.4132    138.4752    112.1952   4.8387983320e+01   3.2615180440e+01    0.2759141    0.1862987 -58.89  0.001138536    1.935    0.483
        55  -9.9280    133.9856    104.9959   4.7741799947e+01   3.4943116675e+01    0.3385887    0.2072129 -59.82  0.001136314    2.305    0.566
        56  -9.6523    205.3482    110.4608   3.4243627648e+01   1.9189579511e+01    0.2513216    0.2066506  32.16 0.0008761245    1.211    0.174
        57 -10.2797     43.4750    111.2249   7.8850500434e+01   4.9148303574e+01    0.2506825    0.1841764  27.69 0.0003556169    1.333    0.250
        58  -8.5386    113.6710    110.3597   5.4700680021e+01   3.8093248875e+01    0.1561766    0.1198272  77.29 0.0001314292    1.792    0.442
        59  -9.9229     95.3957    123.0168   6.3110848965e+01   3.8792902214e+01     0.305337    0.2447503  -3.46 0.0009581817    1.509    0.337
        60  -8.3684     74.4644    109.4770   6.7185691465e+01   4.5403045615e+01    0.1474253    0.1375938  46.30 0.0001741311    1.039    0.037
        61  -8.1790    183.5211    116.4805   3.9472994919e+01   2.2549567951e+01    0.1386371    0.1252764   9.15 0.0001062168    1.029    0.028
        62  -8.5218     28.0011    107.0332   8.4157267326e+01   5.1695116569e+01    0.1546472    0.1490402  63.00            0    1.020    0.019
        63  -8.7978    132.4570    213.0923   6.8136546706e+01   1.5448797908e+01    0.1551755    0.1256271 -42.64 0.0007759496    1.553    0.356
        64  -9.2347     41.3146    101.5516   7.8121021704e+01   5.1766430169e+01    0.2586755    0.1227502  30.57 0.0005988554    1.985    0.496
        65  -9.2196    131.4106    209.2133   6.7863493836e+01   1.6211078671e+01    0.1446121    0.1261565 -76.03 0.0009460652    1.657    0.397
        66 -11.0876     73.9080    165.7592   7.6614141493e+01   3.2632781245e+01    0.6883497    0.4441371 -39.55  0.002628677    1.961    0.490
        67  -8.8719    121.8050     89.5767   4.6903922354e+01   4.0586604416e+01    0.2196322    0.1413495  54.90 0.0009047526    1.622    0.384
        68  -9.8096     42.5020     88.9358   7.5316663171e+01   5.4741834256e+01    0.2639998    0.1776696  43.28 0.0006249735    1.510    0.338
        69  -9.9463    248.8852     88.0866   2.3459682345e+01   1.4221820579e+01    0.1835926    0.1433156 -44.64 0.0006821997    1.293    0.227
        70  -9.0168    111.7138    240.0467   7.5663008387e+01   1.4106362388e+01    0.1533373     0.125421  27.60 0.0004093478    1.123    0.109
        71 -11.9995    202.7159     56.4160   2.1684993071e+01   2.7041651241e+01    0.5977889    0.3985979  25.94  0.002136959    2.010    0.502
        72 -10.6809    129.5986    202.7833   6.7412285557e+01   1.7516558256e+01    0.2486932    0.2217178 -64.66 0.0009909467    1.518    0.341
        73  -9.1320     57.2571     54.0910   5.9125319455e+01   6.0847507463e+01    0.2721156     0.175831  57.36  0.001003348    2.076    0.518
        74 -10.9276    128.2209    198.4994   6.7139563866e+01   1.8433063386e+01    0.2742512    0.2331399 -61.32 0.0005891472    1.566    0.361
        75 -10.2749      1.7306     51.5065   8.8752110377e+01   6.6931735973e+01    0.3461946   0.07014842 -68.86  0.001209169    3.538    0.717
        76  -9.6797     81.4737     60.1558   5.0899530219e+01   5.5128009115e+01    0.3601469    0.2641312  85.70  0.001567819    2.196    0.545
        77 -10.7370    116.7508    202.7525   7.0365248877e+01   1.9383340899e+01    0.2505395    0.1359785  30.05  0.001291064    1.503    0.335
        78 -10.3865    102.0646    201.1393   7.3641111063e+01   2.1741747540e+01    0.3282204    0.2139851  58.52  0.001786693    1.829    0.453
        79  -9.5546     30.5888     34.2222   6.6299148119e+01   6.8839783402e+01    0.1882593    0.1135364 -42.75  0.000414396    1.582    0.368
        80 -12.3064    125.7929    228.1474   7.1409116435e+01   1.4054622197e+01    0.5213808    0.3223467  35.87  0.002270814    1.265    0.209
        81 -10.0090     76.3321    231.7047   8.2577578593e+01   1.9741558480e+01    0.2182741    0.1642535  25.73 0.0006516509    1.187    0.157
        82  -8.8372    189.5236     15.4692   1.2392033647e+01   3.4662906162e+01    0.1304049    0.1163855 -72.87 0.0003364787    1.011    0.011
        83  -8.7260     63.5452     11.4966   3.6754878592e+01   6.7190063711e+01    0.1390711    0.1243138  33.00 6.765823e-05    1.027    0.026
        84 -10.8169     74.8276    198.8376   8.0051276099e+01   2.5782262134e+01    0.3043864    0.2277624  73.22 0.0006195467    1.533    0.348
        85 -12.0376    108.6483    229.1376   7.5227858418e+01   1.6156172839e+01    0.5843587    0.4826665   3.72  0.004090708    1.338    0.253
        86  -9.4685     60.2794     21.0359   4.3367214374e+01   6.6502962051e+01    0.2411025    0.1888885  39.43 0.0005206973    1.173    0.147
        87  -9.3087    148.5065    229.0011   6.6746890190e+01   1.0890822664e+01    0.1354037     0.105351  78.76 0.0008102275    2.518    0.603
