#   1 NUMBER                 Running object number                                     
#   2 MAG_AUTO               Kron-like elliptical aperture magnitude                    [mag]
#   3 X_IMAGE                Object position along x                                    [pixel]
#   4 Y_IMAGE                Object position along y                                    [pixel]
#   5 X_WORLD                Barycenter position along world x axis                     [deg]
#   6 Y_WORLD                Barycenter position along world y axis                     [deg]
#   7 A_WORLD                Profile RMS along major axis (world units)                 [deg]
#   8 B_WORLD                Profile RMS along minor axis (world units)                 [deg]
#   9 THETA_WORLD            Position angle (CCW/world-x)                               [deg]
#  10 FWHM_WORLD             FWHM assuming a gaussian core                              [deg]
#  11 ELONGATION             A_IMAGE/B_IMAGE                                           
#  12 ELLIPTICITY            1 - B_IMAGE/A_IMAGE                                       
         1 -13.5462    248.9466    108.1093   5.1879030800e+01   9.5327512689e+00     1.282072    0.2317824 -39.06   0.00380056    4.368    0.771
         2 -12.3294     79.9241     33.4703   6.5108971422e+01   5.9270746224e+01    0.7136499     0.511764  80.40  0.001957936    2.626    0.619
         3 -11.8566     72.4651     28.4582   6.5563149874e+01   6.1355670773e+01    0.7337112     0.483112  15.98  0.003909137    1.648    0.393
         4 -11.5771     30.6147     24.5788   8.1237518585e+01   6.8349933736e+01    0.5514959    0.2342322 -35.06  0.002398109    2.141    0.533
         5 -10.8592    151.1818     28.0534   4.6125745432e+01   4.3766265155e+01    0.6056529    0.3343972   5.56  0.002262449    3.731    0.732
         6 -11.4849    176.9168     21.8910   4.0607406974e+01   3.8171422716e+01    0.4452727    0.2777234   3.58  0.002030885    2.778    0.640
         7 -11.9037    132.3387      4.1337   4.1633312128e+01   5.0695327901e+01    0.4696369    0.3158415  46.00  0.001535174    1.412    0.292
         8  -9.9954    116.2627     21.2161   5.0516034826e+01   5.2907206116e+01    0.5970535    0.2713429  -9.81  0.002241919    3.607    0.723
         9 -10.7913    125.7044     12.4203   4.5539110996e+01   5.1555963216e+01    0.2245074    0.1751709  75.85 0.0008733671    1.260    0.207
        10 -13.0510    104.5613      9.2054   4.8646794919e+01   5.6748029093e+01     0.977495    0.7376511  23.90  0.005779843    1.358    0.263
        11 -11.2942     99.8500      4.4256   4.7848887636e+01   5.8205667575e+01    0.4099004     0.279715 -69.49  0.002175487    2.175    0.540
        12 -12.3412    121.7833      9.5898   4.5288260945e+01   5.2738444735e+01    0.7266222    0.2450734  45.72  0.002835205    2.816    0.645
        13 -11.6405    116.7236     14.4680   4.7999569233e+01   5.3477325991e+01    0.4225362    0.2803484  46.43  0.001135578    1.350    0.259
        14 -11.7694    111.6194     13.2160   4.8612884986e+01   5.4777093928e+01    0.4856447    0.3354887 -24.90  0.002739329    1.604    0.377
        15 -12.0839     18.6530     15.1947   8.3015779792e+01   7.1088024709e+01    0.6376358    0.2421992 -37.32   0.00320818    2.298    0.565
        16 -13.7029    160.9936      5.6271   3.8095485252e+01   4.3659975403e+01     1.308109    0.6999984  68.02  0.006692165    1.597    0.374
        17 -11.4230    173.6340     16.1843   3.9471323679e+01   3.9579304889e+01     0.287495    0.2574456 -33.74 0.0007989855    1.268    0.211
        18 -12.2264    160.2480     18.5794   4.1910285536e+01   4.2586607656e+01    0.6049345     0.461779  68.65  0.003109043    1.168    0.144
        19 -12.8191    168.1307     14.1857   3.9608201501e+01   4.1117432275e+01    0.6507191    0.2927649  55.99    0.0029813    2.036    0.509
        20 -12.0302    153.4360     16.9928   4.2427968071e+01   4.4413782862e+01    0.5271768    0.3068803 -64.76  0.002491285    2.123    0.529
        21 -12.1077    148.4155     10.4492   4.1190512047e+01   4.6270814376e+01    0.3539758    0.2926281 -64.08 0.0008285777    1.276    0.216
        22 -13.2386    233.7817      7.3216   3.1742719131e+01   2.6773999478e+01    0.6214042    0.3766684 -64.68  0.003767767    1.404    0.288
        23 -11.8255    248.8619      6.4104   3.0560293389e+01   2.3773963552e+01    0.6648223    0.2538674 -44.32  0.003480428    2.056    0.514
        24 -12.7365    243.5105      5.1500   3.0651109815e+01   2.4990761188e+01    0.4839327    0.4416748  46.89  0.003032197    1.582    0.368
        25 -11.6002     93.7782      6.2673   4.9992884045e+01   5.9390259603e+01    0.5672568    0.2069782 -23.89  0.002459449    2.950    0.661
        26 -11.0439     92.2514     14.0116   5.3513971876e+01   5.9016206441e+01    0.2598218    0.1913544  -8.44  0.001391524    1.461    0.315
        27 -12.7644      4.7575     11.1701   8.8955051668e+01   7.2969908798e+01    0.6034747    0.4552791 -13.31  0.002793666    1.060    0.056
        28 -11.6635      4.3266      2.5338   8.4887718946e+01   7.4261160745e+01    0.7088572    0.2445069  22.06  0.003543189    3.014    0.668
        29 -13.1289     23.7898      6.8863   7.6103458587e+01   7.1641691007e+01    0.7516747    0.6259521  35.17  0.005421592    1.644    0.392
        30 -11.9312     14.5111      7.4701   8.1458799949e+01   7.2610671877e+01    0.4492929    0.3809266   1.41  0.002528892    1.295    0.228
        31 -11.8451    197.4935     13.0218   3.6036335795e+01   3.4235183350e+01     0.320537    0.2735115  65.93  0.002078492    1.241    0.194
        32 -11.9805    194.6096     10.1986   3.5629351617e+01   3.5200966461e+01    0.4372439    0.2438893 -14.05  0.002112152    2.676    0.626
        33 -12.2665    197.4357      4.2186   3.3921435463e+01   3.5140983787e+01    0.3890306    0.3213079   7.04  0.002472364    1.736    0.424
        34 -11.2767    201.7237     10.3459   3.4991963175e+01   3.3535788644e+01     0.230089    0.1695666 -70.81 0.0005568466    1.205    0.170
        35 -12.0455    200.4929      7.0228   3.4315673113e+01   3.4158822963e+01    0.3992745    0.2835573 -28.53 0.0006693193    1.621    0.383
        36 -10.4638     62.1352     11.8821   6.1857328892e+01   6.5212596383e+01    0.3590021    0.2434412  74.65  0.001767859    2.981    0.665
        37 -12.1174    240.0742     18.0687   3.3505321322e+01   2.4257979139e+01    0.3911443    0.1871499 -55.44   0.00192631    1.807    0.447
        38 -12.9665    242.8039     13.0189   3.2274447244e+01   2.4271191662e+01    0.6517397    0.3165441  72.13   0.00359003    1.988    0.497
        39 -10.6351     48.9654     10.8537   6.6419778270e+01   6.7582427218e+01    0.2306315    0.1930035 -36.95  0.001366922    1.572    0.364
        40 -12.3321    185.3094      5.8750   3.5470098643e+01   3.7814418674e+01    0.3395878    0.2910196  30.48  0.002183404    1.510    0.338
        41 -11.4400    181.9700      4.1465   3.5365257511e+01   3.8767787716e+01    0.3023099    0.1896743 -19.32  0.001070835    2.007    0.502
        42 -11.8003    139.4785      4.7026   4.0722444547e+01   4.8936950120e+01    0.5286047    0.3203658 -10.55   0.00276572    2.105    0.525
        43 -13.0225    213.7621      5.3513   3.2812811058e+01   3.1322312880e+01    0.7868072    0.2219455  62.02  0.003095449    3.179    0.685
        44 -11.8322    117.6875      3.7320   4.3987806483e+01   5.4189073301e+01    0.4791197     0.246221  59.91  0.002419759    1.613    0.380
        45 -11.4345     70.7943      3.8051   5.5224383465e+01   6.4358203983e+01    0.4751998     0.292838  27.29   0.00272614    1.516    0.341
        46 -10.5730     50.3442      6.4495   6.3681267415e+01   6.7830117849e+01    0.3565877   0.09877036  45.88  0.001453389    3.198    0.687
        47 -10.6204     41.2067      3.3929   6.5910776014e+01   6.9619889807e+01    0.2752028    0.1560944  19.30 0.0009490544    1.730    0.422
        48 -10.7695     79.0148      3.0202   5.2461446948e+01   6.2779054445e+01    0.1996629    0.1634119  33.66 0.0008078502    1.013    0.013
        49 -11.8884    208.3761      3.5528   3.2839146927e+01   3.2710168950e+01    0.5380799    0.2147159  62.38  0.002561323    2.339    0.572
        50 -10.0090     52.0380     92.4731   9.5103267277e+01   5.2494995984e+01    0.2856059     0.165471 -43.37   0.00133124    1.586    0.369
        51  -9.7846      2.5032    250.5012   1.2587352947e+02   2.1281418022e+01    0.1981339   0.08849232  36.44  0.001197695    2.120    0.528
        52  -9.1037     39.4753     92.5148   9.9636356529e+01   5.3921742495e+01    0.1848576    0.1252864  39.43 0.0008690818    1.706    0.414
        53 -10.0237     34.7475     91.3865   1.0109687384e+02   5.4662621821e+01    0.3676936    0.1718781   4.42  0.001388584    3.737    0.732
        54 -11.1150     20.2944     91.3119   1.0635571786e+02   5.5930649584e+01    0.3420852    0.2596039  34.06  0.001125638    1.561    0.359
        55  -9.1388     47.5328     89.4802   9.5972301761e+01   5.3730584264e+01    0.1394664    0.1199516 -40.18 0.0008091535    1.037    0.036
        56  -9.4213     91.7873     87.7896   8.0234989684e+01   4.7359157680e+01     0.189629    0.1721355  81.28 0.0002254388    1.316    0.240
        57  -9.3046    119.5198     86.4660   7.1587883661e+01   4.2019840553e+01    0.1502575    0.1487167 -14.09 0.0001105152    1.017    0.017
        58 -10.0932     25.5143     84.5716   1.0299249066e+02   5.7076111161e+01    0.2774426    0.1791892  68.21  0.001364154    2.414    0.586
        59 -10.1534    146.5349     83.4109   6.3828682937e+01   3.6465973625e+01    0.2629346    0.2460919 -37.26 0.0004965281    1.075    0.070
        60  -9.3329     13.0000     83.9399   1.0759289240e+02   5.8153331671e+01    0.2138598   0.06018242 -65.03 0.0008015306    2.936    0.659
        61  -9.4610     41.3011     82.6557   9.6538310302e+01   5.5990717002e+01    0.1293587    0.1040984  81.73 0.0007038057    1.680    0.405
        62 -10.5513      2.6387    113.5743   1.1587222735e+02   5.1790609932e+01    0.2960754    0.1945874 -14.21  0.001724245    1.985    0.496
        63 -10.3042    177.0203     78.4845   5.6090369255e+01   3.0084004720e+01    0.2396837    0.2007398 -22.26  0.001234376    1.334    0.250
        64 -11.4257     36.6287     78.1111   9.7143069493e+01   5.7501447213e+01    0.3510886    0.2384173  13.31            0    1.671    0.402
        65 -10.4295    106.1792     77.9348   7.2769872530e+01   4.6549635645e+01    0.3333757    0.2230789  47.86  0.001067373    1.533    0.347
        66 -10.8842      5.9750     77.3783   1.0898312493e+02   6.0067057829e+01    0.2380089    0.2048005  47.95 0.0007931491    1.467    0.318
        67  -9.0300    189.6481     77.6811   5.3633020463e+01   2.7229692627e+01    0.1476933    0.1151301  20.46 0.0007047417    1.743    0.426
        68  -9.4191     98.8275     75.5717   7.4239002389e+01   4.8508349200e+01    0.4136368    0.1682879 -31.15  0.001299032    3.534    0.717
        69  -9.7618     14.1504     76.1924   1.0552577234e+02   5.9832998162e+01    0.1849328    0.1378019 -43.22 0.0003675842    1.129    0.114
        70 -10.5680    146.8677     74.8092   6.1222516208e+01   3.7956068841e+01    0.2240769    0.2215478  46.83 0.0003236434    1.026    0.025
        71 -11.5579     21.2226     72.3473   1.0179209762e+02   6.0170845803e+01    0.5385141    0.3312353 -54.95  0.002051871    1.352    0.261
        72 -11.0568    115.5352     71.7026   6.8102641549e+01   4.5734896168e+01    0.4203535    0.2559617  32.45 0.0008750251    1.896    0.473
        73  -9.8306      3.9411     72.7594   1.0885930640e+02   6.1208138555e+01     0.249073    0.1049956 -53.22  0.001259508    1.742    0.426
        74 -10.2116     52.4546     71.1723   8.9006493532e+01   5.7152691226e+01    0.3190027    0.2282326  -5.17   0.00113799    1.598    0.374
        75 -10.0687     57.0807     69.0005   8.6549925571e+01   5.6975054654e+01      0.26082     0.194629  36.47   0.00143321    1.470    0.320
        76 -11.2828     56.0391     62.9974   8.4992528321e+01   5.8327775682e+01    0.5051783    0.2921836 -42.08  0.001364067    1.579    0.367
        77 -11.0591     31.4526     70.6684   9.7199189332e+01   5.9644633552e+01    0.3751326    0.2046745 -35.91  0.001203414    1.734    0.423
        78  -9.0184     70.3246     69.6754   8.1848755496e+01   5.4841705364e+01    0.1342448    0.1140837  86.90 0.0006948331    1.688    0.408
        79 -10.1598     39.8519     66.3906   9.2544670737e+01   5.9682325419e+01    0.2616788    0.1840002 -31.29   0.00116318    1.301    0.231
        80 -11.3230     24.1116     60.1393   9.7295359643e+01   6.2540699186e+01    0.7638061    0.3396449 -40.50  0.002781366    1.942    0.485
        81 -11.9003     13.1881     62.8956   1.0276377617e+02   6.2802828924e+01    0.5276139    0.4067374   0.95  0.003287035    1.415    0.293
        82 -10.6677     18.9954     60.5026   9.9616972586e+01   6.2885690340e+01    0.3194619    0.2051242 -26.34  0.001517603    1.493    0.330
        83  -9.5507    148.5418     65.3313   5.8016613743e+01   3.9177953067e+01    0.2554021     0.170569  36.63  0.001150739    1.707    0.414
        84 -10.2144     32.4583     62.4852   9.4426943792e+01   6.1275802365e+01    0.2384973    0.2073603 -67.68   0.00126433    1.387    0.279
        85 -11.7048     33.7039     58.6643   9.2716431778e+01   6.1928538205e+01    0.3061769    0.2258006   1.16 0.0002528511    1.413    0.292
        86 -10.9762     29.5546     59.2194   9.4669984984e+01   6.2231618065e+01    0.2497604    0.1990062 -14.57 0.0007155941    1.195    0.163
        87  -9.5633     78.4052     60.7304   7.5947059799e+01   5.5183641584e+01    0.2399421    0.1706228  50.91 0.0009877629    1.644    0.392
        88  -9.6553    126.4945     59.1996   6.1172642314e+01   4.5418716265e+01    0.3670678    0.2142255  73.48   0.00140877    2.649    0.622
        89 -10.0984     96.7694     58.6325   6.9195934621e+01   5.2038844718e+01    0.4410172      0.21065  33.84 0.0007995491    2.478    0.596
        90 -11.3252    102.7885     51.7183   6.4962159965e+01   5.1920834603e+01    0.7036588    0.3234608  39.72  0.002821353    2.251    0.556
        91 -11.5303     88.3006     57.3575   7.1424209589e+01   5.3943628809e+01    0.5479879    0.3280032  38.20 0.0007787125    1.656    0.396
        92 -10.5585     86.9746     51.7632   6.9836882915e+01   5.5146052151e+01    0.2984357    0.2438685   0.60 0.0004209845    1.252    0.201
        93 -10.3563      2.7990     56.4762   1.0568944172e+02   6.4778700005e+01    0.2581043    0.1694297 -52.77  0.001040148    1.197    0.165
        94 -10.7312      3.1276     51.6252   1.0430082065e+02   6.5764237787e+01    0.2912996    0.1425104 -52.36  0.001150321    1.545    0.353
        95 -11.6049    147.3617     53.6657   5.4711318223e+01   4.1303426158e+01    0.3537399    0.2648773  31.02 9.426667e-05    1.550    0.355
        96  -9.3693    133.4266     54.8247   5.8101452555e+01   4.4481453538e+01    0.2003544    0.1417361 -15.46 0.0009404725    1.718    0.418
        97 -10.1671    120.4525     54.7624   6.1220395602e+01   4.7522257615e+01    0.2664299    0.2186586  32.28 0.0006148857    1.232    0.188
        98 -10.6892     58.4885     50.9902   7.9798851173e+01   6.0224878314e+01    0.3341192    0.2793086  26.37  0.001447379    1.227    0.185
        99  -9.4129    161.4823     50.0138   5.0907433463e+01   3.8385099642e+01    0.2130042     0.141907 -32.55  0.001027976    1.581    0.367
       100 -10.2208    145.4320     47.2805   5.3125581873e+01   4.2704649415e+01    0.3608307    0.1875007 -23.19  0.001474359    2.392    0.582
       101  -9.9214    124.4651     46.1637   5.7339017780e+01   4.7884618279e+01    0.2471346    0.1434552 -26.61  0.001107293    1.910    0.476
       102  -9.5462    208.5854     45.9696   4.2841488629e+01   2.7649799225e+01    0.1993128    0.1621038  79.91 0.0004728372    1.187    0.158
       103  -9.2260    169.9787     45.9861   4.8293977505e+01   3.6868484217e+01    0.1741616    0.1445982  70.01 0.0004601413    1.142    0.124
       104 -10.7178     76.4813     42.1915   6.9743516675e+01   5.8656912823e+01    0.3707435    0.2168447 -26.94  0.001273094    1.770    0.435
       105 -10.7841    152.5531     42.9187   5.0414265291e+01   4.1566811805e+01    0.2682461    0.2426938 -37.21 0.0003833328    1.172    0.147
       106  -9.9026    148.8491     41.2185   5.0582062860e+01   4.2702654076e+01    0.2525585    0.2033543  -1.98 0.0005455922    1.526    0.345
       107 -12.9117     11.4458     40.2709   9.6930540335e+01   6.7480010155e+01    0.6089166    0.4801536   2.98   0.00423725    1.309    0.236
       108 -10.6390     17.8198     38.4139   9.3145441415e+01   6.7322864942e+01    0.2733047    0.1824298 -22.32  0.001048278    1.320    0.242
       109  -9.3566    144.7688     42.4433   5.1744968067e+01   4.3535469997e+01    0.2029594    0.1207092  49.02   0.00093432    1.617    0.382
       110  -9.5714     99.0130     41.7186   6.2421410151e+01   5.4232923833e+01    0.2184575    0.1850449 -24.62 0.0008458094    1.215    0.177
       111 -10.3828    101.8710     37.7746   6.0149633572e+01   5.4166574848e+01    0.4771745    0.2229691  31.91  0.001803319    2.882    0.653
       112 -10.6155     33.1191     41.7557   8.7117645841e+01   6.5211414172e+01    0.3681309    0.2283248  26.38  0.002112125    1.680    0.405
       113  -9.8888    157.6341     39.8890   4.8596982083e+01   4.0722041488e+01    0.2343383    0.1773463  52.72  0.000556107    1.282    0.220
       114 -11.4859     56.8943     37.4532   7.5152633428e+01   6.2735538090e+01    0.4930188     0.295796  -6.37    0.0021959    2.182    0.542
       115 -11.1929     48.4747     39.4200   7.9421889968e+01   6.3672231524e+01    0.4673918     0.285165  33.36  0.001296191    1.663    0.399
       116  -9.5483    174.5101     38.9882   4.5623987109e+01   3.6698574234e+01    0.2462301    0.1252695  57.36 0.0006870468    1.846    0.458
       117 -11.0851     60.7026     26.9866   6.9224075050e+01   6.3641528948e+01    0.6531578    0.3257307  20.96  0.002779762    2.797    0.642
       118 -10.8157    243.1426    245.5900   7.9574769702e+01  -1.0634319691e+01    0.1906757    0.1169574 -21.03  0.001218309    1.483    0.326
       119 -12.2247     65.7999     30.8081   6.8944458783e+01   6.2240508349e+01     1.113649    0.4636692  54.87  0.004047582    4.032    0.752
       120 -11.2398      3.1292    243.5207   1.2546794860e+02   2.2533629113e+01    0.3664215     0.169078  74.62  0.002194341    1.817    0.450
       121  -9.5306    221.0217     36.4998   3.9210441964e+01   2.6100106071e+01    0.1830773    0.1186879  75.41 0.0004569376    1.509    0.337
       122 -10.8513    234.9574     33.3970   3.7171770614e+01   2.3472879554e+01    0.3207777    0.2234782   2.15  0.001623474    2.785    0.641
       123 -10.3331    146.1963     34.9211   4.9119512063e+01   4.4163206142e+01    0.4844367    0.1710384  63.74  0.001752653    2.752    0.637
       124  -9.9180    208.7388     32.4057   3.9550086617e+01   2.9393781752e+01     0.274113    0.1830022  25.98  0.001318629    2.604    0.616
       125  -9.2630    219.5492     32.4853   3.8439823375e+01   2.6938845090e+01    0.1266545    0.1115099 -73.74 2.024054e-05    1.069    0.064
       126  -9.7603    108.3195     30.3366   5.5695170058e+01   5.3692821361e+01    0.2822774    0.1392122 -28.92  0.001263381    2.164    0.538
       127 -10.1154    102.9595     27.7299   5.6087506123e+01   5.5201681014e+01    0.6208553     0.223511  63.63  0.002045501    3.914    0.745
       128 -10.1158     29.7741     30.5929   8.4247192748e+01   6.7496824570e+01    0.2128297    0.1482373  18.00  0.000540362    1.403    0.287
       129 -10.2247    250.4090    232.3200   7.6130802503e+01  -9.8726622818e+00    0.2191059   0.09447159 -29.50  0.001138818    2.160    0.537
       130 -11.7834      2.8547     27.2754   9.6797349873e+01   7.0444123833e+01    0.4013584    0.2358252 -35.06  0.001868972    1.314    0.239
       131 -10.9961    167.5389     28.9335   4.3833614140e+01   3.9651196065e+01    0.2811126    0.2428587   7.12 0.0008499421    1.450    0.310
       132 -10.3150     11.1741    226.0046   1.2315344199e+02   2.5207746887e+01    0.2069348   0.09106831  69.66  0.001094842    2.056    0.514
       133 -11.2729    143.0803     29.5648   4.8003624109e+01   4.5571675480e+01    0.2582137    0.2164303  46.30 0.0002314551    1.174    0.148
       134 -10.7136     22.3454     28.3103   8.6955941143e+01   6.8665091704e+01    0.3019945    0.2817191  89.80  0.002117857    1.813    0.448
       135 -10.5005    204.7211     24.6985   3.8128540322e+01   3.1254486806e+01    0.2613789    0.2161746 -55.57  0.001048685    1.142    0.125
       136 -11.7579    181.3572     15.6394   3.8408416146e+01   3.7775854021e+01     0.410897    0.2016367  70.69  0.001681905    1.825    0.452
       137 -10.4600    179.8876     25.1516   4.1106625475e+01   3.7084554234e+01     0.276847    0.1694491 -64.44 0.0003072634    1.766    0.434
       138 -10.5224    248.5127    224.9918   7.5193389509e+01  -8.6746759438e+00    0.1778929    0.1003226 -30.00  0.001039469    1.611    0.379
       139 -10.0200     49.9808     24.4706   7.2410410596e+01   6.5717196289e+01    0.2364317    0.1541833 -13.82 0.0009540457    1.519    0.342
       140 -11.2024     12.6070     24.7699   9.0546118872e+01   7.0153851166e+01    0.2554608    0.1715668  -5.40 0.0004337192    1.372    0.271
       141  -9.3282    147.5026     24.0691   4.5514155489e+01   4.5115954301e+01    0.1856021    0.1357619 -27.48 0.0006270712    1.518    0.341
       142  -9.2647    185.4207     23.4825   3.9982006719e+01   3.5943486288e+01    0.1301193    0.1168077  88.82 0.0002070002    1.050    0.047
       143  -8.9298    222.7382    220.3144   7.8928679740e+01  -4.4810389441e+00    0.1036077    0.1006967 -49.03 0.0002234802    1.539    0.350
       144  -9.2636     55.9962    216.9144   1.1346769635e+02   2.2078197577e+01    0.1455006    0.1191462  81.75  0.000929896    1.085    0.078
       145 -11.0075    123.0715     21.4733   4.9170330481e+01   5.1284331800e+01    0.4969552    0.2959341  54.84  0.002120021    1.470    0.320
       146 -10.8726    130.7050     19.7802   4.7099488668e+01   4.9643728922e+01    0.4643449    0.2174167  71.04  0.001931864    2.280    0.561
       147 -10.9045     13.0041    216.8394   1.2227530251e+02   2.6928726978e+01     0.212682   0.08885749  57.69  0.001100227    2.068    0.516
       148 -10.4357      2.2781    212.8378   1.2413619845e+02   2.8774615577e+01    0.1961907    0.1087825  75.67  0.001194967    1.476    0.323
       149  -9.1458    123.9909    205.9881   9.6961096252e+01   1.4250848898e+01    0.1598048    0.1444213  45.74            0    1.016    0.016
       150 -10.6718     12.6277    193.2219   1.2080999783e+02   3.2116194726e+01    0.1704188    0.0908002 -69.43 0.0003804299    1.669    0.401
       151  -9.2046     40.9592    190.0304   1.1419982717e+02   2.9932003945e+01    0.1550742    0.1277532  84.85 0.0003959529    1.029    0.028
       152  -9.3636    100.9888    175.9943   9.7620025511e+01   2.4807544073e+01     0.160736    0.1518495  80.54 0.0009044922    1.010    0.010
       153  -9.4190     68.4966     22.5419   6.4411375772e+01   6.2838066931e+01    0.1285326    0.1093039  16.23 8.730032e-05    1.011    0.011
       154  -9.3741     32.4936    166.4525   1.1377102766e+02   3.6473776025e+01    0.1310627    0.1111218 -86.95 0.0001652466    1.019    0.019
       155 -11.7809    246.7274     20.0212   3.3407999419e+01   2.2664390215e+01     0.311335    0.2192864 -72.33  0.002027026    1.193    0.162
       156 -10.2649     19.6566    166.0755   1.1693914376e+02   3.7804698959e+01     0.203226    0.1548902  56.24 0.0005862992    1.301    0.231
       157  -9.7089     41.0442    146.6790   1.0901047545e+02   4.0451982284e+01    0.1778328    0.1660319 -85.21 0.0004136222    1.091    0.084
       158 -12.7279     12.5425    125.6280   1.1439323927e+02   4.8236301036e+01    0.4265426    0.3770203  35.16 0.0005453444    1.350    0.260
       159 -12.4982      6.6089    143.9799   1.1812482041e+02   4.4193762023e+01    0.5070028    0.3321517 -74.85  0.002076208    1.226    0.185
       160 -12.9329     11.1319    135.4102   1.1597761477e+02   4.5950068417e+01    0.8240352    0.5569757  -0.01  0.004719737    2.061    0.515
       161  -9.7560     67.1459    135.5147   9.9606333904e+01   4.0019741660e+01    0.3093037    0.1590289 -46.17  0.001292618    1.982    0.495
       162 -10.3038     80.7444     19.3794   5.9014735016e+01   6.0850770306e+01    0.2633043    0.1887196 -51.69  0.001442179    1.969    0.492
       163  -9.7065     27.5231    136.0480   1.1137708180e+02   4.4451289435e+01    0.2032848    0.1120548 -68.59 0.0004673499    1.526    0.345
       164 -11.1960     42.1159    129.0329   1.0597389496e+02   4.4749581862e+01    0.2487476    0.2017195  62.79            0    1.340    0.254
       165  -9.6993     90.6004    122.4354   8.9805110594e+01   3.9598133406e+01    0.2530673    0.1463648  41.05 0.0006591465    1.799    0.444
       166 -11.1562     33.3807    119.8046   1.0713066405e+02   4.7933580417e+01    0.2887162    0.2449531 -28.86  0.001031869    1.316    0.240
       167  -9.9203     28.1337    119.5295   1.0874109585e+02   4.8486218666e+01    0.2342275    0.1849392  47.52 0.0008830015    1.431    0.301
       168  -9.3611     63.5283     18.4999   6.4393767617e+01   6.4222542582e+01    0.1277697    0.1051555  15.06 0.0002518705    1.023    0.022
       169  -9.7461     55.2313     17.8574   6.7243318665e+01   6.5732965569e+01    0.1732914    0.1555818  -0.34 0.0005766148    1.193    0.162
       170 -11.1561    232.6976     17.0544   3.3861696272e+01   2.5924896257e+01    0.1721983    0.1354964 -56.70 0.0004931718    1.121    0.108
       171 -10.4235    210.7469     17.4285   3.5819183183e+01   3.0709005376e+01    0.1727676    0.1044535  63.67 0.0009433837    1.629    0.386
       172 -10.5643     75.4879    120.0151   9.3858290697e+01   4.2646043636e+01    0.2374798    0.2108864  39.04 3.558364e-05    1.203    0.169
       173 -10.4972     20.1423    118.0714   1.1102702230e+02   4.9514282633e+01    0.3393711    0.2164162 -79.15  0.001836856    1.456    0.313
       174 -10.6639    147.8188    247.5891   9.7848251665e+01   2.6713085752e+00    0.1784938   0.09908625  44.06 0.0009374444    1.597    0.374
       175 -12.2951      8.1723    112.5403   1.1400353554e+02   5.1706402449e+01    0.6229684    0.2366656 -66.59  0.002228388    2.008    0.502
       176 -10.3897    134.2648     14.8805   4.4835052854e+01   4.9277228850e+01    0.3107872    0.1825414  84.56  0.001464507    2.022    0.505
       177 -11.2411     12.8888    106.8167   1.1164652007e+02   5.2775899896e+01    0.4202784    0.2480136 -14.22  0.001903684    2.287    0.563
       178 -11.0499      7.4998    106.5678   1.1337785150e+02   5.3181868305e+01    0.2881885     0.163139 -74.44  0.001549537    1.515    0.340
       179 -10.3460     39.7074    116.2309   1.0447603939e+02   4.8184093247e+01    0.3463618    0.1851871  -3.24  0.001351048    3.442    0.709
       180  -9.5608     70.2551    114.1878   9.4181180021e+01   4.4854013219e+01    0.1950178    0.1679763  84.17 0.0005884095    1.318    0.241
       181 -10.1587    232.6613    111.3309   5.4907392335e+01   1.2093465793e+01    0.1434837    0.1005505 -65.81 0.0007051876    1.740    0.425
       182 -10.4686     16.8857    109.8641   1.1081013998e+02   5.1759646625e+01    0.2355008    0.1445071 -57.37 0.0006271768    1.335    0.251
       183  -9.3309     21.4719    108.5041   1.0908178262e+02   5.1740475443e+01    0.1321266    0.1093817 -61.64 7.318193e-05    1.010    0.010
       184 -10.6557    142.5087    101.4923   6.9930314344e+01   3.3827189173e+01    0.4035924    0.2672864  31.61  0.001340307    1.797    0.443
       185 -10.5040    146.3568     99.6103   6.8473864020e+01   3.3337202904e+01    0.3189216    0.2340312  36.46 0.0006859493    1.473    0.321
       186 -11.2199     15.5835    100.6366   1.0973702731e+02   5.4070108452e+01    0.3462205    0.1979075 -72.98   0.00116062    1.587    0.370
       187  -9.8525      4.5142     81.4939   1.1032915781e+02   5.9215473257e+01    0.1901319   0.08613177 -56.37   0.00064358    1.644    0.392
       188 -11.0976      4.1215     99.2923   1.1342963715e+02   5.5106922876e+01    0.3454202    0.1574497 -68.52  0.001003832    1.741    0.425
       189 -12.0058      4.2377     89.2137   1.1179038645e+02   5.7457928632e+01    0.9418246     0.215194 -54.36  0.003779698    2.769    0.639
       190 -10.2665      7.0077     20.3019   9.1741138231e+01   7.1345822696e+01    0.1900417     0.129032 -35.46 0.0005538888    1.199    0.166
       191 -10.8364     25.3697     96.9172   1.0564138193e+02   5.4205878661e+01    0.3236295    0.2835887  -1.58  0.001666193    1.307    0.235
       192 -10.4651    156.0505     96.9679   6.5484603054e+01   3.1628640938e+01    0.2236231    0.2179482 -28.81            0    1.044    0.042
       193 -10.5574     75.9364     94.9784   8.7483771800e+01   4.8514506432e+01    0.3851915    0.3266592  -5.84  0.002068213    1.290    0.225
       194  -9.2224     39.3442     96.3317   1.0055282855e+02   5.3038035173e+01    0.1467407   0.08989315 -33.00 0.0007050503    1.756    0.431
       195  -9.7247    116.1202    117.0057   8.1062015940e+01   3.6104824203e+01    0.2246154    0.1980848 -18.57 0.0003147697    1.239    0.193
