#   1 NUMBER                 Running object number                                     
#   2 MAG_AUTO               Kron-like elliptical aperture magnitude                    [mag]
#   3 X_IMAGE                Object position along x                                    [pixel]
#   4 Y_IMAGE                Object position along y                                    [pixel]
#   5 X_WORLD                Barycenter position along world x axis                     [deg]
#   6 Y_WORLD                Barycenter position along world y axis                     [deg]
#   7 A_WORLD                Profile RMS along major axis (world units)                 [deg]
#   8 B_WORLD                Profile RMS along minor axis (world units)                 [deg]
#   9 THETA_WORLD            Position angle (CCW/world-x)                               [deg]
#  10 FWHM_WORLD             FWHM assuming a gaussian core                              [deg]
#  11 ELONGATION             A_IMAGE/B_IMAGE                                           
#  12 ELLIPTICITY            1 - B_IMAGE/A_IMAGE                                       
         1 -14.5091    152.5821     58.6742   8.3551371013e+01   3.9358555051e+01     1.363555     1.138776  32.13 0.0009579479    1.270    0.212
         2 -14.9315    163.9212     44.0274   7.6701448271e+01   3.8709569130e+01     1.364588     1.116501 -13.47  0.004007478    1.361    0.265
         3 -14.9979    180.7315     10.6322   6.4056683690e+01   3.8396819603e+01     2.055653     1.163938  68.94  0.006860456    1.605    0.377
         4 -11.9754    125.1653    241.1723   1.2864521068e+02   9.2165122863e+00    0.4822327     0.148281 -54.33  0.002072715    3.886    0.743
         5 -19.9655     74.6332    168.4583   1.2996566217e+02   3.1182860751e+01      17.6255     7.641119 -66.41   0.07657867    2.273    0.560
         6 -13.5678    143.9039    173.2634   1.1481175686e+02   1.8439475132e+01     0.857428    0.7228683 -17.65  0.003626473    1.437    0.304
         7 -11.7324    188.0212    175.1855   1.0585770910e+02   9.5731025012e+00     0.326941    0.1937979 -57.54  0.001409726    2.428    0.588
         8 -12.4667    126.4708    172.1659   1.1852289372e+02   2.1902375757e+01    0.4984907    0.3997592  88.34  0.002432207    1.416    0.294
         9 -10.9088     11.9479    173.9612   1.4454832277e+02   3.7098977717e+01    0.1578321    0.1246449 -83.18            0    1.150    0.130
        10 -12.9170    177.4021    170.5555   1.0709511491e+02   1.2472613202e+01    0.4998513    0.2849012 -61.43  0.001980419    2.816    0.645
        11 -11.0034     17.2025    224.4741   1.4676371132e+02   2.6399762564e+01   0.09980153   0.06743347 -87.61 0.0002193879    1.272    0.214
        12 -10.9345     34.3329    169.7287   1.3935626165e+02   3.5871335389e+01    0.2058611    0.1828021 -78.56 0.0006163719    1.219    0.179
        13 -11.6120    230.3755    167.5945   9.6319506039e+01   2.8875597899e+00    0.3384005    0.1493278 -47.85  0.001306528    3.108    0.678
        14 -12.6867     22.7082    220.5551   1.4558411376e+02   2.6572917082e+01    0.2722381    0.1561974 -69.42  0.001801846    1.752    0.429
        15 -11.1071     25.3887    165.0619   1.4090125285e+02   3.7812880459e+01    0.1760562     0.167038  68.04 0.0005851007    1.306    0.234
        16 -13.5933    136.2403    170.0786   1.1593321893e+02   2.0535677281e+01    0.7247995    0.4747232  48.05  0.001997588    1.465    0.318
        17 -10.7111     23.5976    215.3574   1.4510901310e+02   2.7477465991e+01     0.155113   0.09928895 -76.19 0.0003506157    1.463    0.316
        18 -11.3716    218.1146    219.6399   1.0832010861e+02  -2.5976516086e+00    0.1942518    0.1630227 -31.93 0.0007293622    1.405    0.288
        19 -12.1117     22.5859    156.3475   1.4070517980e+02   4.0031736534e+01    0.3106406    0.2293984 -21.26  0.001891792    2.183    0.542
        20 -11.0903    110.8205    211.6826   1.2786353667e+02   1.6629660978e+01    0.2048571    0.1624881  77.62 0.0003676476    1.273    0.214
        21 -12.8057    106.6351    205.6357   1.2794128904e+02   1.8455510142e+01    0.3563948    0.2891468  89.85  0.001183641    1.259    0.206
        22 -11.2590    109.2124    239.7288   1.3143262101e+02   1.1880500221e+01    0.1621603    0.1418988  68.32 0.0006071331    1.130    0.115
        23 -13.1982     11.4197    206.1247   1.4675674215e+02   3.0496049713e+01    0.3625787    0.2381879  34.04  0.002181596    1.824    0.452
        24 -11.4587    152.9328    151.1669   1.0836465684e+02   2.1193027519e+01    0.2236758    0.1994474  81.79 0.0003460615    1.250    0.200
        25 -10.5899    153.2027    200.5207   1.1756603938e+02   1.1514221489e+01    0.2229714    0.1875438 -52.29 0.0006504434    1.335    0.251
        26 -11.6009    174.3440    148.4303   1.0305274127e+02   1.7308343993e+01    0.3658447    0.2844968 -59.14  0.001374842    1.484    0.326
        27 -10.7147    138.7346    200.3487   1.2052359366e+02   1.4099544652e+01    0.2083726    0.1817807  77.39 0.0007049945    1.226    0.184
        28 -10.8655    141.5501    198.7244   1.1968391615e+02   1.3909132766e+01     0.255188    0.1964313  69.87 0.0006750284    1.479    0.324
        29 -10.5122    121.8825    198.6744   1.2379866206e+02   1.7316940965e+01    0.1719904    0.1470082  57.56 0.0004035922    1.048    0.045
        30 -11.3380      7.9659    138.2886   1.4243259815e+02   4.5337126798e+01    0.2452947    0.2194768 -13.13  0.001142325    1.566    0.361
        31 -10.0718    111.8722    196.9572   1.2566994597e+02   1.9323318869e+01    0.4593105    0.2690809  18.84  0.001876592    3.253    0.693
        32  -9.8430    170.3130    136.6887   1.0123594781e+02   2.0483868240e+01    0.1509641    0.1217093 -85.68    0.0003758    1.631    0.387
        33 -12.5221    160.4738    128.0777   1.0135915877e+02   2.4366764752e+01     0.493894    0.3223997 -51.43  0.001938184    1.616    0.381
        34 -11.6352    153.0148    192.9099   1.1634080660e+02   1.2938095957e+01    0.3098848     0.252436  62.99 0.0009849982    1.319    0.242
        35 -10.7823     28.5201    238.7728   1.4564241358e+02   2.2596692062e+01    0.1334422   0.08352734  88.00 0.0006435582    1.360    0.265
        36 -11.7472     12.6461    241.6726   1.4837646045e+02   2.3746860552e+01     0.166316    0.1333833 -85.45  0.001140459    1.407    0.290
        37 -10.8871    167.6632    112.6577   9.5869301281e+01   2.5865671832e+01    0.3139545     0.226045 -80.24  0.001312684    2.064    0.516
        38 -11.9574    153.2033    186.0862   1.1511999299e+02   1.4183197349e+01    0.2911555    0.2485269 -79.61 0.0008063764    1.390    0.280
        39 -10.7466    205.3486    110.2620   8.7716072802e+01   1.7690941915e+01    0.3081519    0.2062649  45.68  0.001019246    1.560    0.359
        40 -11.6362     21.5939    237.1880   1.4670462360e+02   2.3621206109e+01    0.1356869    0.0927666 -89.66  0.001023914    1.279    0.218
        41 -11.6348    131.0732    234.8410   1.2679575548e+02   9.3208758983e+00    0.1699032     0.155157  86.36 0.0006986964    1.226    0.184
        42 -10.5560    141.5101    230.2448   1.2423473136e+02   8.3990408475e+00    0.2283043    0.1319182  54.93 0.0006991867    1.739    0.425
        43 -10.4281     30.4107    182.9432   1.4141700580e+02   3.3392824896e+01     0.162686    0.1605409  72.85 0.0003005513    1.418    0.295
        44 -11.0929    150.5346    180.4699   1.1468567591e+02   1.5760174841e+01    0.2637824    0.1395689 -48.94 0.0007045115    2.031    0.508
        45  -9.7025    151.2976    241.3035   1.2383104731e+02   5.0950749792e+00    0.1138765   0.08652074  15.44 0.0004382407    1.583    0.368
        46 -12.9784    142.0474    165.6570   1.1378653410e+02   2.0349158178e+01    0.5073706    0.3474234 -62.36 0.0006473848    1.675    0.403
        47 -11.0440    134.5792    243.9583   1.2723432978e+02   7.3180839153e+00    0.2817677    0.1431734 -37.63  0.001382222    3.201    0.688
        48  -9.9386    138.0115    242.0115   1.2637116333e+02   7.0845748556e+00    0.2392141    0.1522543  81.05  0.001252013    2.593    0.614
        49 -12.9993    168.3697     35.8921   7.3400139586e+01   3.8669786713e+01    0.4039332    0.3836909  -2.79 0.0008762645    1.141    0.124
        50 -11.2888     13.4927     59.9591   1.2855790049e+02   6.2606666125e+01    0.1785029    0.1632234  58.54 0.0004382337    1.416    0.294
        51 -10.1792    141.0962     32.6783   7.7346479830e+01   4.5926358970e+01    0.1995282    0.1702192  56.28 0.0004701085    1.116    0.104
