#   1 NUMBER                 Running object number                                     
#   2 MAG_AUTO               Kron-like elliptical aperture magnitude                    [mag]
#   3 X_IMAGE                Object position along x                                    [pixel]
#   4 Y_IMAGE                Object position along y                                    [pixel]
#   5 X_WORLD                Barycenter position along world x axis                     [deg]
#   6 Y_WORLD                Barycenter position along world y axis                     [deg]
#   7 A_WORLD                Profile RMS along major axis (world units)                 [deg]
#   8 B_WORLD                Profile RMS along minor axis (world units)                 [deg]
#   9 THETA_WORLD            Position angle (CCW/world-x)                               [deg]
#  10 FWHM_WORLD             FWHM assuming a gaussian core                              [deg]
#  11 ELONGATION             A_IMAGE/B_IMAGE                                           
#  12 ELLIPTICITY            1 - B_IMAGE/A_IMAGE                                       
         1 -14.2552     71.7103    148.4075   4.9588854673e+01   3.5614430114e+01     3.776635     1.900156  86.05  0.001457337    4.566    0.781
         2 -13.4531    225.2747     47.1911   3.5385606238e+02   2.5932932937e+01    0.8011361    0.7402416 -12.73  0.002411347    1.470    0.320
         3 -11.1916    249.8928     26.4050   3.4802654609e+02   2.4179724593e+01    0.6230014    0.1781539 -32.35  0.002916413    2.944    0.660
         4 -10.6223      2.1073      9.3369   4.5677672534e+01   7.8227493771e+01     0.532238   0.07871836 -55.60  0.001566289    6.192    0.838
         5  -9.7648    227.3055      9.6085   3.4577014737e+02   2.9887727965e+01    0.1961524    0.1568142 -52.90 0.0006849103    1.148    0.129
         6  -9.4117    194.0281      4.9655   3.4644589314e+02   3.6831436239e+01    0.1449667    0.1111303 -63.29 0.0004051054    1.007    0.007
         7  -8.9917    188.6983      2.3150   3.4610580364e+02   3.8201575530e+01     0.128726   0.06524682 -58.58 0.0007020912    1.615    0.381
         8 -10.0755    103.1870    238.3734   5.3135739680e+01   1.1239922740e+01    0.2823761    0.1546854 -47.22  0.001522304    2.063    0.515
         9  -9.3437     74.8742    249.1156   6.0541557294e+01   1.2412341792e+01    0.2877027    0.1230562 -50.49   0.00129635    2.800    0.643
        10 -12.7860     53.7382    218.1563   6.3061180146e+01   2.0852647160e+01     1.693457    0.9581715 -66.39    0.0055017    1.942    0.485
        11 -12.0468     18.7878    237.4172   7.2673008457e+01   2.0178954991e+01    0.3351442    0.2201234  72.77 0.0004731082    1.494    0.331
        12 -14.3077     27.8019    180.0099   6.7077739477e+01   3.2512175879e+01     2.011392      1.54769  85.29  0.008431022    1.264    0.209
        13 -14.6157     40.0493    171.0361   6.2610789014e+01   3.3603199492e+01     6.413017     3.202004  72.01   0.02528406    2.506    0.601
        14 -15.1535      6.9407    141.8197   7.0883296599e+01   4.4336339714e+01     9.610577     1.772938 -82.00   0.02427801    5.658    0.823
        15 -15.5761      5.6419    215.0674   7.4946037533e+01   2.6027299262e+01     3.007285     1.315333  19.49   0.01436047    2.247    0.555
        16 -14.5728     10.0837    206.4583   7.3495672150e+01   2.7624883896e+01     1.060853    0.7893736  12.35  0.003930209    1.489    0.328
        17  -9.7565     58.8587    231.9118   6.2894680934e+01   1.7421952297e+01     0.297985    0.1925443 -48.13  0.001408714    1.865    0.464
        18  -9.8075     54.2085    237.7076   6.4428129011e+01   1.6746299666e+01    0.2244193     0.208214 -85.97  0.000288301    1.252    0.201
        19 -11.6907     54.8281    231.0793   6.3798763067e+01   1.8015739790e+01    0.3179236    0.2183063 -75.71 0.0008431798    1.676    0.403
        20 -12.0696    107.8701    229.3874   5.1072595096e+01   1.2345276633e+01    0.4983157     0.359237  32.68   0.00300432    1.225    0.184
        21 -13.2093    126.7446    229.7181   4.6865249529e+01   1.0037976944e+01     1.247252    0.4924603  28.81  0.005714752    2.161    0.537
        22  -9.9962     47.1396    229.2181   6.5519619525e+01   1.9192015236e+01    0.2111367    0.1630506  68.54 0.0009305213    1.322    0.243
        23 -11.3672    118.1944    233.2342   4.9189154835e+01   1.0423453462e+01    0.2899746    0.2262606 -46.66 0.0009977859    1.454    0.312
        24 -10.8469     82.2348    221.0661   5.6238918246e+01   1.7020962493e+01    0.4736997    0.3342343  40.96  0.002199674    1.283    0.221
        25 -11.7172     97.2150    226.5833   5.3233323298e+01   1.4145593093e+01    0.6901165    0.4379431  33.21  0.003855296    1.353    0.261
        26 -10.1550     90.4644    225.9479   5.4764389443e+01   1.5068792991e+01    0.2847293    0.2274369  17.13 0.0007952529    1.148    0.129
        27  -9.0236     72.3582    225.0394   5.9042905167e+01   1.7345100417e+01    0.1634567    0.1543338  56.90 0.0003533883    1.135    0.119
        28  -9.8166    175.1443    223.1443   3.5942473521e+01   5.4664691157e+00      0.18897     0.133707  -8.87 0.0006118052    1.268    0.211
        29  -9.2317     32.3953    221.9635   6.8661217476e+01   2.2183312625e+01    0.1682211    0.1461816  68.18  0.000494752    1.136    0.120
        30  -9.9649     72.9034    233.2016   5.9651933631e+01   1.5642110202e+01    0.1956102     0.189685  28.42 0.0005302846    1.146    0.128
        31 -10.3218     87.6959    221.8694   5.4993938958e+01   1.6211313982e+01    0.4597317      0.28436 -61.34  0.002477597    1.845    0.458
        32  -8.5556    131.7975    211.6048   4.3314261363e+01   1.2721110191e+01    0.1703202     0.109458  34.61 0.0002168813    1.472    0.321
        33  -9.5468     95.5067    209.5463   5.1660713959e+01   1.7792174954e+01    0.3480553    0.1441123 -67.25   0.00136391    3.233    0.691
        34 -10.2564     73.0269    208.3326   5.7219332706e+01   2.0822028386e+01    0.3320975    0.2092284 -70.72  0.001190924    1.802    0.445
        35 -10.9286    103.5447    203.2609   4.8857559926e+01   1.8076392628e+01     0.297775    0.2463864  16.20  0.001401011    1.135    0.119
        36  -9.4668    210.8731    198.8944   2.5721825707e+01   5.1190301314e+00    0.1833524    0.1438358   1.99  0.000503186    1.160    0.138
        37 -11.8676    113.2526    182.9880   4.3446592461e+01   2.1102011389e+01    0.7247553    0.3531768  12.78  0.002504888    3.448    0.710
        38 -11.8761     96.7278    195.8787   4.9587168980e+01   2.0571404442e+01    0.5470117    0.3314945  32.99   0.00190901    1.497    0.332
        39 -11.2712    101.9598    194.0228   4.7987159491e+01   2.0272225324e+01    0.3283185     0.287138 -15.73  0.001911902    1.198    0.166
        40 -12.1745    107.4682    192.2087   4.6324764289e+01   1.9910217801e+01    0.5797651    0.3409447  11.27   0.00257329    2.097    0.523
        41 -11.1230    113.2368    196.2216   4.5471974869e+01   1.8256991038e+01    0.4330808    0.2372587  -8.56  0.001565747    3.568    0.720
        42 -11.6468     67.1568    189.9467   5.6760908879e+01   2.5752868248e+01    0.6186388    0.3364107  81.50 0.0009599543    2.746    0.636
        43 -10.6529    125.1877    188.3267   4.1345508426e+01   1.8235394524e+01    0.2815986    0.1244727  23.12  0.001086111    2.602    0.616
        44  -9.5002    105.3619    173.2439   4.3918902717e+01   2.4462117691e+01    0.3322392    0.1875366 -80.82  0.001198536    3.290    0.696
        45  -9.0809    170.6568    172.3036   2.8454958085e+01   1.4745466326e+01    0.1219053    0.1071358  82.13  0.000704022    1.683    0.406
        46 -10.4629    176.0969    168.4367   2.6660722777e+01   1.4657180701e+01     0.461045    0.1694639 -51.05  0.001706714    3.297    0.697
        47 -11.6149     80.4400    145.2500   4.6266489240e+01   3.5136331607e+01    0.8783706    0.5760537   4.19  0.001862503    2.145    0.534
        48 -11.7077     57.4267    160.8376   5.6010603944e+01   3.4270206413e+01    0.6048468    0.4079551 -43.89  0.001468944    1.644    0.392
        49 -10.6471    124.9617    248.5349   4.9483422774e+01   7.0443829961e+00    0.3324725    0.1443343 -43.79 0.0009732996    2.559    0.609
        50 -10.5548     41.1147    153.2094   6.0310092291e+01   3.8218118147e+01    0.2828291    0.2416139  64.12 0.0002900395    1.129    0.114
        51 -10.4759    133.6683    143.8395   3.1037374657e+01   2.6494622070e+01    0.8010917    0.2277079 -56.33  0.001886046    6.331    0.842
        52 -11.0995     37.5830    143.2314   6.0279484149e+01   4.1317811101e+01    0.5723054    0.2956363  62.97   0.00113394    2.322    0.569
        53 -10.3093    108.9484    145.3792   3.7829813092e+01   3.0449549227e+01    0.2766786    0.2673314  33.40 0.0006317169    1.038    0.037
        54 -13.7075     18.4605    165.6615   6.8822136206e+01   3.7054785961e+01     1.926258     1.042008  20.68  0.007464694    1.888    0.470
        55 -11.3591     43.8206    130.9647   5.6318456669e+01   4.4003215920e+01     0.434821    0.2997045  83.09  0.001634148    1.613    0.380
        56 -11.4131     47.6036    133.1876   5.5288900957e+01   4.2938558781e+01     0.497584    0.2207984 -64.48  0.001890342    2.128    0.530
        57 -13.4090      6.0534    187.8525   7.3759619077e+01   3.2371386060e+01     1.163578    0.8381426  63.67  0.003614577    1.218    0.179
        58 -10.7073     97.2949    133.5331   3.8738547287e+01   3.5341257999e+01    0.5968459    0.3931472  -0.69  0.002319465    2.491    0.599
        59 -11.5174     83.8642    131.7271   4.2544658755e+01   3.8075436175e+01    0.2984812    0.2893232 -83.41 0.0003747662    1.025    0.024
        60  -9.5869    113.2740    131.2206   3.3606914468e+01   3.3041149883e+01    0.2833963    0.2326612 -68.68 0.0007022647    1.323    0.244
        61  -9.9497    105.7079    130.4800   3.5585664248e+01   3.4594951666e+01     0.355132    0.3201058  83.99  0.001103857    1.212    0.175
        62  -9.2882    108.2617    126.1722   3.3873392266e+01   3.5159909962e+01    0.3066024    0.2363775   2.39 0.0007510937    1.702    0.413
        63 -11.6723     25.3545    129.0258   6.2950086660e+01   4.6458753269e+01    0.5309653    0.3230444  25.60  0.002114126    1.674    0.403
        64 -10.6865     18.7686    123.1637   6.4786122624e+01   4.8654745550e+01    0.3033187    0.2022904  31.91  0.001251385    1.516    0.341
        65 -10.7230     94.7194    121.1807   3.6769434140e+01   3.8857468169e+01    0.3413549    0.2892988 -12.10 0.0006277984    1.396    0.284
        66 -13.2847     59.6914    144.6284   5.2903173594e+01   3.8283802682e+01     1.370649    0.8316537 -17.52  0.001157438    2.587    0.613
        67  -9.7867     86.3181    120.6184   3.9325660029e+01   4.0494055444e+01    0.5082725    0.3119679  85.22  0.001766793    2.998    0.666
        68  -9.1921    114.8558    121.1777   3.0841605974e+01   3.5090527130e+01    0.2167896    0.1854865 -16.35  0.001081935    1.343    0.255
        69 -10.8673     39.5201    120.0514   5.6196030005e+01   4.7519428239e+01    0.3554684    0.1911839  57.95 0.0007904214    2.243    0.554
        70 -12.5575     26.1116    117.2344   6.1099444445e+01   4.9682078686e+01    0.8717534    0.4771761  50.40  0.002151903    1.952    0.488
        71  -9.6369    104.9839    116.1192   3.2435689327e+01   3.8170199301e+01    0.3085666    0.2187317  31.57  0.001111605    1.529    0.346
        72 -10.4104    180.6565    167.6489   2.5635000932e+01   1.4133190149e+01    0.2988622    0.1632013 -44.89  0.001125993    1.731    0.422
        73 -10.3176    243.5470    114.3071   5.7361747156e+00   1.3685826993e+01      0.22342   0.08519976 -40.59 0.0007578181    1.962    0.490
        74  -8.9425     80.1544    114.9749   4.0080055269e+01   4.2999963142e+01    0.2725079    0.1837694  83.72  0.001084533    2.166    0.538
        75  -9.0881    121.4799    113.9207   2.7271303922e+01   3.5448170634e+01    0.2282737    0.1464315 -49.39  0.000496558    1.515    0.340
        76  -8.6243     76.4747    120.5215   4.2608032921e+01   4.2191504186e+01    0.1543882    0.1502656  87.10 0.0008097089    1.015    0.014
        77  -9.7664     41.4641    113.3659   5.4258434433e+01   4.9140738121e+01    0.2567298    0.1434881  25.83  0.001064349    1.841    0.457
        78 -10.5160     35.7860    107.6084   5.5543032347e+01   5.1377126377e+01    0.4246602    0.1653437  45.07  0.001458154    2.829    0.646
        79 -12.5195     22.3979    103.6907   6.0641925176e+01   5.3780995802e+01     1.125545    0.4323018  43.30  0.003168355    2.769    0.639
        80 -11.2816     32.3696    109.2044   5.7262323497e+01   5.1303081948e+01     0.456902    0.2438897 -80.34  0.001836913    2.044    0.511
        81  -9.7371    114.4546    105.1847   2.6929139494e+01   3.8820774406e+01     0.215802    0.1444561 -60.61 0.0004076026    1.632    0.387
        82  -8.9050     84.7173     98.9703   3.4454595144e+01   4.6166705868e+01    0.2130975    0.1944604 -57.68 0.0002502805    1.083    0.077
        83  -8.2721     64.6851     97.2679   4.1368036138e+01   5.0147068273e+01    0.1545803    0.1174181  66.40 0.0002652527    1.550    0.355
        84 -11.3659     54.2470     93.7177   4.4689142459e+01   5.2703880669e+01    0.6725752    0.2019454 -55.86  0.002115226    3.029    0.670
        85  -8.5883    105.2249     93.4223   2.6340113005e+01   4.3354705050e+01      0.20972    0.1450712  57.79 0.0005728696    1.576    0.366
        86  -9.2558    100.6518     88.0118   2.6138668018e+01   4.5509885039e+01    0.4316984    0.2517173 -72.98  0.001474972    3.092    0.677
        87  -8.4835     75.7327     89.7093   3.5065090316e+01   5.0087111402e+01    0.1491556    0.1204592 -18.34 0.0006910533    1.505    0.336
        88  -9.4831     40.1357     87.4446   4.9336877862e+01   5.6297509122e+01    0.2404661    0.2028434  77.83 0.0004942964    1.320    0.243
        89  -9.8875     50.1858     83.9958   4.3865701021e+01   5.5800373956e+01    0.2300232    0.1988772  77.93 0.0005424367    1.298    0.230
        90  -9.1996     36.2854     80.0418   4.9297986802e+01   5.8701758414e+01     0.207382    0.1865131 -55.72 0.0004534686    1.073    0.068
        91  -8.6477    103.4666     78.4918   2.2386603295e+01   4.6937909154e+01     0.153192    0.1438434 -85.02 4.687189e-05    1.062    0.059
        92  -9.3673    242.3443     93.3238   1.7890138264e+00   1.6861306316e+01    0.1100034   0.08315801 -10.27 0.0007050433    1.736    0.424
        93 -13.3434     12.4901    245.9812   7.4411024160e+01   1.9014067358e+01     1.145257    0.3619255 -57.05  0.004756208    4.273    0.766
        94  -9.4573     84.2387     72.9324   2.6748513550e+01   5.2232037956e+01    0.2692139    0.2145399  45.69 0.0005692848    1.245    0.197
        95 -10.2659     64.3171     70.6168   3.3593544599e+01   5.6663196232e+01    0.5060833    0.3147742  66.84  0.001544133    2.531    0.605
        96  -8.8006     93.3350     68.9751   2.2380827731e+01   5.1106839956e+01    0.2079065    0.1926086 -59.49  0.000434982    1.083    0.077
        97  -9.9838     26.3373     69.1921   5.1550062570e+01   6.2609043869e+01    0.3692633    0.1437084  39.75  0.001363563    2.742    0.635
        98  -8.7922     80.4851     68.5701   2.6596246712e+01   5.3937640473e+01    0.1490644    0.1441233  69.17 0.0001145175    1.030    0.029
        99 -11.9066    201.7695     62.4111   3.5948346773e+02   2.8274058806e+01    0.4012912    0.3501799 -48.26  0.001237739    1.115    0.103
       100 -13.0503    212.4529     55.8255   3.5687304414e+02   2.7152368854e+01    0.9049334    0.7545567 -37.68  0.003639681    1.221    0.181
       101  -9.7008    101.5857    246.7220   5.4355250886e+01   9.9368822574e+00    0.2011628    0.1110794 -51.39  0.001109479    2.091    0.522
       102  -8.9708     64.6673     63.7233   3.1035602074e+01   5.8121158983e+01    0.1479872    0.1167968   0.34 0.0002128972    1.602    0.376
       103 -10.3557     67.6589     60.2990   2.8537834109e+01   5.8266669620e+01    0.3065161    0.2392935  81.00 0.0008655947    1.688    0.408
       104  -9.2643     58.3183     59.5807   3.2264454858e+01   6.0194945086e+01    0.2995124    0.1187867  51.25 0.0009572784    3.397    0.706
       105  -9.5975     78.5147     56.8399   2.3052847094e+01   5.6722442613e+01    0.2138499    0.1458405 -43.30  0.000467997    1.506    0.336
       106 -14.8866      5.6173    231.3747   7.5491697324e+01   2.2520047713e+01      1.96516     1.214922  63.95   0.01201146    1.422    0.297
       107  -8.6746     75.6869     49.7334   2.1305633861e+01   5.8667094703e+01    0.1424743    0.1125228  17.94 0.0002161045    1.545    0.353
       108 -11.2704     13.3095     43.7116   5.1820627910e+01   7.0033532199e+01    0.4064035    0.2067104  36.01  0.001024622    2.092    0.522
       109 -10.5056      7.2047     45.2227   5.6578583646e+01   7.0161964380e+01    0.1790297    0.1548159  52.14 0.0008246838    1.357    0.263
       110 -10.7687      2.4133     39.0534   5.8248685627e+01   7.1914878952e+01     0.284548    0.2467826  84.83  0.001246636    1.367    0.269
       111  -9.2976    110.6452    167.1438   4.1473072445e+01   2.5060979209e+01    0.2374887    0.1937284  45.93 0.0004976203    1.264    0.209
       112  -9.8586     53.0593    245.7858   6.5246780026e+01   1.5292556841e+01    0.1930096    0.1663489 -81.94 0.0006179547    1.367    0.269
       113 -10.2583      2.2444     22.7899   5.2520174640e+01   7.5536605316e+01    0.2624071    0.1475717 -64.81  0.001092912    1.909    0.476
       114  -9.5459     60.6287     21.3362   1.4030657410e+01   6.6496873749e+01    0.2426541    0.1962796  58.92 0.0006804809    1.200    0.167
       115  -8.8018    189.3957     15.1918   3.4923008457e+02   3.6750509784e+01    0.1740799   0.08744127 -44.12 0.0006231804    1.610    0.379
       116 -11.3314     62.8612    156.8667   5.3737601428e+01   3.4614914224e+01    0.4751596    0.3266529 -45.53  0.001140238    1.569    0.363
       117 -11.6920     43.1206    243.7148   6.7392229607e+01   1.6676317410e+01    0.2773342    0.1940984 -86.92 0.0009015046    1.642    0.391
       118 -10.0825    108.6184    240.2819   5.2123031644e+01   1.0278456428e+01    0.2434656     0.145996 -47.71   0.00138787    1.885    0.470
       119  -9.0279     67.2996    239.8748   6.1530428549e+01   1.4949369608e+01    0.2421559    0.1140309 -69.48  0.001204357    2.552    0.608
