#   1 NUMBER                 Running object number                                     
#   2 MAG_AUTO               Kron-like elliptical aperture magnitude                    [mag]
#   3 X_IMAGE                Object position along x                                    [pixel]
#   4 Y_IMAGE                Object position along y                                    [pixel]
#   5 X_WORLD                Barycenter position along world x axis                     [deg]
#   6 Y_WORLD                Barycenter position along world y axis                     [deg]
#   7 A_WORLD                Profile RMS along major axis (world units)                 [deg]
#   8 B_WORLD                Profile RMS along minor axis (world units)                 [deg]
#   9 THETA_WORLD            Position angle (CCW/world-x)                               [deg]
#  10 FWHM_WORLD             FWHM assuming a gaussian core                              [deg]
#  11 ELONGATION             A_IMAGE/B_IMAGE                                           
#  12 ELLIPTICITY            1 - B_IMAGE/A_IMAGE                                       
         1 -13.1608     55.8454     37.9640   5.7297146483e+01   5.9552894291e+01     1.496945    0.5109729 -25.10  0.005854032    3.947    0.747
         2 -12.9289     38.2355     49.6970   6.6864182285e+01   6.0262472006e+01     1.053122    0.6104799 -40.96  0.006323206    1.642    0.391
         3 -11.9160    112.9741     26.4737   3.9437935050e+01   5.1092989561e+01    0.3978524     0.288321  31.99  0.002536325    1.368    0.269
         4 -12.5533     26.5837     50.3738   7.0985939704e+01   6.1455130789e+01     1.498513    0.7019394 -53.99   0.00682729    3.525    0.716
         5 -11.2151     23.0082     23.7960   6.2800997309e+01   6.5406137168e+01    0.4771237    0.2423343  -9.86  0.001549769    2.292    0.564
         6 -10.2546     24.5301      7.7607   5.5976828431e+01   6.6904093927e+01    0.2170078     0.199565  86.04  0.001678017    2.478    0.596
         7 -10.6887     41.4146     17.9673   5.4454665907e+01   6.3782860444e+01    0.4197263    0.3949867  57.46  0.003351901    1.771    0.436
         8 -12.3740     54.4069     13.2992   4.8848991544e+01   6.2388299395e+01    0.7047392    0.3053719  31.36  0.003464306    2.280    0.561
         9 -11.1890     62.5929     13.3885   4.6647670466e+01   6.1134012882e+01    0.5493301    0.1890302  40.21  0.002169454    2.561    0.610
        10 -10.5154     38.5312      8.4940   5.1713368958e+01   6.5057958115e+01    0.5451377    0.4803042  84.29  0.004068177    2.364    0.577
        11 -11.9375     30.6052     13.7472   5.6313680776e+01   6.5593352068e+01    0.4930412    0.2175412 -25.28 0.0008110803    2.081    0.520
        12  -9.6318     35.5602     14.4593   5.4970200573e+01   6.4897726684e+01    0.2089979     0.124995  16.42  0.001208732    1.539    0.350
        13 -11.6690    128.2980     10.7126   3.2203175638e+01   4.9543454773e+01    0.2951403     0.230808 -70.20 0.0001628199    1.540    0.351
        14 -10.7773    129.3349     18.8781   3.4289240269e+01   4.8618873090e+01    0.4461574    0.2066274 -21.43  0.002262766    2.591    0.614
        15 -11.5884     28.4345      2.7958   5.2660661590e+01   6.6860844240e+01    0.4065667    0.2001425  33.81  0.002703009    1.768    0.434
        16 -11.8307     18.4703      3.6392   5.6389220592e+01   6.7990577717e+01    0.5153162    0.2965106  23.01  0.003753928    1.487    0.328
        17 -11.9868     10.9964      3.1604   5.8885000436e+01   6.8863951568e+01    0.2054079     0.141909   2.68 0.0003840893    1.057    0.054
        18 -11.8663     11.6233     23.7323   6.6895264833e+01   6.6595197103e+01    0.5749261    0.2587412  14.09  0.002659695    2.809    0.644
        19 -12.6683      4.2789     18.0943   6.7504201187e+01   6.7958702675e+01    0.4063188    0.3072311 -41.84  0.002072781    1.905    0.475
        20 -11.9751      7.1175     10.2699   6.3290605824e+01   6.8560095366e+01    0.4514839    0.2260038  12.17  0.001297397    2.084    0.520
        21 -11.4560     18.8162     16.1441   6.1328046944e+01   6.6721763007e+01    0.5027941    0.2550093   3.63  0.002887831    2.416    0.586
        22 -13.1252    238.2028     17.5236   2.1264617980e+01   2.6780328761e+01     0.307137     0.217353 -78.89 0.0005827518    1.150    0.131
        23 -12.0170    234.6835     10.6112   2.0289397391e+01   2.8231431647e+01    0.2248498     0.212411 -62.75 0.0006622988    1.414    0.293
        24 -11.7371     78.0847     10.4970   4.1795815401e+01   5.8853478047e+01    0.4295077    0.1588356  49.24 0.0007219537    2.276    0.561
        25 -10.6958     70.6174     13.2734   4.4545622021e+01   5.9863851935e+01    0.2520429    0.1743963   3.14 0.0008380658    1.409    0.290
        26 -11.5880    168.9921     14.8007   2.7580436619e+01   4.0933319765e+01    0.3703486    0.1572506 -30.86  0.001890419    2.561    0.609
        27 -10.9328    155.5370     11.5244   2.8494852876e+01   4.3995194417e+01    0.3975382    0.1785437 -37.41  0.002133763    2.318    0.569
        28 -11.0186     13.4040     14.0360   6.2457162190e+01   6.7524639305e+01    0.5344955    0.2019594  20.27  0.002549767    3.724    0.732
        29 -10.6236    138.4876     11.1520   3.0766117776e+01   4.7478409213e+01    0.2820303    0.1710227 -44.67  0.001712558    1.854    0.461
        30 -10.7566    118.7837     12.5539   3.4290212132e+01   5.1251295135e+01    0.2120127    0.1786171  35.93 0.0002690784    1.122    0.109
        31  -9.7118    118.3515      8.2020   3.3118287587e+01   5.1689941683e+01    0.2167475    0.1641387 -40.95  0.001368348    1.524    0.344
        32 -11.6938    145.6524      7.8070   2.8886167561e+01   4.6322283595e+01    0.3137328    0.2322448 -12.62  0.001239346    1.657    0.396
        33  -9.7913    107.9430     10.1113   3.5501231319e+01   5.3524896356e+01     0.204263    0.1454013 -17.20  0.001111575    1.544    0.353
        34 -10.7401    176.1066     10.2228   2.5695492441e+01   3.9913952558e+01    0.2815616    0.1168623  52.01  0.001413729    2.430    0.589
        35 -11.6773    241.3596      9.0753   1.9508830494e+01   2.7142565073e+01    0.2083453    0.1288263 -89.04 0.0006753419    1.390    0.280
        36 -11.2840    164.5303      6.5236   2.6179056653e+01   4.2609283169e+01    0.3565709    0.1797349 -31.89  0.001774183    2.163    0.538
        37 -12.1239    214.2903      6.2541   2.1134570275e+01   3.2634057796e+01    0.4397573    0.3156732 -64.97  0.002289664    1.215    0.177
        38 -10.8286    209.7904      1.6128   2.0619768661e+01   3.3977213910e+01    0.2388174    0.1438251  79.56  0.001187192    1.430    0.300
        39  -9.6840    113.2094      8.5494   3.4096986182e+01   5.2649956059e+01    0.2689576   0.06618939  52.79  0.001151975    3.004    0.667
        40 -10.0289    195.2068      1.6658   2.1913410248e+01   3.6856404498e+01    0.1574493   0.08237939  65.11 0.0006798531    1.688    0.408
        41 -10.0112    188.7460      6.0000   2.3434708497e+01   3.7746911180e+01    0.3739982    0.1731105 -78.31  0.001743514    3.044    0.671
        42  -9.7105    100.4567      6.7784   3.5888377975e+01   5.5179577189e+01    0.1466419   0.09618758   7.08  0.000572328    1.746    0.427
        43 -10.6618     92.1299      6.6025   3.7467536019e+01   5.6706352493e+01    0.2485053    0.1412465  48.88  0.001058757    1.484    0.326
        44  -9.8212     68.8804      5.7180   4.2328190978e+01   6.0755930230e+01    0.1421523    0.1181306  24.28 0.0004359039    1.053    0.050
        45 -10.1577    222.9825      4.5687   2.0102320608e+01   3.1115937428e+01    0.1692168    0.1243665 -52.77  0.000753255    1.296    0.228
        46  -9.5023    131.2502      5.5490   3.0347584529e+01   4.9378747667e+01    0.1514501   0.08665533  52.43 0.0003258435    1.509    0.337
        47  -9.5553    109.2587      5.5479   3.3907524336e+01   5.3630691709e+01    0.1526994   0.08433764  48.35 0.0008760716    1.533    0.348
        48 -10.0559     58.8619      5.3772   4.4729577368e+01   6.2371680544e+01    0.2462537    0.0801122  47.55  0.001123063    2.599    0.615
        49 -11.1360    243.3013      2.6038   1.8244672362e+01   2.7482696823e+01    0.2535209    0.1236115 -59.39  0.001483238    1.738    0.424
        50 -10.5207    178.6243      3.6434   2.3960666011e+01   4.0006877690e+01    0.2236101     0.142683 -89.67 0.0006881882    1.514    0.339
        51  -9.5247    126.1699      2.7328   3.0347454143e+01   5.0591298416e+01    0.1476892    0.1104667  37.33 0.0005807274    1.319    0.242
        52  -9.3094     98.1093      3.1740   3.5221336389e+01   5.5875399053e+01    0.1518817    0.1000474  26.58  0.001004071    1.511    0.338
        53 -10.1762     74.2105      2.2448   3.9871686002e+01   6.0130704362e+01    0.2339555    0.1743506 -87.01  0.001519629    2.408    0.585
        54 -11.9711    160.3383     22.1809   3.0473136360e+01   4.1983540820e+01    0.4523244    0.3282326  33.38  0.002139541    1.683    0.406
        55 -11.3027    236.8264      2.0040   1.8596230028e+01   2.8750005343e+01    0.1976674     0.129119  84.17  0.001403976    1.304    0.233
        56 -10.5609    148.6956      1.9470   2.7018370661e+01   4.6188493976e+01    0.1443048    0.1348094  73.24 0.0005078277    1.088    0.081
        57  -9.5985     91.0820      1.8986   3.6178634359e+01   5.7234795005e+01    0.1432689    0.1031275  27.68 -0.0009232552    1.276    0.216
        58  -9.7043     58.8820    181.8483   9.2246248792e+01   2.9464183012e+01    0.2069768    0.1715503 -55.22 0.0006172961    1.203    0.169
        59 -11.0521    247.3481    250.0616   6.6112530739e+01  -1.4266383394e+01    0.2297685    0.1610903  17.45  0.001477214    1.418    0.295
        60 -12.5350    226.5802    245.5951   6.8936843972e+01  -1.0824228438e+01    0.6592796    0.4058258 -14.97  0.003540597    1.874    0.466
        61 -12.5201    233.4386    246.2984   6.7851340827e+01  -1.1873678977e+01     0.594877    0.3318112 -37.51  0.003305348    1.627    0.385
        62 -11.9034     89.2329    249.2833   9.5375883199e+01   9.5778226884e+00    0.3223186    0.2617519  50.05 0.0008293802    1.246    0.197
        63 -10.1514     72.3993    250.1391   9.8570017459e+01   1.1814815409e+01    0.1977181    0.1770439  26.09  0.001308746    1.546    0.353
        64 -11.9158     28.7311    246.2280   1.0586254435e+02   1.8254871550e+01    0.5763726     0.262962 -84.82  0.002896687    2.142    0.533
        65 -12.2656     18.9062    237.3769   1.0676610070e+02   2.1260792560e+01    0.5017912    0.3693777  59.08  0.003447704    1.355    0.262
        66 -12.7681      6.2040    245.1879   1.0950934191e+02   2.0958797216e+01    0.7108279    0.4494267  86.94  0.003474369    1.196    0.164
        67 -11.9833     22.4920    248.6508   1.0711609732e+02   1.8463900798e+01    0.4123513    0.2690837  58.21  0.002369936    1.420    0.296
        68 -10.6891     17.4897    247.4157   1.0784195917e+02   1.9282542720e+01    0.2292476    0.1489328 -84.77 0.0004667412    1.185    0.156
        69 -11.6744     14.4701    245.0098   1.0814646928e+02   2.0118118419e+01    0.3913363    0.1768106 -74.46  0.001406225    1.775    0.437
        70 -10.0455     46.9626    177.0541   9.4194400611e+01   3.2146780587e+01    0.2194471    0.1777269 -69.09  0.001301501    1.031    0.030
        71 -10.4658     18.5107    173.0379   9.9973499210e+01   3.6197702792e+01    0.2283844    0.1601683  63.75  0.001039614    1.599    0.374
        72  -9.0233     34.2883    172.3731   9.6363518075e+01   3.4748509134e+01    0.1390901   0.08383421 -46.66 0.0007020591    1.719    0.418
        73 -11.0374     35.4646    161.3842   9.4420139300e+01   3.7307381465e+01     0.276987    0.2531252 -18.39 0.0001200525    1.422    0.297
        74 -11.4062     36.9860    165.9750   9.4782353259e+01   3.6018972432e+01     0.498996    0.2943158 -89.25  0.002373957    2.026    0.506
        75 -10.6908     33.1719    166.1779   9.5698545865e+01   3.6382397233e+01    0.2301713    0.1811913 -70.32 0.0003122911    1.014    0.014
        76  -9.7057    177.1624    168.6077   6.3237451730e+01   1.2459365813e+01    0.1917219    0.1472534  28.57 0.0002037744    1.572    0.364
        77 -10.5750      5.0441    168.4757   1.0233522063e+02   3.8493550058e+01    0.1507894    0.1279376  32.54  0.001032507    1.596    0.373
        78 -11.7928     52.1921    162.7406   9.0661849028e+01   3.5039396443e+01    0.7634032    0.4454998 -76.19  0.003577621    1.788    0.441
        79 -10.1331     55.4932    161.0041   8.9566133737e+01   3.5054970115e+01    0.2730969    0.1538022 -71.04  0.001084189    1.726    0.421
        80  -9.3021     18.3419    167.2549   9.9236785628e+01   3.7607124679e+01    0.1226334   0.08385094 -45.10 0.0006952994    1.581    0.367
        81  -9.4487    210.9872    166.0212   5.6166340610e+01   6.6703176558e+00    0.1822586    0.1492257 -43.71 0.0005752954    1.051    0.048
        82  -9.9239     67.1803    165.1791   8.7503834500e+01   3.2478184262e+01    0.2001481    0.1591762  85.65  0.001080414    1.360    0.265
        83  -9.2799    112.0000    164.0228   7.6594435012e+01   2.5731637800e+01    0.2565435    0.0790596 -52.53 0.0007371776    2.884    0.653
        84 -10.8957     44.3421    162.7472   9.2535564569e+01   3.5978957882e+01    0.3217807    0.1644801 -66.51  0.001493828    1.661    0.398
        85  -9.3206    221.2373    161.0157   5.3274867007e+01   5.8459082922e+00    0.1903676    0.1058089 -43.51 0.0003709491    1.521    0.343
        86 -12.0408     20.9938    157.0182   9.7163742359e+01   3.9825072747e+01    0.4542748     0.370039 -26.71  0.002875893    1.584    0.369
        87  -8.7298    116.0032    159.0000   7.4584652164e+01   2.6247046516e+01    0.2376717   0.08944445  40.49   0.00080809    2.982    0.665
        88  -9.6284    247.6744    157.3455   4.8164545719e+01   2.0016359164e+00    0.1401542   0.09747096 -65.91 -1.900669e-05    1.744    0.427
        89 -11.5501     10.0252    152.5950   9.9097472760e+01   4.1853118708e+01    0.2655354    0.2244304  64.73 0.0006850719    1.406    0.289
        90  -9.2446    222.7756    151.9846   5.1074559002e+01   7.4046021363e+00    0.1983769    0.1034288 -43.68 0.0004355288    1.615    0.381
        91  -9.5521    169.9560    152.2114   6.1057094038e+01   1.7534485969e+01    0.1949053    0.1273633  47.15 0.0008683976    1.711    0.416
        92  -9.6809    176.7576    149.8103   5.9121651889e+01   1.6719344564e+01    0.2082422    0.1730608 -72.59 0.0006460299    1.308    0.235
        93 -10.0956     14.9804    147.9983   9.7233343764e+01   4.2524913853e+01    0.1945718    0.1357297  84.00 0.0009091835    1.614    0.381
        94 -10.1334    207.0844    146.5141   5.2610452574e+01   1.1474849236e+01    0.2024569    0.1505062  49.55 0.0008600511    1.559    0.359
        95 -10.2555      8.6661    144.9965   9.8306860035e+01   4.3760326135e+01    0.2168032    0.1395042  -3.74  0.001201603    2.460    0.593
        96 -10.6585    218.7974    144.6146   5.0151700574e+01   9.6399251912e+00    0.3911475    0.1309165  41.09  0.001263662    4.227    0.763
        97 -10.1631     76.4879    142.5022   8.0716965366e+01   3.6717875423e+01    0.1477796    0.1261559 -58.92 -0.0001272361    1.034    0.033
        98  -9.2662    204.5296    141.5258   5.1954237009e+01   1.3009798216e+01    0.1514004    0.1297525 -52.10 6.579672e-05    1.032    0.031
        99  -9.5346    240.4612    140.4552   4.5768305630e+01   6.5103102241e+00     0.142183    0.1158087 -47.60 0.0001293429    1.003    0.003
       100  -9.7772     13.7797    140.1340   9.6291129319e+01   4.4485150654e+01     0.175402    0.1177073 -48.23 0.0002749658    1.337    0.252
       101  -9.3833    143.7761    137.0588   6.3132907425e+01   2.6167514970e+01    0.2063775     0.117396 -48.18 0.0004488275    1.588    0.370
       102 -11.0671      9.3128    136.2786   9.6790044446e+01   4.5748885224e+01    0.2185559    0.1653573 -68.12 0.0002305419    1.086    0.079
       103 -10.5485    241.1443    134.3321   4.4379735354e+01   7.5739811195e+00    0.2582593    0.1687567 -48.81 0.0005218972    1.256    0.204
       104  -9.7851     20.8290    134.8026   9.3602527585e+01   4.5125893553e+01    0.1771152    0.1304453 -78.08 0.0006523103    1.337    0.252
       105 -10.4076      2.8208    134.6316   9.8161375092e+01   4.6621273547e+01    0.1842509    0.1202398 -58.74 0.0007082594    1.139    0.122
       106 -11.3349     55.2016    132.4210   8.4104535822e+01   4.2015845809e+01    0.5570549      0.25475  31.76  0.002418922    2.665    0.625
       107 -10.0786     79.8947    132.1344   7.7535856499e+01   3.8677024577e+01    0.2170345    0.1869057 -44.36 0.0004698467    1.068    0.064
       108 -11.5253     36.7102    130.5693   8.8643701437e+01   4.4574780293e+01    0.5067003    0.2431027 -47.13  0.002181127    1.760    0.432
       109  -9.3974     56.5147    126.6086   8.2495099446e+01   4.3209061594e+01    0.1382397    0.1163275 -48.89 -4.610395e-05    1.031    0.030
       110 -10.8485     15.1739    125.7390   9.3466366623e+01   4.7708732856e+01    0.3202839    0.1904939  25.37  0.001817024    2.175    0.540
       111 -11.5157     10.5735    123.2206   9.4238727890e+01   4.8650238264e+01    0.4135624    0.2564847 -63.31  0.001738481    1.262    0.208
       112 -11.0459     73.8394    128.9183   7.8385714787e+01   4.0323535860e+01    0.3276087    0.2822923 -47.76  0.001122905    1.027    0.026
       113  -9.6148    219.7181    123.9814   4.5466130194e+01   1.3599550557e+01    0.2111663    0.1625159 -47.38 0.0006618667    1.105    0.095
       114  -9.8418    243.6153    122.2893   4.1498573052e+01   9.4239080513e+00    0.1891213     0.112448 -38.93  0.000392481    1.516    0.340
       115  -8.9954     64.7031    119.7109   7.8691671478e+01   4.3715977050e+01    0.1388848   0.09719698 -28.89 0.0002809513    1.554    0.357
       116 -12.0342     15.7477    115.0982   9.1293646784e+01   5.0060800660e+01    0.5071189    0.2434407 -59.38 0.0005025301    1.607    0.378
       117 -10.3552      9.5244    111.5232   9.2331858714e+01   5.1338614543e+01    0.2600909    0.1723754 -33.76 0.0009226411    1.506    0.336
       118 -11.5686     15.9570    108.1238   8.9817227965e+01   5.1575397259e+01    0.4378447    0.2759001  14.98  0.002057788    2.057    0.514
       119 -10.6004      1.3762    118.5882   9.5883617102e+01   5.0361198772e+01    0.2259022   0.08857443 -62.18 0.0002124202    1.868    0.465
       120 -10.2532     23.8099    118.1021   8.9654049928e+01   4.8694646731e+01    0.1837087    0.1218599 -42.59 0.0005728554    1.317    0.241
       121 -10.6269     72.5138    116.2666   7.5729290795e+01   4.3393617818e+01     0.367906    0.2106829 -59.43 0.0009611538    1.790    0.441
       122  -9.7489    179.1693    116.1612   5.0718897576e+01   2.3402420639e+01      0.20966    0.1677418 -69.56 0.0008467143    1.314    0.239
       123  -9.5696     86.2717    115.9832   7.1959479790e+01   4.1365935091e+01     0.209953    0.1639054 -44.97 0.0004117487    1.120    0.107
       124 -10.5330     52.4003    115.4820   8.1095947310e+01   4.6249717169e+01    0.3651704    0.1818553 -64.82  0.001529953    2.389    0.581
       125 -11.6679     54.8326    109.1501   7.8895187674e+01   4.7341709063e+01    0.3952723    0.2293689 -47.61 0.0003803843    1.422    0.297
       126 -10.2998     52.2173    103.7345   7.8298893885e+01   4.8826521086e+01     0.212318    0.1908611 -14.66 0.0006792121    1.177    0.150
       127  -9.9272    213.9408    115.5121   4.4507014062e+01   1.6391339887e+01     0.190677    0.1436695  58.02 0.0004557671    1.511    0.338
       128 -11.1707    249.5376    111.9835   3.8555722986e+01   1.0259782852e+01    0.2781631    0.1966258 -50.17 0.0004866429    1.130    0.115
       129 -10.5139     94.4055    112.2317   6.8857469725e+01   4.0851597166e+01    0.3238113    0.2470803 -41.34  0.001132567    1.172    0.147
       130  -9.9313    183.4765    114.5102   4.9517035688e+01   2.2835484206e+01    0.1500061    0.1334371 -54.25 1.364803e-05    1.004    0.004
       131  -9.1663     22.2833    110.3320   8.8472003848e+01   5.0555510471e+01    0.1331867   0.07550907 -38.88 0.0004256413    1.614    0.380
       132 -11.0104      2.4431    107.4530   9.3539429685e+01   5.2730461215e+01    0.4850334    0.2064808 -52.04  0.002541223    1.659    0.397
       133 -10.5753     83.0327    107.6763   7.0688971993e+01   4.3673453789e+01     0.317183    0.2301471   2.80  0.001384849    1.840    0.457
       134 -10.4730    111.7610    105.9060   6.2770633896e+01   3.9117770731e+01    0.2643495    0.2008658  42.00  0.001363971    1.441    0.306
       135 -11.1296     22.2949     99.6066   8.6094116759e+01   5.2855539159e+01    0.5759876    0.3110228 -57.95  0.003092796    1.580    0.367
       136 -11.6578     27.7615    104.5850   8.5623195482e+01   5.1299347849e+01    0.4868805    0.4079358  14.68  0.002237882    1.447    0.309
       137  -9.8620    119.1624    104.3492   6.0549393195e+01   3.8045292140e+01    0.2080508    0.1756877 -28.49 0.0009422248    1.182    0.154
       138 -10.4273     37.7511    102.7601   8.2269398466e+01   5.0687018239e+01    0.2640512    0.2212873 -67.32  0.001238431    1.332    0.249
       139 -11.5647     62.2835     98.6223   7.4077677096e+01   4.8594527316e+01    0.3476917    0.2720763 -16.58  0.001074763    1.348    0.258
       140 -10.5868     66.8590     97.8979   7.2576828624e+01   4.8111988732e+01    0.2174293    0.1681343 -38.68  0.001245968    1.108    0.098
       141 -10.8462    144.0903     98.8737   5.3422301491e+01   3.4163142258e+01     0.350997    0.2947709 -70.98  0.001191843    1.305    0.234
       142  -9.6131    107.8843     99.4852   6.2001050843e+01   4.1127300406e+01     0.189995    0.1429503  44.33 0.0003398909    1.453    0.312
       143 -11.5802     52.3796     94.7318   7.5924023238e+01   5.0669108849e+01    0.5599226    0.2038305 -45.54  0.002336634    2.261    0.558
       144 -10.2615      9.9263     98.9172   8.9617976682e+01   5.4012216842e+01    0.2108888    0.1347384 -53.92 0.0006204034    1.194    0.163
       145  -9.6065     42.0326     97.4876   7.9702104190e+01   5.1324634249e+01    0.1610177    0.1073106  58.55  0.000808049    2.487    0.598
       146 -11.3139     14.1101     96.6430   8.7865043559e+01   5.4162627152e+01    0.2490061    0.2273113  -2.16  0.001813442    1.323    0.244
       147 -10.3140    101.4191     95.6868   6.2592821691e+01   4.3038418979e+01    0.2397208    0.1302838  41.86  0.001076488    2.004    0.501
       148 -12.0626    166.7018     83.4798   4.4939202643e+01   3.2216434001e+01    0.7606075    0.4623049  58.09  0.002584782    1.737    0.424
       149 -11.9402    160.4409     91.1414   4.8074631630e+01   3.2188482417e+01    0.6060846    0.4848707 -89.52  0.003201199    1.457    0.314
       150 -11.7982    156.7510     83.6677   4.6854589361e+01   3.4299178241e+01    0.6185133     0.509174 -79.24  0.003144905    1.356    0.263
       151 -10.3681      2.5118     92.5558   9.0458383870e+01   5.5856607706e+01     0.237908     0.143506  -1.87  0.001425284    2.140    0.533
       152  -9.6928    227.2326     92.4284   3.7456862556e+01   1.8009134345e+01    0.1720676    0.1242571  83.41 0.0005020429    1.555    0.357
       153 -10.1955     36.2523     91.4497   7.9891740604e+01   5.3179545205e+01    0.2166968    0.2033135 -55.62 0.0009401508    1.273    0.215
       154 -10.1203     38.6382     89.2937   7.8601236187e+01   5.3353843289e+01    0.4825575    0.1106614 -51.57  0.001641302    3.707    0.730
       155  -9.9977     31.2142     91.3941   8.1412299892e+01   5.3706708623e+01    0.3654979    0.1192661 -51.08  0.001542477    2.402    0.584
       156 -11.0419     84.6175     89.3698   6.5256343224e+01   4.7104853076e+01    0.3873272    0.2929112  72.31  0.001988289    2.078    0.519
       157  -9.5123     25.3230     90.8147   8.3070341860e+01   5.4389222322e+01    0.1835497    0.1367634 -61.29 0.0006506853    1.406    0.289
       158 -12.2526     22.1442     87.3262   8.3178191226e+01   5.5374784986e+01     1.234178    0.1591634 -51.02  0.003904434    4.527    0.779
       159  -9.9495      6.9485     41.1396   7.4858587747e+01   6.4672637308e+01    0.3104815    0.1153136 -41.56  0.001684819    2.127    0.530
       160 -11.6320      5.3494     50.0543   7.8327383389e+01   6.3435395627e+01    0.6276109    0.5117548 -80.36  0.004245962    2.431    0.589
       161 -10.6725     11.0853     44.2545   7.4394845294e+01   6.3857515840e+01     0.251799    0.1667157 -32.78 0.0008948103    1.185    0.156
       162 -11.7042     13.9176     76.3220   8.2953027599e+01   5.8197879305e+01    0.4757226    0.3115749 -39.10  0.001562435    1.166    0.142
       163 -11.8435      7.2050     73.3027   8.4354632277e+01   5.9283460549e+01     0.508241    0.2582555  12.83  0.002536549    2.448    0.591
       164 -14.0554     16.6315     67.4209   7.9610373364e+01   5.9591825987e+01    0.5444799    0.3896272 -50.08 0.0009370648    1.366    0.268
       165 -12.6844      3.3015     63.0136   8.2881466213e+01   6.1422423638e+01     0.777042    0.3539268 -56.70  0.003928339    2.254    0.556
       166 -11.4472     12.6775     50.5103   7.5862133154e+01   6.2759232754e+01    0.5894694    0.2335526 -50.58  0.002924507    2.677    0.626
       167 -12.2640     10.7315     61.5604   7.9914944837e+01   6.1106117424e+01    0.2804325    0.2441106  13.17 4.245255e-05    1.417    0.294
       168 -10.7910     12.0431     57.0688   7.8125084431e+01   6.1754810726e+01    0.2049882    0.1604512 -49.27 0.0003854251    1.439    0.305
       169 -10.4412     97.2723     89.1420   6.1825862905e+01   4.5019402682e+01     0.283631    0.1933919  42.65  0.001039913    1.593    0.372
       170 -11.4238     47.7849     88.0077   7.5480631584e+01   5.2562925385e+01    0.2498832    0.1919511 -47.66 0.0002933537    1.205    0.170
       171 -10.4607     78.5685     87.4469   6.6372348198e+01   4.8427844099e+01    0.2597253    0.2062365 -50.24 0.0009385391    1.295    0.228
       172 -11.4818     66.2034     86.0502   6.9482326760e+01   5.0530062989e+01    0.4796301    0.2516248 -31.30  0.002231033    1.985    0.496
       173 -10.1262    112.2426     85.9652   5.7162699527e+01   4.2886424599e+01    0.6082929    0.3850694  87.50  0.002117346    4.354    0.770
       174  -9.0016    250.3452     86.7126   3.3341655801e+01   1.4551960320e+01    0.1343036   0.08399928 -69.66 0.0005387237    1.651    0.394
       175 -10.3849      9.3587     85.9622   8.6836990456e+01   5.6695701584e+01    0.1993587     0.169165  74.22 0.0008463855    1.767    0.434
       176  -9.8218      7.3512     81.4677   8.6380683187e+01   5.7724728836e+01    0.3262495    0.1883946 -44.76  0.002005225    1.282    0.220
       177  -9.8052      4.8874     86.1751   8.8286162435e+01   5.6978238439e+01    0.1638375    0.1060272 -32.96 0.0007382159    1.361    0.265
       178 -11.4967     27.0445     84.2462   8.0853580420e+01   5.5525359468e+01    0.2182624    0.1802471 -36.32   0.00026483    1.067    0.063
       179 -11.5817     30.4445     81.5340   7.9060419190e+01   5.5714138474e+01    0.3042992    0.2344484 -34.63  0.001130664    1.030    0.030
       180  -9.4172    117.1466     83.6181   5.5324570496e+01   4.2373586589e+01    0.1895296    0.1275361  35.07  0.000584004    1.644    0.392
       181  -9.8336     87.6332     82.7727   6.2540903197e+01   4.7832666432e+01    0.2666449    0.1642351  55.36  0.001273309    2.202    0.546
       182 -10.3378     74.1681     82.1337   6.6070679422e+01   5.0088446823e+01    0.2989217    0.1805783 -39.78  0.001027987    1.476    0.322
       183  -9.8307     15.6166     83.3315   8.4218732714e+01   5.6719515580e+01    0.2057381    0.1349132  36.71  0.001187388    2.021    0.505
       184 -10.3877     42.4451     81.9893   7.5443131809e+01   5.4341543791e+01    0.1991262    0.1801699  53.87 0.0009937348    1.530    0.346
       185 -10.4113    101.1140     80.8977   5.8471297347e+01   4.5836483836e+01    0.1943191    0.1784801 -52.47            0    1.188    0.158
       186  -9.9250    112.1274     79.2240   5.5268303469e+01   4.4097466711e+01    0.1852329    0.1591049 -64.74 0.0007006875    1.360    0.265
       187 -10.2398     59.2318     78.9986   6.9487862413e+01   5.2800591385e+01    0.2857228    0.1924445   2.46  0.001176675    1.831    0.454
       188 -10.3412      3.0233     78.4218   8.7019716858e+01   5.8618585991e+01    0.1841864    0.1144207 -49.51 0.0003779464    1.224    0.183
       189  -9.4011    183.6268     80.6748   4.1308868569e+01   2.9080954015e+01    0.1372537    0.1097717  15.96  5.64836e-05    1.820    0.451
       190 -12.5588     44.7000     74.6488   7.2635559715e+01   5.5428112491e+01    0.3842571    0.2797709  55.78 0.0004241363    2.219    0.549
       191 -10.6588    184.0773     74.4822   3.9738188150e+01   3.0012123033e+01    0.3819805    0.1743386 -43.36 0.0009444548    2.025    0.506
       192 -10.2306     34.7807     75.3350   7.5958224145e+01   5.6421176059e+01    0.3286966    0.2040793  58.40  0.001439334    3.681    0.728
       193 -10.3790     74.9361     74.5046   6.3588957531e+01   5.1321611855e+01     0.345552    0.2087516  11.11  0.001607162    2.440    0.590
       194 -10.5432     55.2237     74.7590   6.9435857499e+01   5.4092922576e+01    0.2167074    0.1551118  32.99  0.001294614    1.564    0.361
       195 -10.3557     66.7867     93.1284   7.1299313511e+01   4.9078733475e+01    0.1914908    0.1658656 -49.38 0.0004540581    1.185    0.156
       196  -9.8039     61.6013     73.7106   6.7210223611e+01   5.3414189778e+01    0.1722354    0.1102008 -47.04 0.0006186928    1.556    0.357
       197  -9.5662    207.0225     73.5019   3.6086542709e+01   2.5325048623e+01    0.1803889    0.1276716  66.55 0.0003743849    1.472    0.321
       198  -9.5712    102.5479     72.5349   5.5658743864e+01   4.6998175539e+01    0.1317763    0.1217539 -14.56 0.0001445526    1.002    0.002
       199  -9.0848     56.7139     69.7192   6.7460403585e+01   5.4766727659e+01    0.1259591    0.1101247 -26.96 0.0003088779    1.116    0.104
       200  -9.8743     56.4697     66.5646   6.6560314530e+01   5.5327071824e+01    0.1919027    0.1683272 -12.97 0.0003105392    1.079    0.074
       201 -11.2056     46.9128     59.2197   6.7195192123e+01   5.7755676031e+01    0.5589875    0.2374421 -38.31  0.002108621    2.052    0.513
       202 -11.9986     50.3835     68.0515   6.8884485888e+01   5.5876424711e+01    0.3841124    0.2453538 -31.94 0.0005517444    1.353    0.261
       203 -11.0675     51.5700     63.2049   6.7008344251e+01   5.6524651759e+01    0.3244324    0.1975688 -18.64  0.001779389    1.748    0.428
       204 -10.4566    167.8349     69.6513   4.1230952052e+01   3.4256912496e+01    0.2011372    0.1797716 -30.05 0.0003892193    1.205    0.170
       205 -10.0801    122.5752     69.5831   5.0082324720e+01   4.3666189721e+01    0.2780393    0.1992074  18.92 0.0008398483    1.770    0.435
       206 -10.4252     77.7118     69.6918   6.1347021492e+01   5.1697158990e+01    0.2518916    0.2177579  78.54  0.001335146    1.713    0.416
       207  -9.5484     69.1473     69.8746   6.3832217081e+01   5.2980858027e+01    0.1715033    0.1331996  -9.23 0.0002510998    1.268    0.211
       208  -9.1501    194.6882     69.6763   3.6974697974e+01   2.8526129963e+01    0.1250654    0.1068558  15.00 0.0002737426    1.656    0.396
       209 -10.9002     42.7773     67.9532   7.1234751057e+01   5.6825955509e+01    0.2205691    0.1704589 -14.89  0.001431985    1.169    0.145
       210 -10.2062    109.8317    248.8538   9.1448267469e+01   6.5611549214e+00    0.1871922    0.1780019 -50.70  0.001092897    1.225    0.184
       211 -10.3561     47.8734     48.2144   6.3268998290e+01   5.9278969009e+01     0.209164    0.1597227 -17.67 0.0004821004    1.096    0.087
       212 -11.9964     44.7957     39.0151   6.1074812618e+01   6.0924803302e+01    0.4659441    0.2813561 -29.49            0    1.476    0.322
       213 -11.3358     28.3593     66.0572   7.5318333782e+01   5.8730258137e+01    0.2567857    0.1700347 -30.66 0.0007517876    1.232    0.188
       214 -11.9407     30.7400     62.4861   7.3449573501e+01   5.9090258493e+01    0.4689578    0.3335529  57.73  0.002664049    2.765    0.638
       215 -12.0427     36.9543    242.7926   1.0413291763e+02   1.8008225279e+01    0.5992314    0.2790729 -83.41  0.001933953    2.150    0.535
       216 -11.5170     35.4199     41.8472   6.5115216439e+01   6.1708470667e+01    0.5538091    0.2915411   7.12  0.002711788    2.673    0.626
       217 -12.9804     27.5234     37.8201   6.6373073607e+01   6.3152526345e+01    0.3467261    0.2398756 -18.45 0.0003834256    1.164    0.141
       218 -11.6853     24.5111     34.5408   6.6247101326e+01   6.3914583961e+01    0.2107954    0.1472711   2.14 0.0004931471    1.270    0.212
       219 -11.0010    122.3459     63.1746   4.8291869282e+01   4.4694996912e+01    0.4376955    0.2685226 -62.07  0.001992893    2.494    0.599
       220  -9.0836    119.2506     65.3266   4.9597311218e+01   4.4979295822e+01    0.1286583   0.09944811   1.88 0.0002754193    1.544    0.353
       221  -9.5345    155.6234     63.7797   4.1861082590e+01   3.7756864362e+01    0.1824795      0.11623 -47.18 0.0002873582    1.568    0.362
       222 -11.0958    201.9996     62.3848   3.4273344892e+01   2.8111092645e+01    0.2516254    0.1782832 -38.02 0.0005600104    1.439    0.305
       223  -9.7413    108.9986     61.9926   5.0963925784e+01   4.7449765810e+01    0.1984708    0.1568517 -64.22 0.0008501365    1.644    0.392
       224 -10.1494     76.9501     62.3064   5.9265506961e+01   5.2993609634e+01    0.1705257    0.1473584  13.88 0.0002738338    1.124    0.110
       225 -10.1564    113.5195     60.9763   4.9617502625e+01   4.6739825842e+01    0.2050232    0.1809821  78.51 0.0005127977    1.368    0.269
       226 -11.3965     97.6075     59.6566   5.3006194917e+01   4.9890363740e+01    0.3636825    0.2770085  83.55  0.001010567    2.140    0.533
       227  -9.9368    169.0257     59.9768   3.8593694718e+01   3.5468931775e+01    0.1887077    0.1797758 -76.85 0.0003039991    1.035    0.034
       228  -9.2100    142.9135     60.7989   4.3419722739e+01   4.0865361277e+01    0.1667499     0.100338  53.64 0.0004069324    1.646    0.392
       229 -10.4068    127.0533     58.9569   4.6076785292e+01   4.4374054043e+01    0.1848281    0.1798805  25.34  0.001201476    1.014    0.013
       230 -11.3386     85.5763     57.6699   5.5468954132e+01   5.2274760084e+01    0.3640778    0.1919952 -28.01  0.001784791    1.936    0.483
       231 -10.8835     88.8749     54.0502   5.3468711696e+01   5.2228683982e+01    0.2825318     0.176176  57.53  0.001002224    2.066    0.516
       232 -11.2079     80.9647     55.7761   5.6098709322e+01   5.3316499102e+01    0.4397343    0.2430181 -12.66  0.002002064    2.614    0.617
       233 -11.1448     58.5815     58.4428   6.3348092215e+01   5.6329258845e+01    0.3102213    0.2620364   0.43  0.001280855    1.089    0.082
       234 -10.2395     69.0645     56.6539   5.9689407478e+01   5.5070888606e+01    0.3187237    0.1705191 -43.35   0.00084281    1.954    0.488
       235 -12.3724     75.2094     54.8901   5.7387881951e+01   5.4373694381e+01    0.5146553    0.2876956 -30.73  0.002762193    1.697    0.411
       236  -9.8121     78.4480     47.4358   5.4084903962e+01   5.4879273111e+01    0.2210939     0.110888 -31.62 3.703362e-05    1.926    0.481
       237  -9.4237    147.3916     56.5230   4.1425821621e+01   4.0543177680e+01    0.1247317    0.1216619 -64.54 8.576768e-05    1.023    0.023
       238  -9.6718    230.4971     54.9361   2.9202804392e+01   2.3393807218e+01    0.1863049     0.108173 -43.54  0.001023598    1.563    0.360
       239 -12.7524    105.3848     52.5579   4.8965687154e+01   4.9467234517e+01    0.3458163    0.2934085  48.91 0.0004160183    1.220    0.181
       240  -8.9788    182.6634     54.6656   3.5194813848e+01   3.3325573181e+01    0.1262583    0.1003351  25.61 0.0007051981    1.743    0.426
       241 -10.4467    119.9857     52.6876   4.5755817831e+01   4.6649898688e+01    0.2099022    0.1748262 -11.94 0.0002734112    1.262    0.207
       242  -9.5913     62.0281     52.7311   6.0458234464e+01   5.6686580916e+01    0.1630746    0.1386788  -3.15 0.0004322352    1.035    0.034
       243 -10.6665    132.8238     52.1676   4.2984636501e+01   4.4149936269e+01    0.2759481    0.1849397  43.95   0.00133697    1.494    0.331
       244 -11.5568    129.5701     48.8777   4.2694607869e+01   4.5243926447e+01    0.4502094    0.3111539 -19.16  0.001924013    1.644    0.392
       245 -10.0010     96.0113     52.0703   5.1054723598e+01   5.1247349387e+01    0.1794467    0.1585292   7.41 -0.001877172    1.055    0.052
       246  -9.3941    182.3148     49.6641   3.4055117918e+01   3.4092565929e+01    0.1346917   0.08883251 -69.56  0.000315614    1.692    0.409
       247 -10.3067     68.4935     47.2381   5.6767300010e+01   5.6484437943e+01     0.279578    0.1724759 -53.20 0.0006343574    2.552    0.608
       248  -9.2835    199.6504     47.2067   3.1178499008e+01   3.0776237587e+01    0.1540737    0.1148078 -30.87 0.0002614005    1.550    0.355
       249 -10.2454    104.5210     46.8557   4.7422930248e+01   5.0378677663e+01    0.2389483    0.1651076  39.79 0.0009390223    1.397    0.284
       250 -10.0793     85.8425     45.3865   5.1482191263e+01   5.3908044610e+01    0.2924679    0.1202631 -31.15  0.001349404    2.427    0.588
       251 -10.3259     82.7079     46.4268   5.2628581288e+01   5.4305250910e+01    0.3153456    0.1540057 -29.93  0.001375726    2.023    0.506
       252 -10.5797     81.3413     41.9296   5.1518097379e+01   5.5104112263e+01    0.2216917    0.1665483  38.37 0.0006538489    1.295    0.228
       253  -9.5487     62.3236     47.2946   5.8565458241e+01   5.7403510331e+01    0.1707515   0.09214739  18.05 0.0003074534    2.455    0.593
       254 -10.3381     57.9697     46.4202   5.9561191918e+01   5.8151711276e+01    0.2750748    0.2143898 -69.57  0.001597822    2.516    0.602
       255 -10.0684    143.0520     45.2632   3.9168869952e+01   4.2947460382e+01    0.1992937    0.1748483 -33.24 0.0005611868    1.185    0.156
       256  -9.9404    102.0449     36.8312   4.4887868641e+01   5.2049577549e+01    0.2166841    0.1681118 -57.06  0.001337469    1.699    0.412
       257 -10.7573     91.5059     42.9857   4.9294512019e+01   5.3225887917e+01    0.4493107    0.1657977 -37.31  0.001994547    2.735    0.634
       258 -11.4256     95.9673     42.3548   4.8018080444e+01   5.2508186541e+01    0.5196264    0.3119177  -1.05 0.0008897103    2.344    0.573
       259  -9.2881    151.4893     45.4892   3.7771620139e+01   4.1161445763e+01    0.1227622    0.1173681  72.83 0.0008104591    1.014    0.014
       260 -10.0285    113.1518     44.6603   4.4843112944e+01   4.9019621350e+01     0.249578    0.1691536  24.80  0.001387899    1.689    0.408
       261  -9.5260    187.3410     42.7411   3.1748487646e+01   3.3948437012e+01    0.1266418    0.0860313 -76.70 0.0004512079    1.586    0.369
       262 -10.5624    131.0809     41.4646   4.0305961428e+01   4.5866328209e+01    0.2576612    0.1904454 -37.20 0.0008608233    1.405    0.288
       263 -10.5787    148.8719     39.6067   3.6657206124e+01   4.2434650145e+01    0.2615524    0.1928853 -43.49 0.0009233107    1.402    0.287
       264 -10.2197    120.9764     40.9835   4.2131313473e+01   4.7942257352e+01    0.1822067    0.1468934 -77.52 0.0005031817    1.604    0.377
       265 -10.9525     69.2338     37.8687   5.3409563032e+01   5.7561047863e+01    0.5209198     0.265622  -1.11  0.002133373    3.831    0.739
       266 -11.2281     74.9037     35.4620   5.1059176552e+01   5.6939596162e+01    0.3364276    0.2179819  15.72   0.00113504    1.658    0.397
       267  -9.8970     73.1847     31.8611   5.0296122209e+01   5.7625750903e+01    0.1992637     0.152062  30.47 0.0004970648    1.195    0.163
       268  -9.6740     62.2967     40.5466   5.6288169873e+01   5.8290632293e+01    0.2056638    0.1093915  44.98  0.001132049    2.036    0.509
       269 -10.9285    226.1257     33.0555   2.5278728886e+01   2.7238847638e+01    0.1889281     0.161806 -68.87 0.0002680729    1.122    0.109
       270 -11.2678    224.6406     37.6113   2.6330517532e+01   2.6948408503e+01    0.4241872    0.2418366 -80.40  0.001152835    1.896    0.473
       271 -11.0137    221.7618     31.8208   2.5461932464e+01   2.8260244915e+01    0.2081433    0.1619357 -63.61 0.0003142273    1.104    0.094
       272 -10.3858    161.8686     38.2729   3.4260138052e+01   3.9875102975e+01    0.2098047    0.1853237  77.34  0.001087802    1.062    0.058
       273 -10.3755    248.6431     37.2757   2.4000304185e+01   2.2344238340e+01    0.2149036    0.1394761 -67.61 0.0008775863    1.285    0.222
       274  -9.5961    183.5335     37.2623   3.0980039932e+01   3.5439665205e+01    0.1541128    0.1203062 -20.57 0.0009416169    1.612    0.379
       275  -9.7453    114.2791     37.2835   4.2401458200e+01   4.9681847545e+01    0.1844476    0.1578021  76.40 0.0002006205    1.365    0.267
       276 -10.6535    111.2048     36.2426   4.2727670581e+01   5.0391284340e+01    0.2893568    0.1905408 -36.22 0.0009956355    1.601    0.375
       277 -11.0697     83.7526     35.3533   4.8742254293e+01   5.5476715163e+01    0.3354905    0.2059409  24.91 0.0008428646    1.732    0.423
       278  -9.6722      1.3321     36.9754   7.5534861059e+01   6.5733174225e+01    0.2593006    0.0854319 -46.95  0.001284963    2.851    0.649
       279  -9.6858    134.5726     34.7756   3.7798462313e+01   4.5936902089e+01    0.1662261    0.1076584 -44.04 0.0009427363    1.668    0.401
       280 -12.1074      8.3749     31.8823   7.1115141957e+01   6.5853856711e+01    0.3445549    0.1927239 -41.13  0.001400961    1.706    0.414
       281 -10.3116    192.7539     33.9714   2.9079464122e+01   3.3914681547e+01    0.2087349    0.1569475  74.81 0.0005650161    1.234    0.190
       282  -9.5549    140.2450     33.9551   3.6590346828e+01   4.4871751770e+01    0.1525605    0.1506068 -80.95            0    1.062    0.059
       283 -10.4290    205.9257     32.9806   2.7351410528e+01   3.1316772705e+01    0.1837394    0.1507574 -72.08 0.0005918132    1.055    0.052
       284 -10.0047    120.2661     32.9869   3.9938378406e+01   4.8994490880e+01    0.1811722    0.1496115  85.38  0.001162591    1.453    0.312
       285  -9.8848    166.9140     31.8521   3.1935341701e+01   3.9568493795e+01    0.1785927    0.1566911  35.44  0.001196487    1.323    0.244
       286 -11.8325     49.9432     30.9217   5.6592535658e+01   6.1225966347e+01    0.2134261    0.1660829 -18.56 0.0003436793    1.191    0.161
       287 -11.7673     49.0493     26.0232   5.5092976513e+01   6.1900156761e+01    0.2039699    0.1715694  12.07  0.001551016    1.145    0.127
       288 -10.8888     17.5305     31.1051   6.7477821125e+01   6.5087725773e+01     0.321273     0.168954  27.60  0.002062665    1.956    0.489
       289  -9.1136     88.2852     31.2694   4.6296567679e+01   5.5144632773e+01    0.1156094   0.07928614  20.10 0.0003529202    1.499    0.333
       290 -10.7565    102.0911     29.1710   4.2496488459e+01   5.2874568775e+01    0.3123352    0.2435064  86.31  0.001946157    1.822    0.451
       291 -13.4244     74.4839    238.6638   9.6850148142e+01   1.3962688129e+01    0.9362646    0.6803892 -69.67  0.005605851    1.254    0.202
       292  -9.9495     79.6374     29.3167   4.7771286100e+01   5.6836975149e+01    0.2201756    0.1669231 -37.36  0.001464895    1.519    0.342
       293 -10.4879     80.1609     26.1032   4.6563931900e+01   5.7081923951e+01    0.2408988    0.1821068 -37.18 0.0008479702    1.537    0.349
       294 -11.1800    197.5851     28.1342   2.7239025769e+01   3.3610102730e+01    0.2441378    0.1837328  85.30 0.0005004627    1.203    0.168
       295 -11.0026    193.7399     25.0728   2.7005337163e+01   3.4753326932e+01    0.2305314    0.1569833 -64.72  0.000562368    1.425    0.298
       296 -10.0041    144.5894     27.8998   3.4255782852e+01   4.4638917773e+01    0.2731625   0.08489392 -39.38  0.001137956    3.247    0.692
       297 -11.0969    238.1386     28.1327   2.3226132758e+01   2.5516386804e+01    0.1590288    0.1430145 -81.34 0.0004580456    1.263    0.208
       298 -10.0455     70.2224     25.7449   4.8982157970e+01   5.8755277401e+01    0.1937589    0.1197664  14.29  0.001151233    1.747    0.428
       299  -9.5408    110.2852    242.6939   9.0520166251e+01   7.7541690943e+00    0.1312476     0.094065  78.50 0.0006981771    1.565    0.361
       300 -11.1636     58.3167     21.5073   5.0738206663e+01   6.1030640337e+01    0.3418226    0.1615824  32.43  0.001904017    2.040    0.510
       301 -10.5213    215.0860     24.9251   2.4737619552e+01   3.0430093395e+01    0.2248786    0.2196742  20.91   0.00112238    1.449    0.310
       302  -9.5472     97.9092    242.1236   9.2825326814e+01   9.7770600595e+00    0.1636345    0.1561576  17.85 0.0005355802    1.343    0.255
       303 -11.2396     88.7643    240.9308   9.4419576445e+01   1.1402160105e+01    0.2687096    0.1569991 -52.47  0.001387211    1.790    0.441
       304  -8.9880    115.6724    244.6886   8.9759482381e+01   6.5015192235e+00    0.1237056    0.1035303 -16.32 0.0007041462    1.664    0.399
       305 -10.1699    195.3678    238.4617   7.3387004041e+01  -5.0256929704e+00    0.2790171    0.2050321 -16.62   0.00156773    1.493    0.330
       306  -9.7319    134.5433    237.9447   8.5083869433e+01   4.8676631302e+00    0.1877829    0.1076547 -33.03 0.0008087428    2.540    0.606
       307 -10.3889    159.9851    235.6942   7.9715846664e+01   1.1587187974e+00    0.1836484    0.1699028  33.05 0.0004187399    1.092    0.084
       308 -11.0722     30.4155    234.1767   1.0446619130e+02   2.0655277212e+01    0.4546972    0.1884831 -86.88  0.001911591    2.936    0.659
       309  -9.6661    177.3889    234.8177   7.6177809096e+01  -1.5066598429e+00     0.192394    0.1170262 -36.61 0.0009509565    1.695    0.410
       310  -9.8220    204.4446     26.2458   2.6091459063e+01   3.2425703087e+01    0.1655292   0.09310774 -51.18 0.0009427191    1.665    0.399
       311 -10.5437    172.6829     25.6667   2.9673350625e+01   3.9052749032e+01    0.2700106    0.1839837  43.00 0.0005979617    1.701    0.412
       312 -10.2277    128.9458     25.9623   3.6331602955e+01   4.8010382538e+01    0.2511109    0.1920065  69.00  0.001472763    1.321    0.243
       313  -9.3672    221.3105    234.3378   6.7864024659e+01  -8.2110961407e+00    0.1331182    0.0900364 -10.62 0.0004582918    1.686    0.407
       314 -10.8514     86.7604    232.8443   9.3753942872e+01   1.3454071478e+01    0.2628751    0.1474182  65.01  0.001227105    2.109    0.526
       315  -9.8406    132.6219     19.2250   3.3843932059e+01   4.7930271834e+01    0.1837316    0.1646428   3.84 0.0007466218    1.234    0.189
       316 -10.5336      1.7534     25.2109   7.1187811692e+01   6.7304177993e+01    0.3029762    0.1327242 -34.79  0.001886516    1.808    0.447
       317  -9.5359     38.4949    232.4818   1.0284607811e+02   2.0069191747e+01    0.1258008   0.09810127 -88.59 -2.230893e-05    1.013    0.013
       318  -9.8949     24.1076    232.1147   1.0539020706e+02   2.1830095750e+01    0.1772164    0.1359583 -68.69 0.0005422815    1.311    0.237
       319 -10.0032    183.8168    230.8255   7.4235392148e+01  -1.7877284354e+00     0.284703    0.1460376 -28.58  0.001157614    2.698    0.629
       320  -9.4723     58.5338    229.4923   9.8786730468e+01   1.8186696144e+01    0.1298451    0.1063745 -86.62 0.0003378347    1.022    0.022
       321 -10.4820      4.0367    226.5035   1.0839814174e+02   2.5184403698e+01    0.3285094    0.1325562 -79.22  0.001643359    2.029    0.507
       322  -9.5387    190.5219    226.4798   7.2163188223e+01  -2.0460005357e+00     0.133596    0.1228125 -20.77 5.950503e-05    1.011    0.011
       323  -9.6575    125.2801    245.6716   8.8047313349e+01   4.7881955818e+00     0.130547   0.09626882  80.73 0.0003813563    1.600    0.375
       324  -9.8123    159.5221     17.5155   2.9437911612e+01   4.2617512900e+01    0.1929004    0.1257523 -55.71 0.0008332024    1.679    0.404
       325 -10.8053    186.3184     22.6737   2.7321143084e+01   3.6549936703e+01    0.2130684    0.1744541 -72.31 0.0004315528    1.129    0.114
       326 -10.5753    107.2985     27.5259   4.0895135449e+01   5.2068410667e+01    0.2045456    0.1743222  27.10 0.0005378958    1.095    0.086
       327 -10.7441     97.0026     23.0485   4.1673209137e+01   5.4420781957e+01    0.2426418     0.156583  58.69 0.0006906778    1.607    0.378
       328 -10.2435     99.2229     20.3766   4.0360229166e+01   5.4265812511e+01    0.4045998    0.2261209 -54.12  0.001504736    3.043    0.671
       329 -10.8478     84.5791     21.3196   4.3907076286e+01   5.6793857945e+01     0.379553    0.1670431  42.13  0.002008523    2.034    0.508
       330 -10.3840     66.9362     20.9079   4.8166184440e+01   5.9760636981e+01    0.1780403    0.1526519  34.19 0.0004232907    1.222    0.182
       331  -9.1450     34.8462     20.9678   5.7698017622e+01   6.4323977496e+01    0.2211837    0.1157065 -47.76 0.0004766644    3.934    0.746
       332 -10.5460    125.0524    220.9823   8.4291877044e+01   1.0034370851e+01    0.3403786    0.2049435  24.01  0.001486649    2.420    0.587
       333 -10.9169     21.4324    220.1980   1.0473721076e+02   2.4787684232e+01    0.2300083    0.1253119 -79.97  0.001267887    1.498    0.333
       334  -9.1233    120.6573     20.7204   3.6308760742e+01   5.0160283126e+01    0.1205236   0.07731896  34.12 0.0007008491    1.629    0.386
       335  -9.5376    140.5040     18.5391   3.2414481297e+01   4.6406855532e+01    0.1139619    0.1028747  66.48 0.0008092701    1.022    0.022
       336 -10.2254    108.7074     17.2442   3.7498990148e+01   5.2778772972e+01    0.1876641    0.1631043  12.10 0.0004390647    1.159    0.137
       337 -10.7199     15.8266    221.7513   1.0590495515e+02   2.5036689167e+01    0.2732188    0.1328052  52.18  0.001353149    2.079    0.519
       338  -9.2726    176.3316    218.7239   7.3504079968e+01   1.8243823366e+00    0.1329936    0.1094166  82.21 0.0003494505    1.599    0.374
       339 -10.7103    194.9866     16.8016   2.5090456165e+01   3.5402107705e+01    0.1717815    0.1446585 -70.61 0.0003250701    1.091    0.083
       340 -11.6522      1.7852    209.4099   1.0731645171e+02   2.9220448278e+01    0.7425817    0.1201105 -67.98  0.002416315    3.889    0.743
       341  -9.5734    143.4886     16.4766   3.1423556334e+01   4.5994542182e+01    0.1155108   0.09958044  50.77 0.0008078247    1.109    0.098
       342  -9.9505     75.5320     15.8177   4.4214567297e+01   5.8833058654e+01    0.2247614    0.1122908  35.83 0.0007324525    1.840    0.456
       343 -12.0174      5.5899    208.5995   1.0654292215e+02   2.9046289065e+01    0.5430982    0.2241843 -69.68  0.002075069    1.808    0.447
       344  -9.5151    123.5720     14.1998   3.3944320510e+01   5.0177047803e+01    0.1530568    0.1074123  -1.87 0.0009642119    1.726    0.421
       345  -9.8870     83.8166     13.7326   4.1568689468e+01   5.7604142188e+01    0.1307765    0.1261831  65.70 0.0003709029    1.319    0.242
       346 -11.6488     10.3210    216.8310   1.0644335947e+02   2.6711954020e+01    0.3686728    0.2889604  26.43  0.002483749    1.904    0.475
       347  -9.9582     12.5277    212.4952   1.0563020636e+02   2.7474513294e+01    0.2531851    0.1168308 -74.38 0.0008315801    1.689    0.408
       348 -10.7168     11.0715    207.9268   1.0545698912e+02   2.8667749783e+01    0.2976674    0.1679557 -74.22 0.0009200231    1.344    0.256
       349  -9.8133     38.2170    217.3687   1.0128834554e+02   2.3522274966e+01    0.1674063    0.1045384  54.77 0.0007973111    1.633    0.387
       350  -8.6680    100.3136     13.0331   3.7848350637e+01   5.4709149653e+01    0.1756063   0.08210477   5.41 0.0004597764    4.319    0.768
       351 -11.1130     29.2249    215.5539   1.0280808448e+02   2.4985522850e+01    0.2504937    0.1925056 -82.64  0.001010238    1.025    0.024
       352 -10.6753     24.0218    215.9892   1.0383545357e+02   2.5464369219e+01    0.1949885    0.1484677 -81.39 0.0004341595    1.047    0.045
       353 -11.5514    236.0224    214.1460   6.1471338286e+01  -6.8404779674e+00    0.2426292    0.1682128 -38.09 0.0007438274    1.243    0.196
       354  -9.3131    169.6889    212.6951   7.3708675825e+01   4.1996830716e+00    0.1410433    0.1086879 -12.90 0.0005480018    1.614    0.380
       355 -10.0158    110.1826    212.1958   8.5945365686e+01   1.4468734144e+01    0.1997059    0.1584674  85.55 0.0007646614    1.333    0.250
       356 -10.1605     20.3502    211.4398   1.0406062815e+02   2.6906625964e+01    0.2723191    0.1342777  80.39  0.001278116    2.346    0.574
       357  -9.4019    211.9860    219.0448   6.6729722700e+01  -4.0731367016e+00    0.1681042    0.1424472 -30.69  0.001003377    1.052    0.049
       358  -9.5398    185.0144    208.4721   6.9855108796e+01   2.4342680326e+00    0.1940211    0.1230891  11.95  0.000809492    2.520    0.603
       359 -10.4089    247.5915    205.7780   5.7878726854e+01  -7.0374442165e+00    0.2897606    0.1109777 -42.40   0.00123498    2.193    0.544
       360 -10.6966     19.9560    200.8790   1.0301543970e+02   2.9408294471e+01    0.5231403    0.1127972 -60.74  0.001940967    3.233    0.691
       361 -10.6755    175.3079    202.3038   7.0588688066e+01   5.4136452024e+00    0.2458115    0.2339667 -73.02 0.0004504267    1.125    0.111
       362  -9.0839     53.2394    202.3313   9.6441731073e+01   2.5204146999e+01    0.1297255   0.08921212 -50.86 0.0002681863    1.537    0.349
       363 -11.0419     70.0406     16.7641   4.5908420305e+01   5.9650783796e+01    0.2370435    0.1589129  49.76            0    1.525    0.344
       364 -11.0194    175.1428     15.1667   2.6928328367e+01   3.9633346588e+01    0.2314372    0.1535845  45.44  0.001427899    1.709    0.415
       365  -9.6155    117.4972    201.5139   8.2574627861e+01   1.5740947042e+01    0.1460361    0.1322553 -72.44 0.0008105092    1.009    0.009
       366  -9.3552    238.5024    200.5097   5.8392906610e+01  -4.7399093870e+00    0.1359821    0.1123284 -30.09 5.677265e-05    1.015    0.015
       367  -9.8142     58.1539    196.0158   9.4530206361e+01   2.6089451665e+01    0.2301434    0.1333452 -44.59  0.001084027    2.030    0.507
       368  -9.3228    215.3349    194.3181   6.1268808469e+01   1.4023250675e-01    0.1438421    0.1034037 -12.63 0.0007048602    1.697    0.411
       369 -11.5079     16.2056    192.9879   1.0288534228e+02   3.1649845423e+01    0.3419167    0.2680629  34.92  0.001840335    1.682    0.405
       370 -10.1632    244.7057    188.0584   5.4875015081e+01  -3.3750828517e+00    0.1981215    0.1485186 -36.45  0.000459921    1.094    0.086
       371 -10.5573    168.4239    184.5434   6.8420146208e+01   1.0542072654e+01    0.5153695    0.2695692 -57.18   0.00204656    2.069    0.517
       372  -9.3518      2.3292    187.3075   1.0504918628e+02   3.4277936403e+01    0.1209253   0.07587736 -52.21 0.0005283371    1.659    0.397
       373  -9.7674     61.8172    184.8272   9.2054817085e+01   2.8340832267e+01     0.200795    0.1451003 -84.28  0.001063657    1.344    0.256
       374 -11.8562     15.7698    181.7613   1.0166335978e+02   3.4365039295e+01    0.4353361    0.2604902  80.77  0.002264677    1.790    0.441
       375  -9.8408     22.5110    179.7478   9.9976151078e+01   3.4188053587e+01    0.3314722    0.1751517  52.08  0.001693929    2.203    0.546
       376  -9.6180      1.9921    179.9303   1.0431919338e+02   3.6040167343e+01    0.1901961    0.1158723 -51.53  0.001094034    1.663    0.399
       377  -9.7280    244.4998    177.9978   5.2885651646e+01  -1.4440285224e+00    0.2089452    0.1022214 -27.10 0.0008101899    2.735    0.634
