#   1 NUMBER                 Running object number                                     
#   2 MAG_AUTO               Kron-like elliptical aperture magnitude                    [mag]
#   3 X_IMAGE                Object position along x                                    [pixel]
#   4 Y_IMAGE                Object position along y                                    [pixel]
#   5 X_WORLD                Barycenter position along world x axis                     [deg]
#   6 Y_WORLD                Barycenter position along world y axis                     [deg]
#   7 A_WORLD                Profile RMS along major axis (world units)                 [deg]
#   8 B_WORLD                Profile RMS along minor axis (world units)                 [deg]
#   9 THETA_WORLD            Position angle (CCW/world-x)                               [deg]
#  10 FWHM_WORLD             FWHM assuming a gaussian core                              [deg]
#  11 ELONGATION             A_IMAGE/B_IMAGE                                           
#  12 ELLIPTICITY            1 - B_IMAGE/A_IMAGE                                       
         1 -14.0939     55.3989     66.2255   6.3946427066e+01   5.8458290854e+01     2.034433     1.260908  14.53  0.009023549    1.954    0.488
         2 -15.0780      6.3241     70.8368   8.8948543320e+01   6.2070033188e+01     1.154333    0.8364708 -67.85    0.0067675    1.255    0.203
         3 -13.2967    119.4495     26.7485   2.6424451789e+01   5.1502769640e+01     1.130238    0.7230204  24.70  0.004979313    2.042    0.510
         4 -14.5876    120.1047     54.6733   3.6465932639e+01   4.7300069911e+01     1.260521    0.8476114  41.88  0.005808456    1.459    0.314
         5 -14.1350    122.3316     36.6453   2.9483033568e+01   4.9456741263e+01     1.248693    0.6178053  34.86  0.003149338    2.743    0.635
         6 -13.4803    131.3209     33.4229   2.6328106916e+01   4.7546720837e+01    0.9428838    0.5507746 -44.55  0.004189998    1.863    0.463
         7 -12.9221      7.8262      2.6800   6.9513769966e+01   7.7479989445e+01    0.6215235    0.3967448  31.31  0.003625511    1.704    0.413
         8 -15.9296     11.3788     23.2213   7.5554650137e+01   7.2987160051e+01     2.047671     1.044807 -38.03  0.009244555    1.807    0.446
         9 -13.7198    187.8019     22.3568   1.4441464803e+01   3.4388648474e+01     1.893496    0.8406687 -50.89  0.008163839    2.333    0.571
        10 -12.9267    187.6252     11.0954   1.1372768282e+01   3.5534974681e+01    0.6687443    0.4792209 -25.45  0.003187747    1.472    0.321
        11 -14.5302     27.1829     11.6588   5.7989795114e+01   7.3724583488e+01    0.9850792    0.6532298 -17.21  0.005310415    1.630    0.386
        12 -13.1034     45.0231     33.4447   5.7334867538e+01   6.7041775240e+01    0.7560288    0.5382211  33.32  0.004026945    1.356    0.263
        13 -14.6356    166.3386     28.3588   1.8733530781e+01   3.9059387244e+01     1.129303    0.9217156  74.37  0.004609406    1.155    0.134
        14 -14.0214    141.0736     21.5201   2.0319645003e+01   4.6390431709e+01     1.152948    0.4688223  64.95  0.003748694    2.178    0.541
        15 -13.6683    216.5914     28.2839   1.3242516780e+01   2.7207529446e+01     1.069887    0.2867546 -40.04  0.004243462    2.953    0.661
        16 -13.8638    218.6229     15.2941   9.9629516800e+00   2.8056608369e+01    0.8059146    0.7310964  82.57  0.005641818    1.163    0.140
        17 -13.3128    214.7713      9.4391   8.8287725690e+00   2.9436251931e+01     1.264334    0.4506344  56.41  0.005515023    3.016    0.668
        18 -14.7252    147.3259     29.6546   2.2032400991e+01   4.3817989050e+01     1.393726    0.7500208  67.18  0.004855353    1.746    0.427
        19 -15.4692     99.1297     11.1564   2.4759827369e+01   5.8608102324e+01      1.76278     1.021309  55.73  0.004225951    1.486    0.327
        20 -12.6553     85.5643     13.8940   2.9864426015e+01   6.1740376752e+01    0.4566352     0.424967 -24.54  0.002138135    1.194    0.162
        21 -11.7385     70.9621     16.2823   3.6245593294e+01   6.4899086961e+01     0.300942    0.2349938 -20.06 0.0008051416    1.385    0.278
        22 -12.2825     74.9064      9.8807   3.1400828060e+01   6.4794318277e+01     0.426778    0.3113102  -4.92  0.002229754    1.577    0.366
        23 -12.4970     60.2227     15.2322   4.0309081293e+01   6.7386843281e+01     0.571892    0.3369461  27.94  0.002443112    1.904    0.475
        24 -12.0698     46.6354     12.7059   4.5865595636e+01   7.0441999613e+01    0.2991561    0.2439095  44.99  0.001738086    1.283    0.220
        25 -13.9660     41.9001      4.2655   4.3422728212e+01   7.2564220849e+01    0.7170725     0.556099  16.65  0.003297169    1.215    0.177
        26 -11.9182    123.0916     10.5530   1.9400926011e+01   5.2324466695e+01    0.3232652    0.2128623 -68.06  0.001521526    1.796    0.443
        27 -12.4866    152.6911      8.6636   1.4305598993e+01   4.4604832841e+01    0.2914667    0.2747146  36.77   0.00177648    1.192    0.161
        28 -11.1027     80.3534      7.1096   2.8110752718e+01   6.3790333022e+01    0.1897163    0.1800235   2.45  0.001136604    1.146    0.127
        29 -12.7331    118.7972      2.4433   1.6938415229e+01   5.4214589557e+01    0.5432938    0.2662859  86.62   0.00215536    2.388    0.581
        30 -12.0351     78.7878      2.0189   2.5921918749e+01   6.4697568773e+01    0.8787981          nan  55.10  0.002161147    5.632    0.822
        31 -11.4748     67.6438      2.7197   3.0107923546e+01   6.7309790028e+01    0.3110954    0.1894611  31.19   0.00150466    1.702    0.412
        32 -11.4722     61.2034      1.4589   3.1908742472e+01   6.8925752583e+01    0.3787748    0.1201773  55.83  0.001377706    2.805    0.644
        33 -12.1380    110.9792    155.1374   6.4712958395e+01   2.9242922933e+01     0.509297    0.3212963  86.04  0.001968598    3.379    0.704
        34 -12.5728     51.4646    248.2379   8.8978617701e+01   1.9797963796e+01    0.3344157     0.300492   8.26  0.002718615    1.415    0.293
        35 -12.2859      3.0024    249.4804   9.8754016917e+01   2.4029444310e+01    0.3526132    0.1758919  39.26  0.001873071    1.339    0.253
        36 -14.0576      9.8791    245.7155   9.7329035312e+01   2.4075516202e+01    0.8080147    0.3075076  44.20  0.003847486    1.697    0.411
        37 -12.1470     76.8898    156.7082   7.4556014785e+01   3.4191551437e+01    0.3755726    0.2570971  29.18  0.001156131    1.336    0.252
        38 -13.1828     73.4673    153.1622   7.5064480783e+01   3.5453650071e+01    0.6793358    0.4433747  20.57   0.00244913    1.592    0.372
        39 -11.2142    206.4792    190.5204   4.9742926894e+01   7.9577512640e+00    0.1215623    0.0941778   9.84 6.212759e-05    1.007    0.007
        40 -11.0899    188.6691    156.3143   4.6897118282e+01   1.5456668816e+01    0.1179528    0.1068284  76.06 0.0007045177    1.679    0.404
        41 -12.6340    246.4753    149.8748   3.6016477341e+01   7.2519074118e+00    0.3837084    0.3326789 -43.46  0.002767476    1.626    0.385
        42 -11.5518    103.4401    149.8689   6.5866926957e+01   3.1589359457e+01    0.3418458    0.2402542 -26.66   0.00147535    1.822    0.451
        43 -12.4683      8.8210    149.6183   9.4249818094e+01   4.2947293704e+01     0.507107    0.2789301  51.86  0.002775254    1.609    0.378
        44 -12.2016     60.7915    147.4838   7.8128968555e+01   3.8421154061e+01    0.3539416    0.2460497  -1.17  0.001746648    1.895    0.472
        45 -11.8787     61.0599    152.0405   7.8632150133e+01   3.7346494446e+01    0.2007359    0.1802136  45.56  0.000306727    1.008    0.008
        46 -12.4361    247.8575    137.1329   3.3420605718e+01   8.5573302993e+00    0.1728945     0.147319 -24.83  0.001051902    1.248    0.199
        47 -12.3331    135.3799    132.2432   5.3790820564e+01   2.9389734818e+01    0.4877665    0.2277362  44.34  0.001953756    2.017    0.504
        48 -12.2576    133.6006    126.4210   5.2966639800e+01   3.0867143091e+01    0.4938698    0.2640147 -28.21  0.001900231    2.643    0.622
        49 -13.9595    104.6357    121.7868   6.0022749892e+01   3.7397955715e+01     1.348826    0.9349065  46.73  0.006443871    1.396    0.284
        50 -14.8050    106.9574    106.5510   5.5775231101e+01   4.0233549206e+01     1.695807      1.34217 -84.05  0.008148086    1.696    0.411
        51 -12.6343     42.5140     90.5853   7.5637675635e+01   5.4335696899e+01    0.3938041    0.3178553  72.82  0.002141031    1.377    0.274
        52 -12.2614     36.7579     92.9127   7.8493979413e+01   5.4378482313e+01    0.4373001    0.2643741   8.06  0.001460053    1.935    0.483
        53 -14.7057     24.0698     92.3238   8.3763927924e+01   5.5665842437e+01     1.298893     1.151959  29.38  0.007954032    1.152    0.132
        54 -15.0031     15.0205    106.8167   8.9135698600e+01   5.2723048820e+01     1.572179    0.9599819  61.23  0.008167808    1.693    0.409
        55 -12.2006     78.6671    110.0079   6.5832062451e+01   4.4602799428e+01    0.4038797    0.3175941  89.16  0.001748875    1.569    0.363
        56 -11.5896     86.5393    114.9417   6.4235675510e+01   4.2148349291e+01    0.5745474    0.3322122  13.54   0.00216585    2.653    0.623
        57 -12.6738     82.1672    115.1723   6.5739960601e+01   4.2830053105e+01    0.4664544    0.3764469  43.93    0.0024299    1.176    0.150
        58 -13.4990    246.9676    113.2918   2.8854092684e+01   1.1543645337e+01    0.4153605    0.2554695  54.33  0.002481148    2.004    0.501
        59 -11.3500     63.2166    111.1112   7.1535979255e+01   4.6697023084e+01    0.3026837    0.1622036  51.69   0.00124939    2.109    0.526
        60 -13.5614      2.2493     96.8711   9.3280108415e+01   5.5855210333e+01    0.8430738    0.2776881 -83.27   0.00333257    2.905    0.656
        61 -11.7955    176.5807    109.8041   3.9261266478e+01   2.5018704844e+01    0.2965087    0.2192577  18.60   0.00151818    1.508    0.337
        62 -11.5010     88.2858    109.6396   6.2482500005e+01   4.3052466245e+01     0.271371    0.1944413 -70.99   0.00126315    1.720    0.419
        63 -13.0485     29.0005    121.7902   8.5532199146e+01   4.7982452586e+01    0.3856402    0.3038113 -59.46  0.002177925    1.296    0.229
        64 -12.1823    136.5427    102.9729   4.6564683159e+01   3.4777066702e+01    0.5025619     0.217905  47.77  0.001867028    2.217    0.549
        65 -11.1227    181.3049    120.6655   4.0854319482e+01   2.2328219853e+01    0.1315436    0.1116061 -75.78 0.0007038882    1.665    0.400
        66 -12.6681      5.2977    118.3920   9.3617742015e+01   5.0482406503e+01    0.7278141    0.4143736 -37.11  0.003737234    2.080    0.519
        67 -11.9900     61.5111     97.5461   6.9397854343e+01   5.0198407585e+01    0.4529851     0.308646  72.07   0.00186462    1.964    0.491
        68 -11.9043     52.9744     97.4604   7.2726871710e+01   5.1386470363e+01    0.4399253    0.2770732 -23.56  0.001924525    2.165    0.538
        69 -11.2440     48.6687    100.6839   7.5057127444e+01   5.1138029489e+01    0.2572724    0.2157108 -29.22  0.001411728    1.302    0.232
        70 -11.7711     46.4920     98.5237   7.5519054212e+01   5.1927586314e+01    0.2955269    0.2546296 -34.63  0.001575195    1.229    0.186
        71 -11.8849    163.5943     97.3447   3.8829797070e+01   2.9835239429e+01    0.3448691    0.2450833 -56.77 0.0008550404    1.755    0.430
        72 -13.1891    136.7057     94.4960   4.4286217908e+01   3.6330212137e+01    0.5254469    0.4576389  83.55  0.002296955    1.382    0.276
        73 -11.4546    129.5927     96.2610   4.6611062677e+01   3.7574484321e+01    0.2911614    0.1837691  55.06  0.001260931    1.677    0.404
        74 -11.4656     35.4565     86.2964   7.7849572586e+01   5.6143367067e+01    0.2346343    0.2151721  -8.10 0.0004917437    1.131    0.116
        75 -13.0708    188.5492     83.8296   3.0697165349e+01   2.6457305040e+01    0.5406606    0.3017921  41.39  0.002301243    1.914    0.478
        76 -12.1905    158.5778     64.6045   3.0880297866e+01   3.6228594970e+01    0.7208309    0.2635763 -44.89  0.002457824    3.094    0.677
        77 -13.5609    163.8674     71.5758   3.1853269656e+01   3.3903212306e+01     1.426101    0.5336407  44.87  0.005002975    2.836    0.647
        78 -13.3149    161.9358     79.6643   3.4479898023e+01   3.3096894191e+01    0.9303484    0.5138699  24.49  0.003339513    3.141    0.682
        79 -14.5721    169.4881     77.0529   3.2297336615e+01   3.1749740704e+01     1.264994    0.6490575  47.73  0.003884533    1.909    0.476
        80 -12.3569     49.0859     93.2304   7.3434091441e+01   5.2910022208e+01    0.4227962    0.3158747  61.78  0.001901108    1.509    0.337
        81 -13.5956     67.3951     50.0725   5.3010119523e+01   5.9898958023e+01    0.8430094    0.7328672 -83.39  0.003365448    1.478    0.323
        82 -13.5425     28.6685    245.8429   9.3555327622e+01   2.2409267942e+01    0.4218326    0.2228992  49.44  0.002741699    1.420    0.296
        83 -13.8079     73.7459     73.9654   5.8446297091e+01   5.3691183114e+01     1.477917    0.7541686  17.01    0.0042677    3.837    0.739
        84 -13.1125     87.3437     65.2640   5.0450568401e+01   5.2896670005e+01    0.5832922    0.4749868   3.19  0.001513833    1.440    0.306
        85 -12.8335     54.9149     81.0504   6.8228208478e+01   5.5077579833e+01    0.5677899     0.439017 -33.43  0.002115026    1.388    0.279
        86 -13.9064     61.2701     75.5595   6.4058616295e+01   5.5423043093e+01    0.7469894    0.5361187 -34.93   0.00271367    1.517    0.341
        87 -12.0727    113.9911     79.8788   4.6338137681e+01   4.4214378435e+01    0.4329795    0.3520049 -47.92  0.002057791    1.331    0.249
        88 -12.8122    210.5334     77.1069   2.5728762639e+01   2.2735624329e+01    0.5128289    0.3153158 -56.77  0.002540412    2.029    0.507
        89 -12.6582    135.2151     79.3224   4.0389748306e+01   3.9429849148e+01    0.7425555    0.3670324  54.33  0.002894414    2.028    0.507
        90 -12.3510    236.7343     79.9998   2.3108510032e+01   1.7307083581e+01      0.29478    0.1618083  82.32  0.001310055    3.518    0.716
        91 -11.7878     42.5201     79.4806   7.3301366040e+01   5.7046217054e+01    0.2811919    0.1856778 -39.33  0.001094031    1.598    0.374
        92 -13.5090     92.0411     57.2090   4.5964537925e+01   5.3460837164e+01    0.5389232    0.5103931  32.02  0.001485962    1.018    0.018
        93 -13.7360     96.7935    239.0998   7.8746151105e+01   1.6102628857e+01    0.6520804    0.2950195  35.30   0.00361018    1.576    0.366
        94 -14.2663      5.2374     63.2112   8.8500655539e+01   6.3977882480e+01    0.7510572     0.631754  -5.20  0.004448162    1.257    0.204
        95 -11.5618     27.1298     75.2818   7.9562415441e+01   5.9629846802e+01    0.5068123    0.2473938  87.42  0.001919116    3.177    0.685
        96 -12.3908    214.4965     71.4959   2.3871086513e+01   2.2647804393e+01    0.2280198    0.1741293  78.29  0.001307937    1.548    0.354
        97 -13.6216    199.8837     69.4284   2.5334286138e+01   2.5991248946e+01    0.6489202    0.3342224  57.10  0.002607631    1.978    0.494
        98 -13.2777    133.2695     65.9763   3.6822176324e+01   4.2197250332e+01    0.9551976    0.7234952   8.42   0.00447932    1.713    0.416
        99 -11.5419     99.6667     64.5782   4.5938807238e+01   5.0373177093e+01    0.3681371    0.2698223 -72.29   0.00163654    1.952    0.488
       100 -12.0466    200.0011     61.4767   2.3317393293e+01   2.7001067533e+01    0.2455681    0.2304421  -2.72  0.001131269    1.122    0.109
       101 -12.9788     78.9094     60.2019   5.1914137993e+01   5.5633961164e+01    0.5307328    0.4998437 -25.51  0.002722866    1.102    0.093
       102 -12.7927     35.6271     57.2477   7.1039917008e+01   6.3123977492e+01    0.8171293    0.5037614 -58.85  0.004045291    1.599    0.375
       103 -11.7690     24.9421     58.7129   7.7138791757e+01   6.3831881359e+01    0.5309322    0.2201599 -55.12  0.002280656    2.120    0.528
       104 -13.9590     91.1710    231.7395   7.9310408293e+01   1.7951339421e+01    0.4698157    0.2854108  65.43  0.002703109    2.215    0.549
       105 -11.8208    111.1055     58.6700   4.0356939546e+01   4.8808556980e+01    0.2751038    0.2197091  29.08 0.0004009804    1.320    0.243
       106 -11.9335    247.1699    234.9898   4.9881862213e+01  -1.8832324086e+00    0.1884096    0.1132857  19.46  0.001418342    1.259    0.205
       107 -12.3433    109.9927     42.0094   3.4652988589e+01   5.1815819104e+01    0.4352086    0.2088028  54.70 0.0007159439    1.912    0.477
       108 -12.8025    113.6447     38.0218   3.2154261249e+01   5.1489507549e+01    0.3981979    0.3783664  82.59  0.001410182    1.102    0.093
       109 -12.6925     23.5103    216.2899   9.3505768146e+01   2.7983429974e+01    0.6441171    0.1865868  39.80  0.003170484    2.217    0.549
       110 -14.1353     26.2211    226.5174   9.3322520518e+01   2.5898870813e+01    0.6571606    0.3840447 -53.01  0.004101599    2.389    0.581
       111 -10.9808    117.5717     72.0570   4.2891532385e+01   4.4876772211e+01     0.243747     0.197971  47.78 0.0008424751    1.157    0.135
       112 -12.5599    135.7663     50.0888   3.1103311135e+01   4.4085084660e+01    0.5276995    0.3613666  22.21  0.001816828    1.934    0.483
       113 -11.6714     17.5327     55.4745   8.0477107011e+01   6.5178557090e+01    0.3205604    0.2174426 -66.01  0.001748529    1.405    0.288
       114 -13.6155    103.3587     50.4684   3.9769459872e+01   5.2068596624e+01    0.9691637    0.4727185 -44.25  0.001762302    2.272    0.560
       115 -13.4568     97.9780     49.9822   4.1299651327e+01   5.3419754805e+01    0.9335531    0.4418687 -41.95  0.003157568    2.275    0.560
       116 -13.7531    177.6008     56.3834   2.5212452394e+01   3.2808249278e+01    0.9735813    0.5444366 -44.30  0.003858428    1.820    0.451
       117 -10.4827     23.6547     49.7395   7.5588387724e+01   6.6060076555e+01    0.1385506   0.09100682 -26.14 0.0003197567    1.598    0.374
       118 -11.6175    151.9933     47.0000   2.6805344146e+01   4.0397841466e+01    0.2843302    0.1812412  62.66 0.0008905985    1.498    0.333
       119 -13.0214    158.1777     42.9781   2.4456381589e+01   3.9364898485e+01    0.6342371    0.5335319  10.35  0.002957242    1.406    0.289
       120 -10.9425     29.4871     46.9812   7.1399498197e+01   6.6145141182e+01    0.1969413     0.126722 -57.19 0.0004965641    1.511    0.338
       121 -11.1214     38.8554     46.0584   6.5758647658e+01   6.5273841980e+01    0.1988826    0.1891708  63.68 0.0005644175    1.224    0.183
       122 -13.2934      6.4283     43.0376   8.4432191257e+01   6.8761252735e+01    0.9665213    0.4109082  11.23  0.004409597    2.456    0.593
       123 -14.0123     20.6381    223.9900   9.4442537227e+01   2.6846868753e+01     0.618056    0.4049793  30.75   0.00388734    1.280    0.219
       124 -14.0179     65.8588    223.2301   8.4275314848e+01   2.2395259382e+01    0.9286323    0.5684443  41.62   0.00578746    1.255    0.203
       125 -14.1448     64.3479    214.1273   8.3927879664e+01   2.4189946900e+01    0.5794746    0.3278462  40.13   0.00337817    1.357    0.263
       126 -13.0524     59.4043    212.7774   8.4988465651e+01   2.5000325506e+01    0.3448577    0.2189818 -48.28  0.001378529    2.084    0.520
       127 -13.6547    217.4609     41.8670   1.6437893756e+01   2.5564886236e+01    0.9405732    0.3718258  62.94   0.00426081    2.547    0.607
       128 -12.8510    205.1536     40.2220   1.7305452419e+01   2.8424123270e+01    0.7133775    0.3575532 -79.50  0.002869749    3.189    0.686
       129 -11.4175    248.6554    226.3205   4.8404747512e+01  -1.2276243993e+00   0.08674663   0.07456839  15.37 0.0007049721    1.728    0.421
       130 -12.0775     40.3605     40.3630   6.2824832808e+01   6.6304739776e+01    0.5703152    0.3169194  30.52  0.002691261    1.752    0.429
       131 -12.8952     32.9291     40.0399   6.7042896184e+01   6.7314700515e+01    0.3342359    0.2707443  -0.90 0.0006121026    1.224    0.183
       132 -12.6277     75.9827     37.0048   4.4048710142e+01   6.0599918467e+01    0.5080448    0.3162349  40.19  0.001404285    1.508    0.337
       133 -11.9161     70.8136     35.8613   4.5692060417e+01   6.1887886940e+01    0.3463876    0.2834748 -47.55 0.0009930986    1.380    0.275
       134 -12.5810    242.5644     36.0731   1.2914175016e+01   2.1136437701e+01    0.4736049    0.2381435  79.49  0.002527352    2.378    0.580
       135 -12.4083    105.7923     33.8455   3.2650733368e+01   5.4074762279e+01    0.6896346    0.4386629   0.52  0.002854819    2.400    0.583
       136 -12.4192     94.2168    217.9931   7.7326233686e+01   1.9843960985e+01     0.238557    0.1452404  32.58  0.001393325    1.262    0.208
       137 -12.3658    249.2052    216.3161   4.6830223404e+01  -3.2028415721e-01    0.2106789    0.1520402  17.20  0.001540639    1.265    0.209
       138 -12.5295    237.7562    214.2646   4.8286622624e+01   1.1923228115e+00    0.2630844      0.18702 -35.02   0.00188624    1.960    0.490
       139 -13.0101     72.3427    206.7701   8.1404360209e+01   2.4594683099e+01    0.3273602    0.2878589  71.56  0.002004341    1.264    0.209
       140 -12.5875     57.4453    202.9948   8.4708149074e+01   2.7058598907e+01    0.4146152    0.2377982  84.21  0.002237454    2.212    0.548
       141 -11.2541    185.5011    203.4948   5.5748542602e+01   9.2449774611e+00    0.1236637   0.09487282  15.55 0.0008106684    1.006    0.006
       142 -13.0519     16.4152    197.0525   9.4371876566e+01   3.2263249135e+01    0.6049923    0.1935389 -60.51  0.002694458    3.694    0.729
       143 -12.3649     40.0521     24.2539   5.5986142359e+01   6.9570780392e+01    0.2723914    0.2163259  15.78  0.001137678    1.195    0.163
       144 -12.1535     30.7484     25.5393   6.2542348831e+01   7.0616088436e+01    0.3746906    0.2257508  12.97  0.001817864    1.816    0.449
       145 -12.1325     35.5866     23.3808   5.8356821801e+01   7.0392846995e+01    0.3261942    0.2429889  -4.30  0.001181145    1.410    0.291
       146 -12.5382    248.6338    196.7871   4.3857307922e+01   1.7299450632e+00    0.4444927    0.2039875 -35.07  0.002608894    2.352    0.575
       147 -12.8030     38.8085    194.7690   8.8736181443e+01   3.0664292212e+01    0.4504944    0.2852011  46.52  0.002727078    1.286    0.222
       148 -10.9576     51.2427     20.4054   4.7591679728e+01   6.8358146886e+01    0.3187335    0.1202509  45.15  0.001216877    2.588    0.614
       149 -11.5311     46.4048     19.9910   5.0046683314e+01   6.9296044733e+01    0.3766209    0.2033948  20.54  0.001562625    2.494    0.599
       150 -13.3744     30.0379    169.2624   8.9341329559e+01   3.6853663943e+01    0.9809563    0.6857837  18.13  0.005797089    1.485    0.327
       151 -13.3975     22.1490    180.8026   9.2172321180e+01   3.5085470131e+01    0.5796289    0.3475282 -66.77  0.003084298    1.839    0.456
       152 -15.0082      8.7007    183.1383   9.5734479253e+01   3.5682373730e+01     1.169216    0.9054077  30.01   0.00807945    1.231    0.187
       153 -10.9454    175.9525     13.7433   1.3242635408e+01   3.8152783547e+01    0.1821741    0.1560512 -85.50 0.0001980278    1.069    0.065
       154 -14.7909     15.3547    174.7730   9.3656543274e+01   3.6921741546e+01     1.874333    0.4791992  39.92  0.008039383    2.671    0.626
       155 -12.3090    249.6244    182.5920   4.1363557071e+01   3.1248419830e+00    0.2546006   0.08605307 -34.59  0.001257203    2.881    0.653
       156 -11.6475     48.9395    181.3685   8.5121480988e+01   3.2347703519e+01    0.2329679    0.1882359 -65.33  0.001473535    1.420    0.296
       157 -12.0006     84.0000    178.0104   7.5388055706e+01   2.8687768414e+01    0.1977147   0.07819428 -62.34 0.0008068345    2.973    0.664
       158 -13.1124    124.1787    166.4383   6.3209635138e+01   2.4816782781e+01    0.5579274    0.4056218 -65.15  0.002930639    1.844    0.458
       159 -11.2175    177.4944    167.4785   5.1233067254e+01   1.5640886560e+01    0.1334049    0.1110582  14.90 0.0002819352    1.003    0.003
       160 -10.8810    192.6220    164.2206   4.7644756401e+01   1.3638167545e+01    0.1785565    0.1106599 -21.48 0.0009504198    1.684    0.406
       161 -11.7443    206.4002    162.2116   4.4731679518e+01   1.1710643759e+01    0.1680634    0.1112722 -39.29 0.0009563132    1.721    0.419
       162 -13.5808     58.1485     26.6480   4.7217968353e+01   6.6007032394e+01     1.180188    0.3926575  41.23   0.00406964    2.839    0.648
