#   1 NUMBER                 Running object number                                     
#   2 MAG_AUTO               Kron-like elliptical aperture magnitude                    [mag]
#   3 X_IMAGE                Object position along x                                    [pixel]
#   4 Y_IMAGE                Object position along y                                    [pixel]
#   5 X_WORLD                Barycenter position along world x axis                     [deg]
#   6 Y_WORLD                Barycenter position along world y axis                     [deg]
#   7 A_WORLD                Profile RMS along major axis (world units)                 [deg]
#   8 B_WORLD                Profile RMS along minor axis (world units)                 [deg]
#   9 THETA_WORLD            Position angle (CCW/world-x)                               [deg]
#  10 FWHM_WORLD             FWHM assuming a gaussian core                              [deg]
#  11 ELONGATION             A_IMAGE/B_IMAGE                                           
#  12 ELLIPTICITY            1 - B_IMAGE/A_IMAGE                                       
         1 -14.8414      6.5298     71.6077   1.1108093701e+02   6.0502131773e+01     1.210991    0.5547442 -53.19  0.004860689    1.598    0.374
         2 -12.6655    232.5120      2.1914   3.2550961143e+01   2.7201935834e+01    0.6015279    0.2457569  63.62  0.002971434    2.354    0.575
         3 -13.9401    187.4508     11.3420   3.8799996488e+01   3.6652113666e+01     1.381052    0.6441302 -54.84   0.00610979    2.407    0.585
         4 -14.4295    189.2722     26.4000   4.2587035946e+01   3.4585379108e+01     1.525461    0.7683234 -56.35  0.006413199    2.293    0.564
         5 -15.2091    217.1012     14.4458   3.6548352138e+01   2.9343173094e+01     1.765597     1.116803 -25.06  0.009758183    1.819    0.450
         6 -13.5430    131.7729     32.8205   5.4284718681e+01   4.8006401111e+01    0.9940191    0.5033806 -35.92   0.00433552    2.084    0.520
         7 -14.2559    121.8105     37.5942   5.8275462523e+01   4.9755420518e+01    0.9608589    0.5215136  34.80  0.002706649    2.023    0.506
         8 -13.8467    242.8590     35.4731   3.8904877890e+01   2.1188615779e+01    0.8624899    0.5627587  86.71   0.00329606    1.583    0.368
         9 -13.4967      2.6669     10.8260   9.4592387215e+01   7.2653505028e+01    0.7639781    0.3661399 -49.41  0.004440605    1.947    0.486
        10 -13.2381      8.2576      2.6972   8.7339089498e+01   7.3474029246e+01    0.4929551    0.4461098  54.51  0.002382101    2.290    0.563
        11 -15.9396     11.9824     21.9257   9.4091399485e+01   7.0144528035e+01     1.857192     1.000478 -23.92   0.01073896    1.633    0.388
        12 -14.4366     24.6087     13.8673   8.3767371801e+01   7.0275726707e+01    0.8317139    0.3444625  32.57  0.004260463    2.543    0.607
        13 -14.6464    166.6699     29.7536   4.6766127925e+01   3.9772827195e+01     1.123237    0.8296627  56.73  0.003816554    1.262    0.208
        14 -14.8845    147.3397     29.6663   5.0074188973e+01   4.4585749770e+01     1.373046    0.8237584  58.80  0.004822382    1.513    0.339
        15 -15.4467     97.7289     12.3507   5.4767048550e+01   5.8095516820e+01     1.706383    0.7270364  51.64  0.006564928    1.983    0.496
        16 -14.2499     41.8009      5.5676   7.1123653155e+01   6.9177611985e+01     1.004871    0.5802082  -4.72  0.004511771    1.769    0.435
        17 -11.6513     46.6294     13.2784   7.2854719976e+01   6.7530830487e+01    0.2659946    0.2033288  32.10  0.001720821    1.377    0.274
        18 -11.9119    203.5022     11.7288   3.7200037465e+01   3.2780926675e+01     0.425661    0.2082639 -78.26  0.001848586    2.542    0.607
        19 -12.3371     71.3900     17.6538   6.5127972201e+01   6.2863879187e+01    0.3559085    0.2347596 -19.47  0.001184784    1.489    0.329
        20 -11.5476    153.0623      8.9220   4.2545888584e+01   4.5322310073e+01    0.2084263    0.1830137  60.06 0.0009896359    1.045    0.043
        21 -10.9281     58.9713      7.1698   6.4766530580e+01   6.6250610085e+01    0.1736237    0.1501908  75.57  0.001082967    1.968    0.492
        22 -12.2340     59.9847     17.2058   6.9175179202e+01   6.4926815998e+01    0.3484348    0.1757821 -29.38  0.001770069    1.939    0.484
        23 -15.1819    213.0291     41.0779   4.3402279869e+01   2.7094640520e+01      2.47221    0.8374861  69.64  0.008935368    3.288    0.696
        24 -12.3236    119.0705      3.0669   4.6326855177e+01   5.4045293965e+01    0.4760033     0.283962  84.72  0.002156527    2.182    0.542
        25 -12.5472     79.3280      2.1492   5.5502209362e+01   6.2888354401e+01    0.5893752    0.1834213  48.98  0.002477599    2.503    0.600
        26 -12.2428     61.9085      1.9086   6.1082194066e+01   6.6252069107e+01    0.3202296    0.1858244  51.86  0.001175862    1.811    0.448
        27 -13.4681    224.1751     20.8478   3.7374065909e+01   2.7030137140e+01    0.5389397    0.3631885  87.89  0.002324066    1.421    0.296
        28 -12.3264     98.2720    187.3702   1.0352412194e+02   2.2651322516e+01    0.3766628    0.2506161 -20.19  0.001647351    2.611    0.617
        29 -11.8379     52.2411    250.4279   1.1980946217e+02   1.6155889485e+01    0.2070526   0.08958755  57.69  0.001082472    2.037    0.509
        30 -12.0012      2.8408    249.7881   1.2821917201e+02   2.1551094157e+01    0.2860456    0.1615671  46.17  0.001782201    1.488    0.328
        31 -13.7748      9.1404    245.7559   1.2701845625e+02   2.1676504584e+01    0.7001637    0.3469378  57.84  0.003403848    1.519    0.342
        32 -10.8483    212.4884    200.4928   8.0574019457e+01   3.6282206410e-01    0.1371883    0.1129212   3.89 1.247048e-05    1.046    0.044
        33 -13.6472    196.7293    179.1637   7.9535616707e+01   6.7293218446e+00    0.8013322    0.5101047 -65.68  0.003166351    3.210    0.688
        34 -11.4651    109.9929    183.6704   1.0013629901e+02   2.1582589636e+01    0.2281853    0.1210725  14.80 0.0007052021    4.382    0.772
        35 -12.0436     49.0909    181.6215   1.1446256333e+02   3.0725153439e+01    0.3823549      0.23186 -54.91   0.00204396    1.718    0.418
        36 -12.6020     85.6165    180.7195   1.0559484223e+02   2.6096385231e+01    0.3155758    0.2045687  81.29  0.001485201    1.935    0.483
        37 -11.9716     96.1628    171.4173   1.0153705551e+02   2.6633796817e+01    0.3240974    0.2369269  24.22  0.001626453    1.574    0.365
        38 -13.4702    124.2468    166.7017   9.3625295339e+01   2.2922142641e+01    0.7049686    0.4535766 -72.85  0.002994786    2.128    0.530
        39 -11.9844     77.5040    157.0055   1.0399157368e+02   3.2905617462e+01    0.4028497    0.2825434  29.00  0.001505126    1.582    0.368
        40 -13.2793     73.8952    153.4388   1.0436910022e+02   3.4286022515e+01    0.6470501    0.5012825  29.25  0.002882278    1.428    0.300
        41 -11.6004    136.8185    211.3436   9.8347809315e+01   1.1323509445e+01     0.218913    0.1886555 -75.16 0.0008640888    1.375    0.273
        42 -13.0724    208.8320    154.3171   7.1783638055e+01   8.9846835682e+00    0.6628613    0.5400305  29.45  0.003581598    1.240    0.193
        43 -11.5070    112.4202    157.2625   9.4809554434e+01   2.7221661185e+01    0.2097333    0.1437939 -66.45 0.0009509906    1.624    0.384
        44 -11.3667     55.9972    156.0199   1.0954700646e+02   3.5990501426e+01    0.2162506    0.1532542 -38.67 0.0009486505    1.685    0.407
        45 -11.8903     85.9220    153.1713   1.0107743972e+02   3.2587224516e+01    0.4217991    0.1901065 -49.80  0.001674265    2.185    0.542
        46 -11.8051    103.1975    150.1406   9.5846899426e+01   3.0515620934e+01    0.4231816      0.26899 -34.15  0.001826622    1.935    0.483
        47 -12.5724     61.0588    148.0381   1.0698707205e+02   3.7319168482e+01    0.3778369     0.275158 -17.81  0.001335251    1.933    0.483
        48 -11.3984     88.9515    140.0646   9.7764242839e+01   3.5307900114e+01    0.2398371    0.1793243 -23.09  0.001138701    1.695    0.410
        49 -10.7088     62.8595    138.7873   1.0495221253e+02   3.9371390482e+01    0.1902153    0.1551202  85.38  0.001038967    1.287    0.223
        50 -13.1647    246.7036    133.2867   6.0385509370e+01   5.5597268335e+00    0.5366688    0.4162625 -37.95  0.003077385    1.176    0.150
        51 -15.0272    229.9342    128.8093   6.2127769388e+01   9.4450987081e+00     1.292201     1.145742  69.36  0.007430696    1.409    0.290
        52 -13.6064    120.6370    102.1456   7.9472179188e+01   3.8408402807e+01    0.6644332     0.359403  38.15   0.00263277    1.931    0.482
        53 -14.5600    105.6252    121.7204   8.8918198932e+01   3.6878359812e+01     1.672914       1.1808  32.69  0.007768888    1.500    0.333
        54 -14.9496    106.6011    105.8785   8.4573040303e+01   4.0371066125e+01     1.581594     1.133708 -10.87  0.005745194    1.871    0.465
        55 -11.4539     65.7739    126.5018   1.0183394563e+02   4.2027512845e+01     0.275002    0.2308988  63.66  0.001514583    1.320    0.242
        56 -11.4518     60.2493    125.2181   1.0325432711e+02   4.3055398295e+01    0.2965822    0.1732524   7.13  0.001236744    2.698    0.629
        57 -12.2266    182.2615    122.0861   6.9610888206e+01   2.0667304266e+01     0.525108    0.3593448 -84.34  0.001992161    2.764    0.638
        58 -12.5448     77.2126    117.3789   9.6416804401e+01   4.2654483581e+01    0.7177207    0.4150806 -59.38  0.003179571    1.679    0.405
        59 -12.8667     84.9342    115.2330   9.3536440404e+01   4.1980699853e+01    0.8764377    0.4851821  43.54  0.003645377    1.963    0.491
        60 -12.2764     88.1579    109.7168   9.1193527787e+01   4.2769563772e+01    0.3686546    0.2836131 -63.18  0.001821094    1.375    0.272
        61 -11.8951      3.7030    119.8190   1.1929651984e+02   4.9438730060e+01    0.4542373    0.1680868  15.35  0.002059806    3.552    0.718
        62 -12.1234     45.1950    135.1117   1.0941129725e+02   4.2352772672e+01    0.3319182    0.2832888 -76.70  0.002001127    1.054    0.051
        63 -14.1463     17.7837    111.0817   1.1395510614e+02   5.0640995657e+01    0.7999969    0.6059994 -39.34  0.003641664    1.358    0.264
        64 -13.8784     11.0119    102.8582   1.1488100033e+02   5.3043502490e+01    0.6696386    0.6335744  81.13  0.004306188    1.225    0.184
        65 -13.2307      2.1970     97.2814   1.1692887392e+02   5.4834271070e+01    0.7632557    0.2166361 -72.50  0.003011687    2.950    0.661
        66 -14.3582     25.1086     94.3783   1.0873281077e+02   5.4093052556e+01     1.284441    0.9932857 -18.35  0.007861692    1.445    0.308
        67 -11.4893     62.6423    111.3073   9.9661610546e+01   4.6157630006e+01    0.1440462     0.108115  72.28 0.0007041314    1.728    0.421
        68 -12.0061     37.0853     93.1140   1.0428893532e+02   5.3371003300e+01    0.3307272    0.2137089  10.60  0.001669196    1.877    0.467
        69 -13.2424     22.3360    181.1453   1.2052322410e+02   3.3629128242e+01    0.5457553    0.3278519 -70.10  0.002031598    1.464    0.317
        70 -11.8703    176.8838    110.5900   6.7817878554e+01   2.4140055894e+01     0.423268    0.3004873  -5.54  0.001794646    1.937    0.484
        71 -12.5883    136.0623    103.2287   7.5566289962e+01   3.4879041530e+01    0.7707164    0.2915416  46.17  0.002539973    2.692    0.629
        72 -12.2547     92.8670    103.6683   8.8165220003e+01   4.3382103649e+01    0.3670172    0.2709861  46.94  0.001674085    1.489    0.328
        73 -12.2532     62.4973     99.3732   9.6955064082e+01   4.9034777686e+01    0.5887551    0.3696625  83.96   0.00228173    3.185    0.686
        74 -13.4602    249.2678     96.6412   5.1844472561e+01   1.1034570766e+01    0.8159125    0.2345205 -37.77  0.002939381    2.881    0.653
        75 -12.0980     51.7497     98.5098   1.0040307860e+02   5.0563202250e+01    0.6546385    0.3269378 -20.73   0.00226653    3.909    0.744
        76 -12.2540     49.4575     94.6386   1.0029676932e+02   5.1738220584e+01    0.3845535    0.2848911  84.41  0.001514161    1.861    0.463
        77 -11.5742    163.2321     97.3950   6.7277771027e+01   2.9874482905e+01    0.2247688    0.1512646  60.90 0.0009571692    1.697    0.411
        78 -12.9060    136.9488     95.6453   7.3180759670e+01   3.6263527803e+01     0.491161    0.3766338  58.85  0.001452311    1.460    0.315
        79 -11.3590     42.6220     90.7641   1.0180175916e+02   5.3379217141e+01    0.2536846    0.1897477 -64.42 0.0007229683    1.293    0.227
        80 -11.9765     90.2719     88.5382   8.4763638626e+01   4.7237379205e+01     0.429094    0.3110096  46.07  0.002084277    1.529    0.346
        81 -13.7703    242.4598     84.1185   4.9917306017e+01   1.4355298808e+01    0.4897597    0.3607002  82.27  0.002673327    1.665    0.399
        82 -13.7933    237.6061     80.4970   4.9727136396e+01   1.5918570535e+01    0.6285986    0.3636023  72.17  0.002938962    2.216    0.549
        83 -12.6644    149.0766     85.3383   6.7127555678e+01   3.5513871995e+01     0.614244    0.3800696  29.93  0.002473505    2.017    0.504
        84 -11.2185     34.3293     86.8711   1.0389493734e+02   5.5082524769e+01    0.2344609    0.1813876 -11.53  0.001132069    1.429    0.300
        85 -13.3015    188.4978     84.2049   5.8441038747e+01   2.6331564609e+01    0.8179647    0.3700549  40.56  0.002781908    2.754    0.637
        86 -14.2942    160.7858     81.0493   6.3176491415e+01   3.3525184668e+01     1.676261     1.105445  -6.76  0.006692911    2.294    0.564
        87 -14.8828    169.4181     77.1071   6.0200258506e+01   3.2141692304e+01     1.903299     1.451744 -79.44  0.008861468    1.690    0.408
        88 -13.1322     66.1741     49.2432   8.0229690962e+01   5.9073484053e+01    0.5136825    0.4838572  41.46  0.001658308    1.364    0.267
        89 -12.7776     57.7357     66.7229   8.9565789830e+01   5.6934563443e+01    0.6096371     0.537087  27.51  0.003679983    1.274    0.215
        90 -12.8480     61.0330     59.8217   8.6014349159e+01   5.7868031579e+01    0.8421983    0.3994895 -21.13  0.002700901    4.000    0.750
        91 -12.5893     51.4634     68.9619   9.2684137654e+01   5.7267862953e+01     0.735132    0.4960966 -83.48  0.003224803    2.944    0.660
        92 -13.1906     55.0931     82.0326   9.5084868903e+01   5.3973016707e+01    0.5829282    0.4201882 -27.74  0.002210356    1.378    0.274
        93 -13.8201     60.9248     75.7778   9.1153868870e+01   5.4594151430e+01    0.6413897    0.3932948 -38.93   0.00146944    1.483    0.326
        94 -13.6162    213.2020     78.5622   5.2769102926e+01   2.1539601188e+01     1.025818    0.6352721  78.19  0.004539652    2.155    0.536
        95 -12.6688    218.2702     74.5656   5.1009949335e+01   2.1034718745e+01    0.4161166    0.2740959  71.63  0.001875085    1.738    0.425
        96 -12.3625    214.6937     72.0007   5.0898073525e+01   2.2245144346e+01    0.3926023    0.3616348   0.72  0.001853502    1.252    0.201
        97 -13.1440    135.0230     80.0607   6.9038443851e+01   3.9778622628e+01    0.7426506    0.4138724  44.81  0.002989625    1.783    0.439
        98 -12.0596    114.2457     80.3335   7.4839397632e+01   4.4303559474e+01    0.3638918    0.3302764 -48.02 0.0008907321    1.173    0.147
        99 -13.5196     87.5843     65.3159   7.8286877550e+01   5.2482157029e+01     1.083666    0.6257408   8.96   0.00378597    3.094    0.677
       100 -13.0562     91.7676     58.4732   7.4507311857e+01   5.2961160381e+01    0.5629908    0.4630283 -53.08  0.002738258    1.469    0.319
       101 -12.8656     70.7039     75.6746   8.7563589991e+01   5.3214378891e+01    0.6867334     0.477476  -7.76  0.003338765    1.740    0.425
       102 -12.1420     77.1128     73.8520   8.4718625203e+01   5.2590595875e+01    0.4685637    0.2964362 -34.15  0.001507366    1.527    0.345
       103 -11.7652    121.3362    112.2161   8.2021823475e+01   3.6032727215e+01    0.2893824    0.1865567  52.71 0.0008986988    1.753    0.430
       104 -12.6108     16.8558     78.9139   1.0863157119e+02   5.8262536245e+01    0.3485551    0.1647649 -66.35  0.001607563    1.873    0.466
       105 -11.3687     21.5078     71.7110   1.0524025333e+02   5.9563830240e+01    0.7366753    0.1603934  21.91  0.002414105    4.923    0.797
       106 -13.7664      7.5084     50.9677   1.0592032156e+02   6.4897733193e+01     1.147393    0.3697013 -38.44  0.005110603    2.610    0.617
       107 -13.0742      6.5462     43.7574   1.0437276568e+02   6.6418838320e+01     0.760084    0.3145318  14.62  0.003895715    2.735    0.634
       108 -14.4071    170.5157    242.8356   9.6040907141e+01   4.5694118049e-01     1.014004    0.6668039  22.63  0.005815209    1.421    0.296
       109 -14.0044    199.0500     69.6998   5.2729605509e+01   2.6240068555e+01     1.306166    0.6998406  35.93  0.005082406    2.681    0.627
       110 -12.2167    199.5126     62.4213   5.0736560720e+01   2.7260099684e+01     0.400676    0.2668838 -35.10  0.001613007    1.473    0.321
       111 -11.5312     41.9035     76.3424   9.8477957855e+01   5.6742781886e+01    0.2675559    0.1799069 -54.20  0.001451834    1.329    0.248
       112 -10.8607     27.2809     76.9734   1.0424141919e+02   5.7945974776e+01    0.1876573    0.1424425 -51.16  0.000450528    1.087    0.080
       113 -10.5508     22.9379     75.4978   1.0556724997e+02   5.8613284279e+01     0.160599    0.1242151   6.26 0.0009928445    1.474    0.322
       114 -12.6265    241.9167     71.4963   4.7098164323e+01   1.6396736448e+01    0.4679438    0.2998509 -79.20  0.002297783    2.065    0.516
       115 -13.5642    133.8510     65.6241   6.4790307359e+01   4.2658398797e+01    0.7340531    0.6805313   1.94  0.002534607    1.081    0.075
       116 -12.1813     38.7883     68.1929   9.7447856391e+01   5.8843734063e+01    0.4441473    0.2083913  31.45  0.002088734    2.372    0.578
       117 -10.8800     33.9179     68.2034   9.9398962162e+01   5.9312663935e+01    0.2231861    0.1892266  28.06  0.001011199    1.398    0.285
       118 -11.5799    100.6725     64.3462   7.3701345057e+01   5.0151434618e+01    0.4080994    0.2431981 -16.99  0.001658341    2.264    0.558
       119 -11.1634     43.4524     64.9090   9.4615525451e+01   5.9050901528e+01    0.1972697    0.1146804 -49.32 0.0005958031    1.507    0.336
       120 -13.9834    178.0668     57.7585   5.3004606279e+01   3.3166797124e+01    0.8859465    0.6889667 -42.87   0.00261294    1.286    0.222
       121 -12.3849     79.7552     61.1345   7.9542584846e+01   5.4663513763e+01    0.5046959    0.4188588 -33.25  0.002165012    1.161    0.139
       122 -12.8835     82.5849     54.3967   7.6143255192e+01   5.5392760765e+01    0.5092173    0.3640211   2.85   0.00205738    1.577    0.366
       123 -12.1116     24.6095     60.2611   1.0102604288e+02   6.1813209532e+01    0.2768413    0.1976285 -48.06 0.0006237408    1.158    0.137
       124 -14.6082    119.7525     54.6498   6.4798065832e+01   4.7726196777e+01     1.014953    0.6747242  33.72  0.003527337    1.552    0.356
       125 -12.7873    247.6589     54.2225   4.2554949076e+01   1.7699177046e+01    0.5714834    0.3484799 -46.65  0.002954462    1.412    0.292
       126 -12.3078    248.7771     49.2334   4.1342266470e+01   1.8151941788e+01    0.3228752     0.270229  79.09   0.00193894    1.259    0.206
       127 -11.9988    230.5833     55.4964   4.4766137010e+01   2.1151511556e+01    0.4043015    0.2146313  67.18  0.001925751    2.010    0.503
       128 -12.8059    135.6001     50.4269   5.9382452744e+01   4.4683770984e+01    0.5699065    0.3369311  33.27  0.001729404    1.952    0.488
       129 -13.5384      4.9864     63.8294   1.1007460741e+02   6.2291911097e+01    0.4959285    0.3752989  20.06  0.003326989    1.625    0.385
       130 -13.4320    103.0551     50.4915   6.8074628080e+01   5.2041013963e+01    0.6394936    0.4275875 -48.33 0.0007905574    1.795    0.443
       131 -12.3880     97.7408     50.3765   6.9661535512e+01   5.3159104819e+01    0.5874659    0.3145171 -44.39  0.002422716    2.107    0.525
       132 -10.9084     23.1979     50.2784   9.8699252472e+01   6.3986290982e+01    0.1939365    0.1291869 -18.56 0.0006189403    1.445    0.308
       133 -11.4825     77.9635     54.2222   7.7708414959e+01   5.6240982338e+01    0.2813305    0.2330201  13.13 0.0008712111    1.150    0.131
       134 -13.3403    157.9399     44.2419   5.2677024809e+01   4.0101048928e+01    0.7756469    0.5350032  33.81  0.003428704    1.644    0.392
       135 -11.7518     40.2671    243.3346   1.2149111102e+02   1.8851984562e+01    0.2840978    0.1335115 -87.53  0.001579381    2.222    0.550
       136 -13.9594     96.8651    238.8971   1.1031176266e+02   1.2360253050e+01    0.5996152    0.4175146  49.91   0.00372083    1.201    0.167
       137 -12.5042    147.2761    239.1038   1.0016070902e+02   4.6736392361e+00    0.2081543    0.1781948  85.72  0.000956995    1.535    0.348
       138 -13.5531     28.3475    246.0116   1.2376398923e+02   1.9674644365e+01    0.5957038    0.2907559  70.56  0.003580471    1.841    0.457
       139 -12.3427     25.1693    217.7533   1.2263488358e+02   2.5469774962e+01    0.5261912    0.3320526  77.03  0.003411996    1.336    0.251
       140 -11.6264     14.6149    224.0730   1.2499064612e+02   2.5253156189e+01    0.3602183    0.2041303  69.61  0.001528093    1.444    0.307
       141 -12.9034    109.7056     42.3202   6.3158546367e+01   5.1851016645e+01    0.5572441    0.2409306  46.67  0.001294541    2.141    0.533
       142 -10.4174     55.4856     41.3918   8.1454199172e+01   6.2043702598e+01     0.132933     0.109333  -6.65  0.000134482    1.039    0.038
       143 -13.7789     25.8577    227.4162   1.2311827561e+02   2.3466748899e+01    0.6161164    0.3491705 -58.68  0.003768716    2.095    0.523
       144 -12.1642     69.6578     36.6665   7.3959217706e+01   6.0587297049e+01    0.4295318    0.2128392  33.72  0.001020677    2.005    0.501
       145 -13.0484    113.7163     38.2757   6.0585958217e+01   5.1521923978e+01    0.3842248    0.3602025   8.77  0.001521512    1.063    0.059
       146 -11.6567     58.2375     35.2678   7.7848031107e+01   6.2646872459e+01     0.363531    0.2083605  21.68  0.001814295    1.857    0.462
       147 -12.3973     46.2905     33.7612   8.2275460116e+01   6.4588007638e+01    0.4684395    0.2739029 -21.42  0.002459918    1.692    0.409
       148 -13.5700     20.7604    225.2536   1.2393024581e+02   2.4414358527e+01    0.4281189    0.3712855  82.35  0.002492357    1.232    0.188
       149 -13.3488    237.3346    230.4675   8.1345332497e+01  -7.7121817975e+00    0.3941349    0.3063183  23.78  0.002666008    1.272    0.214
       150 -12.3927     55.9902    246.7424   1.1886468178e+02   1.6368608421e+01    0.2332009   0.09318846  39.97  0.001222022    2.056    0.514
       151 -14.0023     63.0594    214.4777   1.1475060283e+02   2.1781163729e+01    0.8095476    0.4934195  71.66  0.004480708    1.674    0.403
       152 -11.5356     27.4945     33.5444   9.0856770016e+01   6.6781229971e+01    0.2889086    0.1950409 -49.37   0.00173542    1.567    0.362
       153 -10.9848     31.4158     31.1217   8.8009919884e+01   6.6803568896e+01    0.2084752    0.1382871   8.71 0.0007838208    1.483    0.326
       154 -13.5316    139.4951     22.0993   4.9065275970e+01   4.7365404430e+01    0.8629789    0.2962552  60.90  0.001773435    2.557    0.609
       155 -12.8577     64.4226    224.5606   1.1541914313e+02   1.9550031257e+01    0.7068457    0.2603828  46.09  0.003295095    2.266    0.559
       156 -12.7647     94.6579    218.3764   1.0847325920e+02   1.6614048383e+01    0.3423595    0.2126262  44.76  0.001612297    1.408    0.290
       157 -12.9916     56.1737     27.4901   7.5373410796e+01   6.4148663350e+01    0.6463255    0.2985415  40.72  0.002189942    2.238    0.553
       158 -12.7818     67.9357     24.6059   6.9480516998e+01   6.2614277842e+01    0.6143547    0.3106821  40.10  0.003016173    1.860    0.462
       159 -12.7021    120.2709     26.5543   5.4666215101e+01   5.1485881488e+01    0.5816709    0.3496058  55.53  0.002629002    1.523    0.344
       160 -10.8229     98.0556     27.4608   6.0777315256e+01   5.6367525189e+01    0.2124222    0.1242095  49.65  0.001030504    1.592    0.372
       161 -11.4304     36.9167     25.5691   8.3041021700e+01   6.7090414169e+01    0.1985607    0.1901778 -71.62  0.000982319    1.755    0.430
       162 -10.3936     91.3105     34.3522   6.5552258893e+01   5.6874231641e+01    0.1474629   0.09736748  13.62 0.0007044536    1.722    0.419
       163 -12.0894     46.5014     20.9351   7.6555233689e+01   6.6522536610e+01    0.3058149    0.2160802  -4.68 0.0007869471    1.256    0.204
       164 -11.3426     53.5927     20.1512   7.3137365416e+01   6.5577247480e+01    0.3874786     0.146626  29.30  0.001543985    3.123    0.680
       165 -13.3391      8.7816    210.8374   1.2533924388e+02   2.8461440657e+01    0.6206174    0.5000449  31.55  0.004618746    1.572    0.364
       166 -12.7642     75.8924     37.3645   7.1954880895e+01   5.9390724669e+01    0.3519769      0.25277  38.20 0.0009048507    1.378    0.274
       167 -13.0268     16.7142    195.6628   1.2282692487e+02   3.0935897053e+01    0.8355004    0.2354247 -65.95  0.003693857    2.946    0.661
       168 -13.6932     30.0169    169.0325   1.1765116967e+02   3.5689772623e+01    0.7423032    0.4343365 -45.79  0.002588675    2.067    0.516
       169 -15.5436      9.7523    179.9391   1.2318549789e+02   3.5005080874e+01     1.980511     1.110248 -78.76   0.01175598    1.466    0.318
       170 -12.6416     41.7894    206.8529   1.1849974013e+02   2.5954987221e+01    0.3508838    0.1811152  73.57  0.001792331    2.047    0.512
       171 -12.6541    185.7498    213.6651   8.8325331864e+01   2.6457470063e+00    0.2234389    0.1956573 -27.05  0.001379122    1.239    0.193
       172 -11.2182    150.7578    206.9666   9.4599673937e+01   9.7897817394e+00    0.2672956    0.1681915  24.97  0.001288617    1.688    0.407
       173 -12.5252     57.3467    203.2182   1.1485981431e+02   2.4893910086e+01    0.4810383     0.240332 -86.09  0.002262734    2.313    0.568
       174 -13.2629     40.5849    195.4021   1.1775444932e+02   2.8575635914e+01    0.4669659     0.222098 -89.93  0.002195501    2.321    0.569
       175 -13.5096    164.5647    194.7985   8.9454009797e+01   9.6715022235e+00     0.693547    0.3981544 -61.91  0.002867954    2.732    0.634
       176 -11.9703    179.4964    196.6619   8.6572199790e+01   6.6640324537e+00    0.3093954    0.2238089 -87.54  0.001336314    2.943    0.660
       177 -12.7763    200.9049    192.4255   8.1324095034e+01   3.6526642618e+00    0.4976776    0.2976388 -23.29  0.002001858    1.851    0.460
