#   1 NUMBER                 Running object number                                     
#   2 MAG_AUTO               Kron-like elliptical aperture magnitude                    [mag]
#   3 X_IMAGE                Object position along x                                    [pixel]
#   4 Y_IMAGE                Object position along y                                    [pixel]
#   5 X_WORLD                Barycenter position along world x axis                     [deg]
#   6 Y_WORLD                Barycenter position along world y axis                     [deg]
#   7 A_WORLD                Profile RMS along major axis (world units)                 [deg]
#   8 B_WORLD                Profile RMS along minor axis (world units)                 [deg]
#   9 THETA_WORLD            Position angle (CCW/world-x)                               [deg]
#  10 FWHM_WORLD             FWHM assuming a gaussian core                              [deg]
#  11 ELONGATION             A_IMAGE/B_IMAGE                                           
#  12 ELLIPTICITY            1 - B_IMAGE/A_IMAGE                                       
         1 -12.3122     75.2196     53.3904   5.6900929329e+01   5.4585835920e+01    0.7871238    0.4194582 -46.54  0.002713447    2.255    0.557
         2 -12.3682    125.7828     28.2866   3.7550977646e+01   4.8403160082e+01    0.5132957    0.4559099 -23.93   0.00359996    1.204    0.170
         3 -12.6678    119.6636     38.1452   4.1564344675e+01   4.8533855299e+01    0.8001515    0.4540053 -51.24   0.00302119    2.299    0.565
         4 -11.7967    105.8983     20.9114   3.9160395385e+01   5.2975581886e+01    0.3866767    0.3338052 -74.72  0.001961055    1.495    0.331
         5 -12.4184     20.3838     21.7620   6.2953616950e+01   6.5928141047e+01    0.4377887    0.2168026 -25.98  0.001891861    1.738    0.425
         6 -12.0964     26.8793     27.8123   6.2961150716e+01   6.4498008746e+01    0.4383846    0.3202306 -14.31 0.0008735019    1.089    0.082
         7 -11.8648     35.6951     17.8227   5.6221528487e+01   6.4545224225e+01     0.590564    0.2135399 -21.25  0.002782864    3.268    0.694
         8 -11.4832    122.2461      5.4085   3.1694461008e+01   5.1153069834e+01    0.2783097    0.1701437 -24.87 0.0008500459    1.836    0.455
         9 -11.9945    135.4887     22.5568   3.4286035534e+01   4.7034907692e+01    0.7967941    0.2884683  50.19  0.003680393    2.467    0.595
        10 -10.8376    121.0935     11.5864   3.3621534771e+01   5.0883382822e+01    0.3163659    0.2132826  67.86  0.001140508    1.459    0.315
        11 -10.9560    127.1013     11.8476   3.2707010194e+01   4.9684201125e+01    0.2955967    0.2259584 -79.26  0.001622158    1.600    0.375
        12 -11.4560    134.7246     14.6953   3.2279201629e+01   4.7922734778e+01    0.4880332    0.2628929  56.69  0.002820311    1.609    0.378
        13 -10.9457     90.8406     22.2747   4.2783168285e+01   5.5604155285e+01     0.331724    0.2283774 -17.75  0.001844645    1.500    0.334
        14 -11.4657     86.7303     14.9302   4.1310231178e+01   5.6994233582e+01    0.4148755    0.3826225  81.64  0.001831078    1.420    0.296
        15 -10.8620     87.4057      7.4292   3.8711841565e+01   5.7483333936e+01    0.4518535    0.2374235  54.44  0.002597495    1.715    0.417
        16 -11.1497    179.2663     20.6183   2.7685137226e+01   3.8227047464e+01    0.4772264    0.2238668  41.48  0.002185202    3.169    0.684
        17 -11.9707     67.8536     18.1860   4.6969136625e+01   5.9872353747e+01    0.4228968    0.3389097  44.08  0.002393786    1.318    0.241
        18 -12.7962    164.2077     18.6189   2.9089873312e+01   4.1543564576e+01    0.4232109    0.2424124  41.26  0.001992754    2.094    0.523
        19 -10.3245     13.2552      9.5856   6.0714715764e+01   6.8002283779e+01    0.2055338    0.1526598 -22.83 0.0009013814    1.400    0.285
        20 -12.1598     16.0046     14.3982   6.1650201116e+01   6.7211880444e+01    0.5511861     0.284756  -4.13  0.002845869    2.149    0.535
        21 -11.8475     22.5702     11.1969   5.8034792199e+01   6.6807367021e+01    0.3769147    0.2175831   9.38  0.001489666    1.630    0.387
        22 -10.3555    148.2812     16.0813   3.0626432751e+01   4.5056664810e+01    0.3016129    0.1551492  41.97  0.001309769    2.168    0.539
        23 -12.3726    104.8407     12.8448   3.6907961250e+01   5.3884224107e+01    0.4238617    0.2919567 -22.04  0.001777096    1.574    0.365
        24 -12.0723     48.1189     12.8740   5.0497899260e+01   6.3341219556e+01    0.4933813    0.2469944  43.30  0.003050971    1.900    0.474
        25 -11.1910    211.8160      9.5780   2.1994663254e+01   3.2779436288e+01    0.4167594    0.2899226  -3.96  0.002483201    2.733    0.634
        26 -11.3689    192.3653      8.2389   2.3547159927e+01   3.6802329678e+01    0.4538983      0.30026   2.52  0.002573001    2.878    0.652
        27  -9.7820     98.5157     12.0525   3.7901373578e+01   5.5120584348e+01    0.1571456    0.1065241 -17.67  0.001031441    1.588    0.370
        28 -10.5026      4.9963     10.9594   6.4383812763e+01   6.8692950035e+01     0.288853    0.1596127 -24.08  0.001579254    1.458    0.314
        29 -11.1717    242.6934      2.9732   1.8350450134e+01   2.7555830886e+01    0.1798546    0.1310365 -80.05  0.001357671    1.057    0.054
        30 -11.9859    247.1701      5.7259   1.8511202906e+01   2.6433451040e+01    0.3002214    0.2084584  60.63  0.001559775    1.762    0.432
        31 -10.6148    169.7567      9.2365   2.6196514224e+01   4.1301681077e+01    0.3045663    0.1394965  55.44   0.00164851    2.000    0.500
        32 -10.6252    145.4399      9.5899   2.9368785931e+01   4.6213715815e+01    0.2095081    0.1655075  39.61  0.000463909    1.327    0.246
        33 -10.1825     65.4710     10.3570   4.4816265029e+01   6.0937653575e+01    0.2277035    0.1367562  48.61  0.001119849    1.597    0.374
        34 -10.2969     62.3090      7.2846   4.4526830169e+01   6.1685698785e+01    0.2264143    0.1498106   7.98  0.001183106    1.438    0.305
        35  -9.7737      1.0000      8.3889   6.4885575277e+01   6.9341798183e+01     0.202828   0.04507888 -35.15 0.0009292846    3.891    0.743
        36 -11.4906    232.8380      7.3265   1.9838427296e+01   2.8939247668e+01    0.2501564    0.1762647  79.78  0.001128197    1.277    0.217
        37 -12.1127    237.1087      4.8999   1.9085418482e+01   2.8391934628e+01    0.3447068    0.1864948 -60.27  0.001706659    1.574    0.365
        38 -10.5753    233.1608      2.5965   1.8966589708e+01   2.9377373832e+01     0.177137    0.1279756 -55.47 0.0003934564    1.262    0.208
        39 -11.0694    184.0441      5.7684   2.3861013210e+01   3.8718026920e+01    0.3288897    0.1856235 -57.81  0.001948799    1.837    0.456
        40  -9.6809     77.7904      7.5763   4.0873783213e+01   5.9133960590e+01    0.1933001    0.1018728  57.68  0.001136787    1.965    0.491
        41 -11.2745     74.5732      3.6894   4.0284263055e+01   5.9966511134e+01    0.4641732    0.2048425  48.75  0.002705347    1.888    0.470
        42 -11.2653    176.9934      5.8663   2.4624052197e+01   4.0136953757e+01    0.3009819    0.1583759  80.50 0.0006917441    1.856    0.461
        43  -9.7048    163.4429      5.9171   2.6165506949e+01   4.2883050939e+01    0.1826956    0.1323635  51.61 0.0008183628    1.373    0.271
        44 -11.2285    206.3188      3.1726   2.1220378991e+01   3.4508852310e+01    0.3634696    0.2275889  80.69  0.002416016    1.377    0.274
        45 -12.3112    134.6355      3.0013   2.9178021910e+01   4.8907536364e+01    0.6841697    0.2628458  69.66  0.003231572    2.610    0.617
        46  -9.9980     22.0071      4.0105   5.5312417704e+01   6.7543968983e+01    0.1860375    0.1194415 -40.56  0.001270222    2.435    0.589
        47 -10.9652    218.6140      3.7751   2.0304355095e+01   3.2041954196e+01    0.2249558    0.1618657  85.84 0.0006259144    1.168    0.144
        48 -11.3655    224.0369      2.2930   1.9599571310e+01   3.1145235361e+01    0.2139726    0.1614281  78.52 0.0007838451    1.230    0.187
        49 -10.1281     41.3731      4.2214   4.9184579038e+01   6.5029183758e+01     0.246078    0.1356618   8.88  0.001569272    1.856    0.461
        50 -11.2415    105.6211      2.5834   3.3668696719e+01   5.4530214691e+01    0.4005013    0.2452288  64.54  0.001854066    1.575    0.365
        51 -10.6208    116.5061      2.4908   3.1795036540e+01   5.2478092636e+01    0.2154613    0.1864777  14.63  0.001648562    1.231    0.187
        52 -10.3850    158.0325      2.3808   2.5973413918e+01   4.4276200369e+01    0.2394301    0.1568097  28.68  0.001481657    2.053    0.513
        53 -11.0695      2.6309      1.9058   6.1524773508e+01   6.9839025339e+01    0.2468368    0.1279357  15.86  0.001326293    1.770    0.435
        54  -9.9870    152.3097      1.3748   2.6425808268e+01   4.5508884739e+01    0.1977034   0.08734675  64.04 0.0004558859    1.887    0.470
        55 -10.5314    113.3293      2.6720   3.2370025660e+01   5.3071305254e+01    0.2257235     0.146581 -54.76  0.001245728    2.077    0.519
        56 -10.4493     82.1930      1.3255   3.7811258078e+01   5.8836982957e+01    0.1692531   0.08323542  53.08 0.0003356829    1.747    0.428
        57 -12.6101    227.2449     14.9955   2.1700426991e+01   2.9172270505e+01    0.5001405    0.2772148 -82.09  0.002034565    1.762    0.432
        58  -9.4942     12.6001      1.8127   5.7728506736e+01   6.8813446353e+01    0.1750465   0.06191942  34.51  0.001009395    2.611    0.617
        59 -10.3546     30.5239    152.0022   9.4092467737e+01   4.0104850493e+01    0.2289797    0.1815502 -26.61   0.00130424    1.584    0.369
        60  -9.6568    249.5755    250.2251   6.5763212516e+01  -1.4570619229e+01    0.1668956   0.09296037 -27.06 0.0009382328    1.626    0.385
        61 -10.4238     65.1727    149.8636   8.5099597089e+01   3.6526262575e+01    0.3967241    0.2073792  12.65  0.001365974    4.415    0.773
        62 -11.1961     47.7331    146.8133   8.8906381181e+01   3.9476524498e+01    0.5126382    0.3897212 -26.73  0.002855211    1.612    0.379
        63 -10.2288      3.1125    147.4822   1.0000083242e+02   4.3609526216e+01       0.1981    0.1297094 -66.70 0.0008390429    1.121    0.108
        64 -12.0204    249.5046    143.6069   4.5062284517e+01   4.3316123885e+00    0.6522434     0.189825 -42.76  0.002323125    2.771    0.639
        65  -9.7748     74.0329    146.0267   8.2086495824e+01   3.6222580830e+01    0.2248348    0.1577114 -33.51 0.0005054682    1.611    0.379
        66 -11.1236     33.1489    144.4302   9.2153907369e+01   4.1659867073e+01     0.274765    0.2216364 -69.30 0.0007062044    1.094    0.086
        67 -10.4854      5.8130    142.1833   9.8577751199e+01   4.4644178087e+01    0.2385599    0.1662696 -65.52 0.0005213664    1.065    0.061
        68 -11.1595      1.8833    141.1714   9.9384316958e+01   4.5175239484e+01    0.3826469    0.1773316 -64.90  0.001789068    1.564    0.361
        69 -10.0776    217.2688    138.7030   4.9114572686e+01   1.1130397528e+01    0.2533711    0.2017939 -61.97 0.0005893596    1.233    0.189
        70 -10.0333     79.2388    137.9632   7.9021514791e+01   3.7397733646e+01    0.2775457    0.1765881 -42.53 0.0009333471    1.474    0.322
        71 -10.0944     40.1657    137.8924   8.9158792506e+01   4.2477904774e+01    0.2532572    0.1821854  63.74   0.00137868    1.810    0.447
        72  -9.8515     32.0676    137.5200   9.1187241741e+01   4.3417070868e+01    0.2277119    0.1906756  87.11 0.0009023885    1.346    0.257
        73 -11.0539     22.4398    135.8716   9.3375138352e+01   4.4729993386e+01    0.4609721    0.3068718  47.64  0.002641419    1.914    0.478
        74 -11.2245     30.1505    133.1745   9.0879885715e+01   4.4632168331e+01    0.3924241    0.2212161 -41.58 0.0006500628    1.719    0.418
        75 -11.0901     12.4900    136.2090   9.5975575484e+01   4.5510262351e+01    0.4829153    0.2141248 -45.93  0.002344111    2.034    0.508
        76 -10.9563    233.6054    144.2063   4.7629918166e+01   6.9990678314e+00    0.4674754    0.2779167 -70.65  0.001924475    2.694    0.629
        77 -10.2116     73.4865    133.5177   7.9522713284e+01   3.9297213350e+01    0.3131246    0.1238601 -53.41  0.001203297    2.140    0.533
        78  -9.7777     39.3381    133.4463   8.8514101496e+01   4.3620072681e+01    0.1930698    0.1379074  18.88 0.0006372091    1.826    0.452
        79  -9.6299    103.9589    130.7771   7.1058359185e+01   3.5076699332e+01    0.1971799    0.1870615 -48.77 0.0003015777    1.072    0.067
        80  -9.8458     93.1107    129.8191   7.3575830774e+01   3.7133214497e+01    0.2337356    0.1970498 -75.72  0.001242533    1.311    0.237
        81 -10.8168     10.6707    127.5885   9.4985346938e+01   4.7647892796e+01    0.4456125    0.1518679 -54.78  0.001571712    2.044    0.511
        82 -10.8431     16.2428    147.9918   9.6926479067e+01   4.2416637065e+01    0.2430544    0.2172247 -88.27 0.0005626534    1.231    0.188
        83  -9.6515      2.0428    126.0391   9.6977773008e+01   4.8641232074e+01    0.1849275    0.1298517  88.90 0.0007050541    1.653    0.395
        84 -10.8983    239.6468    124.0466   4.2437567509e+01   9.8159847953e+00     0.454219    0.1164042 -39.44  0.001378866    3.851    0.740
        85 -12.4285    103.9425    122.4967   6.9026570090e+01   3.6960428270e+01    0.3332849    0.3049121 -36.09 0.0004648794    1.069    0.065
        86  -9.7272     84.8327    123.3470   7.4165247193e+01   3.9946241075e+01    0.1867479    0.1370207  19.11 0.0003694372    1.725    0.420
        87 -10.4466     49.2981    123.1119   8.3684647665e+01   4.4897318482e+01    0.3100842    0.1941181   9.57  0.001506858    2.357    0.576
        88  -9.7785     56.3178    121.9782   8.1510555587e+01   4.4298498426e+01    0.1978513    0.1521554 -52.06 0.0004139261    1.084    0.078
        89  -9.9276     45.0068    120.2319   8.4230362460e+01   4.6051802236e+01     0.214111    0.1582541 -39.26  0.000813233    1.241    0.194
        90 -10.5632     43.8433    116.5383   8.3731650468e+01   4.7016234602e+01    0.3023489    0.1844017 -60.46  0.000790506    1.489    0.328
        91 -10.5200      7.1989    114.8731   9.3621934792e+01   5.0773847115e+01    0.3226864    0.1572607 -56.21 0.0008400895    1.481    0.325
        92 -12.1682      2.4029    111.8021   9.4376051606e+01   5.1788609186e+01    0.4508515    0.2123192 -58.79 0.0009352689    1.537    0.349
        93 -11.0775      4.5859    104.9739   9.2440374834e+01   5.3115725922e+01    0.3303382    0.3088823  -6.21  0.002486532    1.346    0.257
        94  -9.9444     79.1627    114.5614   7.3502455211e+01   4.2784735618e+01    0.2754784    0.1806151 -48.20  0.001376159    1.323    0.244
        95  -9.4568     67.9883    115.0130   7.6659192340e+01   4.4314443526e+01    0.2690616     0.181461 -76.30  0.001253002    2.130    0.531
        96 -10.0211     66.2548    110.8289   7.6102044038e+01   4.5473069492e+01    0.2744249      0.18353  40.29  0.001409561    1.761    0.432
        97 -12.2530     17.4672    100.7286   8.7781147138e+01   5.3034165750e+01    0.4922373    0.3841852 -67.60  0.001328713    1.351    0.260
        98 -11.7002      9.4202     97.4066   8.9439640106e+01   5.4365671701e+01     0.417582    0.3873685 -29.71 0.0007482701    1.252    0.201
        99 -12.1160     25.4526    107.1133   8.6862614343e+01   5.0970278011e+01     1.013959    0.6295244 -11.25  0.005434234    2.195    0.544
       100 -11.0455     28.1682    113.1213   8.7394767467e+01   4.9401612570e+01    0.2863671    0.2350038 -22.15 0.0006333435    1.328    0.247
       101 -11.4315     22.6704     94.5786   8.4799825233e+01   5.3865722392e+01    0.3093001    0.2405879 -14.21  0.001349176    1.383    0.277
       102 -11.6948     18.1664     90.7560   8.5255910013e+01   5.5034987727e+01    0.5204663    0.2499955 -51.29  0.001240222    1.591    0.372
       103  -9.6342     93.8289    112.7776   6.9149488611e+01   4.0830643382e+01    0.1947664    0.1683252 -74.76 0.0009224954    1.339    0.253
       104 -10.0610     48.7256    112.4325   8.1413460517e+01   4.7366568342e+01    0.2414999     0.193229 -54.05 0.0009037046    1.112    0.101
       105  -8.8895     53.3259    125.6508   8.3146307789e+01   4.3827637752e+01    0.1369305    0.1027236 -89.40 0.0007049057    1.754    0.430
       106  -9.8583    170.6149    110.2375   5.0911533860e+01   2.6387597077e+01    0.2615515    0.1786902 -35.85 0.0007494447    1.467    0.318
       107 -10.3663    103.1975    108.6488   6.5650304105e+01   4.0096897972e+01    0.4350801    0.2495089  21.38  0.001709826    2.838    0.648
       108 -11.4938     79.9348    108.1260   7.1645882082e+01   4.4059003945e+01    0.4604833    0.2974469  28.93 0.0007741978    1.828    0.453
       109  -9.3082    120.2906    109.3538   6.1606622835e+01   3.6803125695e+01    0.1500783    0.1127437 -14.93 0.0007027756    1.678    0.404
       110  -9.7230    143.0742    106.0210   5.5510825999e+01   3.2967379081e+01    0.2373832    0.1777409 -76.15  0.001125138    1.702    0.413
       111 -11.4213     21.5388    114.4115   8.9535298663e+01   4.9721654220e+01    0.3740667    0.2458259 -12.05  0.001341085    2.017    0.504
       112 -10.9109     52.0651     99.3622   7.7229008219e+01   4.9760886027e+01    0.5617438    0.2475372 -37.09  0.001860162    2.279    0.561
       113  -9.1263    120.4791    101.5024   5.9469961899e+01   3.8364693676e+01     0.145366    0.1337919 -36.13 -3.627768e-05    1.020    0.020
       114 -11.0674     30.4054     97.4639   8.3165001883e+01   5.2546520235e+01    0.6064147    0.3243382 -39.85    0.0032101    1.594    0.373
       115 -11.2009     35.1106     92.2069   8.0433573532e+01   5.3146827831e+01    0.5580374    0.2791472 -61.35   0.00207337    2.328    0.570
       116 -11.4316     27.7030     85.4727   8.0969387904e+01   5.5223572185e+01    0.5023223    0.3681534 -29.20  0.001947028    1.204    0.169
       117 -11.4689     44.4067     85.2071   7.5735874451e+01   5.3502983018e+01    0.4336419    0.3120655   9.56  0.001914762    1.591    0.371
       118 -10.4167     37.2897     85.9229   7.8114732658e+01   5.4160182883e+01     0.249279    0.1958216   5.62  0.001169559    1.407    0.289
       119 -10.3781    249.5000     98.4973   3.5814105965e+01   1.2681183056e+01    0.1349895     0.106927 -56.91 0.0008106924    1.002    0.002
       120  -9.3783    210.1602     98.1574   4.1190962275e+01   2.0425941113e+01    0.1982716    0.1510244 -70.81 0.0006914526    1.325    0.245
       121 -10.7530     82.9920     93.0875   6.6748202928e+01   4.6650605440e+01    0.2405537    0.1981151  27.68 0.0003075577    1.326    0.246
       122 -11.2068     78.4974     92.9017   6.7933796390e+01   4.7391882897e+01    0.5398194    0.3342606 -39.93  0.002748474    1.434    0.303
       123 -11.5329     68.7074     95.8328   7.1492437146e+01   4.8267248294e+01    0.3873059     0.288428  12.32 0.0008782429    1.583    0.368
       124 -12.1258    125.2547     94.7931   5.6527678545e+01   3.8742587773e+01    0.3994542    0.2941223  64.07  0.002006126    1.652    0.395
       125 -10.6288     42.8965     94.6454   7.8716552809e+01   5.1809632317e+01    0.3112675    0.2365789 -42.82  0.001280023    1.076    0.070
       126 -11.1542     98.6041     91.0814   6.2029556461e+01   4.4420787136e+01    0.2473994    0.2243402  41.59  0.001465848    1.217    0.178
       127 -11.5149     89.6957     89.7782   6.4002576310e+01   4.6193109135e+01    0.5674225    0.3221695 -27.98  0.002564419    2.003    0.501
       128 -10.6420     49.4606     91.4874   7.5922032413e+01   5.1676617184e+01    0.2527352    0.2306525 -66.81  0.001634285    1.345    0.256
       129 -11.8055      6.9675     88.8160   8.8253013431e+01   5.6302958835e+01    0.4507201    0.3348039   4.50  0.002251442    1.608    0.378
       130  -9.9324     66.1908     88.7366   7.0247376383e+01   5.0019593040e+01    0.3319684    0.1956317  -0.02  0.001394472    3.008    0.668
       131 -10.2250    104.1524     87.3177   5.9547488335e+01   4.4134262303e+01    0.2463184    0.1790907 -28.97  0.001224893    1.360    0.265
       132 -10.9419    143.2059     84.5742   4.9806352763e+01   3.6980651260e+01    0.2442531    0.2217368 -42.13 0.0003214194    1.054    0.051
       133 -10.6695    112.9841     83.0034   5.6143091441e+01   4.3276334356e+01    0.3399828    0.3062866  83.05  0.001726853    1.336    0.252
       134 -10.8072     80.1483     83.8819   6.4906511130e+01   4.8843194488e+01    0.3456039    0.2837403 -35.18   0.00151929    1.096    0.087
       135 -11.2995     74.4983     78.7942   6.4994762548e+01   5.0639285140e+01    0.5047629    0.3448134  48.57  0.002578262    1.806    0.446
       136  -9.0708    165.6625     83.6939   4.5183954061e+01   3.2400995507e+01    0.1375354    0.1115056  12.80 0.0007041116    1.675    0.403
       137 -10.3338     66.7337     81.7515   6.8088948215e+01   5.1254661054e+01    0.3899009    0.2608457  29.75  0.002165394    1.644    0.392
       138  -9.4901    103.0000     79.9914   5.7732190138e+01   4.5654976013e+01    0.2199175   0.07271889 -40.40 0.0007882256    2.845    0.648
       139 -11.3312     58.2833     77.8277   6.9426317941e+01   5.3139765983e+01    0.2890298    0.1981175 -28.42  0.000839176    1.324    0.245
       140 -11.7032     53.4857     76.4414   7.0461968342e+01   5.4019739440e+01      0.51445    0.4371836  23.04  0.003380822    1.310    0.236
       141 -10.4749    233.7127     77.9708   3.3560162623e+01   1.9187367989e+01    0.1956713    0.1491703 -55.34 0.0008657387    1.093    0.085
       142 -10.5623     94.9833     76.5979   5.8783888743e+01   4.7666191955e+01    0.4432401    0.2790681  39.67  0.001970978    1.671    0.402
       143 -10.5557     82.8135     46.8866   5.2750011412e+01   5.4227684975e+01     0.609573    0.3535192   3.83  0.002876228    2.652    0.623
       144 -10.2572     92.0439     71.9981   5.8178134300e+01   4.8947868206e+01    0.2079705    0.1856678  28.04 0.0003725538    1.158    0.137
       145 -11.8458     84.7496     73.6254   6.0609523977e+01   4.9906294365e+01    0.6503425    0.3346416  39.69  0.003129611    2.060    0.514
       146 -11.4970     79.5573     68.1962   6.0376068921e+01   5.1647198556e+01    0.6892089    0.4724158 -69.10  0.003277111    2.803    0.643
       147  -9.5040    188.4906    249.4845   7.6565442974e+01  -5.9103083955e+00    0.1227983    0.1165313   0.26 0.0008098113    1.055    0.052
       148 -11.7985     13.6965     74.5617   8.2556923875e+01   5.8544193817e+01    0.4730099    0.3240852 -45.35   0.00281459    1.168    0.144
       149 -10.4921     14.0162     67.5801   8.0530670380e+01   5.9785800305e+01    0.3159342    0.2028172  13.07   0.00192668    1.767    0.434
       150  -9.4126    135.0999     77.5861   4.9608238335e+01   3.9848109001e+01    0.1907326    0.1216881  79.51 0.0008041052    2.594    0.615
       151 -10.9671      1.9895     71.7229   8.5667692826e+01   5.9948472548e+01     0.353693    0.1415306 -49.70  0.001680264    1.814    0.449
       152 -11.5397    186.8459     71.0870   3.8488137074e+01   2.9967915640e+01     0.606833    0.3265389 -42.52  0.002124329    1.734    0.423
       153 -10.4847     24.5468     73.3081   7.8672404862e+01   5.7819200266e+01    0.2317702    0.1637956 -31.15 0.0006515086    1.148    0.129
       154 -11.7079     34.9823     71.5044   7.4782498365e+01   5.7087850595e+01     0.558976    0.2623721  31.06  0.002912906    2.422    0.587
       155 -11.1175     39.9156     69.4784   7.2604500796e+01   5.6895883172e+01    0.2397561    0.1762501  13.06  0.000751332    1.450    0.310
       156 -11.2747    122.9967     68.9474   4.9806985423e+01   4.3682948084e+01    0.4024846     0.273809  43.27  0.001433469    1.501    0.334
       157 -10.6858     41.2985     72.6776   7.3120206860e+01   5.6176594026e+01    0.2373894    0.1954452 -40.25 0.0009417976    1.193    0.162
       158 -10.7635    219.8297     66.7881   3.2922955702e+01   2.3752739680e+01    0.3775924    0.2124216  69.86  0.001935129    1.904    0.475
       159 -11.6737     10.0049     62.5137   8.0440828510e+01   6.1000572879e+01    0.5267854    0.2580016 -41.24  0.001531501    1.541    0.351
       160 -12.1551      4.5877     61.9130   8.2129006466e+01   6.1520459921e+01    0.4255764    0.3020087 -33.76  0.001647575    1.042    0.040
       161  -9.7451    104.0009     74.5474   5.5891608001e+01   4.6400465084e+01    0.2911077    0.1317855  52.66  0.001205893    2.636    0.621
       162  -9.9721    105.8546     63.8984   5.2278766542e+01   4.7752356171e+01    0.2071418    0.1700229   8.05  0.001227544    1.295    0.228
       163 -11.5678     91.8449     62.6850   5.5395459657e+01   5.0456563874e+01    0.7213873    0.2449041  49.02  0.002799322    3.284    0.695
       164 -10.4640     59.0415     63.0569   6.4683409745e+01   5.5544388273e+01    0.2857537    0.2301784 -55.65   0.00105903    1.639    0.390
       165  -9.9506     50.8705     56.5938   6.5108006600e+01   5.7655033465e+01    0.2258278    0.1611253  19.35  0.001259428    1.422    0.297
       166 -11.2932     40.9264     57.0340   6.8401011190e+01   5.8830703202e+01     0.322919    0.2252217  40.75  0.001654563    1.831    0.454
       167 -11.3141     43.4859     62.4259   6.9298816004e+01   5.7663452939e+01    0.2713255     0.181731 -34.24 0.0005632317    1.260    0.207
       168 -10.6058     51.2711     61.5775   6.6585786981e+01   5.6824911282e+01    0.2975833    0.2129471  38.56  0.001850598    1.643    0.392
       169 -11.0980     46.4529     59.1189   6.7307966432e+01   5.7829165334e+01    0.2845383    0.2292444 -41.41 0.0009784254    1.347    0.258
       170 -11.6352    235.0235     60.9235   2.9914876234e+01   2.1614291082e+01    0.3577782    0.3091933 -85.67  0.001975357    1.152    0.132
       171 -10.0473    142.5145    249.5352   8.5303858531e+01   1.2923837402e+00    0.1249465    0.1204421  61.42 0.0002112712    1.004    0.004
       172 -12.0078    117.0935     54.8749   4.7020711478e+01   4.6917226024e+01     1.228947    0.6604257 -58.38  0.005079668    3.262    0.693
       173  -9.7327    213.6811    248.3206   7.1727440541e+01  -9.4461735564e+00    0.1124059    0.1007203 -89.38 0.0007043018    1.665    0.400
       174  -9.1003     65.3884     61.7244   6.2378326796e+01   5.4849347434e+01      0.11178    0.1003656  87.44  0.000699682    1.726    0.421
       175 -11.6170     25.5568     57.4210   7.3602804460e+01   6.0453911262e+01    0.6799239    0.5409822 -31.80  0.004873674    1.145    0.127
       176 -10.5284     35.1448     51.5368   6.8493919161e+01   6.0347369868e+01    0.3836913    0.2104686   7.55  0.002024018    2.405    0.584
       177 -11.0126    106.2006     58.5529   5.0590655752e+01   4.8477363240e+01    0.2419139    0.2003867 -62.24  0.001186366    1.517    0.341
       178 -10.8266    109.6226     40.7558   4.4427929497e+01   5.0169812731e+01    0.6759194    0.3669722 -22.55  0.003481484    2.061    0.515
       179 -10.7308     87.6773     56.6384   5.4593713753e+01   5.2067395990e+01    0.4615482    0.1714005 -29.46  0.001824007    3.089    0.676
       180 -10.3114     91.6547     57.1467   5.3728025281e+01   5.1307763280e+01     0.300788    0.2062623  58.51 0.0008330685    1.848    0.459
       181 -10.2929    157.7467     55.0062   3.9200676491e+01   3.8575487047e+01    0.3551994    0.2350568 -64.10  0.001841581    1.815    0.449
       182  -9.9127     67.0410     54.7565   5.9656808986e+01   5.5654215924e+01    0.2057582    0.1638245 -47.58  0.001106068    1.530    0.347
       183 -10.2047      7.6401     54.6365   7.8925943450e+01   6.2514865085e+01    0.1944777    0.1537172 -35.96 0.0007598531    1.187    0.157
       184 -11.5462     60.8782     47.8958   5.9192359285e+01   5.7532462684e+01    0.7125626    0.2687063 -32.45   0.00326191    2.554    0.608
       185  -9.7102     58.0689     42.0000   5.8027678557e+01   5.8723368756e+01    0.2496448    0.1169549  40.40  0.001318402    2.174    0.540
       186 -10.5288     51.6991     48.2430   6.2085148260e+01   5.8768413675e+01    0.2588922    0.2064403  28.47 0.0008774147    1.335    0.251
       187 -11.7362     45.6349     48.5855   6.4102155952e+01   5.9514549448e+01     0.504805    0.3002669 -32.84  0.002748724    1.477    0.323
       188 -11.9410     42.6892     43.9691   6.3471669235e+01   6.0533527781e+01    0.5438507    0.2298009  33.06 0.0002992373    2.466    0.594
       189 -10.5763    145.8030     48.4939   3.9553260726e+01   4.1961980642e+01    0.5084983     0.226788 -20.31  0.001917439    3.775    0.735
       190  -9.8549    158.1139     63.0136   4.1217954207e+01   3.7343540448e+01     0.439703    0.1337288  45.77  0.001457195    4.005    0.750
       191 -10.4724    240.5018     50.5133   2.7272974078e+01   2.2073783953e+01     0.199806    0.1131009 -30.92  0.001029532    2.284    0.562
       192 -11.9063    117.5605     43.8157   4.3660298237e+01   4.8269319356e+01    0.4522955    0.4313388 -86.90  0.002063296    1.189    0.159
       193 -10.5141    201.5970     48.7800   3.1283784236e+01   3.0155593842e+01    0.1737499    0.1038199 -49.86 0.0005511704    1.549    0.355
       194  -9.6485      1.8803     49.1296   7.9288447484e+01   6.3846783754e+01    0.1548827   0.09826858 -21.91  0.001066524    1.319    0.242
       195 -11.5571     20.8871     46.1443   7.1547250212e+01   6.2666436402e+01    0.2910782     0.189898 -33.07 0.0008157252    1.248    0.199
       196 -10.2608     13.2834     47.2935   7.4608878114e+01   6.3204641571e+01    0.2995222     0.113362 -32.07  0.001486898    2.435    0.589
       197  -9.3379     89.6856     47.2631   5.1110211329e+01   5.3003075663e+01    0.1086696   0.09786434 -81.67 0.0001522552    1.541    0.351
       198 -10.1427    133.9930     45.7332   4.0955733418e+01   4.4749371553e+01    0.2247594    0.1534203  47.57 0.0006595142    1.417    0.294
       199 -10.1561    138.6318     44.2496   3.9685635227e+01   4.3986143624e+01    0.3989292    0.1960735  31.06  0.001406681    3.495    0.714
       200  -9.9900    175.0111     49.0000   3.4951989688e+01   3.5731848992e+01    0.2591156   0.09998823  61.42   0.00109744    2.528    0.605
       201 -10.6743    155.7123     42.5839   3.6318729307e+01   4.0641348519e+01    0.2519623       0.2259  -7.30   0.00101079    1.295    0.228
       202 -10.6529     26.5446     42.9894   6.8513911109e+01   6.2544621097e+01    0.2040723    0.1428878   5.99 0.0008329871    1.352    0.261
       203 -10.5883     22.4370     37.2102   6.7926393355e+01   6.3778337594e+01    0.3782095    0.2544268  47.88  0.002361271    2.630    0.620
       204 -10.6341     92.9808     41.5319   4.8472537407e+01   5.3142693743e+01     0.396425    0.1853157  43.57  0.001986137    2.033    0.508
       205 -10.5776     72.5168     47.5112   5.5728807901e+01   5.5822009338e+01    0.2126247     0.173457 -21.96 0.0007323578    1.152    0.132
       206  -9.7854     17.3498     41.7035   7.1291054637e+01   6.3658764063e+01    0.2323167    0.1212796 -16.46  0.001316629    2.070    0.517
       207  -9.8738    235.6635     41.7156   2.6043097430e+01   2.4233130731e+01    0.1038052   0.09242287  44.92 0.0003934512    1.625    0.385
       208 -10.7467     79.2847     38.5593   5.0942318973e+01   5.5856073271e+01    0.3757001    0.2801762  83.15  0.002087417    2.609    0.617
       209 -11.4783     79.8136     32.8701   4.8914355694e+01   5.6422091389e+01     0.519978    0.2782846  27.03  0.002748108    2.101    0.524
       210 -11.4211     60.7777     36.4293   5.5310765531e+01   5.9023259269e+01    0.3537856    0.2200498 -22.40  0.001107233    1.507    0.336
       211  -9.4563     70.5089     34.5141   5.1918004544e+01   5.7754847348e+01    0.1925029    0.1447142   8.32 0.0006782086    1.241    0.194
       212 -10.5148     67.0837     32.5399   5.2179273824e+01   5.8518425478e+01     0.337938    0.2147925  21.94   0.00164654    1.565    0.361
       213  -8.9517    183.7046     38.3272   3.1204643180e+01   3.5272200112e+01    0.1278081   0.08436274 -68.80 0.0007023459    1.628    0.386
       214 -11.2141      4.4413     36.1489   7.4086636188e+01   6.5601719904e+01    0.3252814    0.2177655   0.23  0.002395536    1.388    0.280
       215 -10.1351    176.7726     36.0230   3.1585157266e+01   3.7010750766e+01    0.2445141    0.1460172 -50.00  0.001042477    1.684    0.406
       216  -9.9384    132.9176     36.9711   3.8705823022e+01   4.6023140253e+01    0.2783052    0.1687933  87.58  0.001310165    2.706    0.630
       217  -9.5999    227.4758     36.4708   2.5820160754e+01   2.6534291067e+01    0.1200615   0.09633609 -73.10  1.01884e-05    1.006    0.006
       218  -9.6035    153.5260     36.5225   3.5099184818e+01   4.1829906371e+01    0.1204427    0.1118534  82.66 0.0003256281    1.028    0.027
       219  -9.9210     94.0511     35.8310   4.6401497761e+01   5.3619906075e+01    0.1652953    0.1595317  88.68 0.0006720285    1.306    0.235
       220 -12.3709    160.0124     29.7934   3.2407981854e+01   4.1241510472e+01    0.4018912    0.3919833  28.33 0.0004375417    1.162    0.139
       221 -12.0491    164.2685     27.6770   3.1282099582e+01   4.0586710138e+01    0.2658705    0.2479981 -77.44 0.0004276646    1.069    0.064
       222 -10.1470    174.8546    246.9671   7.8717621733e+01  -3.3552312371e+00    0.2504498    0.2308995 -61.20  0.001618274    1.202    0.168
       223 -11.6500    107.4644     31.1990   4.1981102371e+01   5.1655444659e+01    0.4466513    0.2534656  17.69  0.002060433    2.568    0.611
       224 -12.2150    113.5935     25.3313   3.8976739187e+01   5.1087644625e+01    0.5878417     0.241113  48.44  0.002102105    2.154    0.536
       225 -10.5687    239.9368     32.4664   2.3878339027e+01   2.4624363740e+01    0.2167588    0.2079906 -48.34  0.001524889    1.459    0.315
       226  -9.5648     54.4238     26.5241   5.3667270138e+01   6.1083649114e+01    0.1469916   0.09137473  28.45 8.967223e-05    1.479    0.324
       227  -9.9605     43.0067     28.2077   5.7766353436e+01   6.2474607756e+01    0.1649497    0.1278531  -2.69 -0.0006383859    1.030    0.029
       228 -11.7387     57.6113     30.2450   5.4063167852e+01   6.0209759561e+01     0.365827    0.2405438   4.50  0.001189396    1.533    0.348
       229 -11.4820     48.4953     30.5675   5.6909323024e+01   6.1466240423e+01    0.5395389    0.2097269  35.19  0.002684448    2.548    0.607
       230  -9.8521    231.5115     39.5217   2.6022335807e+01   2.5338768249e+01    0.1218991   0.09536105 -71.34 -2.491228e-05    1.036    0.035
       231  -9.7667     89.5427     29.1392   4.5306323912e+01   5.5149399320e+01    0.1680138    0.1584652 -62.01  0.001218744    1.379    0.275
       232 -12.0547    126.4263    241.6844   8.7241284518e+01   5.4124601266e+00    0.4016222    0.3286881  87.90  0.001951351    1.304    0.233
       233 -10.4519     32.6420     31.0597   6.2195548251e+01   6.3435443671e+01    0.1599649    0.1339659   4.99 0.0004131921    1.204    0.169
       234  -9.3236    234.7630    239.9961   6.6496184754e+01  -1.1050639463e+01    0.1640726   0.09150015 -38.07 0.0007359164    1.607    0.378
       235 -10.6648     38.8131     22.1674   5.6863511171e+01   6.3690257213e+01     0.198325    0.1579517   8.19 0.0006984476    1.091    0.083
       236 -11.6205    146.8517    237.8043   8.2640121735e+01   2.8902910028e+00     0.490146    0.3694863  59.82  0.002207119    1.460    0.315
       237 -10.2325     11.9509     30.1957   6.9179333460e+01   6.5749375217e+01    0.2485656    0.1389916 -11.33  0.001437162    1.755    0.430
       238 -10.0999      7.5129     30.4742   7.0929417072e+01   6.6118632351e+01    0.2750846    0.1325019  12.36  0.001611423    2.399    0.583
       239  -9.2695    230.4825     30.4935   2.4364852935e+01   2.6704641528e+01     0.116645   0.09452507 -74.62 4.910661e-05    1.031    0.030
       240 -10.2093    197.9302     29.1577   2.7421590377e+01   3.3419021486e+01    0.3124533    0.1665913  60.46  0.001728246    1.801    0.445
       241  -9.7308     99.0976     30.2152   4.3475041849e+01   5.3317666775e+01    0.1799316    0.1383683 -89.74  0.001081961    1.985    0.496
       242 -10.7630    189.1760     27.9041   2.8153383777e+01   3.5373822502e+01    0.2697683    0.2364283  27.70  0.001827133    1.520    0.342
       243 -11.2183    241.8064     26.8036   2.2664099139e+01   2.4981335228e+01    0.2083986    0.1621197 -73.39  0.001497333    1.014    0.014
       244 -10.3777    230.3574     26.5611   2.3621062614e+01   2.7214806285e+01    0.1996721    0.1309571 -41.84  0.000572473    1.531    0.347
       245 -10.8679    183.7373     25.1323   2.8176371617e+01   3.6813908701e+01    0.4728018    0.2016237  50.43  0.002257641    2.566    0.610
       246 -11.5428    144.1556     24.8412   3.3516050769e+01   4.5045157725e+01    0.3676533    0.1841316  52.64   0.00195715    1.811    0.448
       247 -11.0690    153.9242     24.1062   3.1857569345e+01   4.3111712109e+01    0.3608916    0.1763701  79.95  0.001643458    2.768    0.639
       248 -10.8665    167.8412    238.3195   7.8624856340e+01  -6.2926399760e-01    0.2206687    0.1750611 -56.00 0.0005795281    1.325    0.245
       249 -10.8280     73.8088    238.3365   9.6938255363e+01   1.4129416840e+01    0.3657934    0.1937111  59.27  0.001795246    1.998    0.499
       250  -9.3838    199.6619    234.6888   7.1912028732e+01  -5.0135014423e+00    0.1348389   0.09609161  -6.57 0.0004040965    1.689    0.408
       251  -9.3652     15.4743    233.5206   1.0702250448e+02   2.2470019253e+01    0.1203667   0.08955646 -87.49 0.0004444791    1.038    0.036
       252 -10.8951    127.4998     16.3620   3.3894781591e+01   4.9212563709e+01    0.2876578    0.1607348  52.87 0.0009186863    1.563    0.360
       253 -11.0209     67.5811    240.8536   9.8401754492e+01   1.4454149653e+01    0.2501013    0.1923141  33.38  0.001131955    1.652    0.395
       254  -9.8497     80.3663     19.3956   4.4262078390e+01   5.7696479818e+01    0.2884479   0.09099421  49.76  0.001326505    2.772    0.639
       255 -10.6578    246.6081    230.8708   6.2787001922e+01  -1.1176524331e+01      0.18657     0.146781  32.06 0.0009021921    1.455    0.313
       256  -8.8949    190.2517    229.6602   7.2791255299e+01  -2.6040706099e+00    0.1250254    0.1041513 -74.94 0.0003076544    1.572    0.364
       257 -10.2295    197.4805    228.4430   7.1195300674e+01  -3.5295113183e+00    0.1310132    0.1207286 -19.57  8.38671e-05    1.020    0.019
       258 -10.0382     59.6858     23.7744   5.1165214297e+01   6.0595869662e+01    0.1735608    0.1185861 -18.11 0.0004137498    1.375    0.273
       259  -9.2603    166.6548    225.6824   7.6677728131e+01   2.0467063862e+00     0.140143    0.1057681  -9.17 0.0007048758    1.722    0.419
       260 -10.2277     13.9463     23.0995   6.5796239081e+01   6.6442673100e+01    0.1574092    0.1121757  -9.03 0.0004259948    1.049    0.046
       261  -9.4257     75.4804    224.5006   9.4871189910e+01   1.6971054201e+01    0.1344979    0.1135463 -86.53 0.0002279695    1.002    0.002
       262 -11.8429    245.5466     19.0329   2.0953325940e+01   2.5218794699e+01    0.2184715    0.1215581 -57.87  0.001015856    1.486    0.327
       263  -9.6668    234.0203    223.5143   6.3598352696e+01  -8.1925668163e+00    0.1748954    0.1244383  31.98 0.0005903261    1.539    0.350
       264 -10.3313    157.0480     20.3778   3.0479423965e+01   4.2845079014e+01    0.3039426    0.1225874  61.74  0.001480394    2.171    0.539
       265 -10.1763     46.9817     19.1788   5.3197479255e+01   6.2901905767e+01    0.2249078    0.1683718  -5.88   0.00166447    1.140    0.123
       266  -9.2067    120.6789    223.3151   8.5564335958e+01   1.0242074551e+01    0.1423036    0.1030608  80.07 0.0007040528    1.658    0.397
       267  -9.1845     22.3376    223.6763   1.0490986823e+02   2.3903929443e+01    0.1310156   0.07450639  75.62 0.0007051048    1.718    0.418
       268  -9.6174    152.8261    219.3898   7.8339099291e+01   5.6872768704e+00    0.1896881    0.1334022  27.75 0.0004237116    1.652    0.395
       269 -10.2241    164.7236    212.0088   7.4582957965e+01   5.2035102732e+00    0.2295946    0.2060175  42.22 0.0005384128    1.178    0.151
       270 -10.3925    117.1221     16.6235   3.5757106542e+01   5.1222004960e+01    0.4017982   0.09858032  56.42  0.001634512    3.242    0.692
       271 -12.3727    238.7676     15.9472   2.0933505796e+01   2.6855460360e+01      0.33933    0.1842736  71.83  0.002118109    1.723    0.420
       272 -10.4631    186.8099     14.9749   2.5567533304e+01   3.7260216623e+01    0.1928229    0.1470717  77.58 0.0005051673    1.154    0.133
       273  -9.3833    242.6493    211.7105   5.9859823779e+01  -7.3745108680e+00    0.1323663   0.09083352  -9.98 0.0005052263    1.668    0.401
       274 -10.3932    152.6938    206.8967   7.6096405325e+01   8.4096799443e+00    0.3551959    0.2431595 -73.12  0.001638683    1.862    0.463
       275 -10.0830     74.5265     19.7362   4.5805051688e+01   5.8643995396e+01    0.2073044    0.1470702  24.80 0.0004920303    1.261    0.207
       276  -9.1633     61.4909    206.5000   9.5292750170e+01   2.3121264130e+01    0.1377592    0.1130608 -81.23 0.0008105977    1.012    0.012
       277  -9.4426     78.3590    203.7363   9.1352525728e+01   2.1411348006e+01     0.141976   0.09724393  74.67 0.0004154693    1.632    0.387
       278 -10.6496    234.2132    197.5301   5.8544467916e+01  -3.5265848238e+00    0.4966149    0.1755166 -46.78  0.001897654    2.617    0.618
       279 -10.5022    139.1473    198.8567   7.7439181703e+01   1.2608700592e+01    0.2351416    0.1989709 -86.73  0.001242914    1.290    0.225
       280 -10.7026    246.1942    192.9767   5.5605659853e+01  -4.5146395846e+00    0.3770966    0.0836561 -47.78  0.001025983    5.230    0.809
       281  -9.3415    215.7009    194.6787   6.1274551039e+01   7.7956818748e-03    0.1418657    0.1021226 -15.87 0.0007023546    1.623    0.384
       282  -9.7752    171.8176    190.3925   6.8921731381e+01   8.6207810674e+00     0.198506    0.1424104  26.93 0.0009422151    1.684    0.406
       283 -11.6647      4.9572    185.7164   1.0435047809e+02   3.4420937007e+01    0.4612553    0.2950459 -76.04  0.002506079    1.160    0.138
       284  -9.2377     95.6603    185.6836   8.4578384794e+01   2.3148627515e+01    0.1460976    0.1109162 -29.54 0.0007048417    1.705    0.414
       285  -9.5177     86.3029    185.5715   8.6671227080e+01   2.4640101793e+01    0.1773187    0.1460607  22.93 0.0009450274    1.572    0.364
       286  -9.4540    175.5200    180.0022   6.6013780167e+01   1.0234977505e+01    0.2363185    0.1366545 -46.65  0.001021919    1.560    0.359
       287 -10.7628    250.4228    177.3322   5.1793227368e+01  -2.2470865842e+00    0.2768094    0.1086821 -39.28  0.001139306    2.135    0.532
       288  -9.4710    113.4921    175.9734   7.8685166704e+01   2.2557346067e+01    0.2146507    0.1165397 -35.85 0.0008076758    2.410    0.585
       289 -10.1701     51.7931    173.1280   9.2478382581e+01   3.2523659611e+01    0.4564678     0.193003 -73.84   0.00166665    2.880    0.653
       290  -9.1390     28.3106    175.7023   9.8172309360e+01   3.4573869796e+01     0.131293   0.08759445  81.75 0.0003990276    1.598    0.374
       291  -9.4294    207.3841    172.7478   5.8263604072e+01   5.9222049696e+00    0.2119536    0.1232652 -37.22 0.0009405842    1.604    0.377
       292  -9.1863    170.3454    172.2730   6.5429453581e+01   1.2938086512e+01    0.1485925      0.11838  -8.93 0.0004441365    1.622    0.383
       293 -11.3158    244.5919    167.3508   5.0702603269e+01   5.8148804936e-01    0.4654965    0.1453707 -47.07  0.001658558    2.799    0.643
       294  -9.5311    198.1973    167.8249   5.8931509162e+01   8.6500156366e+00    0.2025369    0.1669049 -22.81 0.0005307502    1.311    0.237
       295  -9.4324    187.6217    167.7011   6.0949525480e+01   1.0666894905e+01    0.1522271    0.1164505  -8.20 0.0007024661    1.759    0.432
       296 -10.9946      9.4578    167.0356   1.0118700140e+02   3.8461217782e+01    0.2100498    0.1940412  70.40  0.001025232    1.329    0.248
       297  -9.8712     18.9986    164.9629   9.8772229441e+01   3.8097820959e+01    0.2084646     0.128579 -45.22  0.001140016    1.713    0.416
       298 -10.2538    205.0309    163.2850   5.6667127565e+01   8.3405006135e+00    0.2813059    0.1943517 -48.44 0.0006522504    1.277    0.217
       299  -9.7188     35.4989    169.4518   9.5655722665e+01   3.5330928987e+01    0.1366919    0.1078405 -73.56 0.0001679341    1.043    0.042
       300  -9.3152     38.1821    160.6072   9.3651078564e+01   3.7201043173e+01    0.1580519    0.1330611  -0.85 0.0008142008    1.646    0.393
       301  -9.6581     28.5175    160.5213   9.5923544839e+01   3.8243889615e+01    0.1354116    0.1052212 -69.08 7.208384e-05    1.017    0.017
       302  -9.6705    215.7680    157.1726   5.3405096060e+01   7.6280843329e+00    0.1978845    0.1650414 -19.93 0.0007467134    1.339    0.253
       303  -9.6937    223.6733    156.6936   5.1932272730e+01   6.2863781038e+00     0.141533    0.1079819 -14.80 0.0006395442    1.651    0.394
       304  -9.7559      9.4002    155.8013   9.9696498001e+01   4.1143418538e+01    0.1920849   0.08497205 -59.13 0.0009008083    1.662    0.398
       305 -10.6144    104.7977    154.4053   7.6259509455e+01   2.9317948303e+01    0.3512641    0.2936935  -4.22  0.001789893    1.561    0.359
       306 -10.4844    141.3395    152.2292   6.7234909892e+01   2.3149327917e+01    0.2893018    0.2472392  72.83 0.0007475471    1.337    0.252
       307 -12.4018     22.8850    148.9458   9.5460069027e+01   4.1586548358e+01    0.5020644    0.2700859 -35.95  0.001559644    2.351    0.575
       308 -10.1106      3.3197    153.1629   1.0074070213e+02   4.2257777970e+01    0.2244813    0.1344564  64.04   0.00122775    2.126    0.530
