#   1 NUMBER                 Running object number                                     
#   2 MAG_AUTO               Kron-like elliptical aperture magnitude                    [mag]
#   3 X_IMAGE                Object position along x                                    [pixel]
#   4 Y_IMAGE                Object position along y                                    [pixel]
#   5 X_WORLD                Barycenter position along world x axis                     [deg]
#   6 Y_WORLD                Barycenter position along world y axis                     [deg]
#   7 A_WORLD                Profile RMS along major axis (world units)                 [deg]
#   8 B_WORLD                Profile RMS along minor axis (world units)                 [deg]
#   9 THETA_WORLD            Position angle (CCW/world-x)                               [deg]
#  10 FWHM_WORLD             FWHM assuming a gaussian core                              [deg]
#  11 ELONGATION             A_IMAGE/B_IMAGE                                           
#  12 ELLIPTICITY            1 - B_IMAGE/A_IMAGE                                       
         1 -19.3515    235.6294    156.3633   1.6493935232e+01   8.1607937677e+00     5.361346     4.458604 -33.79   0.02324132    1.201    0.168
         2 -12.9590      4.3385     59.1310   6.3440621659e+01   6.6759149872e+01    0.9928054    0.7671235  45.24  0.005642069    1.462    0.316
         3 -10.8610    185.1359     27.1347   3.5421264341e+02   3.6000642450e+01    0.5399408    0.2787136 -52.12  0.002222764    1.670    0.401
         4 -12.3126    187.2834     10.7011   3.4985071081e+02   3.7342209943e+01    0.7924983    0.4189876 -54.51  0.003603175    1.575    0.365
         5 -12.5479    236.3943     14.4624   3.4786767843e+02   2.7254940828e+01    0.6421734    0.3000277  70.71  0.002600141    2.404    0.584
         6 -13.7174    241.1462      4.9198   3.4573217792e+02   2.7393614791e+01     2.894138    0.9131377  77.41   0.01484629    3.345    0.701
         7 -12.1824    203.0267     17.5327   3.5044836123e+02   3.3308522488e+01    0.4503846    0.2563855 -52.02  0.002476638    1.400    0.286
         8 -12.4231    197.1875      5.1687   3.4786872447e+02   3.5795273243e+01     1.016068    0.3454014  68.76  0.004755392    2.895    0.655
         9  -9.8336    120.4706      9.4597   3.5604885955e+02   5.3235823295e+01      0.26965    0.2399664 -85.19  0.001026348    1.024    0.024
        10  -9.8877     57.1426    231.6703   6.4973920023e+01   1.8007616876e+01    0.1958795    0.1863271 -31.59 0.0004793682    1.271    0.213
        11 -10.0705    128.4367    240.4427   4.9724720849e+01   8.1906997029e+00    0.2548863    0.1830732 -30.56  0.000886795    1.517    0.341
        12 -10.1021    135.1772    249.3521   4.9359599135e+01   5.9974216161e+00    0.4324993    0.2483483  59.31  0.001950745    4.016    0.751
        13  -9.3821    130.5252    244.4953   4.9759882396e+01   7.2902156119e+00     0.197237    0.1416978  47.19 0.0006010712    1.658    0.397
        14  -9.7095    125.4156    166.1023   3.9453785432e+01   2.2951381813e+01     0.242729    0.1923379  17.27 0.0005150585    1.308    0.235
        15 -11.2543     68.0140    144.1827   5.1910178439e+01   3.7259283745e+01    0.7872341    0.4396528  59.16  0.002707504    2.242    0.554
        16  -9.2895     99.9642    145.9249   4.2438945289e+01   3.1808589934e+01    0.2188194    0.2144593 -60.85 0.0004508497    1.030    0.029
        17 -12.1754    112.0117    137.2261   3.7252118438e+01   3.1789920429e+01    0.8753242    0.3867233 -46.65  0.003267644    2.262    0.558
        18 -12.5024    119.8892    137.3719   3.5153118214e+01   3.0331588174e+01    0.7895229    0.4041322 -46.27  0.003205278    1.932    0.482
        19 -11.8311    124.7009    133.3872   3.3017218035e+01   3.0349487116e+01    0.6495368    0.2980009 -41.14  0.002265365    2.315    0.568
        20 -10.6315    117.9763    130.0835   3.4049276452e+01   3.2354370933e+01    0.3232102    0.2809791 -48.78 0.0003895285    1.133    0.117
        21 -10.5637    115.9755    126.5092   3.3773890558e+01   3.3553407599e+01    0.3191352    0.2731283  14.64 0.0003363089    1.316    0.240
        22  -8.4956     52.3506    142.1824   5.6776521818e+01   3.9902722025e+01    0.2028249    0.1370141 -83.25 0.0004044543    1.580    0.367
        23  -8.8661    104.2527    137.4444   3.9482865165e+01   3.3118718329e+01    0.2736475    0.1725818 -43.68  0.000586561    1.639    0.390
        24 -10.3089    106.2097    126.8381   3.6593290087e+01   3.5305080338e+01    0.4767551    0.2267536 -39.26  0.001704078    2.509    0.601
        25 -11.8401    122.2704    121.6295   3.0936097455e+01   3.3455239741e+01    0.7804155    0.3387805 -47.58  0.002841171    2.245    0.554
        26 -11.1562    115.6220    120.8987   3.2549759848e+01   3.4912248055e+01    0.4683899    0.2632358 -41.48   0.00144741    1.849    0.459
        27  -9.9324    111.4950    121.0825   3.3741765646e+01   3.5665023993e+01    0.2671822    0.2532825  81.57 0.0006186161    1.094    0.086
        28 -10.9876    151.0944    228.5724   4.3480750068e+01   7.4500263910e+00    0.3275199    0.2349193 -70.10  0.001872742    2.404    0.584
        29  -8.9357     22.0000    109.0433   6.3230525550e+01   5.2249656433e+01    0.2501755   0.07790399 -72.36 0.0008105347    2.999    0.667
        30  -9.2882     50.0131    105.9609   5.1131619686e+01   4.9974575252e+01     0.225199    0.2175345 -67.59 0.0003149894    1.014    0.014
        31 -12.0852     79.6493    102.5189   3.9115105181e+01   4.6136859002e+01     1.796906    0.8463498 -32.46  0.001535416    4.053    0.753
        32 -12.9542     61.3838     84.4943   4.1098979085e+01   5.3778686226e+01    0.8782387    0.7718711 -20.44 0.0008171928    1.246    0.197
        33 -12.2758     75.6538     95.1031   3.8564206370e+01   4.8685898485e+01    0.7567196    0.6340027 -23.47  0.001540697    1.371    0.271
        34 -13.5347     70.0722     88.1147   3.8690451316e+01   5.1392514859e+01     1.894263     1.188573  39.22  0.006456655    1.598    0.374
        35 -11.0658    100.7232     99.8512   3.1477140118e+01   4.2721572647e+01     0.566083    0.3197175  37.41   0.00229804    1.885    0.470
        36 -10.4965    177.0034    233.4976   3.9065428945e+01   3.6978839557e+00    0.3285622     0.176477 -22.60  0.001837921    1.987    0.497
        37  -9.5975    118.1823    229.1390   5.0601555766e+01   1.1355865208e+01    0.1653508    0.1358698  44.63 0.0004114047    1.314    0.239
        38  -9.3767    144.2965     89.2164   1.7267623382e+01   3.5637580159e+01    0.2562542     0.174275 -52.29 0.0007237211    1.445    0.308
        39  -9.8468    140.2228    231.4232   4.6118069159e+01   8.2864916897e+00    0.2213708     0.135379 -32.41   0.00126219    1.767    0.434
        40  -9.6048    131.2481     83.2843   1.8513068174e+01   3.9664295566e+01    0.2799614    0.2316847  -5.47 0.0007320184    1.581    0.367
        41 -10.2050    148.9486     81.9973   1.4327971671e+01   3.5955462173e+01    0.3941075    0.2736925 -27.01  0.001877322    1.668    0.400
        42 -13.4538     40.4595     76.6102   4.8150660364e+01   5.8895051716e+01     1.092712     1.055571  15.17  0.004112123    1.060    0.056
        43 -11.3094    157.2066    218.7901   4.0854736911e+01   8.3082545566e+00    0.3357804    0.2152924 -46.01   0.00146156    1.713    0.416
        44 -11.1067    191.6773     77.1108   5.9984073356e+00   2.7721036691e+01    0.3995845    0.3545091 -50.42  0.002527614    1.048    0.046
        45  -9.4184    140.0291     79.1326   1.5359489494e+01   3.8472821400e+01    0.2190713    0.2046068  10.49 0.0006176988    1.265    0.210
        46  -9.6259    246.2666     77.6006   3.1856739473e-02   1.7920065125e+01    0.3998403    0.1785614  42.57  0.001888952    3.998    0.750
        47 -10.4672      9.0902     77.6236   6.4277114980e+01   6.1714072149e+01    0.3223604    0.1364243 -54.53   0.00134146    2.030    0.507
        48  -8.9783    110.1376     76.8866   2.1951961351e+01   4.5672303154e+01    0.2371064    0.1902987   5.86  0.001117087    1.712    0.416
        49  -9.6363    138.6783    218.1987   4.4672684585e+01   1.0738353230e+01    0.2754246    0.1897238 -38.48 0.0008911174    1.521    0.343
        50 -11.0520    226.6565     69.0766   1.1687326028e-01   2.2334142488e+01    0.2584622    0.2070647  64.30 0.0005010937    1.523    0.343
        51 -11.0287    203.1310     68.5146   2.5087749643e+00   2.6760824329e+01    0.5841552    0.3428303  67.98  0.003141612    1.966    0.491
        52  -9.4253    211.5029     64.4430   6.3675580138e-01   2.5738796512e+01    0.1893168    0.1626659 -77.45 0.0006294309    1.197    0.165
        53 -16.2839    205.4146    176.3734   2.4776732487e+01   9.0258339194e+00      1.14098    0.7940259   3.56  0.005243583    1.529    0.346
        54 -16.2984    192.6804    192.9442   2.9892739564e+01   8.0433237207e+00     3.143691     2.381168 -89.74   0.01539344    3.634    0.725
        55  -7.9765    187.3628     67.2485   4.1596706494e+00   3.0111403470e+01    0.1214117    0.1018567  27.55 0.0002546925    1.612    0.380
        56  -9.8206    233.9508     61.6564   3.5786643411e+02   2.2067512335e+01    0.2795535    0.1462632 -33.99 0.0005901426    1.626    0.385
        57  -9.5622    173.0783     65.3069   5.6485246638e+00   3.3439515386e+01    0.1871454    0.1663146 -79.41 0.0004391233    1.099    0.090
        58  -9.5756    222.0333     63.9988   3.5946771515e+02   2.3853636579e+01    0.2062283    0.1636674 -87.84 0.0006303143    1.388    0.279
        59 -10.0863    207.5486     65.7706   1.3689973180e+00   2.6303846509e+01    0.2970656    0.1935854  59.63 0.0009818481    1.782    0.439
        60 -10.4387    164.8770     61.6395   5.8951359958e+00   3.5817928113e+01    0.2803725    0.1914299 -71.31  0.001050021    1.612    0.380
        61 -10.0832    154.0260     60.7379   7.3926153909e+00   3.8422249397e+01    0.3108906    0.2699287  11.64  0.000869775    1.521    0.343
        62 -10.2235    158.8735     58.8881   6.0698763533e+00   3.7600799768e+01    0.2595664    0.2359027   5.37 0.0005815269    1.401    0.286
        63  -8.5629    143.8066    216.2392   4.3292366533e+01   1.0428498082e+01    0.1672349    0.1281513  -3.12 0.0003959907    1.261    0.207
        64  -9.7457    151.2578    208.1652   4.0518180880e+01   1.0879782779e+01    0.2557583    0.1824043 -35.70  0.001511702    1.407    0.289
        65 -10.2901    246.3562     56.2951   3.5575394027e+02   2.0677675766e+01    0.2541441     0.163868  74.73  0.001206664    1.892    0.471
        66  -9.3578    196.1179     56.0957   3.4955227749e-01   2.9933453070e+01    0.1811948    0.1691155 -28.60 0.0004361515    1.267    0.211
        67  -9.4589    188.9808     54.0990   6.7317529295e-01   3.1690279773e+01    0.1964978    0.1664654 -59.80 0.0004064406    1.017    0.017
        68 -11.4958     55.9217    205.7827   6.3137608203e+01   2.3626605735e+01    0.5444067    0.3096937 -87.19  0.002635534    2.111    0.526
        69  -8.9518    213.8305     55.8993   3.5845968285e+02   2.6472701758e+01    0.1699162    0.1483217 -41.13 0.0003126542    1.181    0.153
        70  -9.8029    236.8602     50.9774   3.5539543104e+02   2.2941951487e+01    0.1743836    0.1431498 -66.04 0.0004844426    1.175    0.149
        71 -10.4161    228.3922     49.9655   3.5585462297e+02   2.4560058912e+01    0.3074855    0.2734538 -82.93  0.001801323    1.260    0.206
        72  -8.8876    204.7548     49.9767   3.5797704129e+02   2.9028995976e+01    0.1945583    0.1609264  65.36 0.0005806289    1.415    0.293
        73  -8.7993    200.6796     50.7113   3.5856117203e+02   2.9746740140e+01    0.1760409    0.1487361 -86.73  0.000436688    1.211    0.174
        74 -10.5981    247.3209    230.8658   2.6975251814e+01  -2.9507354058e+00    0.3776323    0.1726367  11.14   0.00175414    2.439    0.590
        75 -10.8350    180.6139     51.7753   1.0840585459e+00   3.3802508944e+01    0.3816138    0.2454955  48.41  0.001420401    1.920    0.479
        76 -12.0954    219.8232     38.1702   3.5395990439e+02   2.7611120544e+01    0.8337936    0.3662182 -46.57  0.003473709    1.749    0.428
        77 -10.2058     23.8015     43.4215   4.6422254631e+01   6.8834965546e+01    0.1858164    0.1265365   8.67 0.0009441983    1.587    0.370
        78 -10.3016    197.6018     38.3313   3.5587257999e+02   3.1988837158e+01    0.3708516    0.2281842  51.02  0.002030652    2.089    0.521
        79 -10.6498    193.0099     38.9892   3.5646975653e+02   3.2863284928e+01    0.3792362    0.2403585 -60.07  0.001590996    1.415    0.293
        80  -9.5449    138.9697    203.4212   4.2466459570e+01   1.3381017025e+01    0.2066371    0.1863134 -71.90 0.0006624031    1.446    0.308
        81  -8.3115    171.2593     37.4028   3.5836918418e+02   3.7819171417e+01     0.123357    0.1025456  13.95 0.0006961292    1.722    0.419
        82 -10.3760    208.6435     34.4299   3.5399081851e+02   3.0232174258e+01    0.3092415    0.1845964  58.80  0.001140256    2.003    0.501
        83  -8.7576    157.4755     35.5148   3.5953474179e+02   4.1244487755e+01    0.2406658    0.1039764  56.10  0.001020683    2.400    0.583
        84 -10.1983    205.3365     29.8928   3.5319348348e+02   3.1437083154e+01     0.260891    0.1591411  66.44 0.0008532514    1.812    0.448
        85 -10.2787    178.6334     30.5621   3.5572661095e+02   3.7021161456e+01    0.3653101    0.2112881  77.25  0.001260581    1.739    0.425
        86  -8.4185    128.9568    201.0635   4.4379482678e+01   1.5200895967e+01     0.156482    0.1390007  13.85 0.0003753302    1.011    0.011
        87 -10.2669    179.6235     24.0082   3.5389826479e+02   3.7575420655e+01     0.468925      0.24017 -59.05  0.002351798    1.821    0.451
        88  -8.8305      2.7145    202.9828   7.6694573112e+01   2.9347858803e+01    0.1680615    0.1384318  66.66 0.0002846759    1.070    0.065
        89 -11.2897    211.8684     26.9281   3.5201853890e+02   3.0481262052e+01    0.2866424     0.248356  -0.69  0.001653531    1.661    0.398
        90 -11.1216    234.6524     25.5355   3.5024670828e+02   2.6361698828e+01    0.2297757     0.187261 -71.23 0.0005976525    1.192    0.161
        91  -9.8963    127.4179    233.0080   4.9048142046e+01   9.5589446786e+00    0.2117918     0.143419  34.12 0.0006667315    1.338    0.253
        92 -11.1033    102.6310    194.1907   4.9737223905e+01   2.0263928861e+01    0.6405286    0.2523813 -52.14  0.002471072    2.616    0.618
        93 -10.8701     97.8645    192.3702   5.0695155416e+01   2.1318761759e+01     0.685886    0.2782002 -64.53  0.002608136    3.073    0.675
        94  -9.1838     79.5128    190.9603   5.5317014844e+01   2.4112495167e+01    0.2615829    0.1911297   4.99 0.0008745014    1.603    0.376
        95 -11.1075    181.8499    233.1938   3.8117943482e+01   3.2072114710e+00    0.6771371     0.249359  43.67  0.002455669    5.649    0.823
