#   1 NUMBER                 Running object number                                     
#   2 MAG_AUTO               Kron-like elliptical aperture magnitude                    [mag]
#   3 X_IMAGE                Object position along x                                    [pixel]
#   4 Y_IMAGE                Object position along y                                    [pixel]
#   5 X_WORLD                Barycenter position along world x axis                     [deg]
#   6 Y_WORLD                Barycenter position along world y axis                     [deg]
#   7 A_WORLD                Profile RMS along major axis (world units)                 [deg]
#   8 B_WORLD                Profile RMS along minor axis (world units)                 [deg]
#   9 THETA_WORLD            Position angle (CCW/world-x)                               [deg]
#  10 FWHM_WORLD             FWHM assuming a gaussian core                              [deg]
#  11 ELONGATION             A_IMAGE/B_IMAGE                                           
#  12 ELLIPTICITY            1 - B_IMAGE/A_IMAGE                                       
         1 -11.5560    215.2964     51.2802   3.0926756685e+01   2.6405613276e+01     0.491019    0.2741481 -36.96  0.002423813    1.733    0.423
         2 -13.1379     44.9323     23.2836   5.7960430537e+01   6.7181822599e+01     1.006724    0.8345669 -54.22  0.006234658    1.731    0.422
         3 -10.9186     75.6965     24.9887   4.7262312829e+01   6.0889073540e+01    0.3156714    0.2015831 -19.05  0.001679015    1.854    0.461
         4 -11.8316    178.5092     23.8918   2.8505347184e+01   3.7439038189e+01    0.4986525    0.3367801 -84.15   0.00302573    1.335    0.251
         5 -10.0675    115.8749     16.4104   3.4720111838e+01   5.2625867457e+01    0.3057879    0.1418575 -46.35    0.0014182    2.452    0.592
         6 -11.6842     78.1821     13.8103   4.1954025266e+01   6.1519792306e+01    0.3961514    0.2541522  -0.99  0.002135261    2.041    0.510
         7 -10.2931     20.8400     14.0026   6.5711450447e+01   7.2240022367e+01    0.3564522     0.191461 -14.02  0.001790313    2.353    0.575
         8 -12.1126    156.0047     11.8573   2.7868322325e+01   4.3725254423e+01    0.5340907    0.4021312 -79.64  0.003433015    1.164    0.141
         9 -12.1306    177.2403      3.6237   2.3879020001e+01   3.9796993780e+01    0.5575008    0.3122061 -43.78  0.003361425    1.682    0.405
        10 -11.9173    165.2741     12.4314   2.7053606504e+01   4.1579001540e+01    0.4169228     0.290092 -69.43  0.002109291    1.294    0.227
        11 -12.9297    169.1520      5.5024   2.4996468532e+01   4.1385291748e+01    0.8486103    0.4691294 -45.82  0.004974669    1.708    0.414
        12  -9.7577    129.5299     12.4805   3.1332587269e+01   4.9791942853e+01    0.2272295    0.1511421  42.61  0.001281292    1.712    0.416
        13 -10.7756     39.5855      7.8757   5.2635685246e+01   6.9926254956e+01    0.2959456    0.1942296   2.00  0.001354548    1.691    0.409
        14  -9.9988    192.5014      6.0066   2.3258401257e+01   3.6336336094e+01    0.1632924    0.1013764 -39.98  0.001033232    1.591    0.371
        15 -10.9574    131.0876      3.9251   2.8576317683e+01   5.0180195357e+01     0.591247    0.2162211  58.00  0.002709831    2.304    0.566
        16 -10.6314     71.2873      5.7636   4.0429519660e+01   6.3741485123e+01     0.436939    0.1738551  60.72  0.001999747    2.139    0.532
        17  -9.6020    223.0000      4.5060   2.1035009643e+01   3.0453161198e+01    0.2151517   0.05292929 -33.26 0.0009261552    3.866    0.741
        18 -10.8931    204.5061      4.5148   2.2133264707e+01   3.4037617744e+01    0.2819381    0.1107805  71.32  0.001501802    2.311    0.567
        19 -11.5841    145.8898      4.7328   2.7072141795e+01   4.6691757702e+01    0.4953975    0.2144969 -67.33  0.002152136    2.924    0.658
        20 -10.7803    121.4165      4.3795   3.0003458713e+01   5.2396228085e+01    0.3798238    0.3088263 -86.30  0.002499767    1.150    0.130
        21 -10.2244    106.2376      4.9167   3.2532824105e+01   5.5892908586e+01    0.3293686    0.1516776  88.49  0.001348626    3.044    0.671
        22 -11.7850     83.9978      3.6003   3.6383968776e+01   6.1099135848e+01    0.7890537    0.2785061  66.21  0.003328299    2.507    0.601
        23 -10.5029     61.6765      2.3068   4.1644739239e+01   6.6075320635e+01    0.4096061    0.1542323  40.60  0.001827617    2.468    0.595
        24 -12.4330    159.0783      3.3257   2.5372516351e+01   4.3823310166e+01    0.8333682    0.3085948  65.98  0.004003792    2.256    0.557
        25  -9.1449    173.3284    144.3240   5.7883875808e+01   1.8522545842e+01    0.1484682    0.1106846  -9.49 0.0007049586    1.696    0.410
        26 -10.0028     53.4118    143.5283   9.0975363203e+01   3.9711961278e+01    0.2859552    0.2381374 -72.60  0.001249741    1.190    0.160
        27 -12.3155     10.9282    140.0320   1.0489731236e+02   4.4929974132e+01    0.5559293    0.3267868  75.63  0.002548216    1.923    0.480
        28  -9.7595    165.1967    135.0530   5.7524417215e+01   2.1954826629e+01    0.2874521     0.201716 -60.91  0.001352495    1.624    0.384
        29 -13.4229    240.5290    125.0168   4.2832857814e+01   1.0715442544e+01     1.065648    0.9182401  71.59   0.00742555    1.488    0.328
        30 -13.4454    244.3780    110.2956   3.9550888256e+01   1.2490791199e+01      1.30695    0.8054741 -58.39  0.007671419    1.632    0.387
        31 -12.1236     11.2026    123.4372   1.0273043636e+02   4.9351965615e+01    0.4830692     0.291276  86.48  0.002243582    1.856    0.461
        32  -9.6791    208.7066    123.3850   4.7012222929e+01   1.6166952559e+01    0.2072316    0.1741644  32.14 0.0008577753    1.444    0.308
        33 -11.5502    189.0616    116.4206   4.8731320593e+01   2.1027206506e+01    0.7048257    0.3948275 -21.52  0.002713228    3.073    0.675
        34  -9.9442    154.4915    120.4875   5.6442427070e+01   2.7101320300e+01    0.1489801    0.1411047 -51.68 8.565949e-05    1.013    0.013
        35 -10.8721      4.6358    124.6334   1.0528354079e+02   4.9459238926e+01    0.2933782    0.1677867  59.91  0.001346726    2.072    0.517
        36 -10.9061    212.9341    112.9060   4.4181116146e+01   1.7263377525e+01    0.4601466    0.2321343 -45.18  0.002235024    1.677    0.404
        37  -9.6188    224.6923    112.3385   4.2421353582e+01   1.5333027276e+01    0.2208165    0.1087535 -44.23 0.0009843833    1.660    0.398
        38 -11.2494    223.0171    107.2041   4.1603579096e+01   1.6471827381e+01    0.4186755    0.2989131  53.93  0.001951646    1.678    0.404
        39 -10.5479    148.7283    110.8048   5.5349137634e+01   3.0291728717e+01    0.3831166    0.1946843 -44.61  0.001507606    1.889    0.471
        40 -10.9750     17.3754    104.2328   9.7299134544e+01   5.3940619451e+01    0.3658332    0.3206031  22.66   0.00213447    1.251    0.200
        41 -10.1338     30.8386    101.6566   9.1222493744e+01   5.3385820441e+01     0.330424    0.1847167 -38.72  0.001460097    1.789    0.441
        42  -9.6635    208.8103     94.4139   4.0843224311e+01   2.1145033318e+01    0.2183676    0.1398246 -38.85 0.0007458831    1.426    0.299
        43 -10.7167     18.0161    127.7158   1.0083502403e+02   4.7700991456e+01    0.1937023    0.1911961 -77.27  0.001169347    1.091    0.083
        44  -9.9964    178.7669     92.8779   4.5067436692e+01   2.7361669055e+01    0.2821313    0.1783212 -57.13  0.001367221    1.613    0.380
        45 -11.1038     13.1177     89.7956   9.6358219623e+01   5.7911085181e+01    0.2413689    0.2228996 -43.30  0.001482778    1.063    0.059
        46 -11.5342      2.5391     86.7377   1.0053441244e+02   5.9330107519e+01     0.795164    0.2860496 -70.84  0.003122163    2.637    0.621
        47 -12.6767      4.9489     76.5257   9.7402227379e+01   6.1667618512e+01    0.7631783    0.5430205  57.71  0.003667613    1.870    0.465
        48 -13.1347     14.7191     72.9836   9.1795988574e+01   6.1821891328e+01     1.032726    0.6400451  30.90  0.005361288    1.761    0.432
        49 -10.4501     20.4712     88.9624   9.2893334972e+01   5.7534141826e+01    0.2187123    0.1266056 -61.43  0.001034929    1.601    0.375
        50 -10.4770    192.0028     87.0583   4.1611672177e+01   2.5643437010e+01    0.5346901    0.1857176  56.26  0.002083142    3.100    0.677
        51 -12.5399     42.5560     80.7163   8.0931063707e+01   5.7086800924e+01     1.134001    0.7606398  -4.51  0.004990015    1.775    0.437
        52  -9.8790    214.9468     79.6162   3.6905293427e+01   2.2361038359e+01    0.2769789    0.1320608 -53.17  0.001330621    1.945    0.486
        53  -9.8648    220.9319     77.9909   3.5866044063e+01   2.1498108701e+01    0.2059046    0.1255113 -65.83 0.0009462987    1.713    0.416
        54 -10.2136    169.7295     76.4138   4.2573876734e+01   3.2105290992e+01    0.2753184    0.2431197 -62.17   0.00114564    1.042    0.040
        55  -9.5390    218.5162     71.4908   3.4792881675e+01   2.2922603251e+01    0.1259958    0.1008241 -59.75 0.0001961013    1.025    0.024
        56 -10.2169     74.9907     69.2521   6.4177846712e+01   5.4197576344e+01    0.3653384    0.2345517  35.78  0.001723204    1.521    0.342
        57 -11.8187    214.9661     67.0497   3.4258203216e+01   2.4248866239e+01    0.4092503    0.2020449 -38.00  0.002083511    1.865    0.464
        58 -11.1726     25.4846     65.6223   8.4394353034e+01   6.2478399696e+01    0.4895973    0.2561181 -51.99  0.002321857    1.782    0.439
        59 -10.7606    232.8711     64.1025   3.1826643782e+01   2.1368908958e+01     0.235818    0.1651063  66.06  0.001539712    1.638    0.390
        60  -9.7299    200.3807     63.7658   3.5229655077e+01   2.7600637337e+01    0.1733965    0.1143195 -32.54 0.0009479927    1.656    0.396
        61  -9.1791    132.4637     63.4997   4.6098462715e+01   4.2658972214e+01    0.1405993    0.1327008  78.79 0.0003417262    1.013    0.013
        62 -11.0235    209.6806     59.8554   3.3313037549e+01   2.6311193939e+01    0.3544786     0.171851 -48.98  0.001814539    1.753    0.429
        63  -9.8390    145.1217     80.8683   4.8321994559e+01   3.6822567875e+01    0.2662636    0.1976782  50.30  0.001351097    1.372    0.271
        64 -11.3789    228.1044     59.3597   3.1341125179e+01   2.2890516337e+01    0.3556416    0.2027432 -68.10  0.002011199    1.781    0.438
        65 -11.4676    174.1877    235.2917   7.4679009228e+01   7.7120339301e-01    0.3114611    0.1432789 -31.03  0.001416975    2.369    0.578
        66 -10.8412    218.6502     61.4780   3.2704236635e+01   2.4350927471e+01    0.2337359    0.1399667 -38.88  0.001334494    1.550    0.355
        67 -10.1475    164.7783     54.1015   3.7703550457e+01   3.6651730795e+01    0.2352245    0.1952199 -11.49  0.001348406    1.628    0.386
        68  -9.7810     35.0280     52.5064   7.5187308888e+01   6.4017816084e+01    0.2024218    0.1236355  26.49  0.001027366    1.575    0.365
        69 -10.7866     85.2165     48.0189   5.3215156809e+01   5.5767909767e+01    0.4690059    0.3059381  53.87  0.002350298    1.476    0.323
        70 -11.3845     81.6120     39.9748   5.1344011000e+01   5.7711819134e+01    0.6504346    0.3256664 -40.32  0.002955481    2.216    0.549
        71 -11.1899    220.0197     53.5117   3.0930923292e+01   2.5198517785e+01    0.2429629    0.1681676  58.31  0.001523335    1.729    0.422
        72 -10.0287    242.3791     43.2226   2.7034337710e+01   2.2485954460e+01    0.1645619   0.07653392 -47.99 0.0009488621    1.627    0.386
        73 -11.5547      3.2497     41.0559   8.8736885522e+01   6.9543451282e+01    0.4292484     0.414484  17.97   0.00298215    1.344    0.256
        74 -10.8289      6.0563     35.3378   8.4914063895e+01   7.0430672155e+01    0.3394848    0.1917014  30.38  0.001865492    1.910    0.476
        75 -11.5257    182.9686     40.6437   3.1986171007e+01   3.4451511633e+01    0.5144509    0.2766463  86.33  0.002548956    2.049    0.512
        76 -11.9188     40.1197     29.5360   6.3119257306e+01   6.7142820921e+01    0.4880413    0.3003834 -34.49   0.00239753    1.710    0.415
        77 -10.9193    159.5007    231.9744   7.7262749409e+01   3.2575777523e+00    0.1907282    0.1238662 -43.01   0.00103555    1.598    0.374
        78 -11.0952    198.0400     53.1461   3.3138403664e+01   2.9594896458e+01    0.4763054     0.352973 -14.10  0.002693065    2.064    0.516
        79 -11.6037    190.7546     37.4879   3.0402346927e+01   3.3185903843e+01     0.420019    0.1625846 -45.49   0.00196254    2.237    0.553
        80  -9.3141     97.4766     36.5053   4.5559934489e+01   5.4660309245e+01    0.1357075     0.121504  52.65 0.0008102033    1.005    0.005
        81 -10.1451    198.1459     34.1608   2.8922154417e+01   3.2052998099e+01    0.1817617    0.1193135 -68.06  0.001094132    1.350    0.259
        82 -10.2056     86.1442     31.8739   4.6905325799e+01   5.7788003254e+01    0.1986508    0.1814332  81.26 0.0009206032    1.216    0.177
        83  -9.3811     12.3007     32.6425   7.9923638616e+01   7.0352516593e+01     0.110264   0.09836575  56.88 0.0007037164    1.711    0.415
        84 -10.3026    145.8377     27.9471   3.3479672260e+01   4.4378271870e+01    0.4579737    0.2258183 -80.98  0.001844966    3.029    0.670
        85  -9.7513     67.0000     28.9652   5.1763886688e+01   6.2234269690e+01      0.19748   0.07495729 -32.04 0.0008001442    2.927    0.658
        86  -9.8854     90.3637     28.1115   4.4331548027e+01   5.7296611955e+01     0.245039     0.162564  47.96  0.001322771    1.333    0.250
        87 -10.8128      3.7020    230.0293   1.1366365353e+02   2.2870167582e+01    0.2842485    0.1363907  37.70  0.001502367    1.759    0.431
        88 -11.4779    248.8711    224.4196   5.9316213365e+01  -5.9737657538e+00    0.4556985    0.2332484 -34.65  0.002797529    1.547    0.354
        89 -11.1543    172.9802     20.5209   2.8259623334e+01   3.9025629829e+01    0.3019936    0.1633171  64.20  0.001117879    1.738    0.425
        90 -10.0747    187.1067     19.8167   2.6744974488e+01   3.6036961006e+01    0.1952016    0.1348448 -71.79  0.001155141    1.240    0.194
        91 -10.3697    128.3036     18.1936   3.3243442430e+01   4.9528855563e+01    0.2799795    0.2248635  70.89  0.001236882    1.077    0.071
        92  -9.9168     94.4031     17.2712   3.9291352053e+01   5.7536985434e+01    0.2812876    0.1716673 -80.13  0.001313613    2.498    0.600
        93 -11.1520    158.3415    225.4221   7.6487389034e+01   4.6128172653e+00    0.2501915    0.1681969 -46.41  0.001133503    1.590    0.371
        94  -9.7437    227.6141     15.4699   2.2836563702e+01   2.8434151050e+01    0.2926486    0.1184134 -88.51  0.001491074    2.683    0.627
        95 -12.9211    204.1437    220.7411   6.6401900424e+01  -5.1452792630e-01    0.7958268    0.5316174   0.27  0.004700816    1.460    0.315
        96 -13.4596    183.7371    217.3534   6.9810908950e+01   2.6533585368e+00    0.7935675    0.5434884 -14.18  0.004457488    1.431    0.301
        97 -10.4204     77.0858    220.1836   9.5131642473e+01   1.7029600554e+01    0.3731448    0.1888538  17.83   0.00153697    2.368    0.578
        98 -11.0296     50.7550    218.3321   1.0158008449e+02   2.0749140575e+01    0.3751205    0.2462039  12.47  0.001878634    1.814    0.449
        99 -10.2908     67.0244    217.0305   9.7318111880e+01   1.9060123140e+01    0.2382462    0.1506491  59.81  0.001147614    1.727    0.421
       100  -9.9405    141.4789    207.0287   7.7297132870e+01   1.0654199929e+01    0.2126399    0.1367733 -48.43   0.00103695    1.605    0.377
       101  -9.8295    123.9661    205.9826   8.1335976180e+01   1.3523478544e+01    0.1973186    0.1830017   5.06            0    1.013    0.013
       102 -11.5306    243.9159    201.9240   5.6358314388e+01  -2.1465714128e+00    0.5030597    0.3593576 -42.25   0.00335096    1.461    0.315
       103  -9.9088    202.8345    197.1471   6.2546756453e+01   3.6722163352e+00    0.1891354    0.1698127 -30.24  0.001078876    1.230    0.187
       104 -11.0309    204.4994    192.4347   6.1382448828e+01   4.2786656627e+00    0.3679541     0.214338  19.93  0.001873998    1.981    0.495
       105 -11.6825    195.6937    185.9325   6.1838169396e+01   6.6966159924e+00    0.4425457    0.3159401 -48.82  0.002448372    1.487    0.328
       106 -10.0391     37.7597    185.4058   1.0167998995e+02   3.0376771433e+01    0.1890218    0.1375784   7.53 0.0009466603    1.651    0.394
       107 -10.5222     26.3898    180.1979   1.0437557208e+02   3.2900561761e+01    0.2058393    0.1230358  89.67 0.0009538107    1.717    0.418
       108 -10.5846    101.0252    175.9596   8.2221923325e+01   2.4151160429e+01    0.2110405    0.2080657   7.67            0    1.007    0.006
       109 -10.3190    173.4219    162.9810   6.1804052660e+01   1.4688833905e+01    0.4407057    0.2392435  21.16  0.001731559    2.739    0.635
       110 -11.1200    220.2244    155.7858   5.1721107918e+01   8.5360477885e+00    0.3291777    0.2993312 -75.03  0.002154045    1.425    0.298
       111 -10.0537     20.4533    155.8042   1.0358037957e+02   3.9928565205e+01    0.2179808    0.1795996   6.11  0.001115978    1.398    0.285
       112 -10.4959    163.1097    152.0122   6.1712626191e+01   1.8789390155e+01    0.3434992    0.1847737 -32.79  0.001389847    2.083    0.520
