#   1 NUMBER                 Running object number                                     
#   2 MAG_AUTO               Kron-like elliptical aperture magnitude                    [mag]
#   3 X_IMAGE                Object position along x                                    [pixel]
#   4 Y_IMAGE                Object position along y                                    [pixel]
#   5 X_WORLD                Barycenter position along world x axis                     [deg]
#   6 Y_WORLD                Barycenter position along world y axis                     [deg]
#   7 A_WORLD                Profile RMS along major axis (world units)                 [deg]
#   8 B_WORLD                Profile RMS along minor axis (world units)                 [deg]
#   9 THETA_WORLD            Position angle (CCW/world-x)                               [deg]
#  10 FWHM_WORLD             FWHM assuming a gaussian core                              [deg]
#  11 ELONGATION             A_IMAGE/B_IMAGE                                           
#  12 ELLIPTICITY            1 - B_IMAGE/A_IMAGE                                       
         1 -13.1390    189.8292     34.4964   5.8488695253e+01   3.3433536678e+01    0.9978899    0.9396058 -52.65  0.003538495    1.054    0.052
         2 -13.6144    197.9424     24.0490   5.4408311065e+01   3.2635314394e+01     1.346723     0.925842  42.73  0.001489592    1.625    0.384
         3 -13.3806    217.9149      9.6018   4.8401476076e+01   2.9289646419e+01        1.058    0.8021814 -59.62  0.004353671    1.231    0.187
         4 -14.1319    207.6599      3.8846   4.7860306760e+01   3.2334343277e+01     3.329169     1.074068  80.88   0.01078071    3.727    0.732
         5 -10.2322    100.1875      1.8103   6.3351668484e+01   5.9012060246e+01    0.2898562    0.1080727  67.44  0.001034393    3.523    0.716
         6  -8.6413     60.9073    207.4846   1.2606207630e+02   2.4887434141e+01    0.1630818   0.09865893  45.19  0.000987583    1.468    0.319
         7 -11.5195     92.2924    234.6235   1.2262184431e+02   1.5775935551e+01    0.2282426    0.1835105  84.81 0.0005413989    1.257    0.204
         8 -15.0641    118.6595    238.8164   1.1821377650e+02   1.1294212549e+01      5.41167     2.079914  35.84   0.02530264    2.477    0.596
         9 -10.8671     66.6445    193.7542   1.2358542705e+02   2.6889027069e+01    0.4726184    0.4282591  78.86  0.003345697    1.154    0.134
        10  -9.0180    164.1999    205.2599   1.0500267937e+02   9.4199189543e+00    0.1661352    0.1444995  63.17  0.000519824    1.311    0.237
        11  -9.3909     96.2905    188.5787   1.1668166144e+02   2.3773206833e+01    0.2887645    0.1527851  69.30  0.001194329    2.748    0.636
        12 -15.4827     50.1773    235.0968   1.3017735222e+02   2.1100399811e+01      1.12958     0.392582  56.10  0.005679574    2.497    0.599
        13 -19.6717     13.1119    147.3504   1.3091906878e+02   4.2593446687e+01     16.78498     2.342645 -75.33   0.04624084    6.858    0.854
        14 -10.5940    206.0079    180.7598   9.2481327330e+01   5.9263552155e+00    0.3163898    0.2289648  54.02  0.001695353    1.680    0.405
        15 -10.7353    208.6246    178.7865   9.1601799379e+01   5.7603387669e+00    0.5587031    0.2737103 -36.09  0.002564113    2.103    0.524
        16  -9.6563     99.5170    180.7728   1.1490389403e+02   2.4880899835e+01    0.2325579    0.1707433  44.45 0.0005682028    1.283    0.221
        17 -14.8354     59.1982    245.4151   1.2932845636e+02   1.8268920543e+01    0.7662123    0.3249719  35.32  0.004223761    2.399    0.583
        18 -10.9011     77.7987    178.8280   1.1947794896e+02   2.8501273129e+01    0.4083554    0.2465471 -44.65  0.001812722    2.152    0.535
        19 -11.4940     81.9241    173.0755   1.1779704990e+02   2.9151518535e+01    0.3335694    0.2611666 -47.54  0.001478423    1.496    0.332
        20 -11.6524    114.2408    173.9511   1.1056237242e+02   2.3913555477e+01    0.5309958    0.2540789  44.26  0.002354352    1.950    0.487
        21 -10.2197    195.8139    169.9095   9.2298544960e+01   9.5721307331e+00    0.3070692    0.2613286  -0.43  0.001156331    1.153    0.133
        22  -9.3728    124.4620    171.4542   1.0783252640e+02   2.2672825577e+01    0.1374045    0.1272762  59.82 3.334759e-05    1.012    0.011
        23 -10.8224    113.6482    195.6303   1.1393027947e+02   1.9661255729e+01    0.2998046    0.1987851 -25.93  0.001438356    2.637    0.621
        24 -12.5234     95.2492    155.3692   1.1196999330e+02   3.1035648461e+01    0.8465671    0.4492912 -48.41  0.003848059    1.998    0.500
        25  -9.5457    141.4222    158.2910   1.0154137592e+02   2.2266987779e+01    0.2507993    0.2010689 -88.72 0.0008278563    1.569    0.363
        26 -10.6664    133.6947    143.1911   1.0026391951e+02   2.6909697336e+01    0.7034854    0.2724631 -57.66  0.002216893    3.640    0.725
        27  -8.7905    113.3309    151.6683   1.0689936598e+02   2.8835772122e+01    0.1490447    0.1079168  77.15 0.0002465664    1.722    0.419
        28  -9.3442    174.8766    149.1433   9.2208620084e+01   1.7417003278e+01    0.2217018    0.2040363  76.21  0.000657676    1.272    0.214
        29  -8.8336     95.1365    200.1403   1.1838690384e+02   2.1644483647e+01    0.1737217    0.1288664  71.78   0.00039361    1.319    0.242
        30 -10.9878    106.6990    141.1086   1.0651496544e+02   3.2337188530e+01    0.5013127    0.3157997 -28.43  0.002126764    2.396    0.583
        31 -11.8118     94.9423    141.2470   1.0954407705e+02   3.4273213274e+01    0.3451349    0.2871718 -47.02 0.0004210458    1.254    0.203
        32 -11.3313     80.2194    140.4222   1.1320196775e+02   3.6728764677e+01    0.2385968    0.2144128 -42.06 0.0009663414    1.245    0.197
        33 -11.3625     79.8751    135.6433   1.1244675117e+02   3.7886321700e+01    0.5525798    0.2601587  62.52   0.00187432    3.887    0.743
        34 -10.2650    114.4983    131.1516   1.0245008825e+02   3.3179252992e+01     0.302702    0.2364282 -34.75 0.0008229119    1.412    0.292
        35 -10.1617    106.0617    130.8501   1.0457908610e+02   3.4765042725e+01    0.3470364    0.2986297  88.61  0.001369767    1.251    0.201
        36 -10.3408    102.0184    127.4349   1.0491920291e+02   3.6246197997e+01     0.303646    0.2405793 -34.36  0.001086884    1.408    0.290
        37 -10.8912    135.3303    123.0664   9.5296832760e+01   3.0894174689e+01     0.772003    0.1396951 -48.95  0.001687695    6.545    0.847
        38 -11.2398     56.4234    206.8576   1.2688147214e+02   2.5562254213e+01    0.2690882    0.2045212 -54.22 0.0007104335    1.680    0.405
        39  -9.3447    125.6601    127.2984   9.8727601943e+01   3.1914148298e+01    0.1522816    0.1178803  81.35 0.0003643472    1.663    0.399
        40 -10.4793    118.3905    126.3033   1.0036187408e+02   3.3532914344e+01    0.4190365    0.2408749 -21.53  0.001385192    3.698    0.730
        41  -9.5133    109.9054    119.8216   1.0110217680e+02   3.6566181265e+01    0.2125652    0.1963733 -16.66 0.0003355941    1.188    0.158
        42  -9.6263     67.5237    117.4842   1.1244571021e+02   4.3869671022e+01      0.13717    0.1229194 -65.95 0.0001308798    1.013    0.012
        43  -9.4530    167.7094    112.4998   8.4996105435e+01   2.6038270102e+01    0.3099259    0.2272265 -64.73 0.0009748609    1.753    0.430
        44 -10.1963    135.0000    111.5563   9.2498936483e+01   3.3414760759e+01     0.478669      0.17642 -45.82  0.001599923    2.691    0.628
        45  -9.8197    103.9433    111.0336   1.0063391483e+02   3.9630825143e+01    0.2150646    0.2051945 -66.76            0    1.037    0.036
        46  -9.5082    205.5417    110.2164   7.6763148049e+01   1.7902298954e+01    0.2681365     0.209378  46.59 0.0007865847    1.326    0.246
        47 -10.3058    119.7453    110.4458   9.6175410699e+01   3.6770838206e+01    0.2931104    0.1456193  47.75   0.00114111    2.125    0.529
        48 -10.0849     66.5048    104.5047   1.1006018405e+02   4.7044819463e+01    0.2218607    0.1389288  16.11  0.001032105    2.224    0.550
        49 -10.5849    165.2310     65.8227   7.2242844174e+01   3.5129892082e+01    0.3407657    0.2658426 -74.86 0.0005316567    1.603    0.376
        50 -12.4566    178.8590     43.9568   6.3006472510e+01   3.4984258404e+01    0.7795636     0.511417 -16.93 0.0009752146    1.749    0.428
        51  -9.8130     39.4624    244.0628   1.3254074048e+02   2.0788145435e+01    0.1840576   0.06447149  62.44 0.0006626192    2.728    0.633
        52  -8.9906     38.7440    239.8331   1.3241733901e+02   2.1585187196e+01    0.1362805   0.08148248  72.18 0.0009526301    1.366    0.268
        53 -10.8840    193.1823    193.2911   9.7285599679e+01   6.2641814748e+00    0.6647273    0.4432661 -58.46   0.00333664    2.310    0.567
        54  -9.4023     72.4292    211.5943   1.2419203270e+02   2.2617347742e+01     0.119063   0.09320335  65.52 0.0001910661    1.045    0.043
        55 -11.1644     45.3806     45.9599   1.0123161997e+02   6.2401414449e+01    0.5682093    0.2151071 -51.68  0.002382145    2.525    0.604
