#   1 NUMBER                 Running object number                                     
#   2 MAG_AUTO               Kron-like elliptical aperture magnitude                    [mag]
#   3 X_IMAGE                Object position along x                                    [pixel]
#   4 Y_IMAGE                Object position along y                                    [pixel]
#   5 X_WORLD                Barycenter position along world x axis                     [deg]
#   6 Y_WORLD                Barycenter position along world y axis                     [deg]
#   7 A_WORLD                Profile RMS along major axis (world units)                 [deg]
#   8 B_WORLD                Profile RMS along minor axis (world units)                 [deg]
#   9 THETA_WORLD            Position angle (CCW/world-x)                               [deg]
#  10 FWHM_WORLD             FWHM assuming a gaussian core                              [deg]
#  11 ELONGATION             A_IMAGE/B_IMAGE                                           
#  12 ELLIPTICITY            1 - B_IMAGE/A_IMAGE                                       
         1 -13.4165     30.1935     33.6414   7.6481395565e+01   6.6850145122e+01    0.4794708    0.2718196 -16.20  0.002075615    1.947    0.486
         2 -12.4106     84.9289     24.5686   4.9628807337e+01   5.9685857390e+01    0.4243149    0.3034617  89.70   0.00191792    2.878    0.653
         3 -12.3546    210.6250      8.5574   2.1554007661e+01   3.1061925266e+01    0.4097082    0.1864104 -47.96  0.001959117    2.045    0.511
         4 -11.0960     85.2516     10.6647   4.3487458220e+01   6.1220326166e+01    0.2266043    0.1500251 -34.30 0.0008244467    1.729    0.421
         5 -11.2596    144.4073      7.0417   2.9013316970e+01   4.7565880779e+01    0.2589775     0.145953  48.43   0.00125781    1.653    0.395
         6 -11.3888     67.2787      1.8879   4.5248987103e+01   6.5716007360e+01    0.1898401     0.155893  42.95 0.0003372869    1.229    0.186
         7 -10.5297    139.5085    247.4464   8.7899794319e+01   4.7165083737e+00     0.124793   0.09875721  36.41 4.865629e-05    1.010    0.010
         8 -17.0203    108.0574    146.6311   7.9405854608e+01   3.0362359588e+01     3.996608     1.822433 -55.30   0.01521553    2.243    0.554
         9 -10.5127    121.5335    235.4652   9.0084649144e+01   9.4531103523e+00    0.1265917    0.1053714  38.03 -4.382274e-06    1.065    0.061
        10 -11.3511    117.1512    233.8118   9.0792561677e+01   1.0414936253e+01    0.3384501    0.2399458  -4.02  0.001785583    2.339    0.572
        11 -11.1123    157.3805    234.1304   8.2539566129e+01   4.0549944114e+00    0.1656621    0.1532111  25.69  0.001118557    1.145    0.127
        12 -11.5529    132.1073    232.1834   8.7484912209e+01   8.3794539969e+00    0.2878658    0.1815469  25.60 0.0009872814    1.636    0.389
        13 -10.9658    194.2463    231.4343   7.4763536309e+01  -1.3127488304e+00    0.1758293    0.1028911  41.71 0.0009449282    1.656    0.396
        14 -11.9189    178.0203    229.1368   7.7617109067e+01   1.5613426277e+00     0.194209    0.1769219  29.58 0.0003253235    1.203    0.169
        15 -12.9957    150.6241    228.3063   8.3103244585e+01   6.0886007954e+00    0.3460886    0.2940474  17.23  0.001521821    1.160    0.138
        16 -12.9134    112.9885    227.7997   9.0943335952e+01   1.2137742107e+01    0.4364466    0.3133576  62.38  0.002064233    1.446    0.308
        17 -11.7324     88.0695    250.6629   9.8365851237e+01   1.1693221104e+01    0.3535962   0.09409456  35.65  0.001290631    3.246    0.692
        18 -13.0569    187.1246    226.7191   7.5416818143e+01   4.8925003559e-01    0.3543683    0.2486126 -16.82  0.001129756    1.583    0.368
        19 -11.9959    144.8486    225.4809   8.3909550688e+01   7.5026818749e+00    0.3765536    0.1783413 -61.09  0.001599953    3.285    0.696
        20 -11.2182    231.8535    227.1794   6.6998462122e+01  -6.2621957430e+00    0.1730222     0.116445   4.68 0.0004835197    1.316    0.240
        21 -11.6099    138.1236    225.7814   8.5369252329e+01   8.5368703562e+00    0.2458689    0.2182226 -61.36 0.0008378722    1.359    0.264
        22 -16.8908     92.8787    198.8429   9.1768715828e+01   2.0981319042e+01     2.521079     1.629116 -40.41   0.01266331    2.048    0.512
        23 -10.3754    215.4664    226.5115   6.9899238150e+01  -3.8189300297e+00    0.1245582    0.1001555  12.96 8.170684e-05    1.048    0.046
        24 -11.7504    171.8245    225.5455   7.8317673411e+01   3.1145920070e+00    0.2292457    0.1693031  70.92 0.0006536721    2.301    0.565
        25 -11.0199    179.5461    224.5002   7.6584193228e+01   2.0360198802e+00    0.1302842      0.10855  23.92 0.0001350235    1.030    0.029
        26 -11.9989    159.3915    222.1185   8.0362528595e+01   5.7015248149e+00    0.2659845    0.1633343  41.56  0.001015325    1.436    0.304
        27 -11.4535    105.4827    220.5087   9.1663833941e+01   1.4659241299e+01    0.4788328    0.2347194  36.96  0.002307659    1.783    0.439
        28 -13.1160    173.0086    219.7364   7.7161283830e+01   3.8581953453e+00    0.3663636    0.2595454  15.19  0.001370591    1.438    0.305
        29 -11.7728    193.6479    219.0836   7.2872091551e+01   6.1260323170e-01    0.1808588    0.1537819   0.42 0.0008439849    1.114    0.102
        30 -11.5787    137.9893    218.1134   8.4317674582e+01   9.9278206740e+00    0.3688426    0.1676906  38.93  0.001011427    1.869    0.465
        31 -15.5489     88.3122    185.9238   9.1125368688e+01   2.4497022119e+01     1.291336    0.7198752 -69.11  0.005275471    1.957    0.489
        32 -12.2954    144.9223    216.6998   8.2616832088e+01   9.0367989066e+00    0.2662958    0.2104795  47.92 0.0008548055    1.215    0.177
        33 -13.2448    138.0867    207.7947   8.2764051107e+01   1.1828121392e+01    0.5344203    0.3608136 -30.85  0.002722908    1.898    0.473
        34 -13.8900    147.2362    203.7349   8.0096511132e+01   1.1030091361e+01    0.5633334    0.4230475 -24.40  0.003030994    1.611    0.379
        35 -11.4934    129.9792    216.4797   8.5820557409e+01   1.1541838989e+01     0.185187    0.1833888  76.27 0.0005431962    1.158    0.136
        36 -13.6223    157.5439    213.1709   7.9364351040e+01   7.5489662027e+00    0.4495338    0.2686893 -29.98  0.001942624    2.147    0.534
        37 -14.1267    153.6021    211.3086   7.9916399039e+01   8.5468885461e+00    0.6003303    0.4233264 -17.42  0.002796513    1.855    0.461
        38 -13.6285    124.8827    212.0083   8.6308397486e+01   1.3222252797e+01    0.5866261    0.4461196   4.19  0.003175971    1.748    0.428
        39 -13.0442    125.0355    205.5312   8.5340893230e+01   1.4458897005e+01    0.4986638    0.3405601   6.43  0.001429588    2.221    0.550
        40 -13.3784    184.0906    213.0938   7.3791355933e+01   3.1093258707e+00    0.3538194    0.2684247  -5.89  0.002040013    1.397    0.284
        41 -16.1267     62.1155    205.9601   9.9530514353e+01   2.3784911468e+01     1.932188    0.6571692  44.89  0.008314042    2.469    0.595
        42 -13.2443    113.9112    199.8757   8.7049881033e+01   1.7438719357e+01     0.752869    0.3515425  24.31  0.002751857    3.218    0.689
        43 -13.0916    113.8106    205.9306   8.7931556231e+01   1.6221263608e+01    0.4404747    0.3674413   9.18  0.002166918    1.456    0.313
        44 -12.4233    109.1067    206.5232   8.9075442166e+01   1.6855876708e+01    0.3618921    0.2557828 -67.70  0.001403946    1.604    0.377
        45 -12.2281    229.4492    206.7989   6.3864846163e+01  -3.1502557090e+00    0.2798156    0.2120437 -26.44  0.001191368    1.323    0.244
        46 -17.5948     68.7240    187.6042   9.6045222615e+01   2.6925674915e+01     2.564568     2.327592  49.44   0.01632037    1.144    0.126
        47 -11.5586    219.7836    206.1412   6.5539031306e+01  -1.5761908266e+00    0.2354499    0.1605542  24.90 0.0006445677    1.303    0.232
        48 -13.5042    168.8708    205.5656   7.5693108026e+01   6.9530786615e+00    0.3442681    0.3276402  70.92  0.001390031    1.312    0.238
        49 -11.3876     18.7080    204.8260   1.0864500003e+02   2.8915185164e+01    0.1870054    0.1170897 -85.60  0.001183236    1.392    0.281
        50 -12.3105    133.4897    204.0186   8.3210610227e+01   1.3333717417e+01    0.3473288    0.2126273  62.16  0.001572724    2.191    0.543
        51 -13.0755    134.1615    198.3555   8.2171334275e+01   1.4333136444e+01    0.3833268    0.2807229  19.85 0.0008957842    1.519    0.342
        52 -12.9373    132.3260    191.9657   8.1558135381e+01   1.5939818680e+01    0.4647415    0.2163063 -49.50  0.001639465    2.340    0.573
        53 -13.7354    140.0072    196.1030   8.0472986901e+01   1.3762172058e+01    0.4363702    0.3252892  32.32  0.001513098    1.245    0.197
        54 -12.0852    135.7525    193.5682   8.1029359224e+01   1.5014243981e+01    0.3073803    0.2036323  44.90 0.0008869396    1.397    0.284
        55 -11.8176    213.4095    201.2601   6.5859830274e+01   1.6827246283e-01    0.3572999    0.2329811  47.94  0.001877107    1.891    0.471
        56 -12.1214    142.4966    211.7485   8.2397118204e+01   1.0343871665e+01    0.3580301    0.3056357 -47.92   0.00138021    1.346    0.257
        57 -10.8454     13.4498    201.9586   1.0953977126e+02   3.0011622735e+01    0.2738454    0.0554252  40.49  0.001167695    3.306    0.698
        58 -12.0166    121.3412    200.8321   8.5484149489e+01   1.6014225136e+01    0.2358007    0.1847807  48.49 0.0004710957    1.166    0.142
        59 -13.8469    123.8672    196.6966   8.4275314217e+01   1.6430965290e+01    0.5261647    0.4753116 -37.59  0.002549103    1.253    0.202
        60 -12.5650    225.3688    198.8432   6.3152236992e+01  -1.3680368912e+00    0.3346334    0.2374241 -41.12  0.001469109    1.653    0.395
        61 -14.5268    189.9336    194.9809   6.9378621842e+01   5.1296810668e+00    0.7054171    0.4204822  40.33  0.002649911    1.591    0.372
        62 -11.0419     16.4646    197.7865   1.0866763903e+02   3.0614072447e+01    0.1972804    0.1318028  44.76  0.001285314    1.412    0.292
        63 -13.4516    147.4949    193.7283   7.8371458701e+01   1.2905037896e+01    0.4670107    0.2963719   4.93  0.001934032    2.632    0.620
        64 -12.8022    151.9185    196.9524   7.7927220256e+01   1.1496849853e+01    0.2574506    0.2351916 -87.78 0.0006868729    1.338    0.253
        65 -10.5547    245.1392    196.1595   5.9102499529e+01  -3.9775407665e+00    0.1553809    0.1380032 -17.55 0.0002721189    1.318    0.241
        66 -10.3287    238.4919    196.5242   6.0336576374e+01  -3.0432783776e+00    0.1283421    0.1037853  -0.55 8.324727e-05    1.011    0.011
        67 -11.2084     26.4890    195.1360   1.0636688857e+02   3.0212545115e+01    0.2489295    0.1622723  88.30  0.001179473    1.336    0.252
        68 -10.2927     25.2700    191.6501   1.0637439903e+02   3.1093550270e+01    0.1636891   0.09537328  53.44 0.0009475899    1.514    0.340
        69 -11.8846    212.8508    194.2899   6.4666700093e+01   1.3448710577e+00    0.3010231    0.2076622 -55.30 0.0008922329    2.239    0.553
        70 -13.8503    165.9736    193.8282   7.4268707693e+01   9.5788216002e+00    0.5453887    0.3142917  48.52  0.000569211    1.837    0.456
        71 -13.6951    159.2332    190.7715   7.5210231896e+01   1.1367460377e+01    0.4414619    0.2902393 -54.60  0.002150199    1.823    0.452
        72 -13.5150    173.1312    188.7596   7.1779599282e+01   9.2240690449e+00     0.352289    0.2615725  54.69  0.001342983    1.594    0.373
        73 -12.4664    110.9898    188.9373   8.6106654711e+01   2.0225853690e+01    0.2948589    0.2030586 -68.54  0.001486572    1.648    0.393
        74 -14.2594    126.8562    185.7564   8.1812296174e+01   1.8188774157e+01    0.7281096    0.5319778  -1.37  0.003463839    1.974    0.493
        75 -14.4896    137.3007    184.4758   7.9121393514e+01   1.6595343406e+01    0.7000375    0.5245186 -11.50  0.002064896    1.786    0.440
        76 -13.6648    144.4530    181.3722   7.6887469672e+01   1.5930758322e+01    0.4001518    0.3257167 -15.09  0.001397847    1.440    0.306
        77 -15.8845    139.0492    170.0341   7.6053894857e+01   1.9314931147e+01     1.237304    0.8999681 -50.62   0.00568346    1.462    0.316
        78 -15.2256    120.7490    167.3572   8.0075185916e+01   2.3287193061e+01    0.8512192    0.8006301  83.13   0.00478933    1.103    0.093
        79 -14.4039    127.2551    173.4724   7.9574249779e+01   2.0755052771e+01     0.737181    0.3896045 -50.95  0.003145377    1.996    0.499
        80 -14.9715    129.1338    167.5683   7.8016822905e+01   2.1705221450e+01     1.003026    0.5078018  51.60  0.003921098    2.222    0.550
        81 -13.4162    186.8250    185.8270   6.8296828086e+01   7.2747143510e+00     0.476844     0.222042  43.73   0.00161992    2.126    0.530
        82 -10.5990     37.7373    185.0421   1.0304210093e+02   3.1272527538e+01     0.186567    0.1218138 -50.70 0.0006598657    1.826    0.452
        83 -11.3322     31.4337    184.8899   1.0446982156e+02   3.1970723178e+01    0.3128939     0.170522  23.75   0.00138261    2.271    0.560
        84 -11.2420    213.5206    184.5342   6.2658716964e+01   2.7963150299e+00    0.1361263    0.1181881   3.44 -5.969323e-06    1.027    0.026
        85 -13.4019    178.0945    182.1768   6.9452067115e+01   9.5308418685e+00    0.4632713     0.276717  14.08  0.001912952    2.387    0.581
        86 -14.0912    117.8652    179.6181   8.2948871719e+01   2.1080374972e+01    0.5505794    0.5048981 -57.49  0.002738531    1.162    0.140
        87 -12.8865    158.8468    178.3812   7.2997588326e+01   1.3853423167e+01    0.3198522     0.182405  33.07  0.001072364    1.724    0.420
        88 -11.1526     23.1628    181.5185   1.0607282362e+02   3.3544435382e+01    0.1541859    0.1118228  40.15 0.0003590196    1.424    0.298
        89 -13.8685    154.7612    177.7280   7.3810463921e+01   1.4752433487e+01    0.5463686    0.3301606 -26.89  0.002322802    2.200    0.545
        90 -12.5352    191.1104    177.3441   6.5733447006e+01   8.0092256700e+00    0.2443899    0.1893417 -19.92 0.0007468084    1.309    0.236
        91 -11.3233     29.1503    177.8175   1.0439277650e+02   3.3800554945e+01    0.2334677    0.1413204  63.25 0.0008054515    1.544    0.352
        92 -10.7601      2.5043    178.7108   1.1046547603e+02   3.5947686163e+01     0.107864   0.08931274  73.23 0.0004291599    1.108    0.098
        93 -10.7441      9.0992    181.9820   1.0923199628e+02   3.4695731548e+01    0.2003258    0.1353239 -16.84  0.001147166    2.614    0.617
        94 -15.5234     54.1455    143.3426   9.3953420485e+01   3.9301357016e+01     2.078566     1.486234 -78.73   0.01113368    1.345    0.257
        95 -13.2922    175.0434    173.1225   6.8328319889e+01   1.1808672707e+01    0.3417327      0.25015 -60.31   0.00165315    1.793    0.442
        96 -13.8669    171.4960    168.9756   6.8272630822e+01   1.3293212183e+01    0.5348285    0.2851323 -36.18  0.001947013    2.025    0.506
        97 -13.5314    167.2275    167.9108   6.9014424024e+01   1.4331688131e+01    0.5161638    0.3347919   6.77   0.00181474    2.327    0.570
        98 -11.8512    182.0000    171.9752   6.6580758214e+01   1.0701546927e+01     0.229268   0.08171848 -42.49 0.0006013443    2.897    0.655
        99 -14.1837    158.6071    157.6910   6.8868717073e+01   1.8113758311e+01    0.5079531    0.4215923  25.39  0.002253625    1.202    0.168
       100 -14.7714    153.6585    167.9127   7.2147159666e+01   1.6967414614e+01     0.727366    0.5783727  -1.19  0.003629968    1.488    0.328
       101 -12.3723     40.1716    168.8806   1.0088659433e+02   3.4729215803e+01    0.4524053    0.2297339 -56.94  0.002233629    1.950    0.487
       102 -11.3752     31.5094    172.4392   1.0335253792e+02   3.4800399682e+01    0.2002422    0.1380711  42.20 0.0002030725    1.448    0.310
       103 -17.6046     61.7441    123.8863   8.8426346720e+01   4.3162489738e+01      4.78755     3.008401  64.25   0.02172473    2.072    0.517
       104 -10.2947      1.5430    171.5316   1.1024207702e+02   3.7612613433e+01    0.1164185   0.09229563  88.95 0.0001236996    1.055    0.052
       105 -11.4172    197.4846    170.4671   6.3017766889e+01   8.0609803653e+00    0.1447885    0.1274735   4.23 0.0003240427    1.038    0.037
       106 -13.1545    200.4158    166.2290   6.1539973566e+01   8.2709031265e+00    0.4635421    0.2946437  64.60  0.001897729    2.841    0.648
       107 -11.4790      3.7667    162.8738   1.0916687034e+02   3.9402440762e+01     0.443341    0.2005045  80.39  0.002205415    2.148    0.534
       108 -11.8011    205.0208    164.9668   6.0351252269e+01   7.6339837431e+00    0.2296441    0.1623034   3.82 0.0004736545    1.647    0.393
       109 -13.9231    171.1063    160.4485   6.6580383537e+01   1.5053964499e+01    0.4551162    0.4058081  52.62  0.002449572    1.223    0.182
       110 -11.3094    248.1539    186.1562   5.6683078339e+01  -3.0038811354e+00    0.1980926     0.145867  -1.36 0.0006078399    1.205    0.170
       111 -11.6322     43.9783    161.0821   9.9058147803e+01   3.6161750693e+01    0.2292464    0.1694955 -68.98 0.0003714292    1.245    0.197
       112 -12.3241     47.4915    158.1391   9.7788009535e+01   3.6473911464e+01     0.382066    0.2969607  28.51   0.00194684    1.457    0.313
       113 -13.0883    159.8973    169.4540   7.1003431610e+01   1.5444315684e+01    0.3405765    0.2961068  85.68  0.001231436    1.473    0.321
       114 -14.1088    122.8917    159.4677   7.8035068228e+01   2.4674346720e+01    0.6766943    0.4401944 -81.05  0.001916348    2.407    0.585
       115 -16.5747     24.6205    140.3673   1.0183997746e+02   4.3058629562e+01     4.437934     2.421926 -86.90    0.0222872    1.795    0.443
       116 -13.1398     76.8856    158.7869   9.0053163673e+01   3.2511799855e+01    0.5843884    0.3196164  88.14  0.002214248    2.947    0.661
       117 -10.5288    174.5320    243.5348   8.0444456275e+01  -4.4508165553e-02    0.1255274   0.09892528  25.32 0.0003293133    1.013    0.013
       118 -12.2471    179.8997    243.9566   7.9455738296e+01  -9.1897279836e-01    0.2252179    0.1901186 -29.30   0.00105204    1.407    0.289
       119 -12.1109    184.4798    156.4499   6.2774791227e+01   1.3170712066e+01    0.2516977    0.2113707  88.61 0.0006891722    1.694    0.410
       120 -12.0496     81.8828    155.4525   8.8169184985e+01   3.2575331594e+01     0.331467    0.1433329  31.40  0.001275508    2.498    0.600
       121 -12.4432      3.7112    153.6759   1.0851968668e+02   4.1519050534e+01    0.3572485    0.2171554  80.28  0.001532193    1.454    0.312
       122 -12.3504    212.2261    154.0391   5.6607322638e+01   8.2039645606e+00    0.2550284    0.2095832  47.16 0.0006222167    1.366    0.268
       123 -14.5903    170.4496    151.0645   6.4689242510e+01   1.7071376306e+01    0.7419364    0.4462354  44.40  0.003239534    1.648    0.393
       124 -12.4686    170.1727    146.1500   6.3649801297e+01   1.8125328976e+01    0.2704748    0.2231578 -35.87   0.00061012    1.218    0.179
       125 -14.3560    146.9283    149.2747   6.9859069325e+01   2.2259452382e+01    0.6829089    0.4245932  47.59 0.0009080013    1.626    0.385
       126 -12.9707    180.1728    150.8373   6.2472997056e+01   1.5128510707e+01    0.3383268    0.2733654 -72.16  0.001443861    1.686    0.407
       127 -13.0947    127.3596    147.1478   7.4362647968e+01   2.6628628947e+01    0.4027403    0.2542259  57.48  0.001683565    1.893    0.472
       128 -14.0375    130.1427    151.4013   7.4541427598e+01   2.5123833551e+01    0.4972634    0.2950194  33.43  0.002096347    1.750    0.429
       129 -13.9959    134.4630    146.4816   7.2381154320e+01   2.5382399242e+01    0.4490363    0.3215478 -51.00  0.002088946    1.444    0.307
       130 -10.9759    224.4230    148.1662   5.3063164422e+01   6.9313065828e+00    0.2461264    0.1892807 -79.77  0.001190527    2.268    0.559
       131 -13.0452    156.1459    145.1401   6.6697793624e+01   2.1254068456e+01    0.4083098    0.2151188  41.48  0.001045714    1.860    0.462
       132 -12.6275    143.8664    140.8584   6.8738360108e+01   2.4724543024e+01    0.2937226    0.2454994  -4.30 0.0008143974    1.389    0.280
       133 -11.7753    203.0054    143.2894   5.6020109548e+01   1.1930255575e+01    0.2041915    0.1843287  20.34 0.0003946396    1.094    0.086
       134 -14.8569     85.9249    233.6853   9.7206896308e+01   1.5028046868e+01     1.505415    0.5498876  42.27  0.006954342    2.155    0.536
       135 -10.6260    197.9845    242.9455   7.5824307005e+01  -3.4741852548e+00    0.1505894    0.1090993  24.69 0.0003597915    1.091    0.084
       136 -11.9340    151.0781    141.9444   6.7198503675e+01   2.2991717362e+01    0.2463351    0.1892833   0.95 0.0005357576    1.656    0.396
       137 -12.1857    116.2782    240.2279   9.1717299094e+01   9.4265337917e+00      0.21969     0.174872  42.47 0.0004033866    1.028    0.028
       138 -11.3691    168.5473    138.4596   6.2248515661e+01   2.0038015421e+01    0.1524463    0.1476991   5.57 9.543205e-05    1.016    0.016
       139 -12.6018    159.9378    135.8552   6.3643409214e+01   2.2416823930e+01     0.410445    0.2403655 -22.17  0.001501633    2.545    0.607
       140 -11.7356    196.5864    135.3840   5.5486350347e+01   1.4709334915e+01    0.2995345    0.1231516 -50.72 0.0009657968    3.288    0.696
       141 -11.5344    137.8935    130.9915   6.7958364224e+01   2.8150431237e+01    0.2729733    0.2488002  60.44 0.0005219765    1.158    0.136
       142 -12.8119    139.9955    134.5352   6.8256197796e+01   2.6923996360e+01    0.4574958    0.2516122  31.26  0.001743587    2.116    0.527
       143 -10.6563    166.0011    240.2706   8.1669059309e+01   1.7490265827e+00    0.1718002    0.1411346  26.12    0.0011242    1.030    0.029
       144 -14.0254    123.8601    129.5409   7.1344275866e+01   3.1356395167e+01    0.7337801    0.4164644  66.37  0.002415105    3.298    0.697
       145 -14.0966    120.6772    122.4162   7.0508696053e+01   3.3632559454e+01    0.6829658    0.4319273 -70.12  0.002649096    2.307    0.567
       146 -14.2441    155.4072    127.9183   6.2818142932e+01   2.5072146250e+01    0.9198704    0.6395289  37.42  0.004132334    1.457    0.313
       147 -10.7580    134.0387    127.4845   6.8122304217e+01   2.9739534461e+01     0.223408    0.1535398  41.25 0.0003181672    1.443    0.307
       148 -11.3768    189.8461    122.4398   5.3767135725e+01   1.8600326189e+01    0.3650701     0.263208  89.60  0.001536034    2.289    0.563
       149 -13.6163     93.6251    120.5192   7.7916683799e+01   3.9158235733e+01    0.5644679    0.2792864 -58.04   0.00218907    2.109    0.526
       150 -10.3327    250.5343    119.4762   4.2510185964e+01   6.8403677675e+00    0.1339935    0.1150381 -29.46   0.00015027    1.005    0.005
       151 -12.9919    105.4393    114.5416   7.2942294061e+01   3.8436444828e+01    0.3705102    0.3219141  19.33  0.000890726    1.233    0.189
       152 -12.7478    108.5168    111.5048   7.1262945184e+01   3.8551777167e+01    0.3097639    0.2642713  58.85  0.001435666    1.279    0.218
       153 -14.4322     82.7100    113.8422   7.9738533475e+01   4.2583720582e+01    0.5875569    0.5067395  73.50  0.002879127    1.319    0.242
       154 -13.7478     88.6138    110.1424   7.6998533501e+01   4.2495565954e+01    0.4744083     0.311225 -37.33  0.001511827    1.623    0.384
       155 -13.7959     92.4619    107.5084   7.5135049054e+01   4.2453725905e+01    0.5180942    0.2824354  43.98   0.00214213    1.928    0.481
       156 -10.6352    142.3691    238.8451   8.6238641911e+01   5.6539545248e+00    0.1554627    0.1162189 -33.43 0.0009404712    1.669    0.401
       157 -12.9005    115.0030    110.4849   6.9102607745e+01   3.7503135557e+01    0.3973512    0.2674337 -57.35  0.001232214    1.624    0.384
       158 -11.3567    205.4905    121.2343   5.0404902055e+01   1.5448535149e+01    0.4106833    0.1350005 -40.07  0.001368252    2.859    0.650
       159 -12.6236    165.0171    110.8194   5.6207151761e+01   2.6462119749e+01    0.5047892    0.2445672 -53.35  0.001741062    2.637    0.621
       160 -11.3155    140.6082    108.1712   6.1458854586e+01   3.2553987431e+01    0.3609515    0.1843549  59.42  0.001216067    2.751    0.637
       161 -11.1286    109.5069    104.0186   6.9001023223e+01   4.0066461978e+01    0.2808066    0.2260004  73.29  0.000958944    1.569    0.363
       162 -13.9724    105.5731    104.0091   7.0179710379e+01   4.0839824689e+01    0.5593241     0.462891 -81.02   0.00198615    1.492    0.330
       163 -10.9764    217.5103    105.9695   4.4601520631e+01   1.5585827620e+01    0.2314878    0.1344516 -34.18  0.001038959    1.626    0.385
       164 -11.4760    174.9713    106.3140   5.2813968767e+01   2.5057326613e+01    0.2116978    0.1983335  41.87 0.0003313579    1.077    0.071
       165 -12.9152     65.4787     95.1941   8.0955171669e+01   4.9621173421e+01    0.3833153    0.2554335  31.43 0.0009690266    1.604    0.377
       166 -15.0998     88.7660    100.6109   7.4532187601e+01   4.4707855233e+01     1.047581    0.6216334  28.66  0.004495251    1.887    0.470
       167 -14.6837     72.8744     97.4271   7.8974632302e+01   4.8024071798e+01    0.6826072    0.6085455  47.17  0.002368076    1.228    0.186
       168 -12.7089     58.2518    100.0749   8.4625700095e+01   4.9424766064e+01    0.3634668     0.360133  80.65  0.001103756    1.106    0.096
       169 -11.6998     60.1928     95.8585   8.2962512369e+01   5.0179108356e+01    0.2738581    0.2396465 -15.01 0.0005817714    1.204    0.169
       170 -12.6161     60.2513     92.1986   8.2045531431e+01   5.1033863876e+01    0.3599599    0.3338779  18.55   0.00160304    1.157    0.136
       171 -13.0610      2.1132    102.3679   1.0409088716e+02   5.3718227309e+01    0.4381904    0.1640457 -72.68  0.002020655    2.126    0.530
       172 -12.5002     98.9653    114.4681   7.4864258712e+01   3.9653439274e+01    0.3421978    0.1396417  43.93  0.001196297    2.554    0.609
       173 -14.6609     79.1326     99.9902   7.7525375608e+01   4.6453418686e+01    0.9518613     0.427743 -39.31  0.003502831    2.518    0.603
       174 -11.5817    179.0066    100.0446   5.0310282313e+01   2.5314340925e+01    0.2302354    0.2271443 -65.21 0.0004835893    1.036    0.035
       175  99.0000     55.2353    228.1306   1.0291803138e+02   2.0144565172e+01     4.893446     2.105247  42.83   0.02564574    1.871    0.465
       176 -11.5149    237.8132     98.8255   3.9752028560e+01   1.2565634251e+01    0.1957329    0.1752607 -24.25 0.0004424578    1.099    0.090
       177 -11.7085    136.7094    240.8299   8.7641547129e+01   6.2074135611e+00    0.3791645    0.1442721 -49.64  0.001708379    3.181    0.686
       178 -10.6584    191.6977     98.6818   4.7422043119e+01   2.2614107381e+01    0.1520206     0.118718   9.16 0.0007024835    1.623    0.384
       179 -10.8692    150.3427     96.2920   5.5741865344e+01   3.2782631007e+01    0.1619664    0.1238645  13.31 0.0007027482    1.655    0.396
       180 -12.8248     98.4070     95.8812   7.0171459877e+01   4.4045554198e+01    0.3338168    0.2479707   7.51 0.0009397409    1.710    0.415
       181 -12.4074     38.8615     95.6841   9.0463341733e+01   5.2657504249e+01    0.3074633    0.2389859 -18.44  0.001220926    1.441    0.306
       182 -13.0298     34.7158     94.0032   9.1599457205e+01   5.3451506526e+01     0.432286    0.2374325  -4.98  0.001914677    2.733    0.634
       183 -13.8292     73.0442     88.4330   7.6541284345e+01   5.0079254822e+01    0.4513198      0.33676  79.18  0.002119492    2.026    0.506
       184 -13.7957     62.3215     82.9791   7.8885158111e+01   5.2880425984e+01    0.5449052    0.3025596 -51.68  0.002501222    1.659    0.397
       185 -13.3305     53.6444     84.9902   8.2618836779e+01   5.3551164669e+01    0.5702078    0.4326379 -77.50   0.00275577    1.603    0.376
       186 -12.3272     59.5250     86.0013   8.0720396874e+01   5.2568542767e+01    0.2843284    0.2151625 -65.51  0.000688374    1.420    0.296
       187 -11.3437    214.1886     92.7999   4.1954296979e+01   1.8545683031e+01    0.1968869     0.169198  -1.81 0.0006268858    1.336    0.252
       188 -10.9786    196.2734     92.3942   4.4943221474e+01   2.2676614813e+01    0.1990699     0.144788  67.24 0.0007078217    1.554    0.356
       189 -11.0490    183.0323     92.0240   4.7362047520e+01   2.5846945568e+01    0.1836619    0.1831429  82.80  0.001006393    1.018    0.018
       190 -11.9194     88.4715     90.5322   7.1874734742e+01   4.7056891620e+01    0.2755212    0.1295635 -39.16  0.001031198    2.252    0.556
       191 -11.0766     21.6433     91.1963   9.5756003664e+01   5.5189016606e+01    0.1926875    0.1679306  35.34 0.0006440026    1.352    0.260
       192 -12.3894      2.6739     90.8514   1.0241013737e+02   5.6398332217e+01    0.2158554    0.1821357 -65.49 0.0003166599    1.058    0.055
       193 -12.6186    101.8756     89.7255   6.7322336671e+01   4.4739887213e+01    0.2989028    0.2092589 -73.68   0.00125058    2.153    0.536
       194 -12.7962     25.6549     89.4943   9.3986559498e+01   5.5290427256e+01     0.321411    0.2101467  82.12  0.001637183    2.016    0.504
       195 -13.7480     66.4013     86.2899   7.8309648789e+01   5.1554337415e+01    0.4943109    0.3332859 -35.06  0.001729236    1.486    0.327
       196 -12.1139     11.6885     87.7501   9.8748916708e+01   5.6650318104e+01    0.4097441    0.1931767 -72.20  0.002005191    1.883    0.469
       197 -11.5757    171.0066     88.0608   4.8741894051e+01   2.9442646969e+01    0.2294319    0.2279405 -82.84 0.0003767032    1.011    0.010
       198 -11.5610    148.3370     87.8803   5.3831974313e+01   3.4909892150e+01    0.2588112    0.2109713  60.64 0.0003187385    1.293    0.227
       199 -10.3389    131.6327    241.3201   8.8730961729e+01   6.9079645651e+00     0.130989   0.08334589  58.57 0.0002322459    1.788    0.441
       200 -11.9162    177.8377     86.9744   4.7035294717e+01   2.7997162031e+01    0.2466548    0.2184142  54.02 0.0003672384    1.138    0.121
       201 -10.6019     45.5743     86.4877   8.5983410301e+01   5.4139509161e+01    0.1374761    0.1187834 -45.12 5.050716e-05    1.017    0.017
       202 -10.5201    127.5518    235.5267   8.8851449071e+01   8.5142897367e+00    0.1275186    0.1049497  41.22 0.0001320384    1.005    0.005
       203 -13.4453    107.0180     80.8674   6.3056960451e+01   4.5580817597e+01    0.5367362    0.3971292 -64.91  0.002453989    1.751    0.429
       204 -10.6834    222.4851     82.0036   3.8032865264e+01   1.8484745891e+01    0.2046957    0.1295954 -36.26 6.246796e-05    1.466    0.318
       205 -12.0266    206.5993     81.6283   4.0400878467e+01   2.2120252730e+01    0.2830452    0.2437515 -66.56 0.0009116891    1.200    0.166
       206 -13.5397     77.1914     81.5194   7.3116944901e+01   5.0970203366e+01    0.3821283    0.2797638  54.60     0.001868    1.699    0.412
       207 -13.7896     75.1073     75.6161   7.2081418844e+01   5.2588119531e+01     0.514865    0.3566729  18.42  0.001313436    1.628    0.386
       208 -11.6557    183.0980     77.6477   4.3460842680e+01   2.8358193743e+01     0.353326    0.2531742 -15.53  0.001613333    1.729    0.422
       209 -11.0450    199.5338     79.9162   4.1135437511e+01   2.4047514951e+01    0.2246557    0.1414011 -33.73  0.001019408    1.571    0.363
       210 -11.6504    120.5062     78.7674   5.8412003131e+01   4.3112949517e+01    0.2770872    0.2095603  43.97 0.0005730931    1.305    0.233
       211 -11.8859     28.1042     79.6569   9.1039524814e+01   5.7394345468e+01    0.2335337    0.1049562  31.64  0.001080583    2.477    0.596
       212 -11.8964    112.2656     76.0700   5.9962439583e+01   4.5443218490e+01    0.3915208    0.2038761 -42.46 0.0003363284    1.936    0.484
       213 -12.2140    115.9154     74.5807   5.8412772855e+01   4.4942814647e+01    0.3627742    0.2724293   0.76 0.0008561497    1.683    0.406
       214 -11.4285      7.1419     78.1304   9.8807541639e+01   5.9130396890e+01     0.155814    0.1340351  88.48 0.0003627356    1.289    0.224
       215 -11.4076    190.2611     77.3082   4.2059024522e+01   2.6686070040e+01    0.3168176    0.1173376  49.63  0.001095015    2.731    0.634
       216 -13.6186     87.7977     78.7948   6.8626846056e+01   4.9736818100e+01    0.4633687    0.3559505 -26.07  0.001723569    1.341    0.255
       217 -12.5187    152.4429     80.4622   5.0686141510e+01   3.5329329619e+01    0.3615337    0.2576147  32.92 0.0007211713    1.565    0.361
       218 -11.6681     31.7932     74.7181   8.8450106515e+01   5.8210834655e+01    0.3088087    0.1948942  -7.73  0.001605348    1.924    0.480
       219 -11.4342    205.4344     74.2044   3.8693969637e+01   2.3596527168e+01    0.2056532     0.125154 -46.76 0.0003650353    1.600    0.375
       220 -12.6592     51.0207     73.7894   8.0602468771e+01   5.6403656811e+01    0.2579333    0.1825683 -48.23 0.0007315647    1.266    0.210
       221 -10.9455    232.1510     73.4896   3.4655216520e+01   1.7711318704e+01    0.1831164    0.1344072  63.59 0.0004729474    1.473    0.321
       222 -10.7010    124.9645     73.5028   5.5509553386e+01   4.3122077031e+01    0.2320022    0.1489545  47.23 0.0005320406    1.526    0.345
       223 -11.6418     94.4734     73.0111   6.4564381327e+01   4.9686551402e+01    0.2708064    0.1428291 -46.80 0.0006160092    1.942    0.485
       224 -12.6376      4.0083     72.5129   9.9032831406e+01   6.0563321947e+01     0.230507    0.1552997 -71.22 0.0005917777    1.311    0.237
       225 -11.2657    219.9308     72.4966   3.6090416030e+01   2.0545127292e+01    0.2004141    0.1379705  63.33 0.0006415661    1.539    0.350
       226 -13.6816    100.0344     66.2165   6.0512771559e+01   4.9913575680e+01    0.6140717    0.3972886 -40.14  0.002845709    1.550    0.355
       227 -12.9356     60.0427     67.5350   7.5213584958e+01   5.6579314032e+01    0.3929636     0.245068 -20.97    0.0014826    1.924    0.480
       228 -11.9218    197.4828     67.3854   3.8190945859e+01   2.6560819850e+01    0.2904542    0.2045088  11.32  0.001287531    2.187    0.543
       229 -11.9788     87.0235     68.4863   6.5593696202e+01   5.2000030426e+01    0.2173782    0.1418493  37.53 0.0004223433    1.545    0.353
       230 -11.1799    250.0004     66.1481   3.0810542018e+01   1.5079866920e+01    0.1869171     0.161181 -54.24 0.0003342685    1.022    0.022
       231 -11.1685     78.8398     65.7679   6.7572129596e+01   5.4003359763e+01    0.2095186    0.1823225 -11.57 0.0004734448    1.096    0.088
       232 -12.2881    114.1811     63.7159   5.5356708052e+01   4.7356268694e+01    0.3736835    0.2448494 -61.66 0.0007660092    2.240    0.554
       233 -12.9768    109.6689     60.4122   5.5559779477e+01   4.8940718740e+01    0.3664525    0.3183676  56.47  0.001375785    1.245    0.197
       234 -11.6589    195.6904     62.3978   3.7155222643e+01   2.7766243134e+01    0.2747382    0.1412062  67.67  0.001118886    2.149    0.535
       235 -12.5990    188.5496     66.3962   3.9409268081e+01   2.8879291524e+01    0.4514696     0.248652 -38.83 0.0009614793    1.765    0.434
       236 -12.9023     45.1987     61.1253   7.9203423329e+01   5.9826276249e+01    0.3133108    0.2826006 -20.05   0.00149414    1.072    0.067
       237 -12.0317     13.1721     62.1573   9.3165159561e+01   6.2396965794e+01    0.2015095    0.1368325 -40.43 0.0007634641    1.239    0.193
       238 -11.9161      4.1190     59.3233   9.6428342493e+01   6.3496188761e+01    0.3023343    0.1854972  -1.90  0.001268296    1.873    0.466
       239 -11.9234    193.1694     57.6361   3.6278921413e+01   2.9099187667e+01    0.2948671     0.176542 -56.02  0.001303463    1.854    0.461
       240 -11.3124    153.6138     57.5790   4.3502126794e+01   3.8965746564e+01    0.2497873    0.2308211 -15.33 0.0006111593    1.155    0.134
       241 -12.2920     98.9254     57.3957   5.7820626576e+01   5.1762898855e+01    0.2900514    0.2118631 -24.99   0.00074883    1.416    0.294
       242 -13.5111     28.4800     55.8706   8.4823436948e+01   6.2631329042e+01    0.5959192    0.2640658  39.34  0.002375361    2.939    0.660
       243 -11.3335    119.5244     58.5034   5.2080582871e+01   4.7060111465e+01      0.15015    0.1416723  23.74  8.78831e-05    1.004    0.004
       244 -11.5577    139.4045     56.7848   4.6429195333e+01   4.2611554605e+01     0.287804    0.1224181  58.13 0.0008667607    2.435    0.589
       245 -12.3936    110.5467     54.4460   5.3225484146e+01   4.9775572239e+01    0.3546032     0.218998  15.06  0.001400884    2.459    0.593
       246 -11.0316    124.3190     52.2751   4.8666728061e+01   4.6966895639e+01    0.1520137     0.110278  23.79 0.0002895385    1.571    0.364
       247 -11.7302     94.5393     51.1385   5.6981442772e+01   5.3750748775e+01    0.3332458    0.2004763 -14.80  0.001395639    2.237    0.553
       248 -11.7998    181.2862     51.5647   3.6523805300e+01   3.2929291172e+01     0.279483    0.1413331  67.00  0.001134594    2.062    0.515
       249 -12.0068    174.0957     50.4608   3.7427586571e+01   3.4891527095e+01    0.3321438    0.2428994  81.21  0.001623796    1.484    0.326
       250 -12.4325     29.3297     50.3511   8.2761089463e+01   6.3700475759e+01    0.2330906    0.2059236 -45.15 0.0007552856    1.189    0.159
       251 -11.9112     17.7058     49.9199   8.7994747999e+01   6.4726819814e+01    0.3985552    0.1563675 -50.61  0.001355152    1.941    0.485
       252 -11.9910     20.3990     46.2522   8.5642429401e+01   6.5284431256e+01    0.2527686    0.1059592 -56.07 0.0006956749    2.082    0.520
       253 -12.2789     37.8559     50.1170   7.8824148555e+01   6.2901406041e+01    0.1858569    0.1735824 -34.72 0.0007498736    1.213    0.176
       254 -11.5374    133.0422     48.3373   4.5149078650e+01   4.5480457894e+01    0.2150341    0.1763613  52.01 0.0004265382    1.153    0.132
       255 -10.6116      1.4599     47.4892   9.4954535887e+01   6.6151561896e+01    0.1191845   0.09248567 -47.19  9.45694e-06    1.022    0.022
       256 -11.2708    142.8944     46.5153   4.2293634049e+01   4.3320134117e+01    0.2368306    0.1382553  56.05   0.00103583    1.604    0.376
       257 -10.5122     39.3056     46.3069   7.6858248555e+01   6.3493090028e+01    0.1351481   0.08544949 -21.06 0.0001931297    1.606    0.377
       258 -11.1380    153.1264     44.8813   3.9638270883e+01   4.0986652530e+01    0.2114979    0.1946407 -79.09 0.0002814997    1.138    0.121
       259 -11.6708    195.8057     44.1881   3.2285946191e+01   3.0373946537e+01    0.2197435    0.1802066 -74.15 0.0008470393    1.208    0.172
       260 -11.0385    189.0075     42.7782   3.2881639203e+01   3.2238785522e+01    0.1896052    0.1110092  65.72 0.0004826115    1.648    0.393
       261 -13.0358     34.9517     39.9532   7.6574901613e+01   6.5184563960e+01    0.4584273    0.2292648  13.63  0.002170521    2.400    0.583
       262 -11.6549    146.0200     39.4733   3.9338234945e+01   4.3524149058e+01     0.204723    0.1960963 -25.50 3.663366e-05    1.118    0.106
       263 -11.5307    104.2042     39.9514   4.9797087142e+01   5.3463796281e+01    0.2439445    0.1924388  41.04 0.0004742094    1.177    0.150
       264 -10.6304    135.9690     39.0012   4.1318988788e+01   4.6097286100e+01    0.1731092    0.1614043  47.99 0.0003372976    1.005    0.005
       265 -11.9420     53.4161     38.6018   6.7660841303e+01   6.3106908990e+01    0.2743093    0.1630732  -7.78  0.001272766    2.200    0.546
       266 -11.1085     60.1393     37.6800   6.4437195594e+01   6.2253582131e+01    0.2280356    0.1738959 -41.41  0.001301902    1.420    0.296
       267 -10.6947    110.2915     37.6517   4.7199700132e+01   5.2424119151e+01    0.1397594    0.1131136 -69.04  0.000466693    1.667    0.400
       268 -12.8214     11.1150     36.4254   8.7127114456e+01   6.7897810791e+01    0.3276993    0.2166602 -16.61   0.00206329    1.431    0.301
       269 -11.9483      8.9985     32.4826   8.6940278101e+01   6.8797735650e+01    0.2377345      0.17239  43.36    0.0014466    2.009    0.502
       270 -11.1858    237.9749    248.7818   6.9426725254e+01  -9.7023534823e+00    0.2019385    0.1203325 -11.16 0.0009060453    1.620    0.383
       271 -10.2992    124.3197     33.2641   4.1996127932e+01   4.9710081139e+01    0.1474763    0.1004203  32.11 0.0002897612    1.553    0.356
       272 -11.4854    106.8496     32.3229   4.6136132687e+01   5.3936652519e+01    0.2631008    0.2017042 -14.09 0.0008630237    1.390    0.281
       273 -11.1203    223.4301     31.8161   2.5842805790e+01   2.5444448562e+01    0.1687119    0.1257275 -20.46 0.0005562317    1.620    0.383
       274 -10.8754    214.6389     31.3120   2.6656069974e+01   2.7533899568e+01    0.1457308   0.08802667 -66.72 0.0007041637    1.749    0.428
       275 -12.5086    170.4406     29.7574   3.1983908951e+01   3.8570646450e+01    0.4429927    0.2702838  -3.26  0.001646216    2.530    0.605
       276 -10.5353    242.1591     30.1943   2.3681546084e+01   2.1519591772e+01    0.1716285    0.1212331 -63.61 0.0002872199    1.260    0.206
       277 -11.5685    140.2162     29.9289   3.7360822337e+01   4.6207155573e+01    0.4200822    0.1451919  45.58  0.001440961    2.950    0.661
       278 -12.2932     74.2453     30.1800   5.5751912850e+01   6.1005926813e+01    0.3633446    0.1649181  44.61 0.0008275226    2.133    0.531
       279 -12.6829     39.0851     29.2091   7.0323228952e+01   6.6625303622e+01     0.312224    0.2228138  -3.83  0.001028599    1.316    0.240
       280 -11.3490    156.0100     29.2639   3.4193282741e+01   4.2295808271e+01    0.2012053     0.173467  64.06 0.0002521176    1.062    0.059
       281 -11.6663    178.9663     27.9708   3.0213289803e+01   3.6632205452e+01    0.2035866    0.1878908  80.57 0.0003017151    1.032    0.031
       282 -10.3456    231.2932    249.7098   7.0745532566e+01  -8.9458206495e+00    0.0973798   0.08320974  29.72 0.0001801709    1.549    0.355
       283 -12.2141     43.9458     33.8712   6.9977372582e+01   6.5217796071e+01    0.2546045    0.1948876  28.87 0.0006634666    1.398    0.285
       284 -11.2660    101.5173     25.0452   4.4779272860e+01   5.6066444464e+01    0.2023398    0.1349725 -25.63 0.0008459967    1.590    0.371
       285 -11.3274    172.1329     22.4861   2.9612143722e+01   3.8989569940e+01    0.2716819    0.1862939  -1.13  0.001329923    2.027    0.507
       286 -10.7889    250.0301     22.2609   2.1327494227e+01   2.0822352287e+01    0.1663358    0.1352543 -74.04 0.0003720839    1.076    0.071
       287 -10.7016    103.6944     15.6646   4.0435089385e+01   5.6636319838e+01    0.1454332   0.09124327  28.18 0.0007039885    1.669    0.401
       288 -10.6317    177.4820    249.5050   8.0710617502e+01  -1.3358336418e+00    0.1233254    0.0960563  26.22 -6.002668e-05    1.010    0.010
       289 -11.4574    127.3411    246.7211   9.0236940459e+01   6.6737526686e+00    0.3467159    0.1584888 -48.75  0.001743844    2.729    0.634
       290 -10.5157    200.2569    247.2923   7.6046900833e+01  -4.3794700801e+00    0.1159418   0.07696146   7.15 0.0001613777    1.491    0.329
