#   1 NUMBER                 Running object number                                     
#   2 MAG_AUTO               Kron-like elliptical aperture magnitude                    [mag]
#   3 X_IMAGE                Object position along x                                    [pixel]
#   4 Y_IMAGE                Object position along y                                    [pixel]
#   5 X_WORLD                Barycenter position along world x axis                     [deg]
#   6 Y_WORLD                Barycenter position along world y axis                     [deg]
#   7 A_WORLD                Profile RMS along major axis (world units)                 [deg]
#   8 B_WORLD                Profile RMS along minor axis (world units)                 [deg]
#   9 THETA_WORLD            Position angle (CCW/world-x)                               [deg]
#  10 FWHM_WORLD             FWHM assuming a gaussian core                              [deg]
#  11 ELONGATION             A_IMAGE/B_IMAGE                                           
#  12 ELLIPTICITY            1 - B_IMAGE/A_IMAGE                                       
         1 -13.2448    198.1994     41.8789   4.3248544407e+01   3.0642436937e+01     1.124126    0.9358955 -56.44  0.003226393    1.127    0.113
         2 -11.2870     24.3989     34.4412   8.9402430533e+01   6.7499480573e+01    0.3448881    0.2157552  42.03  0.001344947    2.286    0.563
         3 -13.8975    207.7444     32.5667   3.9817007946e+01   2.9629208715e+01     1.377112     1.128339  -4.81  0.001452302    1.719    0.418
         4 -13.0279    232.5678      6.3682   3.1748439015e+01   2.7179772492e+01    0.8354785    0.6303418 -84.07  0.005032175    1.120    0.107
         5  -9.9874     61.1876      7.9072   6.0928427044e+01   6.5958756028e+01    0.1724487    0.1595597  12.48 0.0004393338    1.243    0.195
         6 -15.9672      6.0513    208.3146   1.2386885436e+02   2.9037758133e+01     5.484507    0.7412726 -68.36    0.0193014    4.758    0.790
         7 -10.9679    140.2128    248.2632   9.9901663952e+01   3.2556473294e+00    0.4605865    0.2313938 -59.39  0.002246947    2.689    0.628
         8 -11.1306    115.4885    246.3478   1.0471080638e+02   7.3550549833e+00    0.6127514     0.287403 -63.25  0.002929449    2.710    0.631
         9 -11.1921    128.6361    247.1603   1.0212060947e+02   5.2159581035e+00    0.5013975    0.2877506 -72.94  0.002446847    2.763    0.638
        10 -11.3585    120.4065    245.2311   1.0357069474e+02   6.8103890856e+00    0.3706497    0.2455691  62.18  0.001269141    1.702    0.413
        11 -15.4080     46.9890    199.5965   1.1444672760e+02   2.6694539551e+01     11.54243     4.357378  72.24   0.02926573    6.524    0.847
        12 -10.6300    202.9579    198.8792   7.9004879529e+01   1.6317405057e+00    0.2921147    0.1792819  50.86  0.001387485    2.114    0.527
        13 -10.7290    121.3043    196.7915   9.6603400417e+01   1.6316503234e+01    0.4539496    0.2517882 -69.24 0.0007887401    2.419    0.587
        14 -10.8254     61.1274    198.5136   1.1108649976e+02   2.5162928821e+01    0.2906311    0.2492123 -42.99  0.000405102    1.469    0.319
        15  -8.8475     66.2362    194.2136   1.0938938492e+02   2.5478153038e+01    0.3099536    0.2201865  43.85  0.001099009    1.348    0.258
        16 -10.6965    112.0008    196.9464   9.8831962535e+01   1.7858051349e+01    0.4700718    0.2827013   6.97  0.001681296    3.627    0.724
        17  -9.5570     89.8784    211.9322   1.0607135951e+02   1.8073479069e+01    0.2345893    0.1820826 -74.56 0.0006648545    1.334    0.250
        18 -17.4608     13.6028    243.4987   1.2431972154e+02   2.1081280945e+01     10.40541     5.411943 -83.08   0.02289903    1.731    0.422
        19  -9.0598     69.8248    184.0623   1.0724007859e+02   2.7389569671e+01    0.2096492    0.1646859  75.02 0.0003079954    1.228    0.186
        20 -13.0346     56.0882    185.8827   1.1084004946e+02   2.8785483361e+01    0.9269147    0.7267496  53.42   0.00541692    1.212    0.175
        21 -10.4712     65.8209    179.4146   1.0762325991e+02   2.9064265140e+01    0.3652757     0.273576  76.73 0.0007545188    1.327    0.247
        22  -8.8426     72.1105    188.3219   1.0723749839e+02   2.6051811255e+01    0.1897552    0.1606744  69.30 0.0004699057    1.083    0.077
        23  -9.9287    147.9561    186.5793   8.8556965887e+01   1.3774452541e+01    0.3350137    0.2089132 -47.34  0.001538011    1.668    0.400
        24  -8.2188     77.3177    185.7098   1.0560707014e+02   2.5925637136e+01    0.1460015   0.09776247  67.08  0.000461155    1.597    0.374
        25 -10.3391    183.7133    212.1442   8.5342988487e+01   2.5132426222e+00    0.4513827    0.1390769 -37.47  0.001518233    3.911    0.744
        26  -9.0790     80.3095    183.7804   1.0459346246e+02   2.5945801306e+01    0.2678076     0.192327  75.08  0.001067764    1.493    0.330
        27  -9.6366     31.6859    203.4616   1.1818813917e+02   2.7564737608e+01    0.2811137    0.1965295 -89.83  0.001721313    1.235    0.190
        28  -9.9695     99.4716    180.9588   9.9358867164e+01   2.3614579770e+01    0.2715786    0.2123488  36.43 0.0005835664    1.290    0.225
        29  -8.6291     90.3706    181.1983   1.0168734487e+02   2.5023207276e+01    0.2015137    0.1736252 -77.64 0.0002672142    1.137    0.120
        30  -8.4336     93.0128    179.2402   1.0071341945e+02   2.5072285854e+01    0.1887701    0.1759714 -10.54 0.0003838199    1.283    0.220
        31 -10.2847     43.0097    179.9706   1.1335780389e+02   3.1789859308e+01     0.221099    0.1903402 -51.74 0.0003218516    1.349    0.259
        32  -9.8366     46.1492    176.8573   1.1223433984e+02   3.2180486443e+01    0.3237412    0.2346871  86.35 0.0009587034    1.283    0.221
        33 -10.0171    187.5899    175.9902   7.7640107814e+01   8.5505603339e+00    0.3619163    0.2927996 -52.86  0.001340239    1.395    0.283
        34  -8.8137    148.4712    174.9768   8.6206567796e+01   1.6181006047e+01    0.2219666     0.148583 -51.28 0.0009866012    1.555    0.357
        35 -11.8543     54.9571    148.0725   1.0600282487e+02   3.8304947853e+01     3.402273    0.2669746 -60.55  0.008139711    6.062    0.835
        36 -13.0697     50.6580    107.5418   9.9853744479e+01   4.9035565313e+01     1.957297    0.8373103 -72.63  0.006537042    3.538    0.717
        37 -12.3154     82.6351    159.3450   1.0014728347e+02   3.1587055320e+01     1.364094    0.7561691  66.47 0.0005277807    2.670    0.625
        38 -13.0462     71.3977    154.0540   1.0234321825e+02   3.4590315648e+01    0.6119606    0.5122513 -57.56  0.001029773    1.161    0.139
        39 -14.2444     68.6955    144.0559   1.0137809934e+02   3.7507728283e+01      4.80415     2.031753  60.73  0.003325726    5.891    0.830
        40 -11.5617     70.4786    172.1209   1.0541694559e+02   3.0204883155e+01    0.4691749    0.3244316 -37.56  0.002291112    1.840    0.456
        41 -11.3434     74.8216    167.3078   1.0355394648e+02   3.0773907789e+01    0.3589659      0.30428 -35.56  0.001959146    1.395    0.283
        42  -9.8010    104.4152    208.8076   1.0234370080e+02   1.6497428144e+01    0.1903318    0.1255544 -48.26 0.0009555985    1.716    0.417
        43  -9.4997    146.0063    171.0258   8.6004921403e+01   1.7522178264e+01    0.2415475    0.1881396  78.99  0.000827377    1.710    0.415
        44  -8.3437     48.6387    171.6671   1.1098948373e+02   3.3156985503e+01    0.1380051   0.09834249 -37.84 0.0007039105    1.808    0.447
        45 -10.3949    240.0137    169.6667   6.6337568892e+01   5.3493431026e-01    0.1866874    0.1601658  -2.13 0.0006979785    1.109    0.098
        46  -9.2904    185.0649    168.3245   7.6578024165e+01   1.0537064237e+01    0.2053211    0.1890637  26.56 0.0005834664    1.093    0.085
        47  -9.0950    110.8526    168.0789   9.4214629703e+01   2.4743097959e+01    0.2357233    0.2008536  79.51 0.0004638422    1.263    0.208
        48 -10.4134     33.8556    165.8934   1.1409392779e+02   3.6224927950e+01    0.5059091    0.2072856  50.98  0.001984465    2.597    0.615
        49 -11.0844    111.6620    204.3761   1.0003578574e+02   1.6283143671e+01    0.3957109    0.2776372 -88.30 0.0007957726    1.811    0.448
        50  -7.9961     46.6397    159.2861   1.0992940879e+02   3.6469617831e+01    0.1449842   0.09296633  65.74 0.0002550939    1.683    0.406
        51 -11.6037     89.9854    151.9763   9.6787868343e+01   3.2262201868e+01    0.7797862    0.4956929 -31.47  0.003276341    2.148    0.534
        52 -10.6924    133.9223    145.6304   8.3594228061e+01   2.5709837092e+01     1.156392    0.3251766 -54.72   0.00286702    4.875    0.795
        53  -8.8618    174.9771    149.2739   7.4591547640e+01   1.6447462315e+01    0.2141486    0.2004735  32.34 0.0004718335    1.088    0.081
        54  -9.0079    111.0540    149.0507   9.0401398234e+01   2.9315307794e+01    0.3029801    0.1937552  64.51  0.001219464    2.094    0.522
        55  -9.8086     38.9639    146.5393   1.1031192720e+02   4.0526742988e+01    0.3271892    0.2156668  47.11  0.001136281    1.605    0.377
        56 -10.2105    103.2112    138.3787   9.0284453412e+01   3.3366939327e+01     0.568522     0.362201 -23.35  0.002199565    2.431    0.589
        57 -11.6454     90.8008    137.9177   9.3746897911e+01   3.5647354891e+01    0.2934091    0.2621465 -44.91 0.0003827267    1.126    0.112
        58 -11.2186     43.9646    130.3506   1.0637555126e+02   4.4089332307e+01     0.460969     0.240719 -76.42  0.001464297    2.030    0.507
        59 -10.6547    162.8914    212.8743   8.9869129724e+01   5.8793901737e+00    0.4431947    0.1660563  30.78  0.001570043    3.052    0.672
        60 -10.1740    105.9323    130.8325   8.7802651893e+01   3.4716957942e+01     0.389146    0.3371139 -69.35  0.001256208    1.193    0.162
        61 -10.1438     32.7258    131.3636   1.0994951188e+02   4.4981601764e+01    0.2550477     0.231385 -40.53 0.0009992539    1.214    0.176
        62 -10.1137    135.6525    129.5394   7.9351896962e+01   2.9091005495e+01    0.3901008    0.1475385 -50.88  0.001236181    2.775    0.640
        63 -10.0288    112.2417    129.4133   8.5674454478e+01   3.3863189580e+01     0.329597    0.2733822   8.93 0.0009079201    1.444    0.308
        64 -10.1650     67.1191    126.6032   9.8516165776e+01   4.2152973338e+01    0.5252579    0.2685601 -58.95  0.002218355    1.790    0.441
        65 -11.0416    107.5998    203.7952   1.0089607443e+02   1.7073389132e+01    0.4122646    0.2503114  65.31  0.001780333    2.077    0.518
        66 -10.9188    118.4216    123.9443   8.2607913183e+01   3.3949166969e+01    0.6459893    0.4070334 -23.14  0.002445804    2.371    0.578
        67 -10.2765     99.3568    125.1781   8.8386343380e+01   3.7305915653e+01    0.3192059     0.262842 -20.77 0.0007493873    1.408    0.290
        68  -8.8806     92.8762    125.3530   9.0355262325e+01   3.8414018766e+01    0.2462939     0.204743 -72.23 0.0007114735    1.270    0.213
        69  -8.5648     84.2285    173.9717   1.0213135358e+02   2.7724784965e+01    0.1882911    0.1155679 -63.91 0.0005055295    1.599    0.375
        70  -8.9268    135.0000    119.9009   7.7096418184e+01   3.1429842428e+01    0.2638703   0.08943304 -45.92 0.0007713275    2.900    0.655
        71  -9.0504    108.1554    118.2806   8.4112083247e+01   3.7317063067e+01    0.2174818    0.2040814  -7.74 0.0004954984    1.130    0.115
        72 -12.3643     43.3835    109.3705   1.0270387031e+02   4.9408126242e+01    0.7827994    0.3807549 -44.04  0.003147065    1.999    0.500
        73  -9.8634    231.3613    113.9240   5.5774367969e+01   1.1754450140e+01    0.2800941    0.2285315 -40.51  0.000769113    1.074    0.069
        74  -9.2713    205.5524    110.3049   5.9198819396e+01   1.7726739964e+01    0.2451769    0.2324134  85.60 0.0005993419    1.129    0.114
        75 -11.3710     17.9567    109.4141   1.1123894651e+02   5.1679520135e+01    0.4759841    0.2169883 -82.93   0.00197925    2.616    0.618
        76 -10.5679    118.3071    109.6663   7.8941866620e+01   3.7284286971e+01    0.2749159    0.2321525 -76.53  0.001171089    1.378    0.274
        77 -10.1867     22.7401    108.5953   1.0951563902e+02   5.1518363861e+01     0.171157    0.1187597  38.53 0.0009549818    1.672    0.402
        78  -9.3903    135.0000    111.9875   7.5020430014e+01   3.3201153323e+01    0.4507861   0.08931554 -44.82  0.001054893    4.967    0.799
        79  -9.3425    129.1905     96.3173   7.2220163420e+01   3.7872196344e+01    0.3923471    0.2659725  77.20  0.001537605    2.329    0.571
        80 -10.2816     51.9268     92.2388   9.5826054763e+01   5.2557655261e+01    0.4345768    0.2159742 -30.83  0.001482713    2.664    0.625
        81  -9.3654    156.3798     88.6123   6.3329420532e+01   3.3143166443e+01    0.3295772    0.2402568 -75.45  0.000989373    1.811    0.448
        82  -8.4633    117.0179     85.9863   7.2531527422e+01   4.2685022612e+01    0.1943174    0.1671878  42.63 0.0009785197    1.167    0.143
        83  -9.3090     75.0032     84.9128   8.5553734356e+01   5.0940887273e+01    0.2117897    0.2007094 -22.04 0.0003333909    1.038    0.037
        84  -8.7706    158.4539     82.5431   6.1152202296e+01   3.3790725326e+01    0.1507756    0.1478493 -79.37  5.56073e-05    1.004    0.004
        85  -9.3199     59.0021     67.8688   8.6160750243e+01   5.6999600985e+01    0.2039877    0.1858242 -22.55 0.0004645189    1.055    0.052
        86 -13.0259    187.2901     50.3110   4.6939839323e+01   3.2073688619e+01      1.02531    0.9186264  33.86   0.00085712    1.339    0.253
        87  -9.7857     92.8164    249.2718   1.0961916299e+02   1.0155822615e+01    0.2926744    0.1224193  38.08 0.0008773342    1.997    0.499
        88 -10.1848     30.9674     36.3879   8.6963138423e+01   6.6480356250e+01    0.2406363    0.1417736   8.67  0.001001739    1.843    0.457
        89 -11.0088    192.9566    194.8272   8.0255559741e+01   4.0426308703e+00     1.089378    0.6097145 -66.19  0.003317069    5.728    0.825
        90  -9.5072    198.2917     23.8039   3.8727858742e+01   3.2900206808e+01    0.2035166    0.1411505 -52.60 0.0006302714    1.357    0.263
        91 -10.8058    109.8649    241.0484   1.0525135949e+02   9.1711722952e+00    0.3503406    0.1650218  41.67  0.001705649    1.761    0.432
        92  -9.2798    189.7853     15.0912   3.7481851774e+01   3.5887764127e+01    0.2044515    0.1539072 -67.82 0.0008184441    1.235    0.191
        93  -9.8229    158.9949    224.0000   9.2514057648e+01   4.4951457377e+00    0.2288689   0.06853274  37.52 0.0008055223    2.964    0.663
