#   1 NUMBER                 Running object number                                     
#   2 MAG_AUTO               Kron-like elliptical aperture magnitude                    [mag]
#   3 X_IMAGE                Object position along x                                    [pixel]
#   4 Y_IMAGE                Object position along y                                    [pixel]
#   5 X_WORLD                Barycenter position along world x axis                     [deg]
#   6 Y_WORLD                Barycenter position along world y axis                     [deg]
#   7 A_WORLD                Profile RMS along major axis (world units)                 [deg]
#   8 B_WORLD                Profile RMS along minor axis (world units)                 [deg]
#   9 THETA_WORLD            Position angle (CCW/world-x)                               [deg]
#  10 FWHM_WORLD             FWHM assuming a gaussian core                              [deg]
#  11 ELONGATION             A_IMAGE/B_IMAGE                                           
#  12 ELLIPTICITY            1 - B_IMAGE/A_IMAGE                                       
         1 -12.2532     42.9487     20.5874   8.5401193722e+01   6.8939621566e+01    0.5860213     0.379124  39.45  0.001868312    1.773    0.436
         2 -12.3595    216.2635     14.3758   4.1750139276e+01   2.7841436448e+01     0.585371    0.4884051  15.51  0.002379618    1.328    0.247
         3 -11.2073     65.1230     10.6952   7.0126143438e+01   6.7055442619e+01    0.2637154     0.245085  38.77 0.0004856471    1.176    0.150
         4 -10.7886     49.6592     11.0917   7.7189808007e+01   6.9700722413e+01    0.2194907    0.1908695  34.35 0.0006469233    1.279    0.218
         5 -13.4655    187.6374      6.8372   4.2125558963e+01   3.6195588568e+01     1.080679    0.6276633 -71.18  0.004561104    1.999    0.500
         6 -11.9211     58.0035      8.2238   7.1708359812e+01   6.8758446011e+01     0.457041    0.3855805  19.07  0.001881301    1.251    0.200
         7 -11.4256     52.1036      4.9143   7.2400263309e+01   7.0315464883e+01     0.268161    0.2270325  19.63 0.0006066626    1.242    0.195
         8 -11.6553     43.5285      8.5594   7.8806172516e+01   7.1092464286e+01    0.3354842    0.2642486  49.73  0.001127217    1.552    0.356
         9 -10.5211     25.4319      8.0889   8.8817319610e+01   7.3545522352e+01    0.2444475    0.1719885 -41.38  0.001056487    1.192    0.161
        10 -10.0868    109.4771      8.4991   5.5122922882e+01   5.7400384546e+01    0.1437778    0.1405814 -22.77 -5.126988e-05    1.045    0.043
        11 -11.7232    166.4785      1.8136   4.2675837512e+01   4.2545260519e+01    0.5891663    0.1873054  68.89  0.001955167    2.860    0.650
        12 -10.7212    148.8424    222.7124   9.8822343182e+01   1.3776839375e+01    0.1650989    0.1289974 -75.76    0.0012532    1.873    0.466
        13 -12.3109    238.9010    216.9105   8.3973166832e+01   1.1519446744e+00    0.4063417    0.2150002  -2.57  0.002576167    2.308    0.567
        14 -10.8463    226.9756    221.9637   8.6401405514e+01   2.4118405731e+00    0.1438257    0.1181474  51.98  0.001140348    1.743    0.426
        15 -12.0106    222.7947    213.0273   8.5787975102e+01   3.7786464476e+00    0.4793214    0.1750371  39.67  0.002639906    2.036    0.509
        16 -10.3969    115.8007    209.2903   1.0315509374e+02   2.0371824102e+01    0.2250976    0.1324803 -70.87  0.001428875    2.312    0.567
        17 -10.0518     56.3496    205.6718   1.1372808017e+02   2.8783232620e+01    0.1166808   0.05413188  60.28 0.0007048748    1.762    0.432
        18 -10.2398     48.9310    201.8665   1.1486780588e+02   3.0258648519e+01    0.2113113    0.0942401  69.08  0.001240742    2.139    0.533
        19 -10.6763     41.7766    200.9587   1.1614617379e+02   3.1205873946e+01    0.2034543    0.1532045 -73.44  0.001166429    1.614    0.380
        20 -10.4708    112.4917    197.9909   1.0259700730e+02   2.2513046776e+01    0.1491808   0.08783789  81.85 0.0008104693    2.553    0.608
        21 -12.3357    160.2539    191.8460   9.3071654493e+01   1.5893475202e+01     0.601993    0.4028056  68.81  0.003375572    2.124    0.529
        22  -9.7373    214.7829    193.0674   8.4078755736e+01   6.8883881875e+00    0.1296354   0.08841171 -25.27 0.0007086337    1.700    0.412
        23 -10.2427    183.3090    183.3364   8.7769647783e+01   1.3141649366e+01    0.2857041    0.1098781 -36.11  0.001346922    3.243    0.692
        24 -10.2444    224.3254    183.6813   8.1098647514e+01   6.3135161568e+00   0.09921486   0.08892307  63.25 0.0003421384    1.676    0.403
        25  -9.9721    191.5208    178.0377   8.5519469574e+01   1.2393443707e+01    0.1446856    0.1046714 -66.52 0.0008097658    2.529    0.605
        26 -10.2094     12.9780    175.4318   1.2049309654e+02   3.8545751030e+01    0.1635859    0.1213308 -71.46  0.001270939    1.615    0.381
        27 -10.3042     38.4963    174.5211   1.1522699470e+02   3.6185738652e+01    0.1118822   0.08109669  65.06 0.0001980622    1.017    0.017
        28 -10.8631     45.8259    172.6571   1.1357064614e+02   3.5717187839e+01    0.3684759    0.1156932  56.25  0.001699264    2.836    0.647
        29 -11.7509     55.6220    168.0349   1.1112692952e+02   3.5428867860e+01    0.4251538    0.2077173  77.69  0.002258403    2.254    0.556
        30 -10.0764    138.9853    164.7450   9.3150708315e+01   2.3458689226e+01     0.212797    0.1287172  84.09 0.0008871555    3.562    0.719
        31 -11.6365    106.5596    157.8828   9.8903787716e+01   3.0105368008e+01    0.6359269    0.3437492  68.91  0.002939368    2.544    0.607
        32 -11.2771    121.1016    168.3645   9.7302030231e+01   2.5898389299e+01    0.3533917    0.1599772 -68.51  0.001448022    3.883    0.742
        33 -10.9203     22.3937    159.4613   1.1774322543e+02   4.0674835288e+01    0.2853142    0.1350369  63.74  0.001707237    1.715    0.417
        34 -10.9658    167.3240    157.3956   8.6402803695e+01   1.9484774353e+01    0.2934146    0.2160621  85.51  0.001568894    2.166    0.538
        35 -10.9174    121.5034    157.4996   9.5644170579e+01   2.7692287541e+01    0.2636308     0.140248  47.33 0.0009933851    1.607    0.378
        36 -10.9470    118.3185    156.5483   9.6178296554e+01   2.8400385548e+01     0.257921    0.2089918 -45.82  0.001172116    1.510    0.338
        37 -10.4819    218.5526    156.3185   7.7223064518e+01   1.0224212684e+01     0.219416     0.112922 -33.76  0.001149569    2.137    0.532
        38 -10.0155     23.4937    153.5294   1.1714841811e+02   4.1730223710e+01    0.1127877   0.08318515  69.91 3.869213e-05    1.010    0.009
        39 -10.4476    189.7718    150.4805   8.1001296268e+01   1.6252516749e+01    0.2833013    0.1728928 -54.65  0.001387801    2.517    0.603
        40 -10.7637    107.4991    146.0598   9.6955289925e+01   3.2140480457e+01    0.3738472    0.1930246  71.29  0.001445165    3.467    0.712
        41 -10.1512    148.2039    144.7967   8.7926147396e+01   2.5050239909e+01     0.216837    0.1405728  83.01 0.0009480203    2.796    0.642
        42 -10.5033     87.8031    144.1945   1.0121717012e+02   3.5655211747e+01    0.2285533    0.1154053  70.39 0.0009577477    2.886    0.653
        43  -9.7865    124.5108    143.0224   9.2660926626e+01   2.9748484977e+01    0.1839632    0.1124608 -81.31 0.0008103573    2.676    0.626
        44 -10.0838    182.0168    142.0161   8.0775823036e+01   1.8930662768e+01    0.2031632     0.164307  86.86  0.001136432    1.776    0.437
        45 -10.0359     23.5135    138.9984   1.1618624023e+02   4.4665993414e+01     0.171648   0.06860466  73.98 0.0008101643    2.551    0.608
        46 -10.6813     83.4043    132.3017   1.0054779530e+02   3.8727762428e+01    0.2363899    0.1349927  59.16  0.001075497    1.740    0.425
        47 -10.1472    131.5099    131.0011   8.8914778987e+01   3.0650454256e+01    0.1894086    0.1171839 -76.41  0.000810545    2.608    0.617
        48 -12.0241     99.6917    128.6350   9.5937343277e+01   3.6861004448e+01    0.7551509    0.3952639  73.24  0.002815796    3.533    0.717
        49 -10.5566     59.0001    124.4963   1.0568335565e+02   4.3818320997e+01    0.2791898    0.1404161  88.80  0.001264281    2.476    0.596
        50 -10.9782     43.4640    123.1200   1.0964306363e+02   4.5990573074e+01     0.488078    0.2068862  79.57  0.001962507    3.351    0.702
        51 -10.9595     27.1544    120.9617   1.1380024352e+02   4.8148391873e+01    0.5500342    0.1867438  76.78  0.001879782    4.841    0.793
        52 -10.4051     16.0570    121.0047   1.1677730094e+02   4.9128421003e+01    0.3013633    0.1386918  53.70  0.001152685    1.890    0.471
        53 -10.5178     12.3836    120.8384   1.1774261148e+02   4.9464474565e+01    0.2176892    0.1285189 -72.06 0.0007377662    1.542    0.352
        54 -11.8884    193.4056    118.4113   7.3686266789e+01   2.0020420223e+01    0.5075099    0.4224826 -75.79  0.002001024    1.647    0.393
        55  -9.8148    117.3300    125.6640   9.1146652015e+01   3.4329079656e+01    0.1429839    0.1006657  78.08 0.0007052078    1.730    0.422
        56 -11.2391    140.6689    117.1966   8.4013378651e+01   3.1370753866e+01    0.4054937    0.2034328 -58.01  0.001608114    2.701    0.630
        57 -10.4260    108.5528    113.1459   9.0791817032e+01   3.8448050112e+01    0.4797626    0.2158045 -67.86  0.001593062    3.982    0.749
        58 -10.6701     78.5844    112.3829   9.8532530262e+01   4.3686605576e+01    0.4184923    0.2144334 -88.25  0.001561777    3.457    0.711
        59 -12.1075    159.5011    111.9959   7.8758387181e+01   2.8316978631e+01    0.5508392    0.3399731  62.78  0.002492299    1.881    0.468
        60 -11.1209    174.4132    110.7394   7.5453261906e+01   2.5276273460e+01    0.3736221    0.2641944 -41.95  0.001214582    1.509    0.337
        61 -10.2928     91.6925    110.9623   9.4728434645e+01   4.1882365734e+01    0.3595574    0.1622606 -65.04  0.001454737    2.579    0.612
        62 -10.4426     19.1953    112.6341   1.1524366896e+02   5.0686738818e+01    0.2112752    0.1140315  24.82  0.001046279    2.268    0.559
        63 -11.0298     14.1657    109.9782   1.1644053735e+02   5.1684904840e+01     0.477228    0.2045919  85.83  0.002398231    2.163    0.538
        64 -12.5985    141.7103    104.4922   8.0847996922e+01   3.3488535311e+01    0.5132664    0.4541167 -32.65  0.002865305    1.232    0.188
        65 -12.0340     44.3615    101.2238   1.0655659243e+02   5.0760323297e+01    0.6642824    0.3105192  73.42  0.002754427    3.006    0.667
        66 -12.0553    151.0397    103.5629   7.8542733852e+01   3.1629813484e+01    0.4183209    0.2738113  78.28  0.001763427    2.336    0.572
        67 -11.6660    158.6024    107.4028   7.7857322485e+01   2.9298264089e+01    0.3786178    0.2566394 -62.21  0.001754506    1.935    0.483
        68 -12.0920    127.1176    100.3963   8.3289054737e+01   3.7355062918e+01     0.543723    0.3797424 -69.10  0.002587717    1.753    0.430
        69 -12.8358    110.0676     99.8728   8.7472103557e+01   4.0886792640e+01     1.149679    0.5418546  62.46  0.003980565    3.353    0.702
        70 -10.9051     82.3752    100.6754   9.5230896464e+01   4.5646750127e+01     0.238139    0.2305647  79.20 0.0006285196    1.153    0.133
        71 -10.5507     63.7478     97.1527   1.0000460760e+02   4.9237512091e+01     0.234649    0.1239826  73.15 0.0009532109    2.829    0.646
        72 -12.6708    170.4468     91.2059   7.1326837295e+01   2.9327628268e+01    0.4660662    0.3907327 -51.06 0.0007833301    1.285    0.222
        73 -11.9230     42.4890     87.8402   1.0502951721e+02   5.4034058909e+01    0.5403085    0.3481169  -6.10  0.001627621    3.062    0.673
        74 -10.9701     45.1805     81.8391   1.0305327543e+02   5.5113071877e+01    0.3206404    0.2048368 -85.86 0.0009290638    1.569    0.363
        75 -10.7139     86.2225     87.0951   9.1070024696e+01   4.7983730908e+01    0.2803049    0.1717336  68.69  0.001239169    2.149    0.535
        76 -10.6103    105.0708     83.9185   8.4818051734e+01   4.5173874460e+01    0.3135481    0.2099549  88.61  0.001350916    2.217    0.549
        77  -9.8421    140.6908     83.3594   7.5558815690e+01   3.7620339020e+01    0.1558659    0.1162851 -77.23 0.0007041512    1.737    0.424
        78 -10.6862     23.8731     80.0242   1.1009714840e+02   5.7678252664e+01    0.3088531    0.1312975  82.65  0.001247328    3.169    0.684
        79  -9.9878      1.8158     77.8280   1.1754004451e+02   5.9748028105e+01    0.1761707    0.1278087 -68.18 0.0007156743    1.260    0.206
        80  -9.1896    153.6205     77.7420   7.1051303454e+01   3.5580138433e+01     0.155919    0.1131626  27.34 0.0004136315    1.666    0.400
        81 -10.9616     82.8945     74.1524   8.8749902448e+01   5.1391170034e+01    0.4794484    0.2719527 -88.05  0.001579668    4.169    0.760
        82 -12.1334    223.4796     70.5962   5.6947568917e+01   1.9760259285e+01    0.2921288      0.27224  41.79 0.0006142762    1.118    0.106
        83  -9.7384    115.3286     72.6624   7.8787257567e+01   4.5341903261e+01    0.1550152    0.1153424 -83.27 0.0007051892    1.731    0.422
        84 -10.5583     51.9572     71.1863   9.8441561583e+01   5.6742924992e+01    0.2360266     0.176555 -68.53 0.0008513485    1.186    0.157
        85 -11.1905     28.2993     52.2898   1.0321441974e+02   6.3713145007e+01    0.4300685    0.2715129 -23.50  0.001610605    2.317    0.568
        86 -11.5022     20.7947     51.2407   1.0621907273e+02   6.4604783686e+01    0.6205508    0.2886471 -70.74  0.003108783    1.809    0.447
        87 -11.7679     19.3690     59.5808   1.0847400066e+02   6.2788938840e+01    0.3725829    0.2915496  -1.97  0.001926589    1.730    0.422
        88 -13.1112     27.9718     60.5089   1.0517306963e+02   6.1846066347e+01     1.392344    0.3586686  41.05  0.004667455    3.968    0.748
        89 -12.6600     35.6670     57.0182   1.0127479282e+02   6.1898178276e+01    0.9196872     0.542708 -34.85  0.004617552    2.223    0.550
        90 -12.2801    237.0134     63.4997   5.3344754605e+01   1.7526537733e+01    0.5643975    0.3019025  85.96  0.002193091    3.347    0.701
        91 -10.8841     62.4151     70.7326   9.4642624697e+01   5.5420338762e+01    0.3231778    0.1179249 -57.87  0.001258887    2.484    0.597
        92 -11.2476      8.8104     56.6358   1.1233138028e+02   6.4204984179e+01    0.4656526    0.2536869  81.80  0.002533601    1.863    0.463
        93 -10.0139    195.3624     67.8007   6.0333296219e+01   2.6848028130e+01     0.279276    0.1208627  62.97  0.001020241    2.532    0.605
        94  -9.8778    119.3507     56.6824   7.2542711968e+01   4.7500208902e+01    0.1576633    0.1174686 -78.20 0.0007047549    1.736    0.424
        95 -10.2718     54.1324     53.9586   9.3040124456e+01   6.0357507280e+01    0.4486272     0.216541 -77.53   0.00143894    4.554    0.780
        96 -10.3579    161.7197     53.3909   6.1822299452e+01   3.7518224456e+01    0.2992006    0.1520002  64.83 0.0009816107    2.133    0.531
        97 -11.5900    148.6613     52.3913   6.4117326869e+01   4.1045782798e+01    0.3982344    0.2739325  46.49 0.0004388533    1.478    0.323
        98 -11.0367    157.1188     44.9550   5.9862889029e+01   3.9983985196e+01    0.2889019     0.215238  55.75 0.0004135795    1.330    0.248
        99 -11.4436     70.2950     42.3063   8.2796875518e+01   6.0346384369e+01    0.4381763    0.2843013  66.09  0.002031599    2.190    0.543
       100 -11.6412      7.8086     43.1691   1.1045696801e+02   6.7363107146e+01    0.5277126    0.2407877  42.67  0.002758335    2.508    0.601
       101 -12.4063     41.1322     38.1561   9.3411949476e+01   6.5521836099e+01    0.5073171    0.3741153  10.09  0.001877169    1.801    0.445
       102 -11.1468    140.3611     37.6023   6.0593641744e+01   4.5481074039e+01    0.2819491    0.2622221  32.20 0.0006482645    1.108    0.098
       103 -10.0604     80.6622     37.3346   7.7032260039e+01   5.9426342320e+01     0.145309    0.1105307 -77.99 0.0007051782    1.747    0.428
       104 -11.7267    120.4306     34.2522   6.3868117860e+01   5.1084018862e+01     0.342303    0.3185665  80.12  0.000837649    1.128    0.114
       105 -10.6644     50.1399     34.7323   8.8097685205e+01   6.5072283696e+01    0.3153866     0.208233  40.30  0.001271135    1.712    0.416
       106 -10.2221     73.4902     32.4979   7.7598662514e+01   6.1701052558e+01    0.3106338    0.2016966  79.89  0.001272447    2.953    0.661
       107 -11.0653    106.4508     29.7380   6.5662213594e+01   5.5186637424e+01    0.3258985    0.2777202 -78.64  0.001227211    1.365    0.268
       108 -10.2283    102.4580     30.4935   6.7120599890e+01   5.5996924034e+01    0.7045645    0.5505257 -85.22  0.003472752    1.647    0.393
       109 -11.6707    220.0881    248.8916   9.0784010383e+01   1.2093559286e+00    0.2620846    0.1431704  50.06  0.001800297    2.126    0.530
       110 -10.3425     46.5360     16.5108   8.1618828388e+01   6.9207754114e+01    0.2275552    0.1737769 -10.72 0.0007889388    1.531    0.347
       111 -11.2311    239.6746     20.5470   4.1502871288e+01   2.1461411840e+01    0.2911731    0.2341976  75.64  0.000595786    1.355    0.262
       112 -11.6540    202.6307     20.9172   4.5111486765e+01   3.0748771148e+01    0.2910041    0.2206218  87.88  0.001208348    1.408    0.290
       113  -9.8214    187.5690    248.4741   9.5479127950e+01   5.5990475728e+00     0.192326   0.06368464  35.38  0.001030164    2.420    0.587
       114  -9.7198     88.8095     18.2249   6.5601891459e+01   6.1017317046e+01    0.2399571    0.1486979 -68.13 0.0009487837    2.784    0.641
       115 -10.1401    150.3323     17.3344   5.0900733359e+01   4.5474924137e+01    0.1658367    0.1096615  31.80  0.000705222    1.732    0.423
       116 -12.5661     22.0032    239.0926   1.2110021014e+02   2.7393278548e+01    0.4982279    0.1348014  56.48  0.003062336    2.318    0.569
       117 -10.9251     32.5130    242.0055   1.1953438632e+02   2.5938876537e+01    0.1508656   0.08419044  49.72 0.0007753294    1.181    0.153
       118 -10.4497      8.2010    240.5934   1.2329601571e+02   2.8478319258e+01     0.113125    0.0690553  37.06 0.0006264006    1.642    0.391
       119 -10.2481     72.2460    229.9913   1.1244690257e+02   2.3209613126e+01    0.1107191   0.07735073 -87.24 0.0008883079    1.604    0.377
       120 -10.7334     12.8232    227.5861   1.2224545141e+02   2.9938504578e+01    0.1801864   0.09317005  62.66 0.0005006822    1.307    0.235
       121 -10.3375    104.5193    225.1977   1.0659351531e+02   1.9738256143e+01    0.1585878    0.1004839 -76.49  0.001133575    2.061    0.515
       122 -10.6191     95.9834    225.1246   1.0805415719e+02   2.0887750550e+01    0.2730833   0.07727255  52.44   0.00124816    3.191    0.687
       123 -10.7452    232.0523    223.5150   8.5872610710e+01   1.5755799167e+00    0.1619989   0.07465016  39.26  0.001036267    1.601    0.375
