#   1 NUMBER                 Running object number                                     
#   2 MAG_AUTO               Kron-like elliptical aperture magnitude                    [mag]
#   3 X_IMAGE                Object position along x                                    [pixel]
#   4 Y_IMAGE                Object position along y                                    [pixel]
#   5 X_WORLD                Barycenter position along world x axis                     [deg]
#   6 Y_WORLD                Barycenter position along world y axis                     [deg]
#   7 A_WORLD                Profile RMS along major axis (world units)                 [deg]
#   8 B_WORLD                Profile RMS along minor axis (world units)                 [deg]
#   9 THETA_WORLD            Position angle (CCW/world-x)                               [deg]
#  10 FWHM_WORLD             FWHM assuming a gaussian core                              [deg]
#  11 ELONGATION             A_IMAGE/B_IMAGE                                           
#  12 ELLIPTICITY            1 - B_IMAGE/A_IMAGE                                       
         1 -13.7209     68.2003    145.3117   1.3093910336e+02   3.7910848264e+01     3.276137     1.475698 -89.54  0.005601011    6.504    0.846
         2 -14.1218    189.4653     24.3428   6.8561759294e+01   3.4407002988e+01     2.015035     1.409577 -13.31   0.00705328    1.732    0.423
         3 -13.8380    197.1242     18.5207   6.5924072713e+01   3.3041740169e+01     1.318444    0.9455068 -64.30  0.004430438    1.436    0.304
         4 -13.9402    202.6637     10.4245   6.3074958044e+01   3.2452726284e+01     1.692926    0.7715169  53.40  0.001327261    2.170    0.539
         5 -10.3099     23.3319      6.3311   1.0924530270e+02   7.1890035758e+01    0.1226994   0.07035664 -13.42 0.0007010258    1.723    0.420
         6 -11.0124     35.2774    230.1509   1.4633615779e+02   2.4370843918e+01    0.2562938    0.1643761  64.96 0.0007083895    1.152    0.132
         7 -12.1966    248.1115    248.1751   1.0968233305e+02  -1.0241755571e+01    0.4966296    0.3468168   6.46  0.003568504    1.212    0.175
         8 -14.6025      5.6358     15.9487   1.2328980460e+02   7.1751385602e+01     13.55412          nan -55.01   0.02751252   14.776    0.932
         9 -14.4822    102.3623    245.7810   1.3556183610e+02   1.2840192034e+01     4.892203     2.551675  25.09   0.01427021    3.677    0.728
        10 -13.5229     73.3028    227.0979   1.3923682136e+02   2.0187118060e+01    0.7413476    0.2914544  62.94  0.002480146    3.055    0.673
        11 -14.1066     34.6594    247.2933   1.4739429537e+02   2.1475148164e+01     2.167344    0.6427365  40.44   0.01150096    2.645    0.622
        12 -16.1055     51.7167    208.5759   1.4180952571e+02   2.6468241965e+01     8.638734      3.26604  67.98   0.03511574    3.660    0.727
        13 -10.5765     37.2046    225.5225   1.4571719055e+02   2.4988358494e+01    0.2204176    0.2016187  42.33  0.001775371    1.551    0.355
        14 -14.3079     11.7232    206.9298   1.4920734119e+02   3.1108692816e+01     1.042164    0.8044853  66.80  0.003367339    1.144    0.126
        15 -11.2633    174.3866    220.3723   1.1868468444e+02   4.9853590038e+00    0.3139442    0.2201085  40.56  0.001847811    1.164    0.141
        16 -13.2740     49.9057    232.4658   1.4391669905e+02   2.2246327141e+01    0.6846946    0.3247601  50.56  0.004167349    1.605    0.377
        17 -10.3153    229.6616    207.3210   1.0606041746e+02  -2.7882828679e+00    0.2168831    0.2031047 -39.09 0.0007348864    1.528    0.345
        18 -12.9825     47.6230    227.0637   1.4395635287e+02   2.3491645064e+01    0.3165437    0.3152936  70.87 0.0008251281    1.603    0.376
        19 -10.6387    192.8735    194.6180   1.1072573407e+02   5.5825116488e+00    0.7969911    0.4049833 -61.18  0.002342939    6.721    0.851
        20 -11.8508     71.3786    193.5043   1.3638813524e+02   2.6920559827e+01    0.3707702    0.2473207 -45.51  0.002073336    2.092    0.522
        21 -11.8571     76.0176    186.6627   1.3461733997e+02   2.7686088853e+01    0.2933674    0.2317741 -51.96 0.0007372033    1.545    0.353
        22  -8.8354    181.4842    192.4516   1.1262698819e+02   8.0868408042e+00    0.1400407    0.1191567  30.30  8.18876e-05    1.027    0.026
        23 -11.4193     84.3761    174.7227   1.3122161433e+02   2.8999353348e+01    0.2813445    0.2213146 -69.31 0.0004240808    1.277    0.217
        24 -11.1670    124.4973    174.4905   1.2187266055e+02   2.2309254806e+01    0.6911485    0.2123543  34.78  0.002007794    4.399    0.773
        25 -12.7802     90.1520    166.4190   1.2867180672e+02   2.9918163017e+01     2.161191    0.5691407  49.04  0.002130839    4.297    0.767
        26 -12.5128    140.0013    248.6551   1.2898407387e+02   6.5758160183e+00    0.4739745    0.3282793  63.00  0.003030367    1.533    0.348
        27  -9.4836    104.8742    145.9834   1.2154322282e+02   3.2020127318e+01    0.3661217    0.2130367 -33.53  0.001476359    2.598    0.615
        28 -12.2165     91.3523    149.3407   1.2562173691e+02   3.3545181797e+01    0.2775441    0.2558271 -34.83 0.0005218943    1.287    0.223
        29 -12.6005     45.8742    147.1962   1.3691808734e+02   4.0230306415e+01    0.5897638    0.3352609 -82.04  0.003084677    1.707    0.414
        30  -9.8208    112.4194    135.7223   1.1752691405e+02   3.2956533264e+01    0.3075677    0.2290767 -14.48 0.0009170219    1.997    0.499
        31 -10.8460    100.0100    132.7745   1.2021944438e+02   3.5872925254e+01    0.2884829    0.2370278 -21.70 0.0006192971    1.545    0.353
        32 -11.4775     56.2004    146.1308   1.3415467986e+02   3.9269906260e+01     0.361524    0.2303259  23.83  0.001903558    2.007    0.502
        33 -11.8600     35.4012    132.7362   1.3779465320e+02   4.4632380589e+01     0.255038    0.2100207   1.70  0.001631552    1.663    0.399
        34 -11.8552     44.9813    129.8540   1.3481634169e+02   4.4318970447e+01    0.2380907    0.2170653  57.54  0.001582005    1.187    0.157
        35  -9.3717    108.6976    123.0389   1.1574482497e+02   3.6514940606e+01    0.1952227    0.1821635 -53.10 0.0003272629    1.077    0.071
        36 -11.5135     32.7589    121.4781   1.3701265801e+02   4.7474614774e+01    0.3285307    0.1302124 -65.57  0.001517249    2.060    0.515
        37 -11.2250    168.1833    113.1831   9.8184185591e+01   2.5692736827e+01    0.3980815    0.3337852 -85.26 0.0009262811    1.476    0.323
        38  -9.5993    205.0520    110.5425   8.9820106549e+01   1.7395040491e+01    0.4117256    0.1929764  36.14  0.001432969    2.732    0.634
        39 -13.4290     72.1329    172.1851   1.3372772995e+02   3.1328287458e+01    0.4597866    0.2785587 -45.25  0.001752285    2.159    0.537
        40 -14.9871      6.6302    240.1888   1.5155759431e+02   2.5603767610e+01     1.996565    0.7559533 -70.36   0.01235327    2.651    0.623
        41  -8.6852    184.6634     77.6611   8.4895217771e+01   2.8093977094e+01    0.1650537      0.11978  21.33 0.0007051217    1.755    0.430
        42  -9.6820    155.0059     76.4771   9.0853208132e+01   3.5858671753e+01    0.2441214    0.1519984  52.53 0.0005633003    1.559    0.359
        43 -10.1562    102.3170    149.9645   1.2293613217e+02   3.1572011415e+01    0.2679269    0.2509528  66.09 0.0007003811    1.037    0.036
        44 -10.9071    125.8440     53.0948   9.0454082280e+01   4.7001353243e+01    0.4359393    0.3061764  80.81  0.001368967    2.127    0.530
        45 -10.7346    224.9798    245.0129   1.1313076615e+02  -6.5358429575e+00    0.1963795    0.1147086  15.37  0.001148793    1.726    0.421
        46 -14.1961     11.9738    152.8490   1.4565421407e+02   4.2177614178e+01     1.267853    0.9354865  58.45  0.001627366    1.304    0.233
        47 -12.7331     84.8570    240.3312   1.3824684787e+02   1.6274382356e+01    0.7135898    0.4004056  73.40   0.00416842    1.931    0.482
        48 -11.6254     14.1622     24.4960   1.2204555416e+02   6.9679504372e+01    0.2267379    0.2062764  16.65 0.0008895685    1.420    0.296
