#   1 NUMBER                 Running object number                                     
#   2 MAG_AUTO               Kron-like elliptical aperture magnitude                    [mag]
#   3 X_IMAGE                Object position along x                                    [pixel]
#   4 Y_IMAGE                Object position along y                                    [pixel]
#   5 X_WORLD                Barycenter position along world x axis                     [deg]
#   6 Y_WORLD                Barycenter position along world y axis                     [deg]
#   7 A_WORLD                Profile RMS along major axis (world units)                 [deg]
#   8 B_WORLD                Profile RMS along minor axis (world units)                 [deg]
#   9 THETA_WORLD            Position angle (CCW/world-x)                               [deg]
#  10 FWHM_WORLD             FWHM assuming a gaussian core                              [deg]
#  11 ELONGATION             A_IMAGE/B_IMAGE                                           
#  12 ELLIPTICITY            1 - B_IMAGE/A_IMAGE                                       
         1 -13.9367    229.8094     26.4820   3.5045890164e+02   2.7158873348e+01    0.8873851    0.7677398 -28.63   0.00469102    1.431    0.301
         2 -12.1589     35.4333     15.4135   2.4045498964e+01   7.2465820376e+01    0.5259271    0.2514413  52.41  0.002341261    2.301    0.565
         3 -11.1901    235.0074      3.3497   3.4542005707e+02   2.8692711650e+01    0.2673645    0.1725301  78.43  0.001884542    1.717    0.418
         4  -9.7057     68.3359      2.3206   2.5099347317e+00   6.6839579660e+01    0.1402878    0.0857051  38.81 0.0007049892    1.706    0.414
         5  -9.7017     41.5135      1.4869   1.1594383592e+01   7.3001938547e+01    0.1278839    0.1105894  39.11 -9.202309e-05    1.015    0.015
         6  -9.7841     46.7701    229.4154   6.6655494582e+01   1.9494411144e+01    0.2789964    0.1880774  13.24  0.001311454    1.606    0.377
         7 -14.3180    120.6563    233.8415   4.9937294008e+01   1.0095744979e+01     4.625293     3.764467 -55.13    0.0108766    1.490    0.329
         8  -9.2357     95.1570    176.8592   4.8472148548e+01   2.5151163845e+01    0.2637805     0.202469  88.09 0.0009730199    1.600    0.375
         9 -18.7387     12.7985    195.6548   7.3241579445e+01   3.0291448882e+01     12.95296     3.444442 -82.39   0.04535016    3.882    0.742
        10 -10.2498    192.6385    194.5319   2.9559621662e+01   7.6940944844e+00    0.6018451    0.3210703 -62.84  0.001721877    9.011    0.889
        11  -9.9968    174.7330    179.9263   3.0406844648e+01   1.2552483910e+01     0.297184    0.1757367 -42.57 0.0008096015    1.613    0.380
        12 -10.5281    177.3844    170.1806   2.8127075566e+01   1.3901111337e+01    0.3846729    0.2108604 -52.24  0.001452174    2.107    0.525
        13 -11.1538    180.8996    168.6189   2.7166534429e+01   1.3658711245e+01    0.6524538    0.4000227 -57.61  0.003202478    2.218    0.549
        14 -10.8586    171.8694    175.5928   3.0194912080e+01   1.3741392442e+01    0.3563997    0.2695841 -42.13 0.0006904848    1.299    0.230
        15 -10.7717    174.0804    172.2092   2.9142880551e+01   1.4026298534e+01     0.403088    0.2919804 -60.17  0.001996139    1.819    0.450
        16 -10.2567    164.9033    226.2540   3.9714982121e+01   6.0472559182e+00    0.2934464    0.1877383 -60.86  0.001211763    2.541    0.606
        17 -12.5564    112.5806    171.9989   4.3078009517e+01   2.3616817928e+01    0.8062404     0.408566  49.25  0.003261225    2.299    0.565
        18 -11.0910    110.8565    167.5554   4.2763275461e+01   2.4893166730e+01    0.4400769    0.3240176  76.37  0.001228143    1.861    0.463
        19 -11.5705    104.9590    172.2011   4.5106423679e+01   2.4751820753e+01    0.4218757    0.3269333 -44.98  0.001394171    1.344    0.256
        20  -8.5697     71.6117    222.7421   6.0115372035e+01   1.8114534667e+01    0.1868086    0.1158833 -55.60  0.001004735    1.838    0.456
        21 -10.3913     89.0580    221.3374   5.5760163207e+01   1.6305835662e+01    0.2936864    0.2447142  22.06  0.001189904    1.096    0.087
        22 -11.1126     12.3503    250.7954   7.5545447761e+01   1.8544744269e+01     0.181286   0.07674873  24.35 0.0007443944    2.039    0.510
        23 -11.6564    133.7096    145.4368   3.2712990998e+01   2.5987164645e+01     1.245582    0.3127878 -54.78  0.002957271    6.227    0.839
        24 -10.2463    119.0881    149.9126   3.7313578930e+01   2.7560376026e+01    0.3582743    0.2392287 -80.06  0.001502317    2.274    0.560
        25  -9.5761    112.5091    150.4798   3.9169488550e+01   2.8563291791e+01     0.146627    0.1436382  -2.77 -1.988415e-05    1.026    0.026
        26 -10.8917     84.4264    149.6762   4.7054164638e+01   3.3398801713e+01    0.2687604    0.2627899 -18.60  0.000405885    1.084    0.078
        27 -12.1835     90.9030    144.4244   4.4133228461e+01   3.3674595615e+01    0.6939369    0.5485588 -33.41  0.003404925    1.427    0.299
        28 -11.3924    103.9294    133.1183   3.7983921101e+01   3.4200774071e+01    0.5954365     0.397326 -15.02  0.002357556    2.438    0.590
        29 -11.8375     92.1502    131.8597   4.1222624229e+01   3.6603837500e+01    0.4276408    0.3423729  71.19 0.0006217458    1.418    0.295
        30 -10.7161    136.0004    129.4339   2.8673011830e+01   2.9041367999e+01    0.4763687    0.1588969 -49.20  0.001563951    2.970    0.663
        31  -9.0151     47.1955    194.5921   6.3828891543e+01   2.7173218098e+01     0.168481    0.1261807  11.14 0.0004726839    1.497    0.332
        32 -11.0892    112.8718    125.8971   3.3835064914e+01   3.4257319062e+01    0.3845262    0.3395989  11.12  0.001061363    1.283    0.221
        33 -10.9012    117.5149    121.7944   3.1603868353e+01   3.4312596017e+01    0.3096834    0.2353633  31.68   0.00148175    1.429    0.300
        34  -9.8334    135.0000    121.3723   2.7039977947e+01   3.0973447292e+01     0.509438   0.08223956 -46.67   0.00115926    5.964    0.832
        35 -10.3729     99.9557    121.0834   3.6441508637e+01   3.7845606829e+01    0.3132263    0.2618628   5.59 0.0007952796    1.460    0.315
        36 -11.0101     76.1295    120.6397   4.3988048276e+01   4.2201902513e+01    0.2927443    0.2547132  81.25 0.0006222113    1.213    0.175
        37 -10.2391    108.3819    115.8190   3.2700681053e+01   3.7482602886e+01    0.3054713    0.2641875 -51.04  0.000474351    1.140    0.123
        38 -10.1846    134.7306    112.8553   2.5036757650e+01   3.2848214845e+01    0.3579552    0.1261462 -47.80  0.001192638    2.767    0.639
        39 -11.8913    116.4697    108.5475   2.8607603584e+01   3.7526909964e+01    0.4905776    0.3534059  47.54   0.00230598    1.415    0.293
        40 -11.7770    116.2931    100.8732   2.6631668248e+01   3.9266805154e+01    0.3514388    0.2830265  88.66  0.001696188    1.468    0.319
        41  -9.1670     64.2586     91.6132   4.1262733532e+01   5.1629347497e+01    0.2254467    0.1503332  37.21 0.0005063221    1.506    0.336
        42 -10.1595     66.4293     96.5323   4.1731548716e+01   5.0024606954e+01    0.2801338    0.2155204 -56.43   0.00050275    1.279    0.218
        43  -9.5101     67.7831     93.6170   4.0432660180e+01   5.0523993015e+01    0.3137145     0.210151  61.28 0.0004388331    1.815    0.449
        44  -8.9190     36.6496    198.7902   6.7033129134e+01   2.7308783482e+01    0.2684327    0.1719734  80.65  0.001396767    1.627    0.385
        45 -10.9176     45.1899     91.6065   4.9225091304e+01   5.4561589006e+01    0.3723908    0.2673527  -9.42   0.00148381    1.802    0.445
        46  -8.8365    234.5133    191.4331   2.2205516716e+01   3.2301645309e+00    0.1108143   0.08471095 -18.44 0.0001485976    1.032    0.031
        47 -11.0944     36.1945     87.5432   5.2313667610e+01   5.6785630595e+01    0.3658005    0.2131224 -44.33 0.0009306632    1.761    0.432
        48  -8.6765    158.3441     87.3308   1.3435603629e+01   3.2901900091e+01    0.1418257    0.1145089   7.44 0.0007050636    1.754    0.430
        49  -9.1495     86.2943     80.0132   2.9658622050e+01   5.0202680012e+01    0.2439472    0.1738383 -84.95  0.000883123    1.973    0.493
        50  -9.8841    184.7201     77.0059   6.5097873336e+00   2.9109712845e+01    0.1959432    0.1565666 -46.80  0.000459169    1.092    0.085
        51 -11.2660    180.4013     75.8996   6.8569087960e+00   3.0177253860e+01    0.3886276    0.1717695 -46.04  0.001009767    2.000    0.500
        52 -10.4070     30.8645     72.8579   5.1241585096e+01   6.1204255182e+01    0.2166115    0.1874411 -28.18 0.0003995446    1.177    0.150
        53 -12.5242    183.0431     64.9141   3.7336168650e+00   3.1342091083e+01    0.4633406    0.4051487 -48.44 0.0007557236    1.096    0.087
        54  -9.8519     45.9300    189.8551   6.3749703092e+01   2.8449678844e+01    0.3235511    0.1536953  66.79   0.00113042    2.622    0.619
        55 -13.9040    199.8743     52.9544   3.5882139357e+02   2.9597044621e+01      1.11629    0.9206045  46.57  0.004317684    1.595    0.373
        56 -12.5371    205.7160     48.1930   3.5712086026e+02   2.9072579302e+01    0.4774734    0.3701358 -42.54  0.001431198    1.166    0.142
        57 -10.2874     97.1617    182.0758   4.8722560019e+01   2.3656690755e+01    0.2884139    0.1827088 -55.88  0.001390023    1.656    0.396
        58 -15.4160     65.2846    148.7678   5.2878083872e+01   3.6488325644e+01     4.752816     2.967759 -83.87   0.01800241    1.894    0.472
        59 -11.5207     39.6167    193.6749   6.5827143034e+01   2.8214213976e+01    0.5126776     0.353403  41.01  0.001662661    1.268    0.211
        60  -9.5066     51.5973    245.8033   6.6618553001e+01   1.5756701066e+01    0.1145983   0.08097734   7.25 0.0005364338    1.620    0.383
        61 -11.5301     46.4285     19.0433   2.0308140217e+01   6.9817628396e+01    0.6391909    0.2533344  58.68  0.002265778    3.513    0.715
        62  -9.4000    200.0131     22.9931   3.5165316287e+02   3.3345060124e+01     0.151573    0.1163319 -55.26 0.0003908188    1.049    0.047
        63 -10.9129    152.3593    237.5998   4.3747529423e+01   5.7300372324e+00    0.2495855    0.1722434  10.21 0.0007963646    1.276    0.216
        64 -10.7014     60.9561     21.9125   1.5491073051e+01   6.6346622036e+01    0.2838734    0.2777413  79.07  0.001007861    1.100    0.091
        65 -10.7223     46.4821    236.8333   6.7214080107e+01   1.8024915592e+01    0.1453354    0.1261956 -83.98 0.0005264552    1.322    0.243
        66  -9.2972    189.4878     15.0631   3.5048151658e+02   3.6440309090e+01    0.1783356    0.1065927 -35.61 0.0007217979    1.547    0.354
        67 -10.4088     55.9743    235.4442   6.4902165825e+01   1.7301899865e+01    0.3186301     0.142519  44.62  0.001571639    1.877    0.467
