#   1 NUMBER                 Running object number                                     
#   2 MAG_AUTO               Kron-like elliptical aperture magnitude                    [mag]
#   3 X_IMAGE                Object position along x                                    [pixel]
#   4 Y_IMAGE                Object position along y                                    [pixel]
#   5 X_WORLD                Barycenter position along world x axis                     [deg]
#   6 Y_WORLD                Barycenter position along world y axis                     [deg]
#   7 A_WORLD                Profile RMS along major axis (world units)                 [deg]
#   8 B_WORLD                Profile RMS along minor axis (world units)                 [deg]
#   9 THETA_WORLD            Position angle (CCW/world-x)                               [deg]
#  10 FWHM_WORLD             FWHM assuming a gaussian core                              [deg]
#  11 ELONGATION             A_IMAGE/B_IMAGE                                           
#  12 ELLIPTICITY            1 - B_IMAGE/A_IMAGE                                       
         1 -15.1716    242.8993     11.4549   3.3123166242e+01   2.4174349462e+01     2.113779     1.063761 -53.01   0.01173055    1.673    0.402
         2 -13.7000     11.3175     24.0750   9.4643145287e+01   7.0248765135e+01    0.7639045    0.3190857 -25.21  0.003652873    2.614    0.618
         3 -12.2727     12.8983     13.0103   8.9061908210e+01   7.1935322875e+01    0.3288358    0.1970812 -19.96  0.001637656    1.423    0.297
         4 -13.3117      5.9405     11.2967   9.2359779413e+01   7.2756890751e+01    0.7955331    0.3784324 -29.44  0.004633403    1.766    0.434
         5 -12.3507      8.2453      2.0448   8.6486383602e+01   7.3957670838e+01     0.770571    0.1840813  25.91  0.003262386    4.179    0.761
         6 -12.5277     15.5781      6.8598   8.4558722734e+01   7.2602385511e+01    0.4735189    0.2509367 -10.18  0.002480886    2.020    0.505
         7 -13.2758     24.4490      4.3997   7.8308423032e+01   7.1980977900e+01    0.5870816    0.3095507  18.96  0.003406127    1.832    0.454
         8 -12.6135     19.3783     14.3689   8.6045321898e+01   7.1131326717e+01    0.3759741    0.1914649 -20.51  0.002045294    1.988    0.497
         9 -12.9649    212.5124      2.3684   3.3511259622e+01   3.1805421870e+01    0.5466681    0.1677754  81.20  0.002027412    3.562    0.719
        10 -11.8827     40.6382      2.8491   6.9350015926e+01   7.0001097535e+01    0.3301378    0.1516614  24.96  0.001632513    2.304    0.566
        11 -10.7363    118.9613      3.2389   4.5548467969e+01   5.4264620682e+01    0.1825454   0.09620722  64.30 0.0008893796    1.642    0.391
        12 -12.2292    170.2027      2.2456   3.7590307272e+01   4.1871310183e+01    0.3975649   0.08052313  67.98   0.00127303    3.701    0.730
        13 -10.8316     34.0047     16.4980   7.9383428408e+01   6.9186818043e+01    0.1757521   0.08824552  10.72 0.0008106415    2.653    0.623
        14 -12.6511    234.6936    244.1319   8.2192183022e+01  -9.5220624891e+00    0.4697089    0.2616782   0.57  0.002231446    2.054    0.513
        15 -12.3957    248.9964    225.3045   7.6521875642e+01  -8.9888870378e+00    0.4086193    0.2208832 -19.03  0.001894761    1.814    0.449
        16 -12.7239    241.9713    237.5068   7.9817355558e+01  -9.6401929017e+00    0.6289474    0.3034421  -1.88  0.002660104    3.558    0.719
        17 -12.5807    242.8749    246.0501   8.1058117777e+01  -1.0813711097e+01    0.6470387    0.3297918 -10.72  0.003366342    2.342    0.573
        18 -11.9134    247.7398    239.1375   7.9081855259e+01  -1.0584843310e+01    0.3745477    0.2267448 -11.35   0.00162171    1.538    0.350
        19 -12.0132    249.8936    232.9997   7.7683112971e+01  -1.0093570569e+01    0.3596273     0.198575 -20.79  0.001618535    1.696    0.410
        20 -11.4396    249.0290    250.0510   8.0635447848e+01  -1.2052930868e+01    0.4120128    0.1815608  27.04  0.002287106    1.981    0.495
        21 -11.1544    248.8777    244.9174   7.9833896224e+01  -1.1428854338e+01    0.2805502     0.183671  -3.72   0.00185392    1.304    0.233
        22 -11.0967    234.0081    250.5221   8.3334611134e+01  -1.0222286574e+01    0.2953417   0.09437463  34.69  0.001357486    2.711    0.631
        23 -12.1500    225.9536    248.3768   8.4441877224e+01  -8.8959490546e+00    0.3480842    0.2008674  17.07  0.001791349    1.573    0.364
        24 -11.5041    203.3052    249.2456   8.8773317783e+01  -5.8646111161e+00    0.2664951    0.1565209  13.09   0.00146196    1.806    0.446
        25 -10.7226    183.8239    250.3737   9.2676988717e+01  -3.1688098570e+00    0.1833722   0.09535033  27.60 0.0009480984    1.716    0.417
        26 -11.5821    169.0024    250.4625   9.5592041879e+01  -9.4577092590e-01    0.3438768    0.1012751  37.14   0.00136931    2.768    0.639
        27 -10.8447     87.5262    250.5147   1.1183981406e+02   1.1308583006e+01    0.2595897   0.09958772  37.56  0.001213889    2.177    0.541
        28 -11.3110     74.3292    250.2881   1.1438866307e+02   1.3168124072e+01    0.3313675     0.109953  43.78  0.001532778    2.272    0.560
        29 -11.7199     65.0564    249.0804   1.1607299509e+02   1.4620027526e+01    0.4159389    0.1831212  50.11  0.002203601    1.813    0.448
        30 -11.2704     50.4776    250.1656   1.1890463573e+02   1.6263815022e+01     0.433029     0.130375  37.66  0.001989353    2.696    0.629
        31 -11.7490     36.6495    248.7080   1.2135511463e+02   1.8178112479e+01    0.4404625    0.1783022  54.05  0.002393471    1.945    0.486
        32 -11.6032     20.0681    249.1675   1.2434069426e+02   1.9921692066e+01    0.3559827     0.160187  51.67  0.001894184    1.658    0.397
        33 -11.6030     11.9182    249.0292   1.2574700515e+02   2.0789523416e+01    0.3560932    0.1564238  51.72  0.001996492    1.678    0.404
        34 -11.1108      3.5274    250.2187   1.2721951684e+02   2.1399976258e+01    0.2622042    0.1860237  20.31  0.001853112    2.203    0.546
        35 -12.0291      3.2099    243.0868   1.2698480866e+02   2.2751013701e+01    0.4011672    0.1855972  67.99  0.002093697    1.707    0.414
        36  -9.9550     49.4820    243.4768   1.1862424495e+02   1.7642688344e+01     0.119279   0.08930166  63.02 0.0004819643    1.028    0.027
        37 -11.7552     29.5222    240.5726   1.2217562815e+02   2.0524021503e+01    0.4166646    0.1769394  65.13   0.00219238    2.167    0.539
        38 -12.1677     15.8951    240.4990   1.2464635124e+02   2.1987970570e+01    0.5393419    0.1874744  51.47  0.002559807    2.143    0.533
        39 -12.7031    226.3518    240.8503   8.3164975536e+01  -7.9821299060e+00     0.326982    0.2008931   3.86  0.001900113    1.660    0.398
        40 -10.4523    210.4748    241.5161   8.6217327721e+01  -5.8403785949e+00    0.1244017    0.0970048  12.62 0.0001491151    1.030    0.029
        41 -11.7801     72.4887    240.2473   1.1388151065e+02   1.5294645588e+01    0.3654409    0.1507561  50.97  0.001763118    2.071    0.517
        42 -11.0590     38.0109    240.3888   1.2058348408e+02   1.9600043329e+01    0.3098768    0.1185515  54.50  0.001529215    2.157    0.536
        43 -12.0124    158.3303    245.6492   9.7053267534e+01   1.4418488232e+00    0.2852345    0.1355818  31.83  0.001373527    1.873    0.466
        44 -11.7873    107.2147    240.0652   1.0680718984e+02   1.0338261348e+01    0.3757091    0.1435257  44.85  0.001668791    2.163    0.538
        45 -10.6737     64.5321    240.0208   1.1544100847e+02   1.6398277360e+01    0.2534378    0.1263361  52.06  0.001370209    1.660    0.398
        46 -10.9715    214.8351    239.4154   8.5061566670e+01  -6.1777880559e+00    0.1785759   0.09557727  23.70 0.0009449777    1.718    0.418
        47 -11.1915    120.5941    239.1798   1.0393810097e+02   8.4490406444e+00    0.2584016   0.07805371  39.63  0.001003349    2.660    0.624
        48 -10.4221    220.4894    238.4798   8.3856777061e+01  -6.8529093988e+00    0.1239744   0.09549429   9.41 0.0001467508    1.038    0.036
        49 -11.1593     45.0131    237.3505   1.1904489584e+02   1.9366620079e+01    0.2833218    0.1388829  61.39  0.001547471    1.813    0.448
        50 -11.4540      6.3526    236.2448   1.2614179591e+02   2.3751271997e+01    0.3298738    0.1610237  72.14  0.001793084    1.675    0.403
        51 -11.2304     81.9978    236.5135   1.1161360151e+02   1.4698605793e+01    0.3390825    0.1621222  56.48  0.001651608    2.037    0.509
        52 -11.4757     95.2967    235.7619   1.0879768317e+02   1.2924131516e+01    0.3323735    0.1219236  48.00  0.001419231    2.390    0.582
        53 -10.8373    238.4768    234.4649   7.9927458549e+01  -8.7895679718e+00    0.1206932   0.09229492   4.75 0.0002232226    1.008    0.008
        54 -11.2949     14.1285    231.9960   1.2453444644e+02   2.3816906987e+01    0.3594577    0.1786156  64.43  0.001932183    1.635    0.388
        55 -11.3758    128.7472    240.0128   1.0235285224e+02   7.0284111420e+00    0.2578275    0.1357341  47.38  0.001295294    1.693    0.409
        56 -11.1815     59.2965    231.8949   1.1580653502e+02   1.8671640058e+01    0.3036903     0.123434  48.98  0.001476496    2.030    0.507
        57 -11.1356     39.5795    230.8817   1.1964343755e+02   2.1288571184e+01    0.3157417    0.1630075  74.26  0.001725907    1.891    0.471
        58 -10.9630    218.1624    230.8433   8.3029743003e+01  -5.4662975702e+00    0.1805395    0.1259551   4.12  0.001080784    1.345    0.257
        59 -10.8480     48.4969    230.4867   1.1785667375e+02   2.0306605166e+01    0.2934975    0.1262766  63.31  0.001384515    2.404    0.584
        60 -12.2080     25.7098    228.7319   1.2218218739e+02   2.3267730883e+01    0.4576984    0.2111753  73.68  0.002430796    2.088    0.521
        61 -11.6407      4.6428    228.2840   1.2608378811e+02   2.5467699265e+01    0.3809718    0.1718061  64.86  0.002010469    1.804    0.446
        62 -12.2424    236.9775    227.8869   7.9080508826e+01  -7.7179013276e+00    0.3223544    0.1969652  -5.17  0.001824079    1.689    0.408
        63 -10.5136     32.2254    229.4169   1.2097328931e+02   2.2419004036e+01     0.168894   0.08114929  48.54  0.000822235    1.682    0.405
        64 -12.4311    231.8934    234.3257   8.1083992708e+01  -7.8812578340e+00     0.358696    0.2159282  -8.51  0.002045532    1.743    0.426
        65 -11.1322     11.0059    225.8221   1.2479302655e+02   2.5352067008e+01    0.3177127    0.1441399  59.82  0.001539205    1.791    0.442
        66 -11.2553     18.6379    221.8178   1.2312598846e+02   2.5407097149e+01    0.2999297    0.1571253  72.69  0.001749614    1.659    0.397
        67 -11.4281      2.1858    220.7457   1.2618176486e+02   2.7200922318e+01     0.329965    0.1484702  85.31  0.001866346    1.914    0.478
        68 -10.7899     43.5315    221.4968   1.1816282388e+02   2.2741024714e+01    0.2402081    0.1273195  63.12  0.001301329    1.719    0.418
        69 -10.5097     54.6762    221.6717   1.1588270769e+02   2.1343502587e+01    0.1110836   0.09561289 -35.19 0.0007049468    1.695    0.410
        70 -12.5383    248.4987    214.7802   7.4757429413e+01  -7.5124654121e+00    0.4934994    0.2247343 -22.84  0.002357328    2.377    0.579
        71 -11.9744    239.3760    219.0041   7.7108293464e+01  -6.8366125920e+00    0.2720523    0.1608128 -13.36  0.001496909    1.743    0.426
        72 -11.6759     11.9804    216.9158   1.2413088263e+02   2.7072587402e+01    0.4050837    0.1953451  59.13  0.002340321    1.717    0.418
        73 -10.6865    227.7728    217.1275   7.8878340292e+01  -4.9075402031e+00    0.2117046    0.1620311 -38.94  0.001308952    1.544    0.352
        74 -10.4268     24.0450    217.0527   1.2177329027e+02   2.5837211508e+01     0.206031     0.102926  63.71   0.00113439    1.756    0.430
        75 -11.4474      2.3889    212.4711   1.2574126941e+02   2.8877197050e+01    0.3102794    0.1560431  80.44  0.001601516    1.664    0.399
        76 -10.6297     21.5747    211.2586   1.2189170296e+02   2.7312384244e+01    0.2277898   0.09830313 -84.31  0.001145655    2.156    0.536
        77 -11.2651     35.0294    217.0013   1.1955692817e+02   2.4660696880e+01    0.2114886    0.1105728  64.25  0.001147531    1.732    0.423
        78 -10.6238     28.4967    210.9883   1.2046063539e+02   2.6650462481e+01    0.1806525    0.1017534 -82.88 0.0008685002    1.599    0.375
        79 -10.2761     35.9920    207.8055   1.1865636220e+02   2.6519405115e+01    0.2190208    0.1004056  57.88  0.001080805    2.022    0.506
        80 -12.2393     12.4903    205.1119   1.2334291057e+02   2.9511218392e+01    0.4466512      0.19739  57.44  0.002388198    1.967    0.492
        81 -10.2703    247.0035    205.5345   7.3342419986e+01  -6.0113701649e+00    0.2029934    0.1417513 -24.45   0.00124739    1.270    0.212
        82  -9.4187    123.7237    206.2317   9.8798431109e+01   1.4307815546e+01     0.132308   0.09712533  59.94 0.0006750716    1.431    0.301
        83 -10.3831    250.4872    200.4733   7.1808909363e+01  -5.7782654275e+00    0.2476904    0.1070012 -34.71  0.001193554    2.106    0.525
        84 -10.5897    243.5231    199.9729   7.2919153769e+01  -4.7046239764e+00    0.1916758    0.1093972 -31.37   0.00103337    1.599    0.375
        85 -12.0534      3.3819    197.0491   1.2472153292e+02   3.2062994621e+01    0.3794386    0.1711704  73.78  0.001997349    2.025    0.506
        86 -10.8886     17.0055    189.6578   1.2136452349e+02   3.2485554150e+01    0.2430074    0.1322795  73.39  0.001331407    1.689    0.408
        87  -9.8967     11.3211    190.6732   1.2266596390e+02   3.2775255274e+01    0.1292182   0.06880006  65.86 0.0007047637    1.685    0.407
        88 -11.9750      3.9869    188.6922   1.2410301239e+02   3.3843828944e+01    0.4362555    0.1674342  65.50  0.002031824    2.608    0.617
        89 -10.1032     24.3199    186.6464   1.1950967276e+02   3.2468215229e+01     0.136141   0.07414691  67.07  0.000704687    1.750    0.429
        90 -11.5148     11.3752    183.8894   1.2218910553e+02   3.4293364073e+01    0.2782548    0.1220833  88.87  0.001349087    2.144    0.534
        91 -10.5087      5.4098    183.2079   1.2345134005e+02   3.4950390787e+01    0.1737257   0.08959796  86.31 0.0009475101    1.674    0.403
        92 -11.1922      1.8132    177.8878   1.2389550918e+02   3.6435655588e+01    0.2831239    0.1289115 -88.71  0.001469287    1.886    0.470
        93  -9.3442    100.8159    175.9737   9.9552614880e+01   2.4863827335e+01    0.1707377    0.1094334 -59.43            0    1.588    0.370
        94 -10.0619     11.3251    172.6683   1.2137459949e+02   3.6866853381e+01    0.1317143   0.07293025  66.82 0.0007050822    1.707    0.414
        95 -11.3220      6.5083    171.5093   1.2240096064e+02   3.7524941521e+01    0.2585876   0.09856135 -78.33  0.001213518    2.177    0.541
        96 -10.6708     10.3112    155.6462   1.2022225284e+02   4.0941468342e+01    0.1328469   0.07616666  69.11 0.0007044402    1.728    0.421
        97 -11.2033      4.1874    153.4128   1.2156191008e+02   4.1919123573e+01    0.2484767   0.07122739 -73.02  0.001022232    2.676    0.626
        98 -10.2738    243.6948    139.3446   6.0712700661e+01   4.9575992342e+00    0.1336627    0.1009191 -61.41 0.0007041689    1.690    0.408
        99 -10.4935      4.3050    136.6508   1.2005111314e+02   4.5891030163e+01    0.1290444   0.07764667  70.51 0.0007041622    1.701    0.412
       100 -11.4146    248.1033    129.6820   5.7965696565e+01   5.7868313876e+00    0.2510419    0.1636578 -44.78  0.001326285    1.418    0.295
       101 -10.4957      2.5095    127.0023   1.1959816959e+02   4.8304658057e+01    0.1806071   0.08391063  78.65 0.0008102623    2.530    0.605
       102 -10.5359    242.0000    125.0349   5.7897608277e+01   7.6772454188e+00    0.2337106   0.06927312 -37.96  0.000804393    2.956    0.662
       103 -12.0967    248.7665    118.6590   5.5502817362e+01   7.4935340085e+00    0.4188975    0.1434114 -40.12  0.001631945    2.476    0.596
       104 -11.9435    247.9709    112.5432   5.4296115471e+01   8.6498499485e+00    0.3201517    0.1615928 -49.01  0.001250228    1.958    0.489
       105 -10.0229    243.4820    118.9921   5.6355321205e+01   8.4179024306e+00    0.2014794   0.09960397 -54.25 0.0008102211    2.564    0.610
       106 -12.0681    243.9989    109.7400   5.4254705865e+01   9.8641444875e+00    0.2643632    0.1514023 -48.22  0.001092693    1.650    0.394
       107 -12.1515    247.4945    102.9869   5.2285281025e+01   1.0306184809e+01    0.4324221     0.174187 -52.36   0.00160736    3.061    0.673
       108 -10.7941    239.0000    102.9592   5.3475477953e+01   1.1964947234e+01    0.2333747   0.07005792 -37.52 0.0008026006    2.944    0.660
       109 -11.8305    249.4865     98.1567   5.0965578150e+01   1.0706880952e+01    0.3101197    0.2055685 -67.37  0.001584918    1.871    0.466
       110 -11.7907    242.8333     93.1097   5.0748894911e+01   1.2819446752e+01    0.2187306    0.1662753 -57.55  0.001099502    1.276    0.216
       111 -11.6860    249.4999     87.9963   4.8757976165e+01   1.2321389233e+01    0.2537259    0.1443883 -43.63  0.001099225    1.498    0.333
       112 -11.8920    246.6001     84.8000   4.8426829908e+01   1.3394812403e+01    0.2511681    0.1610534 -76.19 0.0008259799    2.069    0.517
       113 -11.8138    243.9084     88.2580   4.9532928339e+01   1.3383871660e+01    0.3281659    0.1661443  76.59  0.001297245    3.346    0.701
       114 -12.2827    249.0735     75.0140   4.5994267569e+01   1.4414630338e+01    0.4951486    0.1513166 -44.81  0.001889396    2.776    0.640
       115 -12.5763    249.7405     65.8786   4.3947670324e+01   1.5647440285e+01    0.6066762    0.1344023 -42.90  0.002096363    3.472    0.712
       116 -11.7786      3.0483     50.6531   1.0717843908e+02   6.5672960766e+01    0.3774234    0.1112479 -55.25  0.001740897    2.296    0.565
       117 -12.0059      2.2324     40.5910   1.0490580643e+02   6.7738473973e+01    0.3469118    0.1266498 -51.76  0.001773118    1.949    0.487
       118 -13.0545    142.7978    247.8637   1.0047937868e+02   3.5014806904e+00    0.5276529    0.2209299  33.40  0.002399458    2.134    0.531
       119 -10.5455     26.9349    248.7563   1.2310685461e+02   1.9259460631e+01    0.2196054    0.1054535  54.05  0.001329265    1.582    0.368
       120 -12.1235      1.6983     25.1963   1.0033791166e+02   7.0669626654e+01    0.3850233    0.1316362 -57.08  0.001835935    2.675    0.626
       121 -12.9238    212.9586    247.8297   8.6743995704e+01  -7.0437327458e+00    0.5545676    0.2932807  12.92  0.002795415    2.248    0.555
       122 -11.9701    127.2770    247.8933   1.0361955446e+02   5.8928972376e+00    0.3087275    0.1408482  48.14   0.00147411    1.995    0.499
       123 -12.4316    194.9869    245.3763   8.9773283024e+01  -4.1161920880e+00    0.3317955    0.1775461  15.86  0.001611057    2.258    0.557
       124 -11.3180     44.6329    245.0055   1.1964504178e+02   1.7938425938e+01    0.2958792    0.1573506  60.41  0.001732558    1.566    0.361
       125 -10.6325    110.0017    248.8213   1.0720683589e+02   8.3485392151e+00    0.2149411    0.1106774  54.73  0.001020684    1.935    0.483
       126 -12.3310    115.7326    244.2830   1.0554093460e+02   8.2851383646e+00    0.3225615     0.164017  48.74  0.001638208    1.731    0.422
       127 -11.7886     25.4989     16.7729   8.3864814447e+01   7.0138546463e+01    0.2911505    0.1431302  -5.83  0.001296223    3.098    0.677
       128 -12.0605     83.8772    244.5998   1.1200836990e+02   1.2902824515e+01    0.3523398    0.1562286  48.94  0.001764347    1.869    0.465
       129 -11.8648    178.7552    243.4536   9.2658069422e+01  -1.3838561969e+00    0.3367289    0.1562437  21.86  0.001408881    2.829    0.647
       130 -12.2817     97.2095    245.0950   1.0938571267e+02   1.0902993720e+01    0.4680833    0.1618104  46.77  0.002032109    2.410    0.585
       131 -11.7638     57.0620    242.1328   1.1707047936e+02   1.6955637545e+01    0.4350301    0.1807724  53.10  0.002199014    2.027    0.507
