#   1 NUMBER                 Running object number                                     
#   2 MAG_AUTO               Kron-like elliptical aperture magnitude                    [mag]
#   3 X_IMAGE                Object position along x                                    [pixel]
#   4 Y_IMAGE                Object position along y                                    [pixel]
#   5 X_WORLD                Barycenter position along world x axis                     [deg]
#   6 Y_WORLD                Barycenter position along world y axis                     [deg]
#   7 A_WORLD                Profile RMS along major axis (world units)                 [deg]
#   8 B_WORLD                Profile RMS along minor axis (world units)                 [deg]
#   9 THETA_WORLD            Position angle (CCW/world-x)                               [deg]
#  10 FWHM_WORLD             FWHM assuming a gaussian core                              [deg]
#  11 ELONGATION             A_IMAGE/B_IMAGE                                           
#  12 ELLIPTICITY            1 - B_IMAGE/A_IMAGE                                       
         1 -12.5986    119.8282     37.6354   3.7563536313e+01   5.0708590907e+01    0.8956116    0.5669678 -54.31  0.003139232    2.059    0.514
         2 -11.8904     35.6128     17.9677   5.9068737388e+01   6.8209222468e+01     0.623754    0.2450449 -32.75  0.001722034    2.465    0.594
         3 -11.8250     26.6285     28.1316   6.7206026462e+01   6.7448231544e+01    0.5147799    0.2549147 -47.90  0.002501986    1.730    0.422
         4 -12.1496     20.1456     21.9701   6.7908345259e+01   6.9057239129e+01    0.4924566    0.2390919 -40.38  0.001577553    1.634    0.388
         5 -11.8289    145.0376     23.9955   2.7054445247e+01   4.6431942962e+01    0.7859817    0.5588744  61.71  0.004034531    1.290    0.225
         6 -11.5184    121.4773     11.7896   2.7665298917e+01   5.3542669533e+01    0.4698929    0.3646959  41.39  0.002219459    1.175    0.149
         7 -10.7584    127.1662     11.8571   2.6456745894e+01   5.2185797958e+01    0.3337967    0.2530025 -55.99  0.001478671    1.601    0.376
         8 -11.7090    134.9750     22.2684   2.8522527228e+01   4.9137817646e+01    0.6874512    0.3637492  51.07  0.002017681    1.690    0.408
         9 -11.5482    134.2635     14.9589   2.6099167247e+01   5.0139207048e+01    0.7695723    0.2963221  54.90  0.003097256    2.179    0.541
        10 -10.4884     87.4437      7.4463   3.4679487479e+01   6.1403957900e+01    0.4977952    0.2662722  48.41   0.00221916    1.686    0.407
        11 -10.8027     90.8086     22.3470   3.9925344792e+01   5.8994319493e+01    0.3740255    0.2824301 -13.24  0.001773047    1.333    0.250
        12 -10.0351     89.5953     16.7535   3.7990703843e+01   5.9931964627e+01    0.2744414    0.1796535 -25.92  0.001195431    1.551    0.355
        13 -11.3662     85.9064     14.0186   3.7973210247e+01   6.0978529289e+01    0.4636549     0.286597 -23.13  0.001516986    1.641    0.391
        14 -11.1522    179.4446     20.4505   2.0088373916e+01   3.7973051888e+01     0.594997    0.2545779  42.53  0.002153465    3.045    0.672
        15 -12.2002    105.9753     20.8910   3.4965300040e+01   5.6031294151e+01    0.3950809    0.3496705 -77.55  0.001685161    1.450    0.310
        16 -11.8642     67.9999     18.3626   4.5918085159e+01   6.3658772631e+01    0.4217435    0.3662937   5.79   0.00146515    1.048    0.046
        17 -12.1192    245.4569     18.1572   1.1983152910e+01   2.1723105934e+01    0.4996393    0.1185101 -43.65  0.001811788    3.247    0.692
        18 -12.3989    164.5965     18.3515   2.1731379113e+01   4.2082966082e+01    0.6105961    0.2919461  42.74  0.002061878    2.377    0.579
        19 -10.9750      5.7159     11.2432   7.0946279423e+01   7.1882362989e+01    0.4923352    0.3634824  29.30  0.003701313    1.776    0.437
        20 -10.4719     12.7655      8.8263   6.6260993532e+01   7.1771862026e+01    0.3358867       0.2271 -68.04  0.001985444    2.870    0.652
        21 -12.0572     16.1186     14.3592   6.6870510918e+01   7.0635121443e+01    0.6309898    0.2786177 -28.29  0.003376061    2.255    0.557
        22 -11.7267     22.7648     11.2736   6.2248317853e+01   7.0543833964e+01    0.4147295    0.2425783  -9.50  0.001806167    1.817    0.450
        23 -12.2857    227.4935     15.3356   1.2993502700e+01   2.6335433089e+01    0.5432793    0.3238622 -85.68   0.00147069    1.663    0.399
        24 -10.5353    148.6760     15.8616   2.3648246284e+01   4.6446697149e+01    0.3783253    0.2198226  31.36  0.001204674    2.155    0.536
        25 -12.3058    104.8397     12.7595   3.2050203761e+01   5.7212877372e+01    0.5338283    0.3528946 -26.83   0.00254018    1.599    0.375
        26 -11.1156    207.0061      3.4172   1.2076014154e+01   3.2755883301e+01    0.4304539    0.1916148  63.29  0.001931992    1.993    0.498
        27 -10.2059    204.4946      1.5185   1.1843004837e+01   3.3585110824e+01    0.2677465    0.1521026  79.27  0.000673479    1.570    0.363
        28 -11.4072    211.7434      9.8075   1.3213130611e+01   3.0873834323e+01    0.5648583    0.3586932   3.61  0.002565541    2.787    0.641
        29 -10.2064    211.9662      3.2937   1.1557161313e+01   3.1524510335e+01    0.2111918    0.1801204 -60.14  0.000225856    1.148    0.129
        30 -11.4449    192.6177      8.2387   1.4909376365e+01   3.5916489821e+01     0.616722    0.3594646  14.17  0.002414265    3.256    0.693
        31 -11.9748     48.4352     12.9457   5.1200108104e+01   6.7346478873e+01    0.5230069    0.2710646  38.80  0.002873596    2.020    0.505
        32 -10.6941    169.4739      9.3694   1.8239191033e+01   4.1789404429e+01    0.4815403    0.1732736  54.36  0.001591613    2.431    0.589
        33 -10.6517    145.2546      9.7659   2.2223182144e+01   4.7948387491e+01    0.2476226    0.2009057  41.83 0.0003535816    1.213    0.175
        34  -9.7779      1.2123      8.2723   7.2164041590e+01   7.2637002066e+01    0.2206905   0.05165357 -48.75  0.001040953    2.840    0.648
        35 -11.2176    232.8178      7.1637   1.0581959993e+01   2.5997042645e+01    0.2774793     0.208817 -86.84  0.001182992    1.148    0.129
        36 -12.3159    234.4170      3.2512   9.5493249995e+00   2.6052244028e+01     0.565115    0.2783023 -74.13  0.001633543    2.129    0.530
        37 -10.5512    157.5540      5.6042   1.8838889561e+01   4.5233683914e+01    0.4870652    0.1453745 -21.68  0.001647887    4.087    0.755
        38 -10.0876     62.5410      7.0124   4.2810552391e+01   6.5974702317e+01    0.2558277     0.168174   2.46  0.001451297    1.558    0.358
        39 -11.2919    184.2183      5.3711   1.5122113907e+01   3.8379801338e+01    0.4359051    0.2812243 -43.98  0.002263214    1.603    0.376
        40 -11.3788    122.0257      5.6702   2.5258471686e+01   5.4017882940e+01    0.3138223     0.195815 -20.67 0.0009989329    1.774    0.436
        41  -9.5600     78.0078      7.5164   3.7643987960e+01   6.3212048217e+01    0.2572269    0.1873075  74.61  0.001213738    2.232    0.552
        42 -10.2903     76.5128      3.4879   3.6306332743e+01   6.3914561924e+01     0.241964    0.1763545   4.47  0.001210459    1.319    0.242
        43 -10.8166     73.0208      3.4713   3.7446843245e+01   6.4556900714e+01    0.3773807    0.2073359  36.96  0.002053051    1.643    0.391
        44 -11.6547    247.0401      5.6455   9.0787814230e+00   2.2838753346e+01    0.2931566    0.2022927  66.55  0.001152089    1.498    0.333
        45  -9.8511    163.2927      5.9586   1.8091972875e+01   4.3726737408e+01    0.2773204    0.1781214  36.63 0.0005161915    1.792    0.442
        46 -12.0364    133.2539      2.6543   2.1938966363e+01   5.1597188767e+01     0.595641    0.2993332  68.68  0.002714643    1.893    0.472
        47 -10.8721    218.7065      3.8465   1.1056970187e+01   2.9792293118e+01    0.3154149    0.2226258  78.54 0.0008246465    1.255    0.203
        48 -11.2827    223.9848      2.5655   1.0274734497e+01   2.8636134582e+01    0.2778581    0.2166531  78.28 0.0005793644    1.179    0.152
        49 -11.1450    142.4279      3.4821   2.0591956697e+01   4.9257743382e+01    0.4939045    0.2344481  72.32  0.002122137    2.100    0.524
        50 -11.1534    105.7513      2.7681   2.7802262910e+01   5.8008211748e+01    0.3333924    0.3001594 -88.02   0.00149709    1.362    0.266
        51 -11.6609    114.0774      2.5545   2.5791194168e+01   5.6152165807e+01    0.5613514    0.2569797  69.68  0.002358423    2.530    0.605
        52 -11.3922    177.0647      5.9114   1.6178549886e+01   4.0174742538e+01     0.352553     0.202127  78.80 0.0006448011    1.643    0.391
        53  -9.8527     21.7280      3.0130   5.8952636845e+01   7.1846851746e+01    0.1517132    0.1115391 -22.98 0.0005133331    1.097    0.088
        54 -10.8699      2.6404      1.8671   6.8696242446e+01   7.3558688687e+01    0.2555062    0.1438551  -7.03  0.001303866    1.786    0.440
        55  -9.7923     13.0334      1.6404   6.2866170795e+01   7.2827563523e+01    0.1471583    0.1091003  -8.51 0.0006908149    1.137    0.120
        56 -10.1480    152.3481      1.4136   1.8295586740e+01   4.6948685844e+01    0.2602085    0.1175588  67.63 0.0004087329    1.926    0.481
        57 -10.3803     41.3599      4.1745   5.0108252244e+01   6.9443675712e+01     0.264938    0.1590581  -4.55  0.001273139    1.769    0.435
        58  -9.2025     82.0060      1.0000   3.3461062994e+01   6.3115403346e+01    0.1902985   0.06389239  53.90  0.000435102    2.770    0.639
        59  -9.8875     39.3633    133.4537   8.6439692240e+01   4.3696876829e+01    0.1796962    0.1631254  16.64 0.0006510992    1.451    0.311
        60  -9.1765     89.5212    250.4845   8.8236188226e+01   1.2614200031e+01    0.1170918   0.08651021  60.09 0.0008099333    1.029    0.028
        61 -11.1152     46.8172    245.0773   9.5121669441e+01   1.9373178301e+01    0.3538603     0.177074  86.76  0.002164447    1.895    0.472
        62 -11.2717     22.6621    136.1843   9.1025365330e+01   4.4667229629e+01    0.5141775    0.3061098  51.28  0.003040395    1.738    0.425
        63 -11.1300     29.8186    133.2073   8.8871894503e+01   4.4700760615e+01    0.3469594    0.2456581 -44.70  0.000883087    1.671    0.402
        64 -10.3581     40.3900    137.8579   8.6757799155e+01   4.2563482839e+01    0.2346599    0.1624946  73.94 0.0006164081    1.420    0.296
        65  -8.9371     59.6756    132.6918   8.0972782639e+01   4.1520429508e+01    0.1302901   0.09819397 -38.37 0.0007036601    1.650    0.394
        66  -9.6774     93.1833    129.6627   7.1422739224e+01   3.7269396077e+01      0.21086    0.1771917 -79.91  0.001140773    1.147    0.128
        67 -11.2395      9.9912    127.9220   9.3319431236e+01   4.7555284009e+01    0.4480113     0.224923 -55.71  0.002166064    1.857    0.461
        68  -9.5680     26.7886    127.2588   8.8921028579e+01   4.6349655146e+01     0.161309    0.1222615 -56.98 0.0003955069    1.310    0.236
        69  -9.5994     22.8853    126.8869   8.9896727519e+01   4.6775238163e+01    0.1696208    0.1345795 -68.21  0.001133009    1.140    0.123
        70  -9.5693     47.3719    134.8161   8.4541537364e+01   4.2505332888e+01    0.1851989    0.1007864 -60.26 0.0007728923    1.620    0.383
        71 -10.2749      2.0666    125.6949   9.5087939034e+01   4.8597148850e+01    0.2114158    0.1245694 -89.59  0.001304961    1.415    0.293
        72 -12.3278    103.8572    122.4485   6.7025121649e+01   3.7081431503e+01    0.3444132     0.324462  61.86 0.0004244504    1.082    0.076
        73 -10.2050     49.6188    123.0861   8.2160425375e+01   4.5003838744e+01    0.2356563    0.1802023  -4.04  0.001322964    1.938    0.484
        74 -10.2700     48.7655    112.4286   8.0606866025e+01   4.7599677846e+01     0.417119    0.2042233 -49.19  0.001966622    1.976    0.494
        75 -10.6790     44.8629    119.8977   8.2971929996e+01   4.6281694211e+01    0.2848105    0.2006813  85.46 0.0007033671    1.462    0.316
        76 -10.3161     43.5520    116.4888   8.2792613387e+01   4.7219572522e+01    0.2083844     0.180897  74.66  0.000582436    1.178    0.151
        77 -12.7279      2.7061    111.7404   9.3512478078e+01   5.1664184176e+01    0.5278277    0.2847757  79.93 0.0005420169    1.920    0.479
        78 -11.4694      4.7727    104.8172   9.2152992975e+01   5.3082275463e+01    0.3409536    0.2974778  26.21  0.002581878    1.482    0.325
        79 -10.0378     79.1901    114.7480   7.2242252305e+01   4.3031863056e+01    0.2794776    0.2232921 -67.40  0.001226794    1.167    0.143
        80  -9.9745     66.8287    110.9081   7.5034729501e+01   4.5716715933e+01     0.258181    0.1843832  31.85  0.001112075    1.602    0.376
        81 -12.2245     17.5074    100.7210   8.7920170244e+01   5.3163057657e+01    0.4039784    0.3097292  78.31 0.0008243313    1.360    0.265
        82 -12.0738     10.1895     97.0849   8.9580595749e+01   5.4473285600e+01    0.6244798    0.5134307 -12.53  0.004465464    1.575    0.365
        83 -10.8770     34.6614    103.8400   8.3287074300e+01   5.1038130083e+01    0.5785365    0.2994757   7.18  0.002591756    3.424    0.708
        84 -10.8301     35.3968     92.5739   8.1032010994e+01   5.3539940332e+01    0.4729644    0.2422466 -78.79  0.002069104    2.311    0.567
        85 -11.9712     27.6701     84.9793   8.2080076645e+01   5.5915375480e+01    0.6899417    0.4849877   4.41  0.004222205    1.852    0.460
        86 -11.7427     25.0706    107.4894   8.6698228536e+01   5.1041376664e+01    0.7704051    0.4169082 -61.55  0.004286783    1.485    0.327
        87 -11.7229     44.1563     85.1855   7.6659382880e+01   5.4338486300e+01    0.4358016    0.3415817  14.95  0.001761901    1.537    0.349
        88 -10.5999     37.3247     85.9688   7.9090050080e+01   5.4843654628e+01    0.2766313    0.1941286  18.66  0.001278406    1.746    0.427
        89 -11.1913     21.6540    114.3730   8.8639742655e+01   4.9744024930e+01    0.5660512    0.2787518  10.12   0.00270896    3.383    0.704
        90 -11.0208     28.0325    113.4894   8.6729588201e+01   4.9413414827e+01    0.3476469     0.238594  10.19  0.001513264    2.045    0.511
        91 -11.3763     22.5908     94.5086   8.5408327927e+01   5.4185453994e+01    0.3020441    0.2439163 -35.43    0.0014614    1.371    0.271
        92 -11.6081     18.3085     91.2951   8.6217825511e+01   5.5221833983e+01     0.474866    0.2543346 -85.55  0.002089292    2.081    0.520
        93  -9.2255     93.9748    112.5052   6.7529741904e+01   4.1151228299e+01    0.2042155    0.1181542  63.23 0.0008078488    2.405    0.584
        94  -9.5215    170.5698    110.2246   4.7348794222e+01   2.5313169946e+01    0.2150646    0.1539152 -29.16 0.0005995527    1.601    0.375
        95 -10.3017    102.1369    109.1322   6.4429456170e+01   4.0473721753e+01    0.2233813    0.2042108 -16.62 0.0005303102    1.270    0.213
        96 -11.2951     79.9678    108.2354   7.0606989846e+01   4.4434023168e+01    0.4459061    0.3072815  27.86 0.0009088756    1.731    0.422
        97 -10.5224     15.5018    108.7169   8.9613229128e+01   5.1499685953e+01    0.2492971    0.1969064  27.40  0.001714623    1.587    0.370
        98  -9.1551    175.6760    106.6866   4.5317664514e+01   2.4793287284e+01    0.1594915    0.1264514  13.44 0.0007041038    1.661    0.398
        99  -9.3652    143.4837    105.9907   5.2612837534e+01   3.2569275676e+01    0.2225967    0.1348555 -67.86 0.0008088514    2.427    0.588
       100  -9.6821     85.7048    103.9035   6.7922607425e+01   4.4525964936e+01    0.2037054    0.1770299 -60.71 0.0007130541    1.075    0.069
       101 -10.8564     51.9233     99.4787   7.7203140350e+01   5.0246328421e+01    0.6288024    0.1951862 -50.56    0.0021117    2.810    0.644
       102  -9.2526     64.7200    101.6931   7.3732874100e+01   4.8144444843e+01    0.1343584   0.09784782 -34.70 0.0001741348    1.557    0.358
       103 -11.8919     68.7541     95.8222   7.1165293096e+01   4.8940670547e+01    0.3771277    0.3105651  -1.45 0.0004858165    1.522    0.343
       104  -9.7426     28.5122     99.5165   8.4418768832e+01   5.2573912135e+01    0.2343325     0.139744 -51.35 0.0007270545    1.496    0.332
       105 -10.5251     30.6333     96.2354   8.3203455169e+01   5.3137660093e+01     0.376319    0.2723413  81.91  0.002265268    1.545    0.353
       106 -10.1716    248.3373     98.3301   3.0222158965e+01   9.3102201026e+00    0.1410642    0.1090541  10.33 0.0007052013    1.734    0.423
       107 -10.3886     81.1138     98.1148   6.7909545544e+01   4.6584394533e+01    0.4332159    0.2058404  48.80  0.001763894    2.450    0.592
       108 -10.4977     83.0074     93.1068   6.6084296219e+01   4.7413674136e+01    0.2590646    0.1965017  42.66 0.0003252873    1.408    0.290
       109 -10.8725     78.5831     93.1428   6.7459282199e+01   4.8102893946e+01    0.4639236    0.3583821 -61.22  0.002508049    1.248    0.198
       110  -9.1755    210.0056     97.7817   3.6262816625e+01   1.8140094974e+01    0.2009892    0.1235567  56.02 0.0006608128    1.659    0.397
       111 -11.7753    125.6444     94.8623   5.4223379907e+01   3.8925253730e+01    0.2728292    0.2642675 -54.95  0.000216687    1.030    0.029
       112 -10.3806    121.7787     93.9721   5.5023223225e+01   3.9944512897e+01    0.5560551    0.2591763 -55.94  0.001953982    2.614    0.617
       113 -10.5354     43.1286     94.5099   7.8954156038e+01   5.2344270749e+01    0.2851853    0.2627776  56.01   0.00153299    1.234    0.190
       114 -10.8808     98.5908     91.0525   6.0828993748e+01   4.5182481986e+01    0.3051255    0.2264897  47.41 0.0005506775    1.411    0.291
       115 -11.3331     89.5574     89.9395   6.3249736393e+01   4.7030006592e+01    0.5078776    0.3254637 -37.94  0.002385551    1.644    0.392
       116 -10.3395     49.2042     91.5152   7.6392251179e+01   5.2372214165e+01    0.2888254    0.2355393  51.47  0.001768005    1.403    0.287
       117 -11.8694      6.9949     88.7272   8.9361051030e+01   5.6517053900e+01    0.4587331    0.3497315   8.20  0.002362359    1.715    0.417
       118  -9.6246     65.8143     89.0912   7.0486782530e+01   5.0865557025e+01     0.285693    0.1683218   1.76  0.001108471    3.490    0.713
       119  -9.7388    103.8878     87.1564   5.8186169136e+01   4.5030244117e+01    0.2006809    0.1766786  -5.35 0.0007136805    1.301    0.231
       120 -10.9455    143.1649     84.6874   4.6806016250e+01   3.7044711006e+01    0.2625219    0.2542382 -39.88 0.0002675323    1.060    0.057
       121 -10.3661    133.0950     84.7254   4.9375046106e+01   3.9376793621e+01    0.2365882    0.2059114 -67.17 0.0003187862    1.230    0.187
       122 -10.7348     80.0819     84.0409   6.4615082280e+01   4.9882995015e+01    0.3671799    0.3258677 -61.87  0.001648499    1.122    0.109
       123 -11.1283     74.8721     78.2007   6.4690360309e+01   5.1950107404e+01    0.5097798    0.4731014  61.51  0.002762938    1.214    0.177
       124 -10.6690    113.0227     82.4673   5.4189787865e+01   4.4199321290e+01    0.3077115    0.2761892 -77.11  0.001638186    1.221    0.181
       125 -10.1696     66.5680     81.7216   6.8377292595e+01   5.2392370674e+01    0.3913732    0.2675196  27.97  0.002075143    1.665    0.399
       126 -11.1878     58.3717     77.7251   7.0077533424e+01   5.4344292998e+01    0.4976218    0.3054381 -67.92  0.002223855    1.866    0.464
       127 -11.4676     53.4729     76.4426   7.1420094475e+01   5.5221636195e+01    0.5001792    0.3799265 -68.15  0.002910583    1.370    0.270
       128  -9.2895      1.4569     80.0025   8.9828042360e+01   5.8714352351e+01    0.1764846   0.08618981 -67.76  0.001010457    1.541    0.351
       129 -11.9060     13.8738     74.6177   8.4764950791e+01   5.9180764790e+01    0.5477269    0.3459358 -68.80  0.002501504    1.334    0.250
       130 -10.7084     94.7127     76.6731   5.7915634870e+01   4.8955813998e+01    0.4602386    0.2775158  35.41  0.001568481    1.798    0.444
       131 -10.1614    233.5202     77.4947   2.7425274416e+01   1.6020052275e+01    0.1457316    0.1316835 -61.16 0.0008102016    1.025    0.024
       132 -10.0213     92.0645     71.9269   5.7308153895e+01   5.0406263206e+01    0.2548601    0.2063974  28.16 0.0003664892    1.316    0.240
       133 -10.8331     79.1296     68.1479   6.0335602861e+01   5.3376718385e+01    0.6683708    0.3690515  56.20   0.00280369    2.698    0.629
       134 -11.2219     83.0232     73.9923   6.0819431802e+01   5.1544096794e+01    0.5354903     0.352742  44.57   0.00225074    1.643    0.391
       135 -10.8382     87.9849     73.0109   5.8930583717e+01   5.0905947132e+01    0.3915017    0.2157339 -52.95  0.001262774    1.874    0.466
       136  -9.7566    103.9341     74.8274   5.4556475049e+01   4.7587664845e+01    0.2232923    0.1988446  11.12 0.0008534117    1.215    0.177
       137 -11.0738      2.0391     71.7773   8.8332214166e+01   6.0448095338e+01    0.3476536    0.1424067 -62.20  0.001612826    1.747    0.427
       138 -11.3233    187.0029     70.9842   3.3357205697e+01   2.8616785661e+01    0.6257658    0.3520951 -40.55  0.001869075    1.763    0.433
       139 -10.1726     24.4938     73.7604   8.0899239497e+01   5.8624345715e+01    0.2242581    0.1669959 -56.19 0.0006255325    1.083    0.077
       140 -10.3156     28.8388     72.1013   7.9004559270e+01   5.8635153804e+01    0.2936522    0.1921275  35.49   0.00176872    1.820    0.451
       141 -10.8690     34.9470     71.8770   7.6781028846e+01   5.8151257816e+01    0.4287722    0.2379685  37.11   0.00233017    2.117    0.528
       142 -10.0378     41.4737     72.5170   7.4618812918e+01   5.7385682966e+01    0.2664584    0.1860926 -41.33  0.001136016    1.298    0.230
       143 -11.0268     39.8522     69.3572   7.4409274138e+01   5.8221896743e+01    0.2499434    0.2126177  -1.37  0.001374205    1.324    0.245
       144  -9.0917    153.5166     72.5408   4.0749951115e+01   3.6850645597e+01    0.1547793    0.1493217  44.71 0.0002307316    1.056    0.053
       145 -10.2100     14.5244     67.6666   8.3177919918e+01   6.0625647363e+01    0.3800188    0.1963423  13.27   0.00213585    2.478    0.596
       146 -11.3068    123.0402     68.9151   4.7260080750e+01   4.4735514518e+01    0.4441651    0.3029682  43.03  0.001189279    1.470    0.320
       147 -10.7834    219.8907     66.8794   2.6778015767e+01   2.0995764102e+01    0.5131521    0.2369742  67.52  0.001967933    2.412    0.585
       148 -11.9569     10.0053     62.6904   8.3806483631e+01   6.1944419355e+01    0.5529549    0.2169088 -56.41 0.0004072603    1.833    0.454
       149 -12.2403      4.5769     61.8239   8.5635751691e+01   6.2416817543e+01    0.4138088    0.3214486 -66.24  0.001882436    1.123    0.109
       150 -10.4891     87.6750     56.6633   5.3800209386e+01   5.4152271991e+01    0.4861896    0.1977728 -39.60  0.001872822    2.409    0.585
       151 -10.6941     59.1803     63.2966   6.5762047351e+01   5.7268960589e+01    0.3064256    0.2675726 -65.20 0.0008117628    1.278    0.218
       152  -9.7867    157.1015     63.5061   3.7219108852e+01   3.7556073733e+01    0.2980219    0.1380967  49.76 0.0009941974    2.083    0.520
       153  -9.8907     51.0910     56.6370   6.6708781602e+01   5.9612770239e+01    0.2337123     0.204217 -17.08  0.001127706    1.113    0.102
       154 -11.4517     40.8331     57.0961   7.0731898280e+01   6.0658978519e+01     0.352801     0.211551  39.71  0.001542994    2.015    0.504
       155 -11.2442     43.2421     62.4479   7.1340639731e+01   5.9320180266e+01    0.2783277    0.1947063 -48.06  0.000522455    1.211    0.174
       156 -10.4605     50.7991     61.3060   6.8219095443e+01   5.8711941273e+01    0.2477229    0.2418851  58.50  0.001243878    1.237    0.192
       157 -11.0917     46.0369     59.0099   6.9317734813e+01   5.9719176935e+01    0.3122892     0.239524 -73.45  0.001146061    1.622    0.384
       158 -11.4616    235.3865     60.9900   2.3153218330e+01   1.8180354052e+01    0.4546229    0.3250862  63.34  0.002363177    1.438    0.304
       159 -12.7954     74.5820     51.8216   5.6572916603e+01   5.7257312082e+01    0.8777269    0.5060318 -52.11  0.003720723    1.929    0.482
       160 -10.2986    122.0175     60.5228   4.4839430858e+01   4.6502837286e+01    0.3767918    0.2369401  34.34  0.001655726    1.786    0.440
       161 -10.2601     91.6711     57.2955   5.2721324382e+01   5.3310792090e+01      0.33651    0.2152537  53.79 0.0008727394    1.845    0.458
       162 -12.0029     25.6211     57.8072   7.6772281366e+01   6.1894926537e+01    0.6051527    0.5658523  56.07  0.004456034    1.354    0.262
       163 -10.5522    106.1765     58.4650   4.8644965095e+01   5.0272874853e+01     0.283949    0.1864169 -56.51  0.001162125    1.885    0.470
       164 -10.2600     34.5276     52.1126   7.1730710921e+01   6.2271753474e+01    0.3480687    0.2154436  -5.88  0.001922903    2.070    0.517
       165  -9.1758    135.6729     58.6308   4.0683511880e+01   4.3670553920e+01    0.1599239      0.11688  15.52 4.527493e-05    1.814    0.449
       166 -10.3811    157.6682     55.7595   3.4720564680e+01   3.8707507448e+01    0.4971427    0.3824377 -54.72  0.001212746    1.396    0.284
       167 -10.7026    117.4642     55.4613   4.4402695819e+01   4.8402305910e+01    0.6156406    0.3787929 -61.91  0.002508468    2.468    0.595
       168 -10.8732    109.7225     41.1426   4.1563148651e+01   5.2428187262e+01    0.5993466     0.389733 -18.60  0.002851869    1.781    0.439
       169 -11.3590    114.1024     49.4570   4.3282299368e+01   5.0153180845e+01    0.6713004    0.3225188  36.82  0.002607695    2.414    0.586
       170 -11.7569    117.6261     44.0362   4.0419268934e+01   5.0243369970e+01    0.5697963     0.442807  73.69  0.002007134    1.575    0.365
       171  -9.3132    113.4615    249.4875   8.3913829319e+01   9.1363003709e+00    0.1199064   0.09116868  55.12 0.0005185083    1.035    0.034
       172 -10.2693     83.0049     46.9359   5.1954260086e+01   5.6718509190e+01     0.279022    0.2025692  -9.49 0.0007145031    1.577    0.366
       173 -10.0782    100.9547     52.8237   4.8288608296e+01   5.2330553700e+01      0.40068    0.2656995   9.90  0.001122148    2.193    0.544
       174 -11.5014     60.7472     48.0904   6.0291076875e+01   6.0003417587e+01    0.7759404    0.2835213 -43.24   0.00323989    2.468    0.595
       175  -9.3924     57.1296     41.9899   5.9511318514e+01   6.1598871541e+01    0.2962264    0.1349448  37.75  0.001398849    2.375    0.579
       176 -11.2397     91.7203     62.7527   5.4516815012e+01   5.2276309163e+01    0.4930831    0.2720502  49.14   0.00219944    2.012    0.503
       177 -10.2528     51.7856     48.1513   6.3720130252e+01   6.1164397080e+01    0.2757375    0.2238462  29.07 0.0009106032    1.363    0.266
       178 -11.5260     45.4089     48.3441   6.6269872468e+01   6.1880332517e+01    0.5363028    0.3065221 -42.67  0.002949456    1.498    0.333
       179 -11.6002     43.9295     43.9747   6.5410672332e+01   6.2866967627e+01    0.3311892    0.2576445  39.34  0.000343947    1.569    0.363
       180 -10.9709     39.0303     44.2552   6.7484872961e+01   6.3342356314e+01    0.2806723    0.2092199 -12.37  0.001004947    1.370    0.270
       181 -10.8563    240.7309     50.2849   1.9918135547e+01   1.8517305601e+01    0.2447882    0.2254519  30.87 0.0009884943    1.378    0.274
       182 -10.1727    146.2189     47.4553   3.4576965803e+01   4.2910656461e+01    0.3155045    0.2058888 -18.74  0.001312386    1.885    0.469
       183  -9.6220      1.8577     49.1187   8.4041651210e+01   6.5140202776e+01    0.1572585    0.1331372 -67.91 0.0007144737    1.215    0.177
       184 -10.9786     20.6066     46.0608   7.5617544462e+01   6.4625190610e+01    0.3127075    0.1870838 -40.82 0.0004495894    1.371    0.271
       185 -10.7459     26.6852     42.7730   7.2114636353e+01   6.4779919558e+01    0.2549004    0.1861112 -20.68   0.00138393    1.327    0.247
       186 -10.1031     22.9500     37.5989   7.2083783114e+01   6.6058505717e+01    0.3745817    0.2668646  53.91  0.002322088    2.230    0.552
       187  -9.9678     13.0583     47.1944   7.9035154259e+01   6.4915001576e+01    0.2329884    0.1044306 -46.55  0.001292344    1.707    0.414
       188 -10.1300    138.8566     44.1399   3.5154143325e+01   4.5236437036e+01    0.3399086     0.215827  26.13  0.001245025    2.095    0.523
       189  -9.9660    134.0105     45.7984   3.6853975397e+01   4.6159745504e+01    0.3243448    0.1609019  55.35 0.0007602353    1.933    0.483
       190 -10.2818    200.2931     44.9615   2.3926537946e+01   2.9305023516e+01    0.4801791    0.2149738  76.03  0.001690993    2.817    0.645
       191 -10.4312    155.7351     42.2158   3.0873019650e+01   4.1287385909e+01    0.2957799    0.2599725  -5.79     0.001185    1.302    0.232
       192 -10.4126     92.5479     41.7578   4.6936125581e+01   5.5832541760e+01    0.3960331    0.2101394  42.96  0.001530373    1.863    0.463
       193  -9.7612     17.2810     41.8901   7.5821603894e+01   6.5670278638e+01    0.2172102     0.114401 -25.67  0.001152177    2.052    0.513
       194 -10.9492      4.9355     36.9124   7.9755779466e+01   6.7372207745e+01    0.4901684     0.270524 -60.69  0.003076663    1.545    0.353
       195 -10.5897     88.7098     29.6733   4.3529187797e+01   5.8404311769e+01    0.5037495    0.2359142  36.41  0.001113906    2.247    0.555
       196 -10.3648     79.9875     39.1418   5.0101490609e+01   5.8551059426e+01    0.4172031    0.2887382  74.30   0.00189016    2.910    0.656
       197 -10.9423     78.4435     34.0167   4.8659906483e+01   5.9631682588e+01    0.4272393    0.2810279  22.28  0.001474159    1.663    0.399
       198 -10.0594     82.3716     32.7188   4.6811306365e+01   5.9134694496e+01    0.2569672    0.1882176 -52.78  0.001159475    1.765    0.433
       199 -10.4299     68.2364     32.7642   5.1812401602e+01   6.1519915406e+01    0.3951546    0.3113306  34.33  0.002167064    1.314    0.239
       200 -11.2327     60.9265     36.5685   5.6039454588e+01   6.2004196009e+01    0.4439991    0.2995505 -41.13  0.001728174    1.419    0.295
       201 -11.8302     57.5562     30.9262   5.5150837133e+01   6.3409614794e+01      0.44967    0.3172839 -31.08  0.001348869    1.276    0.216
       202 -11.5457     48.7035     30.4280   5.8517870855e+01   6.4674777656e+01    0.5480034    0.2724208  25.92  0.002781349    2.250    0.556
       203 -11.2445     43.0021     28.0502   5.9968987838e+01   6.5762001101e+01    0.1918986    0.1562441 -27.51  0.001302557    1.086    0.080
       204  -9.9811    231.5154     38.5531   1.8173683835e+01   2.2373211565e+01    0.2951649    0.1293989 -33.90  0.001228559    2.229    0.551
       205  -9.5719    194.7028     37.9937   2.2841570013e+01   3.1740504629e+01    0.1914931    0.1837957 -72.08 0.0004086904    1.096    0.088
       206 -10.6006    176.6587     35.6771   2.5011278501e+01   3.6773419235e+01    0.3341077    0.2223815 -53.92  0.001042018    1.609    0.379
       207  -9.6485    132.9830     37.1110   3.4135641666e+01   4.7691608677e+01      0.34623    0.1990988  83.36  0.001244736    3.195    0.687
       208  -9.5796     94.0976     36.0182   4.4292764994e+01   5.6427919113e+01    0.1978057    0.1688115 -77.42  0.000765455    1.641    0.391
       209 -12.3306    160.0215     29.9395   2.6151065019e+01   4.1865888532e+01    0.4748756    0.4292315 -44.67 0.0005070179    1.178    0.151
       210 -12.4265    164.5171     27.7598   2.4668683437e+01   4.0978087699e+01     0.352784    0.2716097  77.15 0.0005460744    1.262    0.208
       211 -11.5703    107.2185     31.5914   3.8735625773e+01   5.4366677567e+01    0.5759012    0.3342246   8.67  0.002281785    2.931    0.659
       212 -12.0839    113.4698     25.2167   3.4647103890e+01   5.3838911081e+01    0.6762782    0.3002711  47.08  0.002029969    2.051    0.512
       213 -10.4071    239.9744     32.5628   1.5818308137e+01   2.1162696249e+01     0.274952    0.2132491  47.02  0.001500184    1.600    0.375
       214  -9.2907    138.3034     33.2838   3.1612342374e+01   4.6923055999e+01    0.1466417    0.1049146  30.52 0.0002622853    1.557    0.358
       215 -10.7776     32.5073     31.1090   6.5679743742e+01   6.6378535409e+01    0.2864226    0.1800808 -51.44 0.0003063499    1.586    0.370
       216 -10.0427     38.7678     22.4101   5.9525317959e+01   6.7161971029e+01    0.2073443    0.1369536 -25.68  0.000423184    1.317    0.241
       217  -9.9386    213.5137    248.4850   6.5798252186e+01  -6.9793557938e+00    0.1190184   0.09049846  27.87  0.000810234    1.023    0.023
       218 -10.2267    174.7361    247.0181   7.2514740104e+01  -5.1687968412e-01    0.2505001    0.1944547  41.21    0.0016877    1.013    0.012
       219  -9.8272     32.0411    137.5217   8.8831406255e+01   4.3492719287e+01    0.2913446    0.2001066  37.23  0.001172471    1.655    0.396
       220 -10.3741     11.0133     30.6963   7.5211313676e+01   6.8182318874e+01    0.2841979    0.1674021 -27.24  0.001542884    1.569    0.363
       221 -10.1551      7.0107     30.4986   7.6984097497e+01   6.8458757578e+01    0.2756042    0.1301185 -18.75  0.001495573    2.535    0.605
       222  -9.6331    230.4740     30.5337   1.6345738460e+01   2.3705809669e+01    0.1373454    0.1212757 -77.56 5.569047e-05    1.040    0.039
       223 -11.0025    188.9572     28.0313   2.0889832057e+01   3.4560310315e+01    0.3559096     0.320347   4.14  0.001359989    1.371    0.271
       224 -12.1235    126.2291     28.6319   3.2744611432e+01   5.0456342296e+01    0.5543916    0.4120429  66.55  0.002887178    1.404    0.288
       225 -10.0017     98.2679     28.9019   4.0280870013e+01   5.6619609631e+01    0.4403935    0.2334732 -50.89  0.001843638    2.783    0.641
       226 -10.2087    197.7219     28.9713   1.9927007939e+01   3.2160694814e+01    0.3705918    0.1673917  57.25  0.001523589    2.065    0.516
       227 -11.2947    183.0087     25.4611   2.1021571696e+01   3.6436754384e+01     0.375525    0.2663411  61.32  0.001254385    1.303    0.233
       228  -9.7011    230.6540     26.7019   1.5401982824e+01   2.4160400766e+01    0.1322894     0.101851  41.71 0.0007035416    1.677    0.404
       229 -12.0474    126.2489    241.7128   8.0769704887e+01   8.3505861084e+00     0.384126    0.2521022  61.46  0.001846673    1.384    0.278
       230 -11.7667    146.7945    237.9058   7.6494232761e+01   5.5368865725e+00    0.5000312    0.2994863  59.56  0.002584593    1.701    0.412
       231 -10.6958    196.9829    232.4815   6.6381947899e+01  -2.2363739467e+00    0.1985815    0.1015722  40.98  0.001033308    1.593    0.372
       232  -9.3055     15.3888    233.8007   9.9657840144e+01   2.5021705951e+01    0.1355798   0.07830129 -76.51 0.0009455473    1.663    0.399
       233 -11.6594     67.8165    240.9270   9.1251287786e+01   1.7354164455e+01    0.3983274    0.1606362  45.71  0.002139368    1.934    0.483
       234 -10.2757    127.4881     16.3703   2.8029415191e+01   5.1626976501e+01    0.2997642    0.1963826  42.16 0.0009482729    1.443    0.307
       235  -9.5487    213.7786     24.6012   1.6750615189e+01   2.8606761747e+01    0.2043061     0.122414  85.25 0.0009554697    1.682    0.406
       236 -10.6650    154.4442     24.1358   2.5312068037e+01   4.4025303533e+01    0.3551697    0.1908685  77.31  0.001451012    2.191    0.544
       237 -10.4487    156.2366     20.4621   2.3805085623e+01   4.3999688754e+01    0.3625495    0.1611981  62.22  0.001479894    1.988    0.497
       238 -10.9752    167.5640    237.8645   7.2606750768e+01   2.0038298498e+00    0.1927438     0.175029  26.57 0.0009618831    1.197    0.164
       239  -9.6200     75.4154    224.2609   8.8481929744e+01   1.9347426429e+01    0.1603836   0.09885346  89.41 0.0008385801    1.601    0.375
       240 -10.0419    246.9891    231.2283   5.7336741865e+01  -1.0067749072e+01    0.1547725   0.08045194  36.92 0.0004364872    1.641    0.391
       241  -9.7354    234.0156    223.4951   5.8284227559e+01  -7.1444290941e+00    0.1831239    0.1014414  37.67 0.0005576691    1.548    0.354
       242 -10.0608     59.7487     23.5804   5.1281051592e+01   6.4222965671e+01    0.2119196    0.1497325 -30.97 0.0005490552    1.318    0.241
       243  -9.4186    153.4537    219.4711   7.2747762304e+01   7.3976618861e+00    0.1319899    0.1096018  48.31 8.726578e-05    1.005    0.005
       244 -10.0659    164.7144    211.9960   6.9410704827e+01   6.6250787239e+00    0.2347106    0.1670796  44.61 0.0006028708    1.189    0.159
       245 -10.2317    223.0135     22.0446   1.5079061532e+01   2.6619665339e+01    0.2140288    0.1738082 -76.17 0.0004210182    1.085    0.078
       246  -9.6409      5.7176     22.0080   7.4877818353e+01   7.0058687637e+01    0.1523699    0.1082681 -43.22 0.0004788712    1.100    0.091
       247 -10.2013    152.9962    207.3348   7.1047815493e+01   9.5965600423e+00    0.3156091      0.21573 -84.34  0.001565752    2.162    0.538
       248  -9.1903     61.4906    206.5030   8.9532464307e+01   2.4780562865e+01    0.1245646   0.09512293  72.30 0.0008105981    1.009    0.009
       249  -9.1961    216.5104     20.5291   1.5407365562e+01   2.8424374344e+01    0.1387554    0.1210471 -84.26 8.828213e-05    1.025    0.024
       250  -9.2928     78.4927    203.5683   8.5844412704e+01   2.2978473904e+01    0.1292807    0.1007986  69.36 0.0001328454    1.027    0.027
       251  -9.7273     80.0464     19.5827   4.2228785439e+01   6.1398746625e+01    0.2655282    0.1400928  35.30  0.001300988    1.871    0.466
       252 -10.0855     74.6228     19.4614   4.4026365979e+01   6.2385739081e+01    0.2317913    0.1814292  10.44 0.0005614805    1.193    0.162
       253 -10.1510     46.9752     19.2865   5.4643955118e+01   6.6639274597e+01    0.2262713    0.1847852 -22.41  0.001551954    1.121    0.108
       254  -9.0119      1.5085     20.4762   7.6428720010e+01   7.0558745333e+01    0.1105677   0.07768681 -37.14 3.051427e-07    1.062    0.058
       255 -10.4293    139.4912    198.5211   7.2486318971e+01   1.3731674459e+01    0.2316486    0.1316964 -68.36  0.001038083    2.356    0.576
       256 -10.0347    234.0322    196.6654   5.3550481145e+01  -3.5474480740e+00    0.2425324    0.1787466 -19.53 0.0008999358    1.368    0.269
       257  -9.5006    171.6962    190.6367   6.4467708943e+01   9.0567747548e+00    0.1403222    0.1079719   5.73 0.0005300806    1.733    0.423
       258 -11.7219      4.9875    185.9024   9.8930974522e+01   3.5353988558e+01    0.4233914    0.2811053 -86.97  0.002281958    1.177    0.150
       259 -10.8479      2.6179    181.7936   9.9141227210e+01   3.6408506502e+01    0.2273561    0.1331885 -74.99  0.001074782    1.458    0.314
       260  -9.2554     86.2097    185.5886   8.2118590382e+01   2.5594888200e+01    0.1774468    0.1235803  34.00 0.0009525698    1.679    0.404
       261 -10.4988    186.8891     15.0278   1.7502974534e+01   3.6657185210e+01     0.234416    0.1845473  73.71 0.0003438411    1.132    0.117
       262 -10.3047    250.4836    177.0046   4.6915312064e+01  -3.5532002799e+00    0.1948567     0.118173 -31.01  0.001031226    1.587    0.370
       263  -9.5863     74.7848     13.5998   4.1424757244e+01   6.3099482538e+01    0.1656412    0.1165301  53.86  0.000944428    1.665    0.399
       264  -9.2867    113.4861    175.9910   7.4652507652e+01   2.3113862290e+01    0.1809976    0.1189944 -34.43 0.0007595096    2.358    0.576
       265  -9.3668     28.1724    175.8361   9.3586245267e+01   3.5266098688e+01    0.1525577      0.12396 -72.76 0.0005815977    1.314    0.239
       266  -9.9421     51.5391    172.8347   8.8256581447e+01   3.3270092522e+01     0.376897    0.1448289 -81.10  0.001488855    3.092    0.677
       267  -8.7652    170.3137    172.3076   6.1374547123e+01   1.2773288290e+01    0.1442837    0.1139582   9.77 0.0004260984    1.625    0.385
       268  -9.1172    198.2487    167.9824   5.4730748054e+01   7.8264971656e+00    0.1765999    0.1228033 -39.99 0.0005091978    1.516    0.340
       269 -10.5452     13.8292    159.3092   9.5283414002e+01   4.0248211670e+01    0.2022235    0.1255452  80.81 0.0006287635    1.339    0.253
       270 -11.6954      9.4082    167.1248   9.6825732628e+01   3.8928820611e+01    0.2663429    0.2398508  86.31  0.001335331    1.307    0.235
       271 -10.1192     18.7481    164.8865   9.4674748091e+01   3.8582452732e+01    0.2114269    0.1758436  -4.32   0.00145032    1.977    0.494
       272 -10.0366     65.9762     10.4040   4.3109937202e+01   6.5005863303e+01    0.2498214    0.1091704  44.72  0.001205057    2.226    0.551
       273  -9.9401    204.9557    163.2192   5.2420430470e+01   7.2999687042e+00    0.2365426    0.2054767 -32.37 0.0006243977    1.188    0.158
       274 -10.1356     28.3271    160.9718   9.2224304679e+01   3.8525983804e+01    0.1789198    0.1317482 -86.85   0.00117025    1.081    0.075
       275  -9.5691    215.7391    157.3643   4.9106745360e+01   6.1169660962e+00    0.2047127    0.1260498  37.01 0.0007717452    1.642    0.391
       276 -10.7589      9.5960    155.4462   9.5899010826e+01   4.1453757893e+01    0.2307702    0.1107506 -75.37  0.001307781    1.634    0.388
       277 -10.3256    104.6306    154.4723   7.3147826570e+01   2.9502120199e+01    0.3170993      0.28372  -2.86   0.00174633    1.527    0.345
       278 -12.2848     23.0891    148.8416   9.2246609250e+01   4.1754342205e+01    0.4224409    0.2596617 -48.13  0.001650615    1.982    0.496
       279 -11.2018     16.3673    147.9883   9.3730320592e+01   4.2541377010e+01    0.2480712    0.1866422  74.99 0.0004189567    1.170    0.146
       280 -10.3868      4.1722    153.6555   9.6948502814e+01   4.2276128193e+01    0.2272938    0.1056139  45.61  0.001042502    2.111    0.526
       281  -9.7501    142.0574    152.5117   6.3771487263e+01   2.2714729003e+01    0.3469556    0.1357515  49.76  0.001196445    2.560    0.609
       282 -10.3863     30.4793    151.9989   9.0836980776e+01   4.0331878167e+01    0.1965031    0.1788952 -18.48  0.001364962    1.598    0.374
       283 -11.0611     46.6042    147.1111   8.6392618962e+01   3.9725094732e+01    0.5252516    0.2631679 -51.54  0.002253632    2.160    0.537
       284 -10.2517     65.8414    149.6281   8.1970153687e+01   3.6722304591e+01    0.3493814    0.2190465   8.58  0.001482368    3.355    0.702
       285 -11.2450     33.1824    144.5231   8.9371515667e+01   4.1768229076e+01    0.3199534    0.2106446 -71.39  0.001455465    1.275    0.216
       286 -10.5531      3.2809    147.5389   9.6675641105e+01   4.3681480043e+01    0.2064857    0.1218314 -80.48 0.0007128638    1.294    0.227
       287  -9.3781    239.6700    146.6870   4.2490875930e+01   3.1164742136e+00    0.1428081    0.1034564   7.71  0.000704391    1.674    0.403
       288  -9.6508     74.0372    146.0183   7.9362852294e+01   3.6414772089e+01    0.1965219    0.1598208 -38.18 0.0004932421    1.568    0.362
       289 -11.0193      5.9318    142.0376   9.5620701526e+01   4.4698569151e+01    0.3598821    0.1666023  81.24 0.0002837746    2.125    0.529
       290 -11.2010      2.0682    140.3780   9.6377350527e+01   4.5343979561e+01     0.373578    0.1720735 -82.78  0.001057541    1.726    0.421
       291 -10.2642    249.4936    143.5028   4.0160216624e+01   1.7324781409e+00    0.1358164    0.1227193 -13.06 -0.0001178273    1.011    0.011
       292  -9.6167    233.6635    143.3303   4.2799128574e+01   4.8664566379e+00    0.1399895    0.1117928 -73.59 0.0007052074    1.733    0.423
       293 -10.4323     15.9979    141.1654   9.3168925926e+01   4.4104839099e+01    0.2156883    0.1386401 -78.79 0.0006624393    1.226    0.184
       294 -11.4018     12.2196    136.2334   9.3598107042e+01   4.5517855267e+01    0.4734098    0.2518785 -58.49  0.002744759    1.732    0.423
       295  -9.6707    217.1827    138.8552   4.4776335129e+01   9.0747424720e+00    0.2150025    0.2007951 -71.87 0.0005049604    1.202    0.168
       296 -10.0224     79.2300    137.7574   7.6647465830e+01   3.7591508197e+01    0.2658131    0.2159994 -66.47  0.001152096    1.148    0.129
