#   1 NUMBER                 Running object number                                     
#   2 MAG_AUTO               Kron-like elliptical aperture magnitude                    [mag]
#   3 X_IMAGE                Object position along x                                    [pixel]
#   4 Y_IMAGE                Object position along y                                    [pixel]
#   5 X_WORLD                Barycenter position along world x axis                     [deg]
#   6 Y_WORLD                Barycenter position along world y axis                     [deg]
#   7 A_WORLD                Profile RMS along major axis (world units)                 [deg]
#   8 B_WORLD                Profile RMS along minor axis (world units)                 [deg]
#   9 THETA_WORLD            Position angle (CCW/world-x)                               [deg]
#  10 FWHM_WORLD             FWHM assuming a gaussian core                              [deg]
#  11 ELONGATION             A_IMAGE/B_IMAGE                                           
#  12 ELLIPTICITY            1 - B_IMAGE/A_IMAGE                                       
         1 -12.4056      2.3998     14.9151   1.1407743673e+02   7.1283723705e+01      1.79589    0.4314862 -51.17  0.008447976    2.519    0.603
         2 -12.7665    212.9470     15.5302   5.3737135503e+01   2.9424082900e+01     1.406095    0.9300881  30.38   0.00660564    1.776    0.437
         3 -10.3519      2.0964      3.5251   1.1013497181e+02   7.3471515326e+01    0.4166855     0.349503 -62.70  0.003267767    1.327    0.246
         4 -11.1350     34.1904    247.5932   1.3188304063e+02   2.3801907021e+01    0.3890778    0.1368507  45.19  0.002646843    1.988    0.497
         5 -10.5436     92.8625    249.2472   1.2332488971e+02   1.6797076823e+01    0.2141551    0.1931394  62.01  0.000779064    1.408    0.290
         6 -12.8709      7.8275    240.2216   1.3534285460e+02   2.7411674024e+01     1.276588    0.6919138  85.50   0.01095986    1.516    0.340
         7 -12.8610      9.3680    207.1217   1.3395891267e+02   3.2372327849e+01    0.9250646    0.5672468  73.46  0.004121041    1.146    0.128
         8 -14.3877      5.5652    141.6981   1.3137819371e+02   4.4563845891e+01     6.196636     1.195225 -81.87   0.02197813    5.349    0.813
         9 -10.6517     59.4585    193.6957   1.2469009883e+02   2.9459957800e+01    0.2724631    0.2190007 -51.57  0.001303861    1.825    0.452
        10  -9.5041    140.0018    230.5253   1.1425348764e+02   1.2739738466e+01    0.1752871   0.08141363  44.92  0.001037207    1.609    0.378
        11 -10.6984     65.6688    186.2691   1.2293411336e+02   3.0013632535e+01    0.2078088     0.193663  85.71 0.0006117303    1.359    0.264
        12  -9.8859     75.8534    174.3939   1.1983878957e+02   3.0871360070e+01    0.2006953    0.1754505  68.55 0.0003447792    1.154    0.133
        13 -12.2115     62.6872    171.7773   1.2217181114e+02   3.3031295852e+01    0.4018466    0.2423125 -49.37  0.001616467    2.298    0.565
        14 -11.5769     31.8758    226.3105   1.3128392323e+02   2.7166523117e+01    0.2398223    0.2013335  80.92 0.0007886274    1.392    0.282
        15 -10.8122     83.8332    165.6854   1.1726135135e+02   3.1422763573e+01    0.4659016    0.4096469  67.45  0.003337655    1.120    0.107
        16  -8.8459    246.6645    233.3189   9.7838576539e+01  -3.6767808993e+00   0.09169415   0.07616199  48.83 0.0004463375    1.701    0.412
        17  -8.9169     96.6835    150.3247   1.1251207617e+02   3.2519022838e+01    0.2255816    0.2190589  72.15  0.000935061    1.216    0.178
        18 -11.0377     85.3138    149.0884   1.1481943937e+02   3.4442064169e+01    0.2427854    0.2201017 -60.26 0.0007203697    1.291    0.225
        19 -11.3764     67.3929    143.8828   1.1809951730e+02   3.7916711958e+01    0.6555197    0.3727019  63.57  0.003606248    1.811    0.448
        20  -8.1205    109.0803    135.6498   1.0738715711e+02   3.3452632298e+01    0.2155573    0.1392569 -21.71 0.0008978785    3.301    0.697
        21  -9.4821     96.0446    132.9283   1.0992256232e+02   3.6111386303e+01    0.2000366    0.1801983 -56.05 0.0004339387    1.222    0.182
        22 -13.8961     49.2072    207.8546   1.2748325138e+02   2.8247620688e+01     5.705921    0.6601653  49.85   0.02196549    4.916    0.797
        23  -8.1299     99.8708    146.1801   1.1119071148e+02   3.2844100229e+01    0.1536647    0.1511463   0.62  0.000392275    1.297    0.229
        24  -7.9233    106.2494    123.1412   1.0574669082e+02   3.6467371264e+01    0.1671594    0.1393447  77.16 0.0004756399    1.211    0.174
        25  -9.0294    167.5580    112.7098   8.9531620658e+01   2.6444204506e+01    0.3029125    0.2389549 -62.94 0.0008581684    1.526    0.345
        26 -10.5439    243.7300     94.3362   7.1316547449e+01   1.2227696279e+01    0.2662336    0.2558397   0.48  0.001361754    1.118    0.106
        27 -10.2060     63.3612     69.6424   1.0569864619e+02   5.4403137303e+01    0.3706781    0.2047985 -54.68  0.001876928    1.567    0.362
        28  -9.3441     55.1699    239.0932   1.2839272447e+02   2.2750814825e+01    0.2139488    0.1147059 -75.70  0.001618293    1.998    0.499
        29  -9.4092     84.5266     59.5036   9.6067494953e+01   5.3401596204e+01    0.1372953    0.1242119 -42.45 9.645686e-05    1.002    0.002
        30  -8.8820    110.2870    225.4478   1.1864295171e+02   1.7736645683e+01    0.1765143     0.112349  78.25  0.001188092    1.797    0.443
        31  -9.0855    228.3528    204.9441   9.6386115004e+01   1.7249514222e+00    0.2540865    0.1841647 -54.33  0.001495914    2.508    0.601
        32 -10.3236     89.6547     43.8526   8.9130558186e+01   5.5535216095e+01    0.3533119    0.2071147   0.28  0.001191953    4.215    0.763
        33 -10.5153      2.2842     40.7942   1.2079647907e+02   6.6021508381e+01    0.5973841   0.08147573 -66.61  0.002081409    4.408    0.773
        34 -10.9667    194.7038     35.2425   6.2192833754e+01   3.1967805899e+01    0.7195234    0.4202491 -46.16  0.003070821    1.828    0.453
        35 -11.6811    200.0654     31.9889   6.0392550899e+01   3.0958400681e+01    0.6245111    0.5954998 -35.64  0.003495497    1.043    0.041
        36  -9.6133    248.6928    248.7894   9.9668901109e+01  -5.1738547134e+00    0.1868188    0.1107203  35.03  0.001400583    1.201    0.167
        37 -10.4765     17.2780     25.7275   1.1048734272e+02   6.8218921203e+01    0.2870732    0.1723205  47.88    0.0015877    2.440    0.590
        38 -12.9129     38.1510    218.2895   1.2990388600e+02   2.7764328333e+01     0.672902    0.4614965  62.32  0.002852147    1.062    0.059
