#   1 NUMBER                 Running object number                                     
#   2 MAG_AUTO               Kron-like elliptical aperture magnitude                    [mag]
#   3 X_IMAGE                Object position along x                                    [pixel]
#   4 Y_IMAGE                Object position along y                                    [pixel]
#   5 X_WORLD                Barycenter position along world x axis                     [deg]
#   6 Y_WORLD                Barycenter position along world y axis                     [deg]
#   7 A_WORLD                Profile RMS along major axis (world units)                 [deg]
#   8 B_WORLD                Profile RMS along minor axis (world units)                 [deg]
#   9 THETA_WORLD            Position angle (CCW/world-x)                               [deg]
#  10 FWHM_WORLD             FWHM assuming a gaussian core                              [deg]
#  11 ELONGATION             A_IMAGE/B_IMAGE                                           
#  12 ELLIPTICITY            1 - B_IMAGE/A_IMAGE                                       
         1 -14.8575     68.4032    144.2231   1.0022218056e+02   3.7452036481e+01     5.181629     2.710042  70.29  0.009331238    3.854    0.741
         2 -14.4125    215.9527     28.6423   3.7125101001e+01   2.8389583130e+01     1.185046    0.9836523   8.55  0.007263943    1.795    0.443
         3 -14.4973    203.4459     40.4189   4.1267577142e+01   2.9713770238e+01     1.871952     1.455822  30.63   0.00660331    1.781    0.439
         4 -13.3584    241.5567      4.5956   2.9973561772e+01   2.5708525383e+01    0.7704999    0.4616692  84.58  0.004857343    1.518    0.341
         5 -10.5767    107.5563    203.7105   9.9742119675e+01   1.7166350145e+01    0.2531456    0.1782863 -69.54 0.0007139396    1.574    0.365
         6 -16.0579     42.3450    193.9802   1.1386151514e+02   2.8459889838e+01     5.277241     2.353317  63.55   0.02214493    2.708    0.631
         7 -15.6031      4.9560    155.6167   1.1928715019e+02   4.1154687817e+01     6.757889    0.8285844 -73.34   0.01889555    5.652    0.823
         8 -10.3763    149.3456    187.1616   8.7149311025e+01   1.3590042959e+01    0.2766407    0.2256146  84.54  0.001173102    1.646    0.392
         9  -9.0098     76.4215    184.5278   1.0449844399e+02   2.6322625291e+01     0.138991    0.1266495  82.95 6.977603e-05    1.012    0.012
        10  -9.5490     79.7005    182.7187   1.0341844011e+02   2.6281446305e+01    0.2871742    0.1758335  83.38  0.001246571    2.173    0.540
        11  -9.8559     99.2417    180.9276   9.8215755287e+01   2.3696600874e+01    0.2367961     0.205047  36.53 0.0006485481    1.170    0.145
        12 -10.6075    189.2121    177.6546   7.6460845953e+01   8.2607306600e+00    0.4209273    0.3288671 -67.32  0.002112195    1.800    0.445
        13 -12.8837     78.9534    160.1512   1.0005405074e+02   3.1923556274e+01      1.00416    0.5102651  50.84 0.0004134258    2.219    0.549
        14 -13.6385     66.7008    155.7706   1.0269516559e+02   3.4768721645e+01    0.6461629    0.4730164 -54.12  0.001196464    1.312    0.238
        15 -15.4952      9.6310    207.8353   1.2210572618e+02   2.8671586192e+01     1.299667     1.161901 -69.53  0.009614644    1.358    0.264
        16 -17.3413     18.9394    242.3871   1.2233748491e+02   2.0600884596e+01     7.920253      2.33443  27.41   0.03094495    4.883    0.795
        17  -9.9633    146.4912    170.9927   8.4665614491e+01   1.7608849720e+01    0.2310662    0.1481425 -49.05 0.0008257714    1.584    0.369
        18  -9.6023    185.5069    169.9156   7.5633186539e+01   1.0450698839e+01    0.2212231    0.1388062 -41.05  0.000688371    1.546    0.353
        19  -9.1378    110.8196    167.7749   9.2937700218e+01   2.4878894888e+01    0.2040651    0.1729007  79.91 0.0004588564    1.313    0.238
        20 -10.1111    230.4704    166.9503   6.6306670460e+01   3.0370556374e+00    0.1912183    0.1092917 -55.62 0.0008095965    2.626    0.619
        21 -12.4290     65.2713    174.0487   1.0585358896e+02   3.0409366298e+01    0.6684543    0.3475328 -43.14  0.002821765    2.394    0.582
        22 -10.3788     35.9592    161.5737   1.1187660130e+02   3.6987884080e+01    0.3107329    0.2331228  84.44  0.001030037    1.261    0.207
        23 -11.0863     32.6572    155.3898   1.1200076061e+02   3.8861295460e+01    0.4089938    0.2755639  87.48  0.001714058    1.459    0.315
        24  -8.6490    130.4685    159.4431   8.6231793497e+01   2.3263232996e+01    0.1523283    0.1470198  76.68 0.0001977197    1.081    0.075
        25 -12.4107     86.4350    153.5481   9.6812690198e+01   3.2426467485e+01    0.6559488    0.4801694 -21.79  0.001746191    1.830    0.453
        26 -10.9499    134.0000    146.4321   8.2499610467e+01   2.5601870888e+01    0.8332072    0.2158395 -51.11  0.002216472    4.149    0.759
        27 -10.6901    133.0000    140.4987   8.1396327270e+01   2.7176314275e+01    0.5728252    0.2064876 -50.72  0.001823085    2.845    0.649
        28  -9.0275    111.8296    150.0423   8.9135046521e+01   2.8967333821e+01    0.2248698    0.1674866  62.04 0.0009003272    1.568    0.362
        29 -10.6711    174.4068    148.6278   7.3365722374e+01   1.6947146031e+01    0.3531804    0.2942739 -73.15  0.001197587    1.502    0.334
        30 -11.5180     54.0490    147.1093   1.0486273918e+02   3.8592499413e+01    0.6768916    0.2860805 -54.08  0.002762147    2.121    0.529
        31 -10.2370    144.0060    146.0327   7.9886775038e+01   2.3692487048e+01    0.2503309    0.1986005 -89.32  0.001138533    1.691    0.409
        32 -10.0087     48.0352    145.4186   1.0632389857e+02   3.9732383674e+01    0.2894024    0.2219915 -29.67  0.001549338    1.570    0.363
        33  -9.0657     35.6921    144.7173   1.0975707151e+02   4.1236088216e+01     0.133925   0.09402922 -41.38  0.000697943    1.563    0.360
        34 -12.2761    195.4515    196.9450   7.8985511463e+01   3.5907318766e+00     1.150592    0.8528175  78.43  0.005269004    2.800    0.643
        35 -11.1142    100.7641    139.3320   8.9897426744e+01   3.3563771867e+01    0.5885645    0.3877931 -18.96  0.002350291    2.332    0.571
        36 -12.4569     87.9476    138.9019   9.3488695100e+01   3.5842472051e+01    0.3077208    0.2657124 -45.03 0.0004337206    1.142    0.124
        37  -9.5157    197.2103    138.4590   6.6273098118e+01   1.4394039467e+01    0.2285253     0.189269 -57.63 0.0005087683    1.329    0.248
        38  -9.9199     23.8057    136.7888   1.1209841028e+02   4.4329007034e+01    0.1797207    0.1384899  80.33  0.000408404    1.308    0.235
        39 -10.3494    110.3087    129.9975   8.5059811290e+01   3.4088746190e+01    0.3515341    0.2659603   6.32 0.0009370217    1.732    0.423
        40 -12.1731     69.9427    169.2628   1.0393702054e+02   3.0952413934e+01    0.3447341    0.2330937 -45.42   0.00121921    1.617    0.382
        41 -11.7782     47.4054    124.8269   1.0303126237e+02   4.5012433856e+01    0.3258245    0.2779283 -55.56  0.001728823    1.057    0.054
        42 -10.6587    105.8954    130.8884   8.6523904288e+01   3.4697499683e+01    0.4197575     0.319603 -58.33  0.001475808    1.321    0.243
        43 -10.8992    135.2487    127.9860   7.7803617891e+01   2.9592396617e+01    0.4755076    0.3217293 -46.79  0.002096144    1.448    0.309
        44 -14.1488     19.4723    219.6049   1.2087127770e+02   2.5190966836e+01    0.6829557    0.4720948  58.94  0.002634607    1.214    0.176
        45  -9.8350    160.8487    127.6931   7.1451518489e+01   2.4216997037e+01    0.3104782    0.2079322 -68.35 0.0009269402    2.134    0.531
        46 -11.3754     97.5957    125.9291   8.7765941416e+01   3.7400488585e+01    0.3208302    0.2660326 -17.82 0.0008211129    1.381    0.276
        47  -9.4197    116.4950    124.4725   8.1977261803e+01   3.4206893676e+01    0.1575648    0.1496229 -22.37 0.0008092117    1.064    0.060
        48 -11.5118     25.6437    120.4534   1.0917533698e+02   4.8252341913e+01    0.6631151    0.2103356  44.19  0.002353797    4.031    0.752
        49  -9.2761    163.2020    121.0273   6.9243467300e+01   2.5116754788e+01    0.2564276    0.1785476 -68.37 0.0008853304    1.948    0.487
        50  -9.6671    135.0000    119.9764   7.5841582218e+01   3.1450827615e+01    0.2646048   0.08844319 -45.49 0.0007998462    2.925    0.658
        51  -9.9925    107.0344    118.9143   8.3278923653e+01   3.7345124138e+01    0.2230962    0.2145456 -32.19 0.0002981389    1.018    0.018
        52  -9.4700     83.3298    117.7568   9.0151176361e+01   4.1817661524e+01    0.2241777    0.1819358 -75.59  0.001111903    1.388    0.279
        53 -10.6333     39.7686    113.3006   1.0333052011e+02   4.8713379631e+01    0.2249175    0.1972304  87.81 0.0004251288    1.235    0.190
        54  -9.6650    135.0000    112.4862   7.3877892076e+01   3.3108287906e+01    0.3525263    0.0883062 -44.49 0.0009313606    3.908    0.744
        55 -13.3458    247.9296    104.0249   5.0164885799e+01   1.0721723475e+01      1.31813     0.430815 -35.50  0.004966528    2.805    0.643
        56 -10.2337    205.3277    110.1882   5.8089864267e+01   1.8094348104e+01     0.314792    0.2387781  48.34 0.0009962297    1.435    0.303
        57 -11.0283     33.2616    109.4219   1.0477002325e+02   5.0307340669e+01    0.3448104    0.2028279 -77.28 0.0008241557    1.846    0.458
        58  -9.4661    114.9837    109.0194   7.8396660250e+01   3.8069029412e+01    0.2929579    0.1654524 -26.04  0.001032831    2.618    0.618
        59 -10.3135     44.8891    104.8169   9.9854653619e+01   5.0250725423e+01    0.3041094    0.1793367  43.88  0.001064147    2.005    0.501
        60 -10.8972     38.8614    101.8034   1.0130562359e+02   5.1619502050e+01     0.396346    0.2102661  47.36  0.001512881    2.439    0.590
        61 -10.6085    120.9902     98.9769   7.3918196438e+01   3.9032402341e+01    0.2430816    0.2333104 -18.13 0.0005694018    1.026    0.025
        62  -9.8190     32.9759     96.7101   1.0230943983e+02   5.3415815453e+01    0.2345382    0.1780361  89.11 0.0008030507    1.614    0.380
        63  -9.5732    148.4952    175.0574   8.5006565303e+01   1.6342153952e+01    0.2202623    0.1474811 -50.53 0.0008428684    1.543    0.352
        64 -10.6947     52.9819     91.1783   9.3733159383e+01   5.2539629427e+01    0.2644037    0.1871347 -50.73 0.0008451748    1.265    0.210
        65 -10.4194     73.3538     83.7832   8.4364473642e+01   5.1295381876e+01    0.2587695    0.2211626  73.34 0.0006996743    1.562    0.360
        66  -9.1826    151.2121     83.1806   6.1739197427e+01   3.5388240518e+01    0.2129442    0.1783302 -77.93 0.0006557913    1.386    0.278
        67  -9.5792    159.5255     82.5435   5.9738404039e+01   3.3551325273e+01    0.1477395    0.1470742 -64.57 0.0001490458    1.023    0.023
        68  -9.7515     50.4536     63.4883   8.6585622563e+01   5.8864409749e+01    0.3125393    0.2018274  54.10  0.001474605    2.460    0.593
        69 -10.8029     13.4188     59.8794   1.0127460208e+02   6.3286516912e+01    0.2440932    0.1930983 -52.08 0.0004384441    1.161    0.138
        70  -9.6725     89.8936    212.3787   1.0500628076e+02   1.7993827756e+01    0.2191672    0.1713388 -87.32 0.0005296548    1.347    0.258
        71 -13.2401    194.1621     47.0703   4.4110667194e+01   3.0964661113e+01    0.7810296    0.6383406  34.50  0.001041761    1.539    0.350
        72 -10.7145    111.5502    204.4364   9.8917509261e+01   1.6367435540e+01    0.4142695    0.2804467  81.36   0.00114277    2.051    0.513
        73  -9.1151     53.0675     44.6885   7.8770626030e+01   6.1994963403e+01    0.2016132   0.09859242  52.94 0.0007026715    4.487    0.777
        74 -10.3384    198.0234     23.9334   3.7871511379e+01   3.2992417860e+01    0.2685039    0.1918801 -19.79  0.001124021    1.766    0.434
        75  -9.5775    189.6758     14.9817   3.6563845913e+01   3.5911888215e+01    0.1763752    0.1517426 -60.07 0.0006436747    1.136    0.120
