#   1 NUMBER                 Running object number                                     
#   2 MAG_AUTO               Kron-like elliptical aperture magnitude                    [mag]
#   3 X_IMAGE                Object position along x                                    [pixel]
#   4 Y_IMAGE                Object position along y                                    [pixel]
#   5 X_WORLD                Barycenter position along world x axis                     [deg]
#   6 Y_WORLD                Barycenter position along world y axis                     [deg]
#   7 A_WORLD                Profile RMS along major axis (world units)                 [deg]
#   8 B_WORLD                Profile RMS along minor axis (world units)                 [deg]
#   9 THETA_WORLD            Position angle (CCW/world-x)                               [deg]
#  10 FWHM_WORLD             FWHM assuming a gaussian core                              [deg]
#  11 ELONGATION             A_IMAGE/B_IMAGE                                           
#  12 ELLIPTICITY            1 - B_IMAGE/A_IMAGE                                       
         1 -13.7017    214.6998     27.6263   1.4960363762e+01   2.9479682271e+01    0.8882418    0.6755524 -37.89  0.003940525    1.171    0.146
         2 -12.7499     56.9903      3.5233   2.7432504699e+01   7.0555309003e+01    0.7396026    0.2494954  63.67  0.002818041    2.589    0.614
         3 -10.8525     54.6870    239.5537   8.9484118365e+01   1.7449015635e+01    0.1090735   0.09791378  23.87 0.0004033618    1.180    0.152
         4 -13.2706    246.7072    246.0487   5.3341250278e+01  -3.2881888891e+00    0.7716792    0.5192218  -8.74  0.006649895    1.090    0.083
         5 -13.2315    248.6719    232.7607   5.1215462237e+01  -2.0769682278e+00    0.9063428    0.2056202 -34.95  0.004411839    3.693    0.729
         6 -14.5070    121.0253    234.6919   7.4223101166e+01   1.0923564738e+01     5.883014     4.329805 -72.00   0.03707295    2.035    0.508
         7  -9.3974    161.0000    200.9971   6.1233879363e+01   1.1522921521e+01    0.1940065   0.06725825 -45.53 0.0008083498    2.984    0.665
         8  -9.8903    211.0985    198.7797   5.1728649131e+01   5.6979053591e+00    0.1586184    0.1304131  -6.63 0.0004999435    1.156    0.135
         9  -9.3963     56.0034    192.6749   8.5511476519e+01   2.7006668310e+01    0.1705922    0.1579772  72.42 0.0005282607    1.114    0.102
        10 -10.5560     41.9997    189.1917   8.9071028245e+01   2.9370032437e+01    0.2366735    0.1351887  47.33 0.0008413744    1.537    0.350
        11 -15.7155     68.6885    143.7237   7.5496085706e+01   3.7503053909e+01     2.571178     1.862268  62.96   0.01168528    1.489    0.328
        12 -10.2472     46.5191    173.3733   8.6354215842e+01   3.2719861718e+01    0.6341611    0.3854048 -70.68  0.003078516    1.694    0.410
        13  -9.4739     54.8009    180.7677   8.4676494316e+01   2.9948706908e+01    0.2643789    0.2024668  -9.88 0.0004025768    1.653    0.395
        14 -10.1002     49.6963    184.7225   8.6519833229e+01   2.9589227020e+01    0.3063771    0.2418886  -7.64  0.001672971    1.568    0.362
        15 -10.8010     50.5818    181.4835   8.5959325925e+01   3.0266272248e+01    0.2321433    0.2070762  34.69 0.0005494186    1.090    0.082
        16 -10.7180     49.5427    178.5025   8.5968660134e+01   3.1109310112e+01    0.2381139    0.1914216  53.65 0.0001101681    1.131    0.116
        17  -9.1175     74.3416    181.2947   7.9205835514e+01   2.7380706052e+01    0.2772101    0.1560539 -62.97  0.000929771    1.896    0.473
        18  -9.5340     72.5207    177.4978   7.9239933748e+01   2.8513040738e+01    0.2358546    0.1780396  87.93 0.0008564026    1.503    0.334
        19 -11.7118    173.5696    177.0567   5.4692630575e+01   1.3805800259e+01    0.6517689    0.3409416 -44.48  0.002780512    1.929    0.482
        20 -11.6588    179.6696    169.0383   5.2051185385e+01   1.4277185022e+01    0.5203455    0.4057463 -33.02  0.003201525    1.198    0.165
        21 -12.0006     60.4126    179.8560   8.2970608007e+01   2.9492982808e+01    0.4415608    0.3358164 -13.52  0.001315568    1.679    0.404
        22 -12.1196    139.4507    172.0618   6.1015950244e+01   1.9815706345e+01    0.3190946    0.2668172  48.84 0.0004506448    1.368    0.269
        23 -12.2882     53.6699    230.6406   8.9133305666e+01   1.9236260541e+01    0.3176632     0.190145  79.58  0.001775176    2.036    0.509
        24 -10.4760     52.9306    170.5929   8.4141792743e+01   3.2670519405e+01    0.3123842    0.1888731  50.57  0.001468343    1.575    0.365
        25 -10.4557     52.4752    166.5971   8.3831943221e+01   3.3732029694e+01    0.2664074    0.2274655  32.52 0.0005944832    1.138    0.121
        26 -11.7503    234.0005    168.3349   4.3014047209e+01   7.1612137599e+00    0.3209576    0.1325029 -43.02  0.001606611    2.520    0.603
        27 -11.2637     67.9332    214.4281   8.4411917425e+01   2.0905556692e+01    0.1673814    0.1457654  37.44 0.0001903776    1.035    0.034
        28 -10.9108     46.2565    163.4503   8.5406419521e+01   3.5267870779e+01    0.4017632    0.1901575  40.61  0.001110638    1.876    0.467
        29 -10.2418    231.4579    160.4962   4.1957229540e+01   8.5396878531e+00    0.1165705   0.08899923 -21.90 2.698017e-05    1.028    0.028
        30 -10.5645    138.9923    155.5605   5.8006681050e+01   2.3202448192e+01    0.2490338    0.1998887 -45.54  0.001348301    1.254    0.202
        31  -9.7837      1.4239    155.9089   9.9151625010e+01   4.1296676187e+01    0.1889024    0.1206972 -83.29 7.077443e-05    1.469    0.319
        32 -12.1764    112.1808    150.3837   6.3728676890e+01   2.8876664491e+01    0.6208462    0.3810143 -86.20   0.00220945    3.369    0.703
        33 -11.8743    108.9293    145.3660   6.3619738204e+01   3.0592030698e+01    0.3603255    0.3417764 -36.71 0.0006826805    1.067    0.063
        34 -19.2056     22.2580    134.4659   9.0540530743e+01   4.5541420013e+01     19.71299     3.720544 -79.04    0.0471339    5.975    0.833
        35 -12.1920    133.4204    145.3998   5.7261483203e+01   2.6281968133e+01     1.013002    0.3239474 -53.22  0.003119623    3.773    0.735
        36 -11.8220     91.1624    148.8944   6.9397032842e+01   3.2723555772e+01    0.3894288      0.29583  33.23 0.0003623044    1.287    0.223
        37 -13.1919     96.7334    143.2991   6.6687672512e+01   3.3171109320e+01    0.8346329    0.6022055 -36.82  0.002812544    1.546    0.353
        38  -9.7520    114.1270    145.9555   6.2320781735e+01   2.9553967400e+01    0.2168691     0.196045  78.76 0.0003067897    1.248    0.199
        39 -10.1355    147.8789    144.8562   5.3767974332e+01   2.3844192795e+01    0.1857932    0.1721863  80.93 0.0005321096    1.314    0.239
        40 -12.6262    106.4841    131.7986   6.1438829461e+01   3.4224755377e+01    0.7295472    0.4791736 -60.27  0.002185928    1.626    0.385
        41  -9.7008    115.1363    136.1401   5.9977725818e+01   3.1625350202e+01    0.2008628    0.1767809  71.95 0.0003649703    1.280    0.219
        42 -11.9168     96.3650    130.9555   6.4243421791e+01   3.6259680050e+01    0.3110435    0.2923746 -23.92 0.0004651469    1.133    0.118
        43 -12.0688    133.9000    127.9474   5.3267766282e+01   2.9921484818e+01    0.6486275    0.4538463 -66.73  0.001775757    1.815    0.449
        44 -10.5231    115.0016    125.5743   5.7614519580e+01   3.4085348271e+01    0.2837783    0.2118658 -30.96 0.0007399673    1.502    0.334
        45  -9.7718    184.5034    122.9872   4.1653045962e+01   2.1415122559e+01    0.1882475    0.1096749 -17.77 0.0006744106    2.364    0.577
        46 -10.6255    102.6570    120.6314   5.9980245963e+01   3.7615747571e+01    0.2942821    0.2496422   1.72  0.001113645    1.417    0.294
        47 -11.4811    160.4368    118.5157   4.5100989651e+01   2.6691088717e+01    0.4853756    0.4274503  71.36   0.00195301    1.345    0.256
        48 -10.3035    110.1370    115.9274   5.6630741452e+01   3.7274383231e+01    0.2323996    0.2251138 -34.67 0.0004928649    1.054    0.052
        49 -11.7375    116.6594    109.7325   5.3202495225e+01   3.7375034163e+01    0.4347142     0.363606  86.82  0.001389641    1.404    0.288
        50 -11.7184    119.2487    104.5536   5.1109567750e+01   3.7989888105e+01    0.3399409    0.2858622 -68.36  0.001687385    1.266    0.210
        51  -9.9308     90.1785    109.9468   6.1244127979e+01   4.2619958278e+01    0.2439153    0.2076951  76.50 0.0004405538    1.288    0.224
        52 -10.9076    134.5058    105.4957   4.7494789552e+01   3.4554114204e+01    0.4438983    0.1392921 -47.11   0.00136819    3.157    0.683
        53 -10.6454     81.5553    104.7577   6.2835113649e+01   4.5553141109e+01    0.2963095    0.2152621  40.40  0.000680089    1.387    0.279
        54 -11.9302    112.5308     99.7753   5.1632551975e+01   4.0482591043e+01    0.5301315    0.3987599  86.23   0.00196698    1.755    0.430
        55  -9.6073     77.0357    101.5329   6.3603396263e+01   4.7212040410e+01    0.2397431    0.1551171  39.38 0.0007121717    1.556    0.358
        56 -10.7825    152.5702    208.2666   6.4070704780e+01   1.1414402356e+01    0.1965009    0.1774994 -16.92   0.00100468    1.194    0.163
        57 -10.4341    131.7033     93.3200   4.4793971738e+01   3.7667872929e+01    0.2848111    0.2277598 -75.30 0.0006338489    1.437    0.304
        58 -10.0536    129.3274     90.7320   4.4615992952e+01   3.8723918079e+01    0.2513216    0.2327888  71.52 0.0005218608    1.114    0.102
        59 -11.0069     61.4585    202.3230   8.4955626470e+01   2.4214078936e+01    0.1977676    0.1488188  64.95 0.0005257643    1.366    0.268
        60 -10.1782     99.2786     89.0267   5.2403708531e+01   4.5767745204e+01    0.3703654    0.2120394  62.57 0.0009538837    2.327    0.570
        61 -10.3875     93.9927     85.6954   5.3058696175e+01   4.7669424051e+01     1.034826    0.3258327  55.65  0.002143587    7.215    0.861
        62  -9.7696    155.2160     86.6235   3.7863082058e+01   3.3730819884e+01    0.1966076    0.1360731  44.40 0.0006873238    1.633    0.388
        63  -9.4493     70.3761    233.9819   8.5483466751e+01   1.6822525048e+01    0.1222436   0.08913027 -10.73 0.0004073022    1.736    0.424
        64 -11.6940     76.4444     80.8715   5.7723469523e+01   5.2461756479e+01    0.5294144    0.2902674  56.81  0.001088493    2.263    0.558
        65  -8.9764    202.7315     74.7038   2.7523241326e+01   2.5755811849e+01    0.1190289   0.09729596  -6.08 0.0002103693    1.517    0.341
        66  -9.7797    113.0169     73.0263   4.3226024513e+01   4.6057232478e+01    0.2360956    0.1811254 -78.19            0    1.537    0.349
        67 -12.9420    173.2474     66.7382   2.9308479080e+01   3.3067718013e+01    0.5200135    0.4692762  60.42 0.0009121879    1.255    0.203
        68 -11.5901    165.9744     64.6550   2.9796244001e+01   3.5020041467e+01     0.443553    0.1957552 -32.57  0.001092075    2.179    0.541
        69  -8.9480    148.0097     65.0278   3.2880509025e+01   3.9135646392e+01    0.1752261     0.158186 -57.27  0.000305689    1.012    0.012
        70 -13.6761    189.8595     53.6726   2.3665990181e+01   3.1360189907e+01     1.041894    0.8930683  16.87  0.003900843    1.576    0.366
        71 -12.0399    195.6279     47.9498   2.1566869888e+01   3.0906956774e+01    0.3400901    0.3102241 -24.73 0.0009932299    1.263    0.208
        72 -12.3370     47.9223    228.9462   9.0379783696e+01   2.0157491234e+01    0.2453413    0.2189672 -33.09  0.001696654    1.418    0.295
        73 -10.0149     51.4617    201.9140   8.7542428659e+01   2.5432306092e+01    0.2006454    0.1247422 -66.58 0.0007818736    1.772    0.436
        74 -10.3439     91.3262     48.7569   4.0373972198e+01   5.5873045236e+01    0.3774116    0.2479687  81.59  0.001572129    2.045    0.511
        75 -12.1488     59.9839    227.6213   8.7425765264e+01   1.9154597990e+01    0.1928271    0.1649788 -12.06 0.0007136804    1.411    0.291
        76 -12.4599     91.9818    241.2724   8.1228721120e+01   1.3139326184e+01    0.2533681    0.1647066 -52.89 0.0006326981    1.867    0.464
        77 -10.5899     89.8132    222.0630   7.9860100045e+01   1.6836685001e+01    0.3689158    0.1771176  27.06  0.001673398    1.760    0.432
        78 -11.9645     89.2859    217.1999   7.9477457320e+01   1.7828779959e+01    0.3900862    0.3628117 -61.00  0.002610695    1.269    0.212
        79 -10.3855     60.8689     21.1590   3.7354645602e+01   6.7594774955e+01    0.2139907    0.1924828  89.83 0.0006403514    1.219    0.180
