#   1 NUMBER                 Running object number                                     
#   2 MAG_AUTO               Kron-like elliptical aperture magnitude                    [mag]
#   3 X_IMAGE                Object position along x                                    [pixel]
#   4 Y_IMAGE                Object position along y                                    [pixel]
#   5 X_WORLD                Barycenter position along world x axis                     [deg]
#   6 Y_WORLD                Barycenter position along world y axis                     [deg]
#   7 A_WORLD                Profile RMS along major axis (world units)                 [deg]
#   8 B_WORLD                Profile RMS along minor axis (world units)                 [deg]
#   9 THETA_WORLD            Position angle (CCW/world-x)                               [deg]
#  10 FWHM_WORLD             FWHM assuming a gaussian core                              [deg]
#  11 ELONGATION             A_IMAGE/B_IMAGE                                           
#  12 ELLIPTICITY            1 - B_IMAGE/A_IMAGE                                       
         1  -9.8960     16.0000     44.0030   9.0178683234e+01   6.7636379922e+01    0.2124279   0.06477862 -57.60 0.0008090498    2.988    0.665
         2 -10.8565      4.7492     40.2576   9.5470522671e+01   6.9187321517e+01    0.3572558    0.1061665 -65.41  0.001311551    3.697    0.729
         3 -10.4551     49.6030    226.6017   1.0727520286e+02   2.0892069723e+01    0.2674533     0.116677  66.89  0.001144764    3.021    0.669
         4  -9.9802     16.2258    221.4156   1.1420461103e+02   2.5320881403e+01    0.1634574   0.08391736  42.75 0.0006023512    1.598    0.374
         5  -9.6777    143.3309    216.6463   8.4790633589e+01   1.0278383116e+01    0.1311908    0.1002541  60.22 0.0007045915    1.781    0.438
         6  -9.8451    116.3441    210.6691   9.0089008553e+01   1.5418665554e+01    0.1397485   0.09754962  59.18 0.0007050625    1.754    0.430
         7 -10.6647     77.0000    209.9677   9.9384061777e+01   2.1053190941e+01    0.2045391   0.07456702 -64.56            0    3.001    0.667
         8 -10.8397    242.9940    207.9940   6.3796233683e+01  -2.2524313091e+00    0.1877444    0.1530701 -81.17 0.0009556392    4.105    0.756
         9  -9.8037    140.3096    200.6388   8.2951306028e+01   1.3736914121e+01     0.135488    0.1074039  66.52 0.0007040762    1.743    0.426
        10 -10.0880    149.3459    198.6743   8.0549597604e+01   1.2689608529e+01    0.1356736    0.1073048  62.46 0.0007050215    1.745    0.427
        11 -10.0020    112.3354    197.6676   8.9154298080e+01   1.8673559886e+01    0.1439571    0.1025934  61.82 0.0006004039    1.735    0.424
        12  -9.8812    160.3163    193.6791   7.7210126019e+01   1.1879984494e+01    0.1300925    0.1105135  66.15 0.0004301436    1.660    0.398
        13  -9.8089    172.5167    191.0447   7.4065718286e+01   1.0405983923e+01    0.1763599      0.12524 -69.12 0.0008096257    2.556    0.609
        14  -9.9995    138.4098    189.1987   8.1460593551e+01   1.6305170312e+01    0.1906711    0.1390199 -62.45 0.0009532937    1.731    0.422
        15 -10.3066     94.5962    186.4243   9.1938361213e+01   2.3783995930e+01    0.2680248    0.1357587 -77.90 0.0009554789    3.429    0.708
        16 -10.5619    120.2419    185.4704   8.5251855090e+01   2.0028900417e+01    0.2924741    0.1259913 -66.23 0.0008926738    4.514    0.778
        17 -10.1028    108.7980    185.4100   8.8130955545e+01   2.1854209491e+01    0.2924641    0.1705857  83.59  0.000957502    4.311    0.768
        18 -10.4540     66.1921    184.6870   9.9136921594e+01   2.8097082728e+01     0.300754    0.1938187  71.05  0.001458591    1.828    0.453
        19  -9.2749    100.9696    175.9782   8.8629654748e+01   2.5193273680e+01    0.1633714    0.1548222  32.06 0.0009284275    1.008    0.008
        20 -10.3735     76.7220    175.7372   9.5122209862e+01   2.8815938960e+01    0.2368336   0.09348325  41.79 0.0008985781    2.401    0.584
        21 -10.3422    149.6991    169.1491   7.5023745018e+01   1.8479269607e+01    0.2248577    0.1926839 -66.79  0.001189485    1.463    0.316
        22 -10.3660    121.3946    169.2039   8.2067558173e+01   2.3394214964e+01    0.2056385    0.1438117 -65.06 0.0009522812    1.731    0.422
        23 -10.6943    138.9818    164.2319   7.6637860586e+01   2.1411142543e+01    0.4088198    0.2599736 -67.99  0.001683395    2.414    0.586
        24 -10.5864     80.6513    164.6935   9.2355798107e+01   3.0914792785e+01      0.35954    0.2048063  71.63  0.001341921    2.932    0.659
        25 -10.4249     92.8269    160.2253   8.8157585466e+01   3.0163848668e+01    0.2614528     0.151507  66.80 0.0009577629    2.869    0.651
        26 -10.1777      8.6756    159.9977   1.1222362798e+02   3.9844552260e+01    0.2178161   0.07487325  76.38 0.0007047112    4.270    0.766
        27 -10.2040    105.4598    158.1492   8.4241273628e+01   2.8614042236e+01    0.2928799     0.187091  65.24  0.001187666    2.305    0.566
        28 -10.1559    132.6707    152.3542   7.5773188600e+01   2.5136769198e+01    0.1539491    0.1220227  79.11 0.0007046022    1.778    0.437
        29 -10.3271     49.4868    154.9976   9.9970386144e+01   3.7356784603e+01    0.2050526    0.1116925  79.95 0.0008103309    2.564    0.610
        30 -10.6182     38.9848    147.2992   1.0211613133e+02   4.0435182920e+01    0.2941182    0.1531431  75.80  0.001167426    2.660    0.624
        31 -11.1226    107.7474    145.6739   8.1103294623e+01   3.1165379593e+01     0.564221    0.3153815  66.46  0.001769688    3.913    0.744
        32 -10.4216    148.6555    145.3915   7.0242301680e+01   2.3626036369e+01     0.322762    0.2265583  85.19  0.001258712    2.800    0.643
        33 -10.5988     55.4818    145.4658   9.6761618816e+01   3.9067125878e+01    0.3430027    0.1917212  65.20  0.001382429    2.464    0.594
        34 -10.7915    125.2341    143.5166   7.5807734082e+01   2.8493132324e+01    0.3535624    0.2356231  89.18  0.001282166    3.058    0.673
        35 -10.8235     88.0306    144.0315   8.6527559428e+01   3.4858501983e+01    0.2473345    0.1825975  70.57 0.0008734485    1.721    0.419
        36 -10.8473     23.4421    138.5744   1.0586675403e+02   4.4081659670e+01    0.3453304    0.1596345  60.90   0.00138624    2.764    0.638
        37 -10.8708     83.8771    132.5332   8.5463990167e+01   3.8357540277e+01    0.4628415    0.2522585  60.64  0.001626255    2.995    0.666
        38 -10.2911    132.1808    131.7990   7.1259477905e+01   2.9778541677e+01     0.257168    0.1759751  85.32  0.000947852    2.856    0.650
        39 -10.4946     12.8581    129.5814   1.0823618393e+02   4.7157865539e+01    0.2725467     0.138455  64.67  0.001207763    2.347    0.574
        40  -9.8623    152.6828    129.3498   6.5527212096e+01   2.6182170212e+01    0.1529507    0.1236898 -84.13 0.0007047697    1.733    0.423
        41 -11.1683     98.5290    127.0864   7.9714483695e+01   3.7224932409e+01    0.6650128    0.3573042 -70.92  0.002214987    3.230    0.690
        42 -10.7495     59.1484    124.1919   9.1851967114e+01   4.4037429160e+01    0.3728182    0.2200861  79.56  0.001401521    2.865    0.651
        43 -11.6521     43.1804    122.0875   9.6950298256e+01   4.6466717315e+01    0.8020188    0.3865063 -88.01  0.002721649    3.548    0.718
        44 -11.0632     28.2572    122.6056   1.0219934300e+02   4.7771710426e+01    0.5617645    0.2539647  73.47  0.001824161    4.234    0.764
        45 -11.5292     71.2001    119.4262   8.6771664568e+01   4.3569504468e+01    0.4959356    0.2760921 -74.16  0.001882702    2.511    0.602
        46 -11.0331      2.6460    116.0231   1.1019633500e+02   5.1193185860e+01    0.6074858    0.2237063  82.42  0.002074143    3.983    0.749
        47 -11.0020    108.7696    113.4398   7.3249437254e+01   3.8523622958e+01    0.6445959    0.3239072 -63.19  0.002095734    3.224    0.690
        48 -11.1641     92.6264    112.8548   7.8111714965e+01   4.1673870956e+01    0.4285474    0.3096698 -78.14  0.001869484    1.913    0.477
        49 -11.0519     13.7239    109.9298   1.0555434946e+02   5.2103905672e+01    0.4870227    0.2027849 -87.54  0.001827087    3.051    0.672
        50 -10.1874    141.3852    119.1794   6.5764930585e+01   3.0633252412e+01    0.2250475    0.1430845 -53.57 0.0008583629    1.752    0.429
        51  -9.9667    140.0026    105.4763   6.2507169266e+01   3.3770904544e+01    0.2186257    0.1381194  70.19 0.0008095825    2.587    0.614
        52 -11.8544     45.3585    102.2008   9.2289403257e+01   5.1285317956e+01    0.7606556    0.3903753  70.14  0.002209621    5.355    0.813
        53 -11.0548     22.0046    101.1373   1.0110162341e+02   5.3757980171e+01    0.6785182    0.3015587  71.37  0.001971113    5.705    0.825
        54 -10.8218      6.6227    102.9106   1.0723940926e+02   5.4293697959e+01    0.2672357    0.1518322  87.96  0.001299311    1.897    0.473
        55 -11.2138     78.6595    111.8314   8.2478333058e+01   4.4293686171e+01    0.6670445     0.363016 -77.22  0.002114769    3.798    0.737
        56 -11.3172     63.4151     95.7731   8.3872024520e+01   5.0527988472e+01    0.6671545     0.376072 -81.03  0.002186128    3.884    0.743
        57 -10.7419     94.4494     96.7354   7.3175594009e+01   4.5069262508e+01     0.303352    0.1503179 -52.89  0.001141238    2.171    0.539
        58 -10.6246    124.3995     91.2176   6.2555016342e+01   4.0075121603e+01    0.2233005    0.1433463 -52.05 0.0006755478    1.723    0.420
        59 -11.0212     34.5135     89.3004   9.3739567662e+01   5.5634014549e+01    0.5565652    0.2260665 -73.43  0.001865147    3.587    0.721
        60 -10.9838     86.3788     87.0240   7.3037380332e+01   4.8739476565e+01    0.3522472    0.2573097  86.79  0.001446748    2.321    0.569
        61 -11.0772     48.8604     84.8336   8.6698149171e+01   5.5114709718e+01     0.451899    0.2765138  72.54   0.00168099    3.426    0.708
        62 -11.1220    104.8530     83.5186   6.5892772154e+01   4.5835014995e+01    0.4107771    0.3000328  85.89  0.001722732    2.272    0.560
        63 -10.7176     23.9954     80.2227   9.6177779753e+01   5.8786738420e+01     0.413039    0.2127684  84.63  0.001402646    4.337    0.769
        64 -10.2067     74.4077     80.6151   7.5376706163e+01   5.2281592529e+01    0.2865649    0.1397493 -62.15 0.0009549219    3.309    0.698
        65 -12.1226    109.5573     99.5324   6.9227885725e+01   4.1475632379e+01    0.8739617     0.589721  83.80   0.00320243    2.957    0.662
        66 -11.2388     62.7173     72.6268   7.7388426509e+01   5.5942722517e+01     0.676485    0.1892202 -52.49  0.002025588    3.932    0.746
        67 -10.9880     82.1644     72.9740   7.0052251294e+01   5.2511563920e+01    0.3924025    0.2463917 -67.52  0.001523452    2.742    0.635
        68 -10.1267    105.8271     72.0048   6.1884239786e+01   4.7895996526e+01    0.2486147     0.177909 -68.11 0.0009847095    2.031    0.508
        69 -11.0232     51.1689     69.2832   8.1155764386e+01   5.8371629507e+01    0.4761212    0.2424299 -67.65  0.001682819    3.503    0.715
        70 -13.1185    244.2342     58.9086   3.3614343144e+01   1.9226697642e+01      0.99638     0.236351 -46.18  0.003637929    3.664    0.727
        71 -11.4551     37.0541     63.4278   8.5680303614e+01   6.1430036035e+01    0.4650969    0.2300356 -65.59    0.0018764    2.720    0.632
        72 -10.6749      7.3231     56.8538   9.8624698752e+01   6.5400081500e+01    0.2564536    0.1143533 -74.18  0.001093471    2.657    0.624
        73 -10.4047     43.6904     54.5614   7.9533153268e+01   6.2504412513e+01    0.2528935    0.1179641 -49.58  0.001091743    2.074    0.518
        74  -9.8949    105.6603     53.3281   5.5448776236e+01   5.1211767099e+01    0.1472541    0.1172118 -79.75 0.0007051651    1.735    0.424
        75 -10.7432     31.2546     51.8900   8.4705854893e+01   6.4553086407e+01    0.3114796    0.2288734  82.79  0.001531177    2.498    0.600
        76 -10.4646     91.7382     48.4750   5.7888611929e+01   5.5072520753e+01    0.3686658    0.1124544 -40.64  0.001203553    3.455    0.711
        77 -10.8765    160.0188    238.3208   8.4393668628e+01   4.2451410762e+00    0.2420178     0.178307 -53.36  0.001352729    1.835    0.455
