#   1 NUMBER                 Running object number                                     
#   2 MAG_AUTO               Kron-like elliptical aperture magnitude                    [mag]
#   3 X_IMAGE                Object position along x                                    [pixel]
#   4 Y_IMAGE                Object position along y                                    [pixel]
#   5 X_WORLD                Barycenter position along world x axis                     [deg]
#   6 Y_WORLD                Barycenter position along world y axis                     [deg]
#   7 A_WORLD                Profile RMS along major axis (world units)                 [deg]
#   8 B_WORLD                Profile RMS along minor axis (world units)                 [deg]
#   9 THETA_WORLD            Position angle (CCW/world-x)                               [deg]
#  10 FWHM_WORLD             FWHM assuming a gaussian core                              [deg]
#  11 ELONGATION             A_IMAGE/B_IMAGE                                           
#  12 ELLIPTICITY            1 - B_IMAGE/A_IMAGE                                       
         1 -11.4058    241.0227     18.4064   6.6593763670e+01   2.2410604913e+01    0.4390219    0.2287024 -26.16  0.001545183    1.705    0.413
         2 -10.0611    143.3145     18.3234   7.8414633247e+01   4.7118183001e+01     0.249632    0.2380364 -59.27 0.0007054902    1.098    0.089
         3  -9.7544    201.7779     11.8248   6.8259983613e+01   3.2407738356e+01    0.3598152    0.1758865  49.49   0.00129703    2.180    0.541
         4  -9.8515    229.3806      8.9591   6.5041464731e+01   2.5967986401e+01    0.2372202    0.1850486  62.90 0.0006620606    1.372    0.271
         5  -9.7612    211.2439      8.8240   6.6497277062e+01   3.0330081598e+01    0.2119143    0.1715864 -54.33 0.0007593205    1.177    0.151
         6  -9.2688    139.1965      6.2919   7.4421523879e+01   4.9483088775e+01     0.282926     0.178615  18.64 0.0008011969    1.904    0.475
         7 -10.7041    248.9946      4.2711   6.2489776662e+01   2.1994214155e+01    0.4184252    0.2657492 -23.74  0.002370162    1.449    0.310
         8  -8.5037    179.9931      6.2417   6.8811731538e+01   3.8576766602e+01    0.1819177    0.1165881  73.24 0.0005147529    1.530    0.346
         9  -8.6060    242.6222      4.6920   6.3000107953e+01   2.3351080701e+01    0.1287863    0.0902399  34.98 0.0001844106    1.783    0.439
        10  -8.7790    134.0491      3.7122   7.4248577784e+01   5.1095872599e+01    0.2043601     0.179245  57.09 0.0004528191    1.080    0.074
        11  -8.8290    240.4794      2.4630   6.2577060405e+01   2.4027656954e+01    0.1270854    0.1112437 -47.13 0.0003191343    1.002    0.002
        12  -8.7991    109.2938      2.6774   7.8670287788e+01   5.7605258622e+01    0.1424665    0.1065925 -56.99 0.0004866173    1.615    0.381
        13 -10.1056    238.4545    231.4194   1.1201086324e+02  -1.2809566213e+00    0.3796853    0.2300308  52.37  0.002203073    3.226    0.690
        14  -8.8256    195.1870    233.4465   1.1918960845e+02   4.3145521293e+00    0.1558676   0.08046032  43.75 0.0009462239    1.775    0.437
        15  -9.3016    186.6258    231.4676   1.2037077199e+02   5.7176584072e+00     0.203965    0.1565243  73.11  0.001320247    2.622    0.619
        16  -9.7819    149.7832    226.6849   1.2622495078e+02   1.1517649078e+01    0.2154295    0.1605762  60.20  0.001507072    1.614    0.381
        17  -8.5764    207.2716    226.6542   1.1628686148e+02   3.3459365083e+00   0.09277982   0.07976328  46.04 0.0003401857    1.620    0.383
        18  -9.5781    161.7114    226.1299   1.2402698598e+02   9.8816748712e+00    0.1558722    0.1375438  59.72  0.001203813    1.441    0.306
        19  -9.4299    217.1982    223.8567   1.1427752505e+02   2.2556580303e+00    0.2383651    0.1920735 -60.42  0.001619538    2.702    0.630
        20  -8.6189    199.6161    224.7673   1.1729863860e+02   4.6165332292e+00    0.1267501    0.1037623 -36.64 0.0009566901    1.702    0.412
        21  -9.3269    181.5089    225.1749   1.2043550670e+02   7.1516083835e+00    0.2268436     0.118212  47.32  0.001213924    1.939    0.484
        22  -9.3009    229.3465    222.7041   1.1217344122e+02   7.1164854113e-01    0.1870831    0.1379626  42.93  0.001356855    1.692    0.409
        23  -9.8535    226.4831    220.5018   1.1230537448e+02   1.3116130311e+00    0.2217972    0.1838454 -35.42  0.001393161    1.841    0.457
        24  -9.0366    173.6592    223.3356   1.2156633202e+02   8.5000133566e+00    0.1078114   0.07821424  56.01 0.0003205142    1.758    0.431
        25  -9.5244    192.3802    220.9447   1.1800052979e+02   6.0696547437e+00    0.2182849    0.1319206  44.68  0.001384378    1.606    0.377
        26 -10.7009    248.7569    216.6066   1.0827333007e+02  -1.3045835755e+00    0.3077574    0.2896914 -18.46  0.002541477    1.870    0.465
        27  -9.1799    210.6073    219.8335   1.1478077648e+02   3.5859195861e+00    0.1789702    0.1611547  50.08  0.001380581    1.691    0.409
        28  -9.0077    204.3415    220.6797   1.1594140454e+02   4.3846315382e+00    0.1009161   0.08032067  50.73 0.0007049983    1.720    0.418
        29  -9.8574    233.1940    215.0054   1.1042651022e+02   9.2605626541e-01    0.2312332    0.2089102  12.66  0.001725451    1.499    0.333
        30  -9.0259    168.6525    216.3095   1.2154403917e+02   1.0101091858e+01    0.1641099     0.121447  58.10  0.001077905    1.731    0.422
        31 -10.6185    131.7459    214.0453   1.2810093939e+02   1.5847472614e+01    0.3228538    0.1613528 -60.04  0.001768621    2.824    0.646
        32  -9.1271    154.8538    214.7406   1.2385739102e+02   1.2354558860e+01    0.1950311    0.1478046  78.09  0.001241577    2.104    0.525
        33 -11.0255    237.4167    208.6898   1.0879321652e+02   9.5780614695e-01    0.4301699    0.3308111  61.41  0.002711637    2.785    0.641
        34 -10.9875    227.3230    210.1090   1.1061294716e+02   2.2260058237e+00     0.325913    0.2158781  -6.27  0.002243547    1.476    0.323
        35 -10.9027    215.4081    210.6584   1.1263845066e+02   3.8694017160e+00    0.3708743    0.3222135  -9.10  0.002879506    1.366    0.268
        36 -10.0536    204.8088    207.3656   1.1392116420e+02   5.7845369075e+00     0.257622    0.1642113 -30.21  0.001673934    1.807    0.447
        37  -9.1018    161.3358    212.6734   1.2239723569e+02   1.1663367483e+01    0.1129977   0.08097326  58.06 0.0005646925    1.721    0.419
        38  -9.7577    176.0689    210.6914   1.1944804800e+02   9.7022293511e+00    0.2950399    0.1710016  54.79  0.001603504    2.322    0.569
        39  -9.0148    147.5052    210.0367   1.2463286182e+02   1.4097898691e+01    0.1487868    0.1185208 -49.84  0.001002837    1.607    0.378
        40  -9.2549    191.6238    208.7905   1.1641245249e+02   7.5906886721e+00    0.1346528    0.1094138 -40.42 0.0009484122    1.654    0.395
        41  -9.8430    185.7094    213.4515   1.1811821370e+02   7.9176689733e+00     0.259819    0.2326854 -50.73  0.001429805    1.639    0.390
        42 -10.5902    229.0150    200.6879   1.0885946920e+02   2.9544496697e+00    0.2142403    0.1467438  -4.84  0.001179209    1.378    0.274
        43 -12.0158    224.4226    192.9094   1.0833663430e+02   4.4679559040e+00    0.5011115    0.4644736 -88.85   0.00354852    2.017    0.504
        44 -10.8343    249.6695    177.3410   1.0163970279e+02   2.3735474454e+00    0.6132694    0.1989905 -28.26  0.002833351    3.011    0.668
        45 -10.8546    235.8702    181.8808   1.0459600145e+02   3.9513520033e+00    0.4702905    0.3778019 -64.06  0.002810374    2.779    0.640
        46 -11.2704    238.8270    188.8464   1.0533153195e+02   2.7648628177e+00    0.4482678    0.3423645   1.59   0.00320621    1.119    0.106
        47 -11.6210    244.6094    202.7355   1.0673233403e+02   5.4223242177e-01    0.5561557    0.4684252  62.22  0.003828388    2.418    0.587
        48 -11.2253    237.4715    198.1833   1.0710478090e+02   1.9961310354e+00    0.4091278    0.3252016 -26.73  0.002996354    1.583    0.368
        49 -10.3054    231.8421    195.0025   1.0747732364e+02   3.1407078187e+00    0.2524869    0.2216024  -6.68  0.001203768    1.369    0.269
        50 -11.7099    247.4054    192.9561   1.0469383422e+02   1.1103758317e+00    0.6233196    0.3913326 -33.08  0.004062515    1.929    0.482
        51 -11.3994    243.6766    182.6540   1.0350203891e+02   2.7014049159e+00    0.6688203    0.5190396  63.03  0.004110868    2.539    0.606
        52 -10.5729    196.9082    204.8011   1.1489652213e+02   7.2680557138e+00    0.3773805    0.2139869  53.35  0.001997266    2.497    0.600
        53  -9.8277    211.5334    201.9955   1.1195375698e+02   5.3886860587e+00    0.2506762    0.2256063 -59.65  0.001796933    1.908    0.476
        54 -10.6085    221.7612    201.2597   1.1013242372e+02   3.9522868635e+00    0.2555385    0.2057901  75.67  0.001524566    2.929    0.659
        55  -8.5358    184.3006    201.3351   1.1661281253e+02   9.6286893887e+00    0.1202377   0.07945662  12.03 0.0004131911    1.657    0.397
        56  -9.5312    203.2958    198.4421   1.1280493888e+02   7.0485945626e+00    0.1589955    0.1495974 -60.36 0.0007512304    1.685    0.406
        57  -9.4516    178.7986    199.6131   1.1735628786e+02   1.0708821064e+01    0.1703036     0.094182  44.75 0.0006577238    1.650    0.394
        58  -9.7433    148.7297    197.4351   1.2273277777e+02   1.5733474338e+01     0.221061    0.1515788 -66.54   0.00129293    2.191    0.544
        59 -10.6894    216.3473    195.4076   1.1009016323e+02   5.4078600083e+00    0.2951835    0.2864089  89.05  0.002196588    1.732    0.423
        60  -9.5873    210.1693    195.9013   1.1121680405e+02   6.2928328267e+00    0.2092078    0.2034891  21.09 0.0007855447    1.494    0.331
        61  -9.2820    207.3317    192.6580   1.1117814906e+02   7.1130682150e+00    0.2017233     0.162763 -61.96  0.001136846    2.271    0.560
        62  -9.9523    185.6154    194.7516   1.1536924608e+02   1.0269754982e+01    0.2930226    0.1944072  48.05  0.001761938    1.585    0.369
        63  -8.4761    104.2527    193.6260   1.3121274125e+02   2.3052907710e+01    0.1185733   0.08017491  67.96 0.0005429503    1.643    0.391
        64  -9.3154    210.8248    190.3417   1.1019534413e+02   6.8444428866e+00    0.1775731    0.1369106  42.40 0.0008437862    1.424    0.298
        65 -11.0235    231.2647    186.8800   1.0620303718e+02   4.1005769236e+00    0.3479556    0.3086392   4.98   0.00228941    1.306    0.234
        66  -9.1912    191.4689    187.4961   1.1314472031e+02   1.0278293706e+01     0.182328    0.1158108 -47.59  0.001027028    2.177    0.541
        67  -9.4317    225.2652    183.7685   1.0664733699e+02   5.3641980705e+00    0.2354295    0.1657028  22.73  0.001402325    1.155    0.135
        68  -9.0176    202.5871    184.2212   1.1060465123e+02   8.9003850779e+00    0.1602608    0.1070826 -14.72 0.0009500498    1.627    0.385
        69  -9.7224    147.6637    179.0662   1.2026249872e+02   1.8745167024e+01    0.3553516    0.1121961 -42.86  0.001375052    3.855    0.741
        70  -9.3281    218.1013    177.6011   1.0676495224e+02   7.2155583520e+00    0.1944165    0.1586653 -22.83   0.00125852    1.356    0.263
        71  -8.8385    211.8371    176.7616   1.0768998824e+02   8.3322793218e+00    0.1523855    0.1403867  31.68 0.0008620364    1.347    0.257
        72  -8.9504    191.6725    177.3378   1.1139618446e+02   1.1598478152e+01    0.1149214   0.09893493  70.20 0.0007051763    1.729    0.422
        73  -8.5097    241.3348    164.6387   1.0059430196e+02   5.0232244561e+00    0.1058283   0.09673541 -55.27 0.0007038099    1.814    0.449
        74  -9.3769    242.6740    155.0965   9.8555399079e+01   5.8990146644e+00    0.2413901    0.2055589 -87.57  0.001458855    2.352    0.575
        75  -9.1099    229.2512    153.5639   1.0038963412e+02   8.3079964265e+00    0.1678099    0.1033278  30.09 0.0003551339    1.488    0.328
        76  -9.6725    133.8537    152.9871   1.1892173626e+02   2.5608892998e+01    0.2222399    0.1569677 -15.19  0.001096815    2.099    0.524
        77 -11.1360    240.9528    149.1402   9.7645445429e+01   6.8771776762e+00    0.4447539    0.2247961  40.46  0.002132226    1.886    0.470
        78 -10.7208    247.2770    143.5265   9.5549010249e+01   6.4867417672e+00    0.6058667    0.3065759   8.63  0.002611783    2.992    0.666
        79 -10.1257    244.9914    140.6680   9.5309751969e+01   7.2038804580e+00    0.2949666    0.1898629  64.35  0.001200475    2.836    0.647
        80  -9.1295    214.4676    149.5122   1.0206830753e+02   1.1401711972e+01    0.1303613    0.1105264  11.36 9.826633e-05    1.009    0.009
        81  -9.4826    235.3066    146.8569   9.8072346732e+01   8.1012280281e+00    0.2068877    0.1656187  41.38 0.0008554805    1.389    0.280
        82  -9.2352    113.6477    135.3067   1.2049762837e+02   3.2590217760e+01    0.1439026    0.1028907  70.44 0.0001233799    1.713    0.416
        83  -8.2486    226.3043    134.3125   9.6912343655e+01   1.1272611760e+01    0.1354827   0.08965001  11.02  0.000702146    1.615    0.381
        84  -8.3500    121.6984    133.7095   1.1820102372e+02   3.1486338718e+01    0.1338427    0.1093317   0.83 0.0002030525    1.566    0.361
        85  -9.8624    235.9682    130.0303   9.4455685888e+01   1.0072002637e+01    0.2218701    0.1856142  44.68 0.0006898501    1.376    0.273
        86  -8.9199    187.0000    128.9723   1.0275363244e+02   1.9600891124e+01    0.2247847   0.07782464 -36.20 0.0008066095    2.971    0.663
        87  -9.8587    201.1264    125.9319   9.9413301772e+01   1.7245201884e+01    0.4119418    0.1820396 -37.38  0.001738278    2.293    0.564
        88  -8.8781    212.4957    123.5332   9.6859123628e+01   1.5348685014e+01    0.1375334    0.1193843   7.39 9.528179e-05    1.028    0.027
        89  -9.4444    232.2988    121.0490   9.3059633446e+01   1.1890493787e+01    0.1872848    0.1488883 -16.77 0.0005797933    1.142    0.124
        90  -8.7919    171.6745    121.6659   1.0417851945e+02   2.3918716035e+01    0.1499527    0.1078498  10.23 0.0007051287    1.714    0.417
        91  -8.4402    213.3131    119.3474   9.5766905275e+01   1.5778985144e+01    0.1452056   0.09743132  10.84 0.0007046655    1.716    0.417
        92  -9.7611    192.3758    118.4884   9.9327262398e+01   2.0149060115e+01    0.2546676    0.2447037 -81.20 0.0008246528    1.289    0.224
        93  -8.2301    226.6750    117.2678   9.3092336788e+01   1.3453527716e+01    0.1197636     0.106099 -65.17 0.0002329811    1.570    0.363
        94  -8.9999    153.6289    114.4158   1.0639361587e+02   2.8960206405e+01    0.2625687    0.2158258  71.37  0.001352924    1.474    0.321
        95  -8.9705    209.4868    114.1613   9.5219400406e+01   1.7287285741e+01    0.2008738    0.1937887 -61.40 0.0005429898    1.290    0.225
        96  -9.2341    241.6066    112.6064   8.9765402795e+01   1.1229762626e+01    0.2342265    0.1747546 -56.97   0.00114561    1.967    0.492
        97  -9.3941     25.4972    111.6832   1.4142622125e+02   4.9592826874e+01    0.1905648    0.1448561 -25.94   0.00116674    1.781    0.438
        98  -9.5064    237.1277    107.2167   8.9190044652e+01   1.2756829353e+01    0.2088862    0.1605258  13.29  0.001036834    1.280    0.218
        99  -8.8517    197.3064    107.0077   9.5659760705e+01   2.0884170640e+01    0.2025472    0.1732036 -18.78 0.0006000716    1.127    0.113
       100  -8.7285    108.6338    107.1726   1.1594942445e+02   3.9385772952e+01    0.2031364    0.1308963 -40.91 0.0007028223    1.673    0.402
       101  -8.7348    214.1356    104.8337   9.2209496974e+01   1.7666554409e+01    0.1944832    0.1500765  13.12 0.0005586463    1.333    0.250
       102 -10.1432    246.8689    102.6958   8.6766684309e+01   1.1476352994e+01    0.2875877    0.1982128  -6.37  0.001001531    1.413    0.292
       103  -9.4998    228.6019    104.4793   8.9826462851e+01   1.4778353936e+01    0.2596461    0.1315737  51.87 0.0008447944    2.106    0.525
       104  -8.2146    196.2891    102.2794   9.4673004478e+01   2.1824792611e+01    0.1427764    0.1051031  14.73 0.0003787012    1.523    0.343
       105  -9.4043    205.5946     98.2531   9.2024451998e+01   2.0417760492e+01    0.3034745    0.2025032  -0.75  0.001379917    1.828    0.453
       106  -9.2354    171.6293     95.8351   9.7784937346e+01   2.8326650776e+01    0.2182619    0.1323175 -44.77 0.0009521557    1.760    0.432
       107  -9.0241    233.6676     94.3448   8.6657970758e+01   1.5094414421e+01    0.1357012    0.1001495 -55.42  0.000705019    1.760    0.432
       108  -8.4553    228.6583     93.6958   8.7229905380e+01   1.6196248209e+01    0.1426917   0.09702388  16.53 0.0007040456    1.681    0.405
       109  -9.5144    150.9406     92.5366   1.0141534521e+02   3.3570210743e+01    0.2278903    0.2037036 -36.36 0.0007225797    1.132    0.117
       110  -9.2196    218.3185     86.0132   8.6868672100e+01   1.9405263762e+01    0.2309777    0.1108671  -6.02 0.0007048071    4.277    0.766
       111  -8.7641    235.5430     86.5124   8.4494702384e+01   1.5721820013e+01    0.1351027    0.1191951 -12.84 3.781407e-05    1.009    0.009
       112  -8.4296    192.4566     84.4758   9.0732489680e+01   2.5400032865e+01    0.1448426    0.1376917  -7.75 8.342507e-05    1.022    0.021
       113  -9.2672    186.4766     82.9102   9.1389311993e+01   2.7021175988e+01    0.3217078    0.2278507 -20.28  0.001545195    1.463    0.316
       114  -9.2753    172.0888     84.0900   9.4492292244e+01   3.0187378779e+01    0.2390435    0.1844506 -69.88  0.001125586    1.720    0.419
       115  -8.7289    196.2717     82.6372   8.9566907699e+01   2.4801651839e+01    0.1477787    0.1091407 -56.91 0.0004864032    1.657    0.396
       116  -8.8706    244.9887     80.9617   8.1896678127e+01   1.4509448661e+01    0.2056063     0.145838 -52.22 0.0006630395    1.685    0.407
       117  -8.5121    227.6781     83.3460   8.4813687860e+01   1.7763798024e+01     0.140562     0.100948 -55.44 0.0007049772    1.735    0.424
       118  -9.5552    240.6545     76.3251   8.1317798245e+01   1.5955205833e+01    0.3432228    0.2487988  26.14  0.001825799    1.518    0.341
       119  -8.8910    189.8326     76.9761   8.9142015360e+01   2.7144860587e+01    0.2430242    0.1530103 -52.13 0.0007188151    1.912    0.477
       120  -8.6993    167.4591     77.5094   9.3558952213e+01   3.2367413474e+01    0.1491343    0.1450157  -0.17 0.0001200722    1.011    0.011
       121  -8.9010    158.3125     76.5562   9.5209483152e+01   3.4703574329e+01    0.2773163     0.137874 -34.30  0.001079735    2.016    0.504
       122  -9.0931     63.6603     76.3240   1.2250828853e+02   5.3705237552e+01    0.1419003     0.104248  76.10 0.0007051065    1.724    0.420
       123  -9.7955    139.8847     74.5485   9.8847090164e+01   3.9392554284e+01    0.3249159    0.1926155 -52.13  0.001330911    1.970    0.492
       124  -8.4248    207.7184     74.3315   8.5445942446e+01   2.3375919837e+01    0.1444257    0.1062515 -55.72 0.0003588286    1.609    0.379
       125 -10.3173    230.2697     71.4789   8.1452735888e+01   1.8743408767e+01    0.3246509    0.1438047 -30.44  0.001386124    1.995    0.499
       126  -8.5307    107.3105     71.6723   1.0675491042e+02   4.7117440262e+01    0.1500153     0.118878 -84.49 0.0007040797    1.663    0.399
       127  -8.9469    250.7734     69.9674   7.8538278067e+01   1.4673420794e+01    0.1768495   0.09582328 -24.95 0.0004796097    1.617    0.381
       128  -8.8887    215.8293     69.6669   8.2978734411e+01   2.2166693263e+01    0.2229089    0.1685976  34.79  0.001167884    1.404    0.288
       129  -8.8685    188.0611     69.3257   8.7289735530e+01   2.8708884766e+01    0.2013267    0.1950212  63.91 0.0005748278    1.099    0.090
       130  -9.6141    239.2929     68.0395   7.9430857060e+01   1.7253814391e+01    0.2015695    0.1970472  17.26 0.0006037179    1.128    0.113
       131 -10.1079     44.2488     67.9803   1.2770357846e+02   5.8081065275e+01    0.2231927     0.197042  25.95  0.001025667    1.281    0.219
       132  -9.5556    245.5715     65.9237   7.8154042216e+01   1.6204719047e+01    0.2164781     0.202499  79.03 0.0007014496    1.261    0.207
       133  -9.1165    214.3332     62.0492   8.1140064648e+01   2.3513827765e+01    0.2038374    0.1699213 -26.97 0.0005846329    1.120    0.107
       134  -8.6758    202.2783     61.6866   8.2798711602e+01   2.6389418818e+01    0.1456706    0.1066728 -56.31 0.0003205297    1.566    0.361
       135 -10.5723    224.4309     58.8243   7.8920198779e+01   2.1623261504e+01    0.4408939    0.2360263  25.76  0.001745665    2.841    0.648
       136  -9.3235    231.8615     59.0969   7.8062314774e+01   1.9938611670e+01    0.2150155    0.1746714 -47.88 0.0007031277    1.262    0.207
       137  -9.0580    174.2078     59.4823   8.6847663555e+01   3.3564398989e+01    0.2162319    0.1485768  58.80 0.0009964384    1.487    0.328
       138  -9.0893    140.0232     54.9754   9.2493229909e+01   4.2777168993e+01    0.2536442    0.1864336  14.83  0.001139711    1.704    0.413
       139  -9.1567    149.2132     52.2237   8.9493627000e+01   4.0941816341e+01    0.2085512    0.1794788 -75.63 0.0005831112    1.346    0.257
       140  -8.3363    244.5105     51.4797   7.4674877332e+01   1.8110568823e+01    0.1326973    0.1164249 -30.12 0.0008101028    1.027    0.026
       141  -8.9433    195.0249     49.1311   8.0261639627e+01   2.9832196172e+01    0.4395692    0.1199444 -37.85  0.001389235    3.264    0.694
       142  -9.1641    220.9895     44.7038   7.5543029866e+01   2.4132649881e+01    0.1911769    0.1819279  52.42 0.0007330521    1.124    0.110
       143  -8.4201    184.3273     43.3092   8.0122314256e+01   3.3279846206e+01    0.1549193    0.1093679  27.41 0.0007039415    1.659    0.397
       144  -9.1637    163.7289     43.0230   8.3507351199e+01   3.8605347205e+01    0.2133318    0.1906522 -23.94  0.000448086    1.118    0.105
       145  -8.4317    132.3349     43.7038   9.0336980311e+01   4.6489203335e+01    0.1537008    0.1189959 -71.77  0.000417096    1.647    0.393
       146  -9.3448      5.1547     41.1879   1.3890951744e+02   6.7410903267e+01    0.1620521    0.1301907  82.44 0.0006721708    1.333    0.250
       147 -10.4763    248.6461     38.1670   7.0929889172e+01   1.8711498929e+01    0.3057044    0.2610738 -29.27  0.001036796    1.031    0.030
       148  -8.8657    173.4899     40.4833   8.0967005553e+01   3.6429797103e+01    0.1470047    0.1444502  12.79  0.000104244    1.018    0.018
       149  -8.3374    165.2835     39.3463   8.1998724160e+01   3.8706542308e+01    0.1562976    0.1127475  22.08 0.0003668084    1.645    0.392
       150  -9.7475     94.8743     38.5985   9.8837762487e+01   5.6027029912e+01    0.4539588    0.2574251  24.89   0.00175176    2.632    0.620
       151  -9.1791    242.8179     37.8137   7.1389864887e+01   1.9999456451e+01    0.1850748    0.1354992 -47.04 0.0004057933    1.305    0.234
       152  -8.6778    205.3265     38.3133   7.5666939397e+01   2.8643622614e+01    0.1479195    0.1048185  27.52 0.0007042456    1.666    0.400
       153  -9.6506    229.6230     37.1021   7.2527318461e+01   2.3016492760e+01    0.2384776    0.1934809  57.01 0.0005830671    1.328    0.247
       154  -9.3819    218.2531     34.4985   7.3045940391e+01   2.5959564094e+01    0.2600929     0.173202 -28.00 0.0006589972    1.390    0.281
       155  -9.1461    111.4184     35.2060   9.2464150473e+01   5.2881991289e+01    0.2141776     0.132862 -43.35 0.0009434103    1.687    0.407
       156  -9.2284    104.9524     34.0132   9.3826965482e+01   5.4569909446e+01    0.2368539    0.2137041  15.41 0.0009190778    1.105    0.095
       157  -9.3203    163.9706     31.5276   7.9575520398e+01   4.0068153328e+01    0.4774513    0.1591318 -45.81  0.001433478    3.701    0.730
       158  -8.6292    216.2922     30.6388   7.2184185109e+01   2.6859889206e+01    0.1508082   0.09288394 -52.66 0.0007028826    1.699    0.411
       159  -8.7781    193.9937     29.7637   7.4569546209e+01   3.2482431401e+01    0.1870838    0.1198156  67.47 0.0006916195    1.593    0.372
       160  -8.5614    170.4818     28.9674   7.7649692037e+01   3.8672785416e+01    0.2255154    0.1006046 -47.08 0.0008099388    2.532    0.605
       161  -8.2654    101.6565     26.3328   9.1525228095e+01   5.6512733913e+01    0.1490618    0.1143372 -67.90 -0.0001475781    1.758    0.431
       162  -9.0210     91.3230     24.6551   9.3976668243e+01   5.9081915568e+01    0.1446192    0.1127654 -66.27 0.0005129065    1.735    0.424
       163  -9.2510    249.3960     22.8255   6.7045401640e+01   2.0144848517e+01    0.2445106    0.1819327  18.60  0.001402032    1.652    0.395
       164  -9.6097    220.9428     23.7613   6.9789267751e+01   2.6488895290e+01    0.1732803    0.1133528  69.61  0.000877406    1.604    0.377
       165  -9.3427    243.3502    247.7607   1.1350883845e+02  -3.2520994447e+00    0.1711352    0.1413858  29.76  0.001126681    1.637    0.389
       166  -9.0078    190.7050     22.2926   7.2678937326e+01   3.4161164452e+01    0.1479602    0.1019758 -58.06 0.0003091382    1.557    0.358
       167  -9.2204    206.4097     20.4031   7.0315398797e+01   3.0380517561e+01    0.2359174    0.1997671 -51.90 0.0005133734    1.143    0.125
       168  -9.3205    141.0000     21.0500   7.9897273666e+01   4.7409100549e+01    0.2364278    0.1954196  23.56 0.0006726162    1.276    0.216
       169  -9.1923    233.8176    247.9119   1.1495199205e+02  -2.1000872931e+00    0.2194938    0.1076649  37.82  0.001145918    1.674    0.403
       170  -8.7695    121.0079     16.4906   8.2210597818e+01   5.3132306482e+01     0.223946    0.1396224  58.65 0.0007006304    1.551    0.355
       171  -8.5506    233.3035     15.2784   6.6401577126e+01   2.4458704426e+01    0.1257858   0.09674753  31.03 0.0002207596    1.547    0.354
       172  -8.7162    174.8082     17.6336   7.3221366879e+01   3.8817610676e+01    0.1988713    0.1350699  86.68 0.0004399386    1.623    0.384
       173  -9.3159    131.3193     13.8944   7.8939439679e+01   5.0773861977e+01    0.2052655    0.1883396  -5.50 0.0009316704    1.109    0.098
       174  -8.4443    212.6618     13.3114   6.7649101240e+01   2.9551066085e+01    0.1490503   0.09121143 -56.72  0.000704532    1.689    0.408
       175 -10.1555    224.7523    244.9756   1.1595203000e+02  -7.1513776930e-01    0.2546283    0.2142542 -48.82  0.001985613    2.370    0.578
       176 -10.2151    249.1951    242.7033   1.1196871799e+02  -3.5571759734e+00    0.2231523    0.2003587 -14.03  0.001780687    1.869    0.465
       177  -9.9102    241.4594    240.1104   1.1276300487e+02  -2.4005181005e+00    0.2085958     0.148593   7.96  0.000938577    1.166    0.142
       178 -10.1912    232.3567    238.0911   1.1386789202e+02  -1.0832101875e+00    0.2759503     0.199184  42.91  0.001528719    1.785    0.440
       179  -9.3865    204.3465    235.8779   1.1799941962e+02   2.8132684760e+00    0.2099997    0.1819789  72.40   0.00157741    2.221    0.550
       180 -10.3825    240.3467    221.8813   1.1034338941e+02  -6.7707810190e-01    0.4547583    0.2834254  51.54  0.002745803    2.794    0.642
       181  -9.6100    248.0900    235.1107   1.1108136127e+02  -2.8089956497e+00     0.190436    0.1480078 -31.81 0.0009189927    2.037    0.509
       182 -10.7829    247.5930    230.1620   1.1045245110e+02  -2.3340070347e+00    0.3095165    0.2275002   4.63  0.001448264    1.187    0.158
       183 -10.0876    216.1306    233.7836   1.1582268943e+02   1.4313306265e+00    0.3078984    0.2447496  65.86  0.002084249    2.735    0.634
