#   1 NUMBER                 Running object number                                     
#   2 MAG_AUTO               Kron-like elliptical aperture magnitude                    [mag]
#   3 X_IMAGE                Object position along x                                    [pixel]
#   4 Y_IMAGE                Object position along y                                    [pixel]
#   5 X_WORLD                Barycenter position along world x axis                     [deg]
#   6 Y_WORLD                Barycenter position along world y axis                     [deg]
#   7 A_WORLD                Profile RMS along major axis (world units)                 [deg]
#   8 B_WORLD                Profile RMS along minor axis (world units)                 [deg]
#   9 THETA_WORLD            Position angle (CCW/world-x)                               [deg]
#  10 FWHM_WORLD             FWHM assuming a gaussian core                              [deg]
#  11 ELONGATION             A_IMAGE/B_IMAGE                                           
#  12 ELLIPTICITY            1 - B_IMAGE/A_IMAGE                                       
         1 -14.2752    193.8500     35.5881   5.3956166860e+01   3.1897237432e+01     1.663487     1.171484  -5.00  0.004337949    1.551    0.355
         2 -14.8184    203.3550     24.2822   4.9449832685e+01   3.0786785064e+01     2.357842     1.430389  15.85  0.002122927    2.187    0.543
         3 -12.5941     33.3019     15.9209   9.0264868071e+01   7.1057365130e+01    0.3321685    0.2727379  28.51  0.002080704    1.365    0.267
         4 -12.3698     40.6718      4.4413   7.9271169959e+01   7.1918277706e+01    0.5215842    0.3179353 -50.45  0.002597417    2.170    0.539
         5 -13.2915     45.6150      2.9902   7.5770943174e+01   7.1297914036e+01     0.860513    0.4054531  45.16  0.004040716    2.243    0.554
         6 -12.1095    226.4904      2.1461   4.1272637300e+01   2.7355447762e+01    0.6694176    0.2657152  75.59  0.002408314    2.659    0.624
         7 -12.1367     59.1755      2.8548   6.9583765779e+01   6.8784738089e+01    0.4590239    0.2059055  49.80  0.002037006    2.246    0.555
         8 -10.1946    209.8489    199.8317   9.0007577716e+01   6.7828590762e+00    0.1441821    0.1226619  30.09 0.0003687899    1.334    0.250
         9 -16.0928     71.8763    150.3819   1.1107326116e+02   3.6108087142e+01     13.21997     5.753494  65.56   0.03104424    4.575    0.781
        10 -10.3097    141.3112    197.9385   1.0218112241e+02   1.7334740341e+01    0.1947382    0.1389168  45.35 0.0004389878    1.270    0.212
        11  -9.8384     81.9342    195.1648   1.1389616453e+02   2.6138837275e+01    0.1807573    0.1770448 -51.80  0.001383296    1.293    0.226
        12 -10.0805    152.3920    193.3744   9.9380673918e+01   1.6327606404e+01    0.2975793    0.1742582  61.81  0.001409431    2.953    0.661
        13  -9.9074     97.3271    193.4348   1.1050988653e+02   2.4405924170e+01    0.2494221     0.183294  -0.88  0.001475307    2.126    0.530
        14 -10.6731    134.1880    248.1566   1.0925110322e+02   1.1540071504e+01    0.2600816    0.1696628 -77.52  0.001738165    2.835    0.647
        15  -9.7968    149.4891    180.4608   9.7991988058e+01   1.8740388661e+01    0.1962324    0.1217074 -59.89 0.0008891711    2.341    0.573
        16 -10.6214     99.5078    180.7368   1.0854051462e+02   2.6340299661e+01    0.2204424    0.1897585  43.90 0.0005511241    1.050    0.048
        17 -12.2166     74.2346    177.6780   1.1376015169e+02   3.0322384801e+01    0.3449471    0.2388069 -39.59   0.00204695    2.009    0.502
        18 -12.2110     78.0963    172.7861   1.1234881804e+02   3.0761953495e+01     0.363246    0.2481485 -45.17 0.0009112117    1.844    0.458
        19 -11.4507    143.0515    177.7012   9.8865213551e+01   2.0214481445e+01    0.4388818    0.2753484  76.09  0.001819649    3.876    0.742
        20 -11.7301     56.8635    175.7674   1.1746528699e+02   3.2801414062e+01    0.3858228    0.2074039  44.47  0.002012495    1.581    0.367
        21 -11.0448    137.3299    170.9489   9.8980988740e+01   2.2258269717e+01    0.2719271    0.2224489  64.65  0.001664498    1.429    0.300
        22  -9.9382    202.5014    170.4995   8.6236918812e+01   1.1465348040e+01    0.1255215    0.1028349  13.99 0.0008106972    1.001    0.001
        23 -11.0566    194.2048    167.2352   8.7113308599e+01   1.3273831765e+01    0.2879995    0.2569056  -4.83 0.0008859438    1.161    0.138
        24  -9.9218    191.4302    162.2002   8.6672393056e+01   1.4438527573e+01    0.2071831    0.1878185 -14.40 0.0008952129    1.207    0.171
        25 -10.0324    164.7471    171.0771   9.3390287191e+01   1.7681443493e+01    0.2095389    0.1696466 -52.95 0.0006540127    1.574    0.365
        26 -10.5941    230.2912    166.2928   8.0800229976e+01   7.5208525158e+00     0.219068    0.1317489 -44.29  0.001168703    2.473    0.596
        27  -9.8991    204.0344    165.0393   8.4949289323e+01   1.1922902666e+01    0.3049726    0.1593632 -41.27  0.001532629    2.290    0.563
        28 -12.5088     92.2758    156.2502   1.0688217896e+02   3.2051929338e+01    0.5352705    0.4059713 -20.18  0.002124217    1.909    0.476
        29 -10.8525    189.1897    155.3151   8.5752613202e+01   1.5805197888e+01    0.3839931    0.2803841  43.74   0.00222331    1.389    0.280
        30 -16.0060     53.4700    205.9778   1.2059188466e+02   2.7627287928e+01     2.683049     1.677831  58.33   0.01386126    1.333    0.250
        31 -11.4735    133.9032    144.8370   9.5127144635e+01   2.7474540190e+01    0.9797094    0.2750422 -52.53  0.002968677    4.917    0.797
        32 -16.0907     69.3376    248.2304   1.2040143167e+02   1.9288804517e+01     6.030018     1.755195  28.80   0.02415596    5.044    0.802
        33 -10.5815    174.8129    148.9530   8.7239214111e+01   1.9339574621e+01    0.2408935    0.2216683   8.10  0.000930295    1.068    0.064
        34 -10.5798    144.4638    146.3673   9.3058692982e+01   2.5303964786e+01    0.3640795    0.2380533 -81.67  0.001456033    3.458    0.711
        35 -11.2361    105.3980    140.4202   1.0110073019e+02   3.3221267918e+01    0.5283706    0.3235313 -29.11  0.002370666    2.490    0.598
        36 -12.3330     92.7518    141.0702   1.0439480248e+02   3.5090538808e+01    0.2521394     0.237834 -55.40 0.0004009848    1.140    0.123
        37  -8.9290    111.2752    140.6947   9.9699823529e+01   3.2192729328e+01    0.1318431    0.1025236  75.49 0.0002970875    1.545    0.353
        38 -10.5425    113.4511    130.7528   9.7250208051e+01   3.3829607438e+01    0.2853283    0.2493068 -13.49 0.0008170212    1.331    0.249
        39 -11.8771    118.7252    126.1976   9.4987421562e+01   3.3814768693e+01    0.7801162    0.4211969 -39.96  0.003437406    2.057    0.514
        40 -10.5098    106.0619    130.7941   9.9133197089e+01   3.5091155441e+01    0.3060197    0.2746797 -87.08  0.001264555    1.180    0.153
        41 -10.0163    135.0000    119.9784   8.9621503291e+01   3.1978856129e+01    0.2332153    0.0810952 -44.37 0.0008033115    2.949    0.661
        42 -11.0203    135.6605    128.6384   9.1405173258e+01   3.0195590131e+01    0.3589423    0.2009973 -52.02  0.001513796    2.005    0.501
        43 -10.6054    160.7392    127.3646   8.5506591720e+01   2.5564110055e+01    0.4671167    0.1829059 -40.96  0.001791629    2.626    0.619
        44  -9.9734    125.8630    127.5154   9.3505904877e+01   3.2245830844e+01    0.2759012    0.1882617 -68.84 0.0008341286    1.983    0.496
        45 -11.0021    100.7046    127.1558   9.9811866339e+01   3.6752798019e+01    0.2841746    0.2312393 -20.22  0.001396568    1.540    0.351
        46  -9.9836    109.0682    119.8151   9.6096239788e+01   3.6860431011e+01    0.1998442    0.1917821  43.60 0.0003648253    1.033    0.032
        47 -12.5139    193.9974    194.4902   9.1863571395e+01   9.7713102465e+00     0.899945    0.5053591 -51.93  0.004486027    3.289    0.696
        48  -8.7678    110.6531    116.2675   9.4897414567e+01   3.7318254422e+01    0.1425029     0.109102  72.39 0.0006987262    1.614    0.380
        49  -9.3436    163.2904    203.9103   9.8836314911e+01   1.3193982816e+01    0.1514026    0.1326713  16.61 0.0004069071    1.121    0.108
        50 -10.0083    167.7966    112.5783   8.0516045054e+01   2.6659285531e+01     0.324055    0.2418302 -79.14   0.00148883    2.220    0.549
        51  -9.9446    135.0000    112.0233   8.7731162729e+01   3.3512684018e+01    0.3952582   0.08200704 -43.49  0.001046038    4.886    0.795
        52 -11.5685    118.7613    110.0249   9.1318969490e+01   3.7098738630e+01    0.6262257    0.3992867  45.80  0.002955781    1.566    0.362
        53 -10.0285    205.6512    110.1006   7.2808470217e+01   1.9226835738e+01    0.2521308      0.18964  33.68 0.0006257839    1.317    0.240
        54  -9.7296    134.6813    105.5122   8.6180154951e+01   3.4835177277e+01    0.2674435    0.1333763 -42.57  0.001085508    2.016    0.504
        55  -9.2865     96.7757    106.5530   9.6485290620e+01   4.1859981248e+01    0.1800967    0.1324943  53.65  0.000370067    1.436    0.303
        56 -10.6417    107.9595    203.4643   1.0946556540e+02   2.1281438803e+01    0.1806652    0.1698416 -77.05 0.0003356732    1.263    0.208
        57 -11.6464     41.7137     91.3718   1.1072098317e+02   5.3221367492e+01     0.385232    0.2434146  87.90  0.001057509    1.823    0.451
        58 -11.2156    204.1642    198.9144   9.0817486897e+01   7.7206378934e+00     0.168066    0.1467587  24.89 0.0009905264    1.286    0.223
        59  -9.1115    156.4671     80.4528   7.4190789018e+01   3.4627577385e+01    0.1499487    0.1423102  -0.15  0.000129525    1.018    0.017
        60  -9.7866     63.5191     69.9617   9.7740184213e+01   5.5477935468e+01    0.1990852     0.192647  24.79 0.0005120888    1.126    0.112
        61 -10.8948    157.4227     59.4899   6.7462881740e+01   3.7787636018e+01    0.3305572     0.263378 -81.46 0.0006112235    1.598    0.374
        62 -13.7105    183.7227     43.6396   5.7835429167e+01   3.3446688780e+01     1.096381    0.8461032   9.92 0.0008428566    1.452    0.311
        63 -11.2404    172.3865    241.8909   1.0212656953e+02   7.3117137400e+00    0.2868471    0.1989411 -64.73   0.00170371    2.985    0.665
        64 -10.7514    171.3331    235.5266   1.0154795151e+02   8.1556031858e+00    0.1708061    0.1360212 -60.36 0.0008003112    2.074    0.518
        65 -10.3895    159.6496     53.1685   6.4951920691e+01   3.8180692848e+01     0.263893    0.2412268 -72.32  0.001408501    1.215    0.177
        66 -10.4960    155.8350    200.0757   9.9687045747e+01   1.4839931644e+01    0.2845403    0.2308999 -86.87  0.001526683    1.975    0.494
        67  -9.9562    150.3592     22.9441   5.5941908753e+01   4.4501410736e+01    0.2663335    0.2022079 -83.08 0.0007236145    1.539    0.350
        68 -10.1641    176.9171    235.3277   1.0058110581e+02   7.4302556683e+00    0.1488249    0.1360132  15.90 0.0002989113    1.322    0.244
        69 -10.3132    189.8913     14.9839   4.8006386424e+01   3.5049790038e+01    0.2159593    0.2031771 -37.68 0.0006762776    1.018    0.018
        70 -10.9526    165.0108    236.3456   1.0272074808e+02   8.9086589556e+00    0.1555773    0.1092062  33.20 0.0007541581    1.073    0.068
        71 -18.4642     11.3915    206.5033   1.2878067951e+02   3.1632456493e+01     11.65877     2.135345 -82.93   0.04530673    5.905    0.831
        72 -10.3045     96.1964    200.7816   1.1154054132e+02   2.3313911066e+01    0.2343135     0.179473  14.20  0.001108803    1.648    0.393
