#   1 NUMBER                 Running object number                                     
#   2 MAG_AUTO               Kron-like elliptical aperture magnitude                    [mag]
#   3 X_IMAGE                Object position along x                                    [pixel]
#   4 Y_IMAGE                Object position along y                                    [pixel]
#   5 X_WORLD                Barycenter position along world x axis                     [deg]
#   6 Y_WORLD                Barycenter position along world y axis                     [deg]
#   7 A_WORLD                Profile RMS along major axis (world units)                 [deg]
#   8 B_WORLD                Profile RMS along minor axis (world units)                 [deg]
#   9 THETA_WORLD            Position angle (CCW/world-x)                               [deg]
#  10 FWHM_WORLD             FWHM assuming a gaussian core                              [deg]
#  11 ELONGATION             A_IMAGE/B_IMAGE                                           
#  12 ELLIPTICITY            1 - B_IMAGE/A_IMAGE                                       
         1 -14.0409     67.6430    144.1288   1.3408987743e+02   3.7747911530e+01     3.224237     1.493125  87.68  0.004205168    4.851    0.794
         2 -13.1464    203.5762      2.0828   6.4874298795e+01   3.3484387512e+01     1.502333    0.7125813  76.81  0.002307946    2.205    0.547
         3 -14.2817    182.7846     24.4425   7.3944515119e+01   3.6527981975e+01     1.887559     1.354496 -10.37   0.00499292    1.439    0.305
         4 -14.0623    190.4562     17.2501   7.0733003796e+01   3.5344231289e+01     1.722985     1.054913 -35.68  0.005471071    1.534    0.348
         5 -11.2550     44.7170      4.5752   1.0097644550e+02   7.1080177895e+01    0.3002568     0.177533  -0.16  0.001386912    2.282    0.562
         6 -12.6953    196.1201      9.4681   6.7740229404e+01   3.4668565828e+01    0.6041816    0.5203997  36.01  0.001228512    1.240    0.193
         7 -10.5931     63.4263    192.7437   1.4028217076e+02   2.8489149048e+01    0.2765191    0.1799157  33.08 0.0008713066    1.447    0.309
         8 -11.5933    248.5553    248.8836   1.1334285888e+02  -2.6054628544e+00    0.3188594    0.1938507  -2.11  0.002513573    1.392    0.281
         9 -12.5597    205.4964    249.5512   1.2003983420e+02   2.3870905707e+00    0.8243822    0.1400844  34.01  0.003048968    4.966    0.799
        10 -11.5281    162.7747    248.6355   1.2697359176e+02   7.7830650491e+00    0.2723077    0.2665257  68.22   0.00245331    1.531    0.347
        11 -12.2550    139.6831    248.6360   1.3092409898e+02   1.0661684542e+01    0.3731041    0.2526685  45.49  0.002809985    1.355    0.262
        12 -18.8545      4.6379    131.8880   1.4960932690e+02   4.6319851265e+01     16.92794     1.422149 -80.41   0.03525462   12.686    0.921
        13  -8.8851    181.6046    192.1982   1.1605365829e+02   1.2179547971e+01    0.1491258    0.1050988 -16.16 0.0003652253    1.516    0.340
        14  -9.2920     66.2739    185.5284   1.3903325625e+02   2.9503756850e+01    0.2088026   0.08752497  40.13 0.0006476254    1.978    0.494
        15 -10.8408    230.0001    207.5190   1.1012717328e+02   3.4296546348e+00    0.1872803    0.1473527   2.69 0.0003681673    1.174    0.148
        16 -11.6660     88.7670    174.7318   1.3286732857e+02   2.8776751037e+01    0.2430631     0.225784 -46.47 0.0004634643    1.243    0.196
        17 -13.4661     94.0597    166.6171   1.3060624208e+02   2.9627678154e+01     3.899848    0.4602867  41.56  0.001308988    6.096    0.836
        18  -9.7877     29.7078    169.8472   1.4591602196e+02   3.6328927987e+01     0.156423    0.1218174  78.10 0.0007383717    1.106    0.096
        19 -11.4956    232.3603    249.5588   1.1585365682e+02  -8.1242515354e-01    0.3366886   0.07303552  36.59  0.001546002    3.546    0.718
        20  -9.5969    230.3290    166.9672   1.0298854718e+02   7.9032566351e+00    0.1838777    0.0850695 -46.34 0.0003579064    4.525    0.779
        21 -10.9825    193.0135    194.6181   1.1435220209e+02   1.0149583309e+01    0.6625366    0.3641023 -57.28  0.002553576    5.783    0.827
        22  -8.9750    194.1779    157.2207   1.0742723920e+02   1.5056897508e+01    0.2366498      0.12949   7.65 0.0009689088    2.931    0.659
        23 -11.0079    106.2524    147.7658   1.2481643497e+02   3.1595352862e+01    0.5805359    0.2914341 -37.14  0.002451943    2.721    0.633
        24 -12.3588     94.4543    149.0273   1.2794929831e+02   3.3103936870e+01    0.2660289    0.2385054  26.75 0.0004595229    1.158    0.136
        25 -10.0289    133.5507    143.0704   1.1738032706e+02   2.8033645645e+01    0.4919063    0.1366294 -52.67   0.00144637    5.005    0.800
        26 -11.9904     77.4617    192.8205   1.3731815395e+02   2.6843618649e+01    0.3581707     0.236174 -40.61  0.001456429    2.087    0.521
        27 -11.8912     46.8878    146.0964   1.3972320769e+02   3.9668853716e+01    0.3840707    0.2243781  75.87   0.00204303    1.874    0.466
        28 -12.2763     56.7294    145.7396   1.3713483059e+02   3.8683739327e+01    0.4718503     0.322828  45.30  0.002792079    1.386    0.278
        29 -10.1887    114.1344    135.3100   1.2058834851e+02   3.2863550028e+01    0.3017515    0.2274756 -12.94 0.0008754303    1.735    0.423
        30 -13.0528     46.2159    130.3199   1.3809762354e+02   4.3256079593e+01    0.7514919    0.4514714  87.74  0.003946367    1.792    0.442
        31  -9.8430    160.9876    127.9913   1.0794144361e+02   2.5768391880e+01    0.2204919    0.1843194 -84.15  0.001151528    1.767    0.434
        32  -9.3797    119.0053    128.0284   1.1788545015e+02   3.3520266924e+01    0.2238401    0.1690673  -9.81  0.001120281    1.712    0.416
        33  -9.9758    109.9796    122.9163   1.1915112746e+02   3.6132220038e+01    0.2015022    0.1940669  24.79 0.0003529611    1.033    0.032
        34 -11.1067    102.5271    132.2518   1.2298552824e+02   3.5387246709e+01    0.4066034    0.2799976  13.37  0.001269128    1.938    0.484
        35  -9.6099    135.0000    120.0349   1.1212220951e+02   3.2211936190e+01    0.2337408    0.0807979 -44.60  0.000801085    2.933    0.659
        36 -10.6545    168.2962    113.0593   1.0281115985e+02   2.6916077961e+01    0.3414661    0.2885976 -74.97  0.001100514    1.664    0.399
        37 -13.5440     77.1279    171.6875   1.3517295988e+02   3.0863468481e+01    0.4332084    0.2806585 -36.38  0.001780087    2.169    0.539
        38 -16.3113     58.5976    212.0749   1.4274503308e+02   2.5619271514e+01     6.973293     2.514245  44.91    0.0378609    2.122    0.529
        39  -9.6268    205.0114    110.4719   9.5078555728e+01   1.9904024970e+01    0.3488236    0.1668833  33.61  0.001436182    2.393    0.582
        40  -9.0951     51.2018    174.7422   1.4141741280e+02   3.3250693709e+01    0.1378464    0.1332749 -27.56  0.000535312    1.323    0.244
        41  -9.1097    153.4453     75.4867   9.5665143549e+01   3.6615115143e+01    0.1518408    0.1413605  -4.93 0.0001382332    1.017    0.017
        42 -11.9770     81.3875    186.3254   1.3582115321e+02   2.7546897271e+01     0.247111    0.2204197 -46.33 0.0006026998    1.352    0.260
        43 -12.3748    125.2401    243.3363   1.3293220195e+02   1.3109065538e+01    0.5232156    0.2758769  56.71    0.0030886    2.474    0.596
        44 -11.3752    144.3149    242.6565   1.2951068290e+02   1.0810448968e+01    0.2028525    0.1465828  38.58  0.001545789    1.146    0.127
        45 -11.2452     32.7902     23.3150   1.1784125173e+02   6.9396490786e+01     0.349516    0.1678315 -55.53  0.001542619    2.116    0.528
        46 -10.7797     41.4532     16.7299   1.0982238499e+02   6.9554671829e+01    0.2586887    0.1170484 -46.58  0.001144142    2.126    0.530
        47 -11.7193    225.2643    245.2974   1.1637991732e+02   3.9347759844e-01     0.284068     0.129067  19.57  0.001714642    2.024    0.506
