#   1 NUMBER                 Running object number                                     
#   2 MAG_AUTO               Kron-like elliptical aperture magnitude                    [mag]
#   3 X_IMAGE                Object position along x                                    [pixel]
#   4 Y_IMAGE                Object position along y                                    [pixel]
#   5 X_WORLD                Barycenter position along world x axis                     [deg]
#   6 Y_WORLD                Barycenter position along world y axis                     [deg]
#   7 A_WORLD                Profile RMS along major axis (world units)                 [deg]
#   8 B_WORLD                Profile RMS along minor axis (world units)                 [deg]
#   9 THETA_WORLD            Position angle (CCW/world-x)                               [deg]
#  10 FWHM_WORLD             FWHM assuming a gaussian core                              [deg]
#  11 ELONGATION             A_IMAGE/B_IMAGE                                           
#  12 ELLIPTICITY            1 - B_IMAGE/A_IMAGE                                       
         1 -13.2897    187.8994     23.9641   6.9703504490e+01   3.5571200139e+01     1.817082     1.343467 -14.73  0.006773163    1.575    0.365
         2 -13.1684    195.3759     17.7307   6.6943678912e+01   3.4348859202e+01     1.441806     1.146704 -50.93  0.005524875    1.226    0.184
         3 -13.0055    200.9603     10.1892   6.4190854769e+01   3.3729530601e+01     1.532002    0.7675501  49.09  0.001496432    2.207    0.547
         4 -11.3014     32.9242     12.9318   1.0645103113e+02   6.9979704647e+01    0.8613217    0.1324298 -42.36  0.002618006    5.982    0.833
         5 -10.1183     29.0051      2.6605   1.0300778157e+02   7.1887896971e+01    0.1623959    0.1268136  -2.29 0.0009744123    1.091    0.084
         6  -8.7601    171.3357    246.3282   1.2359241896e+02   1.8101531756e+00    0.1162305   0.08060828  18.61 0.0007051902    1.725    0.420
         7 -10.4154    248.3596    249.2703   1.1112176223e+02  -1.0136669692e+01    0.2622547    0.2129158 -56.26  0.001818472    2.540    0.606
         8 -10.9105    139.4861    248.7110   1.2943802323e+02   6.5134924214e+00    0.3664998    0.2336283  74.99  0.002149848    2.145    0.534
         9 -10.5224    110.0490    248.0053   1.3448390305e+02   1.1117333531e+01    0.2380817    0.1792094 -83.89  0.001513788    1.486    0.327
        10 -10.4551    100.9923    249.0238   1.3613788182e+02   1.2287704975e+01    0.3575927    0.2145142  33.49  0.001933032    1.938    0.484
        11 -11.2553    105.3206    245.5768   1.3507298620e+02   1.2201815990e+01    0.3660036    0.2578597  84.31 0.0006933328    1.506    0.336
        12 -12.0774     99.9231    245.0575   1.3596196729e+02   1.3077244234e+01    0.5247785    0.3543565  31.22  0.003324852    1.856    0.461
        13 -10.1188     74.1323    249.6003   1.4072568172e+02   1.5941428087e+01    0.2866837    0.2416454   9.82  0.002034629    2.249    0.555
        14 -11.1223     79.8388    239.4992   1.3896291854e+02   1.6853100725e+01     0.281592    0.2124897  81.01   0.00127443    1.206    0.171
        15 -11.4032     80.6996    247.0673   1.3942895837e+02   1.5468744518e+01    0.4725947    0.2603608  68.25  0.002940794    1.678    0.404
        16 -11.0994     83.1628    244.1682   1.3877521158e+02   1.5608202923e+01    0.4378321     0.181213 -71.92  0.002325699    2.830    0.647
        17  -9.9793     60.0192    247.7810   1.4293162558e+02   1.8079399918e+01    0.2699674    0.1409976  83.04  0.001684113    1.917    0.478
        18  -9.7318     64.5815    250.0920   1.4233927178e+02   1.7113348916e+01    0.2439732    0.1673521  31.74   0.00164894    2.007    0.502
        19 -10.8160     70.0032    245.9992   1.4114890644e+02   1.7084647528e+01    0.2946706    0.2010653  39.76  0.002047486    1.585    0.369
        20 -11.3704     72.1694    239.9757   1.4032511737e+02   1.7814481253e+01    0.3363864    0.2576308 -79.89  0.001897532    1.403    0.287
        21 -11.9198     73.4487    226.9507   1.3903541387e+02   1.9933370045e+01    0.7069306    0.2836567  63.92  0.003149325    2.853    0.650
        22 -13.5334     32.7790    245.9850   1.4721956595e+02   2.1644765264e+01     1.743058     0.799122  41.35   0.01112481    1.986    0.496
        23 -12.6198     48.9178    227.1364   1.4339902382e+02   2.3069411992e+01     0.587642    0.5217447  42.46  0.001845098    1.576    0.366
        24 -14.7492     58.1986    213.6141   1.4069943833e+02   2.4442607300e+01     6.789575     1.176885  46.16   0.02594248    3.872    0.742
        25  -9.9141    192.8800    194.4335   1.1173906298e+02   5.7081649323e+00    0.6381654    0.3384365 -64.14  0.002052382    5.731    0.826
        26  -9.1189     66.2273    195.4004   1.3747146272e+02   2.7005264323e+01    0.2270021    0.1526243  72.71 0.0006315061    1.302    0.232
        27 -11.0302     72.8371    193.3975   1.3591964967e+02   2.6511308009e+01    0.3715264    0.2349895 -50.56  0.001838932    2.039    0.510
        28 -11.0221     77.3671    186.5755   1.3420916461e+02   2.7289423812e+01    0.2856808    0.2214705 -58.56 0.0005774139    1.474    0.321
        29 -10.6574     85.6317    174.7696   1.3092736063e+02   2.8591777270e+01    0.2702516    0.2393707  55.90 0.0005171718    1.189    0.159
        30 -12.5518     73.3064    172.1364   1.3332044215e+02   3.0973217104e+01    0.4350248     0.263157 -47.11  0.001470695    2.129    0.530
        31  -9.1369    124.8486    173.9604   1.2211370478e+02   2.2207964741e+01    0.2224975    0.1645737 -25.23   0.00109515    2.049    0.512
        32 -11.5817     57.3616    128.4586   1.3089869367e+02   4.3122901905e+01     1.762472    0.5686872 -74.96  0.004353379    7.074    0.859
        33 -11.9012     89.7048    165.6558   1.2870927312e+02   2.9962412713e+01     1.970183    0.6094583  52.83  0.002122612    4.141    0.759
        34 -12.2438     67.8233    144.6757   1.3076974619e+02   3.7958688476e+01     1.072453    0.5812629  84.95  0.004566056    2.564    0.610
        35  -9.7241     22.8590    155.5743   1.4282858808e+02   4.0597592697e+01    0.2360383    0.1396484  67.39 0.0009438033    1.564    0.361
        36  -9.5407    103.1760    149.8777   1.2292819952e+02   3.1285400024e+01    0.2848341    0.2430592 -51.48 0.0008821722    1.262    0.208
        37  -8.9512    105.4753    146.0078   1.2165564783e+02   3.1761462109e+01      0.34687    0.1937848 -39.80  0.001356153    2.345    0.573
        38 -11.4087     92.1348    149.1747   1.2549082772e+02   3.3289190295e+01    0.2674892    0.2520736 -54.50 0.0004893361    1.225    0.184
        39  -9.3104    133.9983    146.0432   1.1482061394e+02   2.6398627159e+01    0.5965421    0.1307593 -53.04  0.001466827    5.638    0.823
        40  -9.3217    112.9384    135.5437   1.1773230125e+02   3.2787828217e+01    0.3298431    0.2570925  -1.84  0.001128483    1.990    0.498
        41 -10.0509    100.4617    132.7350   1.2031970115e+02   3.5674913744e+01    0.2817284    0.2330722 -33.52 0.0008020234    1.460    0.315
        42 -13.1796     11.2643    206.7267   1.4873170030e+02   3.1039399538e+01    0.9039087    0.5751553  32.31  0.003663527    2.036    0.509
        43  -8.3509    118.2996    128.3382   1.1482565851e+02   3.3400875228e+01    0.1469546    0.1193661 -16.19 0.0007034905    1.662    0.398
        44  -8.8222    109.0360    122.9497   1.1599389355e+02   3.6380879688e+01    0.2100395    0.2027014 -81.13 0.0003127576    1.052    0.050
        45 -10.1157    168.2111    112.9735   9.9196119412e+01   2.5913675698e+01    0.3869652    0.3081529 -78.08  0.001037101    1.539    0.350
        46  -9.2531    138.4998    171.5210   1.1870318498e+02   2.0176504767e+01    0.1407796    0.1294694  62.01 0.0008103152    1.006    0.006
        47 -14.9379      8.8557    239.3957   1.5065089919e+02   2.5309044288e+01      5.17766     0.904412 -70.47   0.02341564    4.693    0.787
        48  -8.9575    205.6771    110.1752   9.0982389290e+01   1.7688684276e+01    0.2996049    0.1898604  27.66  0.001237381    2.123    0.529
        49  -9.5396     33.0000    106.5709   1.3413138866e+02   5.0912083796e+01    0.4332571     0.059943 -66.13   0.00115266    5.898    0.830
        50 -10.0597    173.0064    219.6881   1.1960921523e+02   5.3268657802e+00    0.1848826    0.1456108  39.76 0.0006644038    1.064    0.060
        51  -8.0831    127.6763     54.2993   9.1096558312e+01   4.6593961302e+01    0.1488867    0.1174498 -74.19 0.0002746279    1.629    0.386
        52  -9.5751    229.7192    207.3913   1.0738454227e+02  -2.5883424516e+00    0.2134135    0.1965624  15.94 0.0005105663    1.217    0.179
        53  -9.9836     66.8725    231.5958   1.4058818724e+02   1.9982743910e+01    0.2166444    0.1601191 -54.41  0.001297239    1.928    0.481
        54 -15.1873      2.2373     86.5917   1.4043528037e+02   5.7724452248e+01      14.3777    0.5131269 -70.51    0.0310287   10.735    0.907
        55  -9.0434    149.6585    247.3112   1.2750084124e+02   5.1172200594e+00    0.1184441   0.07658035  62.71 0.0004138759    1.697    0.411
        56  -9.5538     86.4343    241.2329   1.3796410772e+02   1.5640893803e+01    0.1480966    0.0939595  87.77 0.0008414195    1.641    0.391
