#   1 NUMBER                 Running object number                                     
#   2 MAG_AUTO               Kron-like elliptical aperture magnitude                    [mag]
#   3 X_IMAGE                Object position along x                                    [pixel]
#   4 Y_IMAGE                Object position along y                                    [pixel]
#   5 X_WORLD                Barycenter position along world x axis                     [deg]
#   6 Y_WORLD                Barycenter position along world y axis                     [deg]
#   7 A_WORLD                Profile RMS along major axis (world units)                 [deg]
#   8 B_WORLD                Profile RMS along minor axis (world units)                 [deg]
#   9 THETA_WORLD            Position angle (CCW/world-x)                               [deg]
#  10 FWHM_WORLD             FWHM assuming a gaussian core                              [deg]
#  11 ELONGATION             A_IMAGE/B_IMAGE                                           
#  12 ELLIPTICITY            1 - B_IMAGE/A_IMAGE                                       
         1 -13.8236    221.8378     27.3340   2.0014600936e+00   2.7392472961e+01    0.8222099    0.7175503 -71.78  0.004057557    1.228    0.186
         2 -12.5539    226.5720      9.5764   3.5830356472e+02   2.8489597824e+01    0.3449877    0.2283477 -83.75  0.001104832    1.190    0.159
         3 -11.4435     56.2811      4.4356   2.4407062325e+01   6.5921906501e+01    0.2431965   0.08615209  46.95  0.001150542    2.164    0.538
         4 -11.0894     37.8616      2.3258   3.0585401890e+01   6.9276709725e+01    0.2229872    0.0938222  49.97  0.001092328    2.544    0.607
         5 -10.0428     24.1970    245.4562   8.7277837858e+01   1.8392975113e+01     0.127788    0.1128504   9.44 0.0008550771    1.565    0.361
         6 -14.0357    121.6467    234.7230   6.4200277888e+01   7.3359221683e+00     7.743577     5.429161 -86.68   0.03794802    2.110    0.526
         7 -11.6742     58.9416    231.5364   7.8518610499e+01   1.7236913267e+01    0.2120912    0.1709639 -71.00 0.0004659505    1.301    0.231
         8  -9.3696     50.7294    200.5708   7.7189412910e+01   2.5612962381e+01    0.3301282   0.09784076 -62.17  0.001166302    3.021    0.669
         9  -9.8796    210.8168    198.7510   3.8424121339e+01   2.3662759724e-01    0.2202428    0.1884123 -10.27 0.0004627348    1.042    0.040
        10 -11.4197     57.3034    194.0836   7.4698283627e+01   2.6379429218e+01    0.5173228    0.2766489  80.82  0.002010824    2.674    0.626
        11 -11.3695     53.3644    188.8852   7.5083560985e+01   2.8201260721e+01    0.2766159    0.2035435  58.27 0.0007560237    1.348    0.258
        12 -10.9598     47.2346    229.1453   8.0981698351e+01   1.9275520212e+01    0.1988037    0.1349583  63.29 0.0008444326    1.365    0.267
        13 -10.3205     69.1481    194.5299   7.1624056599e+01   2.4644515214e+01    0.2873468     0.197608  86.09  0.001359466    1.665    0.399
        14  -9.8132     47.5944    193.4362   7.7169032519e+01   2.7778575147e+01    0.1361392    0.1264593 -79.91 0.0002093525    1.089    0.082
        15 -11.7438     88.3236    218.8850   7.0015289358e+01   1.5958540542e+01     0.442663     0.407379  33.88  0.001413685    1.099    0.090
        16  -9.3938    237.9895    189.0196   3.1672874945e+01  -1.9772031641e+00    0.1582129    0.1265555 -27.50 0.0004805681    1.035    0.034
        17  -9.6081     43.2946    186.4504   7.7477040012e+01   3.0058926486e+01    0.2483425    0.1585722  83.00 0.0007330798    1.704    0.413
        18 -12.1282     54.0438    180.3221   7.3769273260e+01   3.0298213441e+01    0.5235668    0.3168132 -38.89  0.001496397    2.054    0.513
        19  -7.8489     28.3988    250.1640   8.6728097958e+01   1.6933931731e+01    0.1052401    0.0836682  20.04 0.0006576735    1.606    0.377
        20 -11.9121    172.4819    174.4579   4.1649697831e+01   1.1499127007e+01    0.6848683    0.5199773 -40.91  0.002040103    1.277    0.217
        21 -11.3768    179.6019    168.5674   3.8875098302e+01   1.1432128822e+01    0.6347226     0.477462 -39.79  0.003202606    1.271    0.213
        22 -12.5392    113.3866    172.3940   5.5922020037e+01   2.3016790421e+01    0.6012095    0.4712926  71.28  0.002357125    1.538    0.350
        23 -11.4245    110.6259    166.9691   5.5615976802e+01   2.4857558000e+01    0.4680657      0.33173 -69.74   0.00121114    1.634    0.388
        24  -9.9508     76.0292    171.3839   6.6202999502e+01   2.9526101652e+01     0.290011    0.2060996 -87.04 0.0006790655    1.651    0.394
        25  -9.8037     86.0000    240.8482   7.3277123565e+01   1.1446021282e+01      0.17827   0.07698077 -63.20 0.0004200967    2.579    0.612
        26 -10.9670     63.1324    181.5134   7.1419747974e+01   2.8782694339e+01    0.4458223    0.2226341  33.91  0.001868666    1.970    0.492
        27 -10.9170    134.0000    148.4833   4.5391171140e+01   2.4864223371e+01     0.578315     0.229985 -54.93  0.001847313    2.887    0.654
        28 -11.3624    133.4928    143.4907   4.4394671401e+01   2.6140050682e+01    0.9156613    0.2736425 -55.55  0.002251078    4.936    0.797
        29 -11.1931     87.8032    149.0295   5.8580396030e+01   3.3398199184e+01    0.3075075    0.2907546  25.91 0.0003423429    1.084    0.077
        30 -13.1907     93.4862    143.9709   5.5809160027e+01   3.3701610794e+01    0.8939612    0.7741424 -47.05  0.001956677    1.146    0.128
        31 -10.8651     98.6849    139.6960   5.3313680046e+01   3.3839016369e+01     0.288733     0.225566   2.27 0.0004096639    1.594    0.372
        32 -11.6716    108.9612    145.1419   5.1514972747e+01   3.0580125217e+01    0.3904267    0.3415403 -22.93  0.001223085    1.244    0.196
        33  -9.3517    170.4867    140.5133   3.4804261406e+01   1.9185583154e+01    0.2813624    0.1386104 -55.65   0.00102394    2.404    0.584
        34  -9.3259    128.6184    138.8469   4.4616038207e+01   2.8222710710e+01    0.2269442    0.1501209 -60.63 0.0009416979    1.706    0.414
        35  -8.7671    164.6940    138.7315   3.5688080287e+01   2.0762090667e+01    0.1481581    0.1209079   0.73 0.0001722035    1.535    0.348
        36 -12.3868    105.5935    131.6711   4.9414789246e+01   3.4511353601e+01    0.7146088    0.4440097 -41.92  0.002204582    1.666    0.400
        37 -11.8378     94.1016    131.1971   5.2768514745e+01   3.6770683153e+01    0.3793914    0.2906791 -54.87 0.0002975146    1.310    0.237
        38  -9.7102    164.8055    130.7788   3.3832286250e+01   2.2444769696e+01    0.2084766    0.1773963 -79.59 0.0004457513    1.334    0.251
        39 -10.6316    135.5274    128.2270   4.0269839273e+01   2.9235759600e+01    0.4303477    0.1525417 -52.79  0.001283628    3.288    0.696
        40 -11.0903    113.6983    125.5420   4.5576189539e+01   3.4375308365e+01    0.3002917    0.2924057 -13.63 0.0007373469    1.040    0.039
        41 -15.8150     69.7931    143.0609   6.2931021609e+01   3.7793096049e+01     3.077787     2.644657  69.00   0.01595867    1.280    0.219
        42 -10.4989    101.3377    120.5665   4.7996987429e+01   3.7977206794e+01    0.2967632    0.2490669  -8.80 0.0005427653    1.371    0.271
        43 -10.5713     86.1556    118.5056   5.2241395676e+01   4.1265959313e+01    0.4900269    0.2198054 -56.89  0.001665118    2.439    0.590
        44 -10.2021    109.0867    115.9258   4.4507694270e+01   3.7526526772e+01    0.2332069    0.2260144   5.56 0.0003963586    1.038    0.037
        45 -10.0326     67.8560    214.4360   7.4510294155e+01   1.9975223734e+01    0.1751591    0.1452641  41.04 0.0001691538    1.153    0.132
        46 -19.5111     12.7587    142.2049   8.0818422952e+01   4.4386252742e+01     18.95633     3.041368 -72.82   0.04423868    7.146    0.860
        47  -9.7867     93.2325    112.2458   4.8402863632e+01   4.1453145185e+01    0.2413503     0.202893  66.96 0.0005987294    1.402    0.287
        48  -9.2022     90.3421    109.7239   4.8671503590e+01   4.2569272608e+01    0.2187517    0.1954309 -50.19 0.0004448126    1.140    0.123
        49 -11.7252    115.5313    108.7917   4.0787607604e+01   3.7796397897e+01    0.4943878    0.3471199  64.09  0.002154085    1.768    0.434
        50  -8.7216    147.6572    106.3304   3.1810824848e+01   3.1301910251e+01    0.1602318    0.1202821 -87.01  0.000705104    1.749    0.428
        51  -9.5217    150.5259    105.0525   3.0820349286e+01   3.0917809337e+01    0.2258177    0.1275975 -64.57 0.0008094676    2.655    0.623
        52 -11.9131    118.4653    103.2250   3.8479415765e+01   3.8373493544e+01    0.3800826    0.3152846 -86.10 0.0008425602    1.486    0.327
        53 -10.8494    120.6645     98.1600   3.6501042361e+01   3.8955569274e+01    0.2694308     0.207267  54.76 0.0006974356    1.323    0.244
        54 -10.0723     69.7264     98.5827   5.2685709432e+01   4.8656215197e+01    0.2069097    0.1338322  43.48 0.0009458857    1.658    0.397
        55 -11.7218     56.0818     87.9760   5.4807193632e+01   5.3056634136e+01    0.4981992    0.2425778  27.84   0.00211194    2.121    0.528
        56 -12.7162    177.7854     66.4556   1.5833659551e+01   3.1578814751e+01    0.5366645    0.3950282 -59.07 0.0009139348    1.335    0.251
        57  -9.2445    163.6016    237.2364   5.5050031415e+01   3.3134732347e-01    0.1717539    0.1212673 -30.76 0.0002804041    1.494    0.331
        58 -13.5425    194.0969     53.7214   1.0490468321e+01   2.9810713424e+01    0.9966894    0.8295205  50.26  0.003601751    1.448    0.310
        59 -12.3144    200.3808     48.3054   8.5046829680e+00   2.9192846518e+01    0.4788504    0.3691698  53.39  0.001644509    1.524    0.344
        60 -10.2693     62.5086     60.5111   4.3882803230e+01   5.7485113900e+01    0.2502148    0.1182096  46.67  0.001038472    2.465    0.594
        61 -11.3221     54.3126     59.3512   4.6716684424e+01   5.8983004597e+01    0.2982779    0.2239311  32.20  0.001306658    1.303    0.232
        62 -12.2125     52.8549    231.7192   7.9936240446e+01   1.7986616909e+01    0.2912225    0.1633986 -62.37  0.001094145    1.855    0.461
        63  -9.6107    164.4234    206.2675   4.9604318323e+01   6.2303110224e+00    0.3202488    0.1417422 -57.27  0.001132511    3.200    0.687
        64 -10.6994     47.1796    233.4863   8.1388691527e+01   1.8307124904e+01    0.1745601    0.1334865 -76.88 0.0007391493    1.318    0.241
        65 -10.7762     60.5875     21.2144   2.9918169057e+01   6.3477819707e+01     0.228969    0.1487925  42.49 0.0006865234    1.325    0.245
        66  -9.7866     90.4115    246.5586   7.2923150635e+01   9.6154551655e+00    0.1724585    0.1227318 -49.41 0.0004460309    1.650    0.394
        67  -9.4537    250.2928     10.6853   3.5693821021e+02   2.3859700004e+01    0.1142189   0.05738014 -66.28 0.0003853974    1.597    0.374
        68 -10.4606     59.7589    245.4103   7.9669710566e+01   1.4101714373e+01    0.1325427    0.1027312 -62.42 0.0004431705    1.452    0.311
