#   1 NUMBER                 Running object number                                     
#   2 MAG_AUTO               Kron-like elliptical aperture magnitude                    [mag]
#   3 X_IMAGE                Object position along x                                    [pixel]
#   4 Y_IMAGE                Object position along y                                    [pixel]
#   5 X_WORLD                Barycenter position along world x axis                     [deg]
#   6 Y_WORLD                Barycenter position along world y axis                     [deg]
#   7 A_WORLD                Profile RMS along major axis (world units)                 [deg]
#   8 B_WORLD                Profile RMS along minor axis (world units)                 [deg]
#   9 THETA_WORLD            Position angle (CCW/world-x)                               [deg]
#  10 FWHM_WORLD             FWHM assuming a gaussian core                              [deg]
#  11 ELONGATION             A_IMAGE/B_IMAGE                                           
#  12 ELLIPTICITY            1 - B_IMAGE/A_IMAGE                                       
         1  -8.3400    136.0934      8.9664   5.2534652074e+01   5.0105951817e+01    0.1999891    0.1802152  46.83  0.001181791    1.018    0.017
         2  -8.1050     41.3421      6.6710   7.9797859524e+01   6.9403000972e+01    0.1039971   0.09450915 -49.89 0.0007051269    1.744    0.426
         3  -9.3084      4.7241      3.9918   9.7319139072e+01   7.3569429779e+01     0.207755    0.1694583  83.36  0.001348588    2.862    0.651
         4 -10.2335    215.4654    247.0663   9.6055011326e+01  -6.2671430164e+00    0.2830147    0.1797447  45.79    0.0017806    1.600    0.375
         5  -9.6787    203.2413    248.4300   9.8361108433e+01  -4.5641522173e+00    0.2719826    0.1802175 -23.11  0.001762254    1.823    0.452
         6  -8.6194    144.2002    249.8573   1.0895992997e+02   4.5432512308e+00    0.2267712    0.1357856  25.53  0.001247265    2.140    0.533
         7 -10.9613    177.6105    244.3689   1.0231276290e+02  -1.7051007971e-02    0.6431922    0.2866364  28.27  0.002875097    2.825    0.646
         8  -9.9234    228.6710    241.6540   9.2982951277e+01  -7.6300804596e+00    0.2405742    0.1442162   5.00  0.001406145    1.918    0.479
         9  -9.6291    157.5002    245.7271   1.0609187651e+02   3.0231194189e+00    0.3012623    0.1382195  35.26  0.001318361    1.996    0.499
        10  -8.3152    146.7879    242.4077   1.0761578578e+02   5.2254303352e+00    0.1762411     0.094904  35.34 0.0009527073    1.709    0.415
        11 -10.0607    231.4783    246.5624   9.3261157046e+01  -8.5813966737e+00    0.2576452    0.1866004  -5.42  0.001819259    1.372    0.271
        12  -7.3436    122.7640    240.9801   1.1180851184e+02   9.2579887953e+00    0.1313263    0.0989946 -64.93 0.0008726003    1.595    0.373
        13 -10.1354    238.1729    239.7411   9.1079905592e+01  -8.8128279258e+00    0.2137632    0.1806903   4.07  0.001607413    1.224    0.183
        14  -9.9554    246.6932    234.5456   8.8823278284e+01  -9.4760830832e+00    0.2582946    0.1504784  12.22  0.001494147    1.698    0.411
        15 -10.3618    166.7281    246.8959   1.0458844860e+02   1.3834356728e+00    0.4820769    0.1566381  37.69  0.002068042    2.684    0.627
        16 -10.0775    235.5414    245.1021   9.2356965842e+01  -9.0118348973e+00    0.2445199    0.1988572 -46.51  0.001726272    2.008    0.502
        17  -9.1085    160.5852    235.9198   1.0426786075e+02   3.9430531416e+00    0.3463765    0.1546305  29.64  0.001476802    2.913    0.657
        18  -7.7951    148.0098    236.7626   1.0669395889e+02   5.8800353434e+00    0.1685648   0.08377961  42.64 0.0008732763    1.613    0.380
        19  -7.8207    209.7006    235.6791   9.5346944156e+01  -4.0184439421e+00    0.1208355    0.0789426  13.54 0.0007023637    1.623    0.384
        20  -9.1876    238.9687    232.9540   8.9857028984e+01  -8.1762527797e+00    0.1937911    0.1157184  11.38  0.001135436    1.709    0.415
        21  -9.3560    248.3457    245.1907   9.0252756139e+01  -1.0829035150e+01     0.164663    0.1104681  19.68 0.0009309286    1.137    0.120
        22  -8.2192    140.6508    245.2199   1.0905775429e+02   5.7852409386e+00    0.1410478    0.1102531 -40.08 0.0009468913    1.718    0.418
        23  -8.1519      3.5321    219.5071   1.3108265830e+02   2.8436608437e+01    0.1068705   0.07070437  73.57  0.000809586    1.030    0.029
        24  -8.8738      4.9878    213.8456   1.3058260347e+02   2.9361887784e+01    0.1890551    0.0727568  59.71  0.001097421    2.013    0.503
        25  -8.0273      1.6669    196.2924   1.3029796012e+02   3.3072471953e+01    0.1149012   0.05584325  66.33 0.0007023319    1.635    0.388
        26  -8.6026    250.6738    191.0198   8.0417052285e+01  -4.8379613494e+00    0.1708209     0.105056 -27.56            0    1.550    0.355
        27  -8.1871      8.3252    189.9974   1.2873787301e+02   3.3749946849e+01    0.1729588    0.0457672 -59.49  0.000704769    4.277    0.766
        28  -7.9136     10.3380    185.3095   1.2807391131e+02   3.4532575698e+01    0.1012399   0.07593722 -58.75 0.0004853485    1.684    0.406
        29  -8.1138    221.9343    183.8344   8.4068965603e+01   1.0850919748e+00     0.214372    0.1751031 -16.36  0.000299072    1.189    0.159
        30  -8.7262    189.8205    180.2303   8.9516722277e+01   7.6897512124e+00    0.2218184    0.2151484  62.00 0.0003590745    1.183    0.155
        31  -7.1628    141.8424    181.4143   9.9755876016e+01   1.6705954718e+01    0.1726604    0.1271794  35.28 0.0006874689    1.371    0.270
        32  -9.7561      2.2274    178.3007   1.2920627665e+02   3.6694358440e+01    0.3421605     0.120924 -75.09  0.001798846    2.201    0.546
        33  -9.9427      2.7273    167.6925   1.2845081190e+02   3.8896274972e+01    0.3117146    0.1291431 -85.50  0.001675222    1.942    0.485
        34  -7.9669    210.0820    164.0415   8.2254778231e+01   6.4932505216e+00    0.2010342    0.1872206   9.46 0.0003377422    1.041    0.039
        35  -8.9858      7.5145    164.0234   1.2721581406e+02   3.9299027990e+01    0.1787923    0.0872307 -77.79  0.001030925    1.598    0.374
        36  -7.8527     75.2189    163.1455   1.1196669675e+02   3.1929289266e+01    0.1812185    0.1667401 -79.56 0.0004225549    1.163    0.140
        37  -8.9770     10.3759    161.1831   1.2640263483e+02   3.9681260122e+01    0.1778232    0.0838078 -89.97 0.0009565544    1.806    0.446
        38  -9.5782      3.8663    158.8117   1.2761188417e+02   4.0725397603e+01    0.2034462    0.1611959 -12.21  0.001418409    2.120    0.528
        39  -9.3502      9.0516    153.2235   1.2606856110e+02   4.1546096592e+01     0.194602   0.09495983  61.19   0.00107493    1.983    0.496
        40  -9.6966     19.5191    150.0574   1.2343508014e+02   4.1376709558e+01    0.2915786     0.131513  86.99  0.001401381    2.247    0.555
        41  -8.3323     30.7747    141.0240   1.1981211275e+02   4.2413218583e+01    0.1708744   0.08517781 -73.04 0.0008730053    1.649    0.394
        42  -8.2135      5.3275    137.9899   1.2564403193e+02   4.5239692873e+01    0.2020801   0.06835481  82.96  0.000705177    4.371    0.771
        43  -8.0998      3.3252    123.3342   1.2477880311e+02   4.8698278318e+01    0.1194519   0.06945352 -52.91 0.0007051223    1.713    0.416
        44  -8.5298    211.1997    109.2587   6.9241442072e+01   1.5927299988e+01    0.2397621    0.2253042  -0.95 0.0003413228    1.083    0.077
        45  -7.2489    216.6353    105.6974   6.7371200754e+01   1.5311111547e+01    0.1561913     0.115562  15.17 0.0007035736    1.734    0.423
        46  -8.1148     99.7716     90.6257   9.0426107140e+01   4.4879369086e+01    0.1971395    0.1406053  52.31 0.0002947062    1.566    0.362
        47  -8.3884    129.0039     83.4994   8.0093665623e+01   4.0400942173e+01    0.2176596    0.1332964  24.38  0.000623979    2.420    0.587
        48  -7.7849    138.6824     75.6853   7.5181986197e+01   3.9724256266e+01    0.1595169    0.1230819  10.36 0.0005379501    1.649    0.394
        49  -8.3520    133.4805     73.4996   7.5808974206e+01   4.1357801039e+01    0.1540327    0.1496348  -9.04 -7.189231e-07    1.021    0.020
        50 -10.0279    114.7246     69.6637   7.9630761741e+01   4.6276413889e+01    0.2885065    0.2748514  40.87 0.0002102372    1.092    0.084
        51  -9.5714    125.8652     67.7751   7.5944902803e+01   4.4187137979e+01     0.264704    0.2539965  11.57 0.0007941847    1.039    0.037
        52  -8.4018    148.0000     66.9686   7.0164228866e+01   3.9092475530e+01    0.2634562   0.08797204 -35.72 0.0008088027    2.987    0.665
        53  -9.0527    155.3985     64.0147   6.7547760163e+01   3.7772310988e+01    0.2711401    0.1493775 -34.44  0.001083635    1.819    0.450
        54  -9.1931    210.9155     61.2677   5.6562553257e+01   2.4093761448e+01    0.3304502    0.2587497 -28.30 0.0007705233    1.302    0.232
        55  -8.1161    147.5013     57.5210   6.7209270763e+01   4.0843452559e+01    0.1506777    0.1499878  47.41 0.0001452169    1.017    0.017
        56  -7.7497    140.6626     56.6777   6.8512811768e+01   4.2668364604e+01    0.1611783    0.1171492  19.21 0.0007050622    1.714    0.417
        57  -7.9386    144.6353     51.6842   6.5912113994e+01   4.2505902491e+01    0.1633653     0.114229  23.80 0.0007039947    1.769    0.435
        58  -7.7150    196.6726     50.6359   5.5768603766e+01   2.9305140705e+01     0.156608    0.1143221  24.49  0.000357851    1.800    0.444
        59 -10.2962    180.2684     46.9711   5.7361127980e+01   3.4088247770e+01    0.4880423    0.2350648 -41.75  0.001921591    2.058    0.514
        60  -9.7341    187.1544     45.9043   5.5896184860e+01   3.2453149159e+01    0.3278472     0.214125 -68.52   0.00137337    1.881    0.468
        61  -9.6561    244.3390     42.9658   4.7562875922e+01   1.8723078722e+01    0.2551576    0.2095719   1.03  0.001424726    1.602    0.376
        62  -7.9073    237.3462     44.3144   4.8662534809e+01   2.0158047890e+01    0.1364417    0.1064981  28.10 0.0004692189    1.717    0.417
        63  -9.2375    249.5757     36.0542   4.5371266846e+01   1.8454608771e+01    0.4424574    0.1218849 -40.48  0.001635731    2.821    0.646
        64  -9.6366    185.2701     37.2573   5.3613819394e+01   3.4146745939e+01    0.2714335    0.1913277 -24.72  0.001304458    1.525    0.344
        65  -8.3366    195.3170     35.3453   5.1567270342e+01   3.1793098668e+01    0.1500736    0.1096789  30.01 0.0007048517    1.721    0.419
        66  -8.8014    246.1751    249.1637   9.1223993195e+01  -1.0931495077e+01    0.1392032    0.1172122  22.83  0.000621183    1.342    0.255
        67 -10.8753    187.2111    248.1576   1.0112427733e+02  -2.0352365159e+00    0.5118589    0.3107041  24.22  0.003036761    1.676    0.403
