#   1 NUMBER                 Running object number                                     
#   2 MAG_AUTO               Kron-like elliptical aperture magnitude                    [mag]
#   3 X_IMAGE                Object position along x                                    [pixel]
#   4 Y_IMAGE                Object position along y                                    [pixel]
#   5 X_WORLD                Barycenter position along world x axis                     [deg]
#   6 Y_WORLD                Barycenter position along world y axis                     [deg]
#   7 A_WORLD                Profile RMS along major axis (world units)                 [deg]
#   8 B_WORLD                Profile RMS along minor axis (world units)                 [deg]
#   9 THETA_WORLD            Position angle (CCW/world-x)                               [deg]
#  10 FWHM_WORLD             FWHM assuming a gaussian core                              [deg]
#  11 ELONGATION             A_IMAGE/B_IMAGE                                           
#  12 ELLIPTICITY            1 - B_IMAGE/A_IMAGE                                       
         1 -12.6623     42.4025     20.0607   9.6148470749e+01   6.7056083674e+01    0.6662959    0.4332235  19.58  0.002210777    1.620    0.383
         2 -12.4751    216.1565     14.7994   5.2658877651e+01   2.8878085641e+01    0.5577644    0.5038267  37.31  0.001994751    1.263    0.209
         3 -13.4571    186.6882      6.6529   5.3674911063e+01   3.7218465921e+01    0.9981914     0.560481 -71.46  0.004345402    2.206    0.547
         4 -11.7835     57.9149      8.0080   8.3861318699e+01   6.6633795456e+01    0.4295001    0.2640723  20.32  0.002382502    1.677    0.404
         5  -9.8862    109.5075      8.5564   6.7749157762e+01   5.6454768995e+01     0.134945    0.1227283  31.41 0.0008074645    1.047    0.045
         6 -11.7522    166.1033      1.7381   5.4785110259e+01   4.3020800796e+01    0.6058517    0.1617145  70.14  0.001927122    3.542    0.718
         7 -11.6338     44.0984      8.6555   9.0053108620e+01   6.8574926937e+01    0.2507891    0.2111888  -7.79 0.0009413757    1.105    0.095
         8 -10.5612     95.3173    224.6746   1.2305163177e+02   1.7803250763e+01    0.2603674   0.09801085  53.81   0.00121235    2.489    0.598
         9 -10.7112    149.1900    221.9848   1.1266830524e+02   9.8957455528e+00    0.3237132    0.1693148 -46.34  0.001742765    2.377    0.579
        10 -10.9205    226.1441    221.1363   9.8595867836e+01  -2.6245822485e+00    0.1485197    0.1335367  30.66 0.0009089203    1.345    0.257
        11 -10.0647    211.2057    217.9816   1.0069240064e+02   1.5006031733e-01    0.1655829    0.1437081 -79.66 0.0009041219    1.981    0.495
        12 -10.9804    237.5563    211.1387   9.4990018682e+01  -3.2526385271e+00    0.2489764    0.1451469  52.72  0.001299706    2.431    0.589
        13 -11.5157    222.8785    213.8064   9.7961121713e+01  -1.2306266767e+00    0.2775531    0.1378906  30.78  0.001442589    1.792    0.442
        14 -10.7229    115.9946    209.2491   1.1742922359e+02   1.7354933469e+01     0.275741    0.1525368 -73.53  0.001395884    2.465    0.594
        15 -11.1903      5.1386    199.5362   1.3762099395e+02   3.2881014049e+01    0.2908896    0.1169285  50.48  0.001193953    1.955    0.489
        16 -10.0133     41.4778    201.9638   1.3115182734e+02   2.8830324607e+01    0.1569914   0.09351043 -80.58 0.0005002499    1.537    0.349
        17 -12.3689    159.7308    191.6343   1.0616156111e+02   1.2970919554e+01    0.6740902    0.4789543  82.02  0.002837305    2.226    0.551
        18  -9.6667    133.3011    195.6674   1.1215477555e+02   1.6920000873e+01    0.1310215   0.09269978  70.54 0.0004797025    1.653    0.395
        19  -9.9616    215.1897    193.7749   9.5868418078e+01   2.6587459072e+00    0.2585982   0.09105971 -42.59  0.001018742    3.540    0.718
        20 -10.0488    226.3170    188.6329   9.2932884134e+01   1.4212250186e+00    0.1154824    0.1045023 -87.52 0.0007038065    1.779    0.438
        21 -10.3652    183.7705    182.5035   9.9779177671e+01   1.0048754349e+01    0.3155273    0.1857242 -19.40  0.001405648    2.528    0.604
        22 -10.0857    224.0000    183.0513   9.2298514663e+01   2.5871720333e+00    0.1990387   0.07148688 -34.77 0.0008021208    2.940    0.660
        23  -9.2869    100.9895    175.9904   1.1618956691e+02   2.6019914266e+01    0.1484597    0.1309913  69.98            0    1.016    0.015
        24 -11.8212     36.1565    173.7268   1.2997318841e+02   3.5006092186e+01     0.419907    0.2072349  64.59  0.002289213    1.977    0.494
        25 -11.6898     55.7573    167.6069   1.2515529351e+02   3.4087814383e+01    0.4532271    0.2369829 -89.88  0.002270391    2.142    0.533
        26  -9.6516     88.3271    167.9974   1.1789575079e+02   2.9613960613e+01    0.2102852    0.1003466 -85.91 0.0007050969    4.327    0.769
        27 -10.6594     98.8558    165.7183   1.1517304723e+02   2.8472156539e+01    0.2557464    0.1554002 -74.11  0.001262551    1.878    0.467
        28 -10.0758    132.0249    160.2394   1.0668970151e+02   2.3888648142e+01    0.1912512    0.1109179  42.46 0.0008826554    1.615    0.381
        29 -10.6583    121.3713    169.2001   1.1063273357e+02   2.4002896366e+01    0.2437344      0.16367  70.74  0.001190436    1.817    0.450
        30 -10.3413     24.0204    159.9523   1.3139516536e+02   3.9077136709e+01    0.1718231    0.1239483 -49.84  0.001134718    1.738    0.425
        31 -11.7317    106.0709    157.5036   1.1220621066e+02   2.9028469020e+01    0.5936064    0.3793993  89.41  0.002750933    2.171    0.539
        32 -10.9068    167.4021    157.3198   9.8319971623e+01   1.7586501986e+01    0.3527192    0.2428715 -86.43  0.001477061    2.704    0.630
        33 -11.6859    118.7420    156.9939   1.0915957894e+02   2.6957330517e+01    0.3875371    0.2695817  51.52  0.001810239    1.372    0.271
        34 -10.2475    218.4216    155.7635   8.7846224514e+01   7.6172416961e+00    0.2651422    0.1274893 -38.68  0.001152284    2.160    0.537
        35  -9.9914     81.3370    154.6651   1.1761406941e+02   3.3493792212e+01    0.1410511   0.09112535  72.09 0.0007051869    1.746    0.427
        36 -10.7439     23.0667    151.3764   1.3086626942e+02   4.0990897415e+01    0.3232996     0.137276 -80.68  0.001371642    2.099    0.524
        37  -9.7917     30.3188    152.6565   1.2933823400e+02   4.0045388260e+01    0.1265269    0.0720363  70.21 0.0006378632    1.721    0.419
        38 -11.4482    243.3596    151.1914   8.2507176921e+01   3.5500679611e+00    0.2530864   0.09497978  44.13  0.001023303    2.614    0.617
        39 -10.2838    189.4881    150.4951   9.2300933078e+01   1.4301685645e+01    0.2497127    0.1330483 -50.00 0.0009252588    2.321    0.569
        40 -11.1280    106.8886    145.5063   1.0992741313e+02   3.1459768616e+01    0.3547534    0.2234472  80.26   0.00152947    2.387    0.581
        41 -10.3259     55.7969    146.1934   1.2259366348e+02   3.8733617091e+01    0.2261077    0.1105396  69.39 0.0009549411    2.856    0.650
        42 -10.4134    148.0136    144.3202   9.9928220544e+01   2.3993214097e+01    0.2989268    0.1880346 -73.99   0.00117748    2.707    0.631
        43 -10.7292     82.8699    131.5635   1.1347597253e+02   3.8400932221e+01    0.2886283    0.1749915 -79.05  0.001335588    1.996    0.499
        44 -12.2833     98.7254    128.3459   1.0871856461e+02   3.6615786941e+01    0.6935778    0.4011641 -86.48  0.002564813    3.266    0.694
        45  -9.3550     26.9814    128.7911   1.2764028039e+02   4.5600628619e+01    0.1310685   0.09543733  32.79 0.0003426376    1.613    0.380
        46 -10.8927     43.3786    123.3084   1.2263937560e+02   4.5272415937e+01    0.4642916    0.2199319  87.01  0.001848155    3.309    0.698
        47 -11.1166     27.1846    121.0513   1.2666452165e+02   4.7317629438e+01    0.6127566    0.2405164  84.24  0.001950058    5.568    0.820
        48 -11.7173    193.1406    118.4511   8.4189430277e+01   1.9148770771e+01    0.5359943    0.4292056 -71.22  0.001862818    1.648    0.393
        49 -10.3506     71.9963    121.1680   1.1450122379e+02   4.2317928154e+01    0.2308279    0.1406511  63.78  0.001088472    2.050    0.512
        50 -10.5341     15.1399    120.9957   1.2982186699e+02   4.8291466839e+01    0.2661373    0.1628699  32.67  0.001663635    1.895    0.472
        51 -10.0566     73.7782    130.1746   1.1561925925e+02   4.0022976539e+01    0.2377057    0.1308015  72.51 0.0009587049    2.877    0.652
        52 -11.0423    140.9933    117.7664   9.5592197513e+01   3.0852244614e+01    0.3922226    0.2066429 -58.67  0.001458148    2.527    0.604
        53 -10.3458      2.4015    115.2111   1.3254741059e+02   5.0421360683e+01    0.1615055   0.08592936 -87.05 0.0004482102    1.596    0.373
        54 -10.5883    108.1513    112.4250   1.0276020729e+02   3.8497900286e+01    0.4782927    0.1897756 -61.29  0.001451078    3.960    0.747
        55 -12.3231    160.1097    110.6316   8.9283357429e+01   2.8099149180e+01    0.7681052    0.4771125 -62.19  0.003051851    2.285    0.562
        56 -10.7230     78.0850    111.7843   1.1097308071e+02   4.3593731242e+01    0.4157227    0.2224614 -78.88  0.001585502    3.037    0.671
        57 -10.9033    174.6562    110.5868   8.6044652677e+01   2.4789805807e+01    0.4355733    0.2866426 -26.93  0.001890478    1.693    0.409
        58 -11.3746     14.0319    109.9636   1.2887854773e+02   5.0826624379e+01    0.5073969    0.2331625  87.13  0.002429584    2.503    0.600
        59 -12.6332    139.8387    100.4830   9.1461222196e+01   3.4635666674e+01    0.6031661    0.3561509  39.97  0.002547871    1.753    0.430
        60 -12.0581     44.6342    101.4168   1.1876131026e+02   5.0135417758e+01    0.6001323    0.3335958  86.92  0.002486789    2.647    0.622
        61 -12.1934    127.6036    100.5454   9.4601633678e+01   3.7238806891e+01     0.563348    0.2949134 -55.93  0.002161875    2.296    0.565
        62 -10.6387     91.9874    111.2961   1.0694730592e+02   4.1550505864e+01    0.4436039    0.1946631 -65.82  0.001513846    3.330    0.700
        63 -12.2407    108.1549     99.0744   9.9475265437e+01   4.1407085642e+01    0.7676412     0.506099  83.94  0.003027085    2.773    0.639
        64 -10.6912     82.1619    100.6691   1.0735369065e+02   4.5495488332e+01    0.2590943    0.2035431  69.13  0.000714041    1.502    0.334
        65 -10.3504     94.6645     97.3545   1.0288389685e+02   4.4202617666e+01    0.2259756    0.1733011  86.58  0.001113269    1.712    0.416
        66 -10.6210     63.1532     96.3126   1.1210205973e+02   4.9156067378e+01    0.2943662    0.1545093 -81.00  0.001087099    3.440    0.709
        67 -13.0816    170.2737     91.1260   8.1796763676e+01   2.9410375056e+01    0.4681797    0.4192289 -50.63 0.0009616365    1.167    0.143
        68 -10.6060     60.2047     89.8994   1.1159516309e+02   5.0973860942e+01    0.1963119    0.1674241 -83.43 0.0002866332    1.250    0.200
        69 -11.0904     34.4831     88.4754   1.1953276528e+02   5.4047269198e+01    0.3337266    0.1884721 -80.08  0.001692003    1.968    0.492
        70 -11.8021     42.4698     87.6977   1.1680717697e+02   5.3463726854e+01    0.6812083    0.3667169   3.96  0.002840221    3.319    0.699
        71 -10.3179     45.4613     81.9889   1.1460940251e+02   5.4434491607e+01    0.2379197    0.1698584 -76.15 0.0005815112    1.480    0.324
        72 -11.3822     86.7490     87.0189   1.0257116466e+02   4.7784851751e+01    0.4814722    0.3308033 -86.79  0.002139685    2.339    0.573
        73 -11.0389      6.9007     85.0685   1.2776843145e+02   5.6807085385e+01    0.1875077    0.1436587 -49.33  0.001316279    1.263    0.209
        74 -11.0369    104.5091     83.2164   9.6192794494e+01   4.5458072583e+01    0.3765539     0.261178 -66.87  0.001720409    1.865    0.464
        75 -10.5864     24.2800     80.4297   1.2136848191e+02   5.6691054668e+01     0.217639    0.1332519 -85.67  0.001193286    1.835    0.455
        76 -10.7505      9.8105     80.8158   1.2620881126e+02   5.7577341267e+01    0.1789351    0.1283337 -57.52 0.0005809919    1.153    0.133
        77 -11.1240     82.4466     73.4675   1.0012691854e+02   5.1370217805e+01    0.3902185    0.2500441 -80.33  0.001541817    3.118    0.679
        78 -11.6612    223.3898     71.2375   6.6713359138e+01   1.9807454479e+01    0.3291705    0.2691524 -51.00 0.0008964859    1.236    0.191
        79 -10.0182    115.4083     72.2306   8.9750833328e+01   4.5499962370e+01    0.2157665    0.1367095 -50.86 0.0009438598    1.706    0.414
        80 -10.6883     51.8432     70.4835   1.0963578758e+02   5.6254213651e+01    0.2932993    0.1797512 -63.67 0.0009986825    1.658    0.397
        81 -10.4461    196.2159     67.9031   7.0183154928e+01   2.6937169130e+01    0.3653479    0.2087415  53.60  0.001560611    1.726    0.421
        82 -11.5240     20.9262     51.3407   1.1624722543e+02   6.3212299150e+01    0.6116943    0.2445105 -62.86    0.0029146    2.226    0.551
        83 -13.6815     30.6951     59.8088   1.1459712469e+02   6.0664222555e+01     1.140643    0.7202069  33.60  0.004503313    1.881    0.468
        84 -11.9192     39.5471     52.8061   1.0926172914e+02   6.1298750596e+01    0.5630206    0.1427001 -47.83  0.002134377    3.045    0.672
        85 -11.4836    237.9813     63.9840   6.2816304234e+01   1.7452985767e+01    0.2363381    0.1587111 -61.36  0.001143788    1.724    0.420
        86 -10.5851     74.2844     60.2658   9.8776901702e+01   5.5352595258e+01    0.3890505    0.2630011 -89.82  0.001575236    3.396    0.706
        87 -11.0762      6.8310     53.9006   1.2242645004e+02   6.3552591736e+01    0.3704232    0.2249446  81.67  0.002078452    2.356    0.576
        88 -11.6060     19.4093     59.3803   1.1878243765e+02   6.1628781155e+01    0.2433572    0.2231368 -42.72 0.0008682616    1.156    0.135
        89 -10.5254    161.5086     52.9764   7.2262103051e+01   3.8034572498e+01    0.2951839    0.2161625  77.84  0.001006426    1.622    0.384
        90 -11.9122    149.4598     52.1582   7.4569279844e+01   4.1182037878e+01    0.3421601    0.2808053  56.68 0.0004520041    1.210    0.174
        91 -10.5034     82.3437     47.0715   9.1463207012e+01   5.6529698967e+01    0.2381883    0.2008232  46.08 0.0005080838    1.347    0.257
        92 -10.7532    157.1361     44.9637   7.0567643226e+01   4.0335286210e+01    0.2963113    0.2045731  52.99 0.0004595191    1.384    0.278
        93 -11.2452      7.1041     43.2368   1.1989957311e+02   6.5748954269e+01    0.4208157     0.245321  44.15  0.002509087    2.407    0.585
        94 -11.5581     71.4484     42.3671   9.3543889496e+01   5.9177469003e+01    0.5800827    0.2968327  52.41  0.002460182    2.904    0.656
        95 -12.2646     42.7116     37.4053   1.0293594234e+02   6.3981682122e+01    0.6315094    0.3535147  16.53   0.00249645    2.191    0.544
        96 -11.6954     46.8821     35.8305   1.0062110281e+02   6.3786696623e+01    0.3666588    0.2361892  10.74  0.000720177    1.826    0.452
        97 -10.8957     82.8034     37.8124   8.7799692873e+01   5.8041264301e+01     0.392239    0.2183231  57.17  0.001688425    2.657    0.624
        98 -11.1168    120.0533     34.2949   7.5319092048e+01   5.0899081989e+01     0.307052    0.2732775  57.56 0.0007546556    1.193    0.162
        99 -10.7666    103.6865     30.3818   7.8269808364e+01   5.5078912048e+01    0.5244693    0.1811998  54.63  0.001830859    3.194    0.687
       100 -11.3181    220.1257    248.9070   1.0380254627e+02  -4.7667048448e+00    0.2142022    0.1641652  64.19  0.001395012    2.351    0.575
       101 -10.9794    239.9126     20.6021   5.1793682588e+01   2.2504493889e+01    0.2589782    0.2052186  89.19 0.0005210381    1.237    0.191
       102  -9.8049     32.6770    242.3038   1.3512642436e+02   2.2685357193e+01    0.1083553   0.05090163  62.90 0.0006929016    1.637    0.389
       103 -12.3421    202.6501     21.0731   5.5901145204e+01   3.1598053977e+01    0.4766212    0.2601676 -75.95  0.001942215    2.456    0.593
       104 -10.6698    134.1820     17.9855   6.5889653737e+01   4.9577108238e+01     0.244239    0.1947495  57.18 0.0005136257    1.188    0.158
       105 -12.3731     21.1903    238.5775   1.3676397875e+02   2.4495161685e+01    0.4511116     0.168241  66.64  0.002655385    2.296    0.564
       106 -10.8942      8.3068    240.2850   1.3882787568e+02   2.5477104176e+01    0.1547178    0.1058512  37.76  0.001256167    1.733    0.423
       107 -10.7650     12.9281    227.4527   1.3758401513e+02   2.7177834651e+01    0.1819429    0.1151805  85.78 0.0006050578    1.285    0.222
       108  -9.9485    104.4688    225.0173   1.2139488170e+02   1.6416669379e+01    0.1568796    0.1121711 -69.72  0.001035472    1.603    0.376
