#   1 NUMBER                 Running object number                                     
#   2 MAG_AUTO               Kron-like elliptical aperture magnitude                    [mag]
#   3 X_IMAGE                Object position along x                                    [pixel]
#   4 Y_IMAGE                Object position along y                                    [pixel]
#   5 X_WORLD                Barycenter position along world x axis                     [deg]
#   6 Y_WORLD                Barycenter position along world y axis                     [deg]
#   7 A_WORLD                Profile RMS along major axis (world units)                 [deg]
#   8 B_WORLD                Profile RMS along minor axis (world units)                 [deg]
#   9 THETA_WORLD            Position angle (CCW/world-x)                               [deg]
#  10 FWHM_WORLD             FWHM assuming a gaussian core                              [deg]
#  11 ELONGATION             A_IMAGE/B_IMAGE                                           
#  12 ELLIPTICITY            1 - B_IMAGE/A_IMAGE                                       
         1 -12.9077    188.5016     41.9056   5.0263130415e+01   3.2874659092e+01     1.334042     1.008529  29.01  0.004566253    1.681    0.405
         2 -11.9425    215.6863     12.8320   3.9309466568e+01   2.9767943831e+01     1.042972     0.521301 -36.06  0.005118703    1.914    0.478
         3 -11.6104    209.2066     11.5174   3.9610482134e+01   3.1463259422e+01    0.8088039    0.3646311 -29.25  0.003683469    2.320    0.569
         4 -10.1977    248.8449    236.3418   8.3777034847e+01  -1.0343283174e+01    0.1589864    0.1286559   1.63 0.0009947272    1.159    0.137
         5 -10.6444    248.4769    249.3479   8.5943248896e+01  -1.1758512519e+01    0.4329705    0.1948213 -19.67   0.00230336    2.554    0.609
         6 -19.4799     22.0667    146.2110   1.1955130238e+02   4.2030817076e+01     19.48384     3.421603 -73.29   0.05705658    5.258    0.810
         7  -9.2853     90.3692    213.0140   1.1130800624e+02   1.8572385623e+01    0.2322496    0.1458785  57.27 0.0005197476    1.437    0.304
         8 -10.6552    149.6596    207.8910   9.8055311590e+01   9.8039858063e+00    0.3525079    0.2337263  22.48  0.001758418    1.781    0.439
         9  -8.7050     67.0500    204.4295   1.1527044835e+02   2.3673611486e+01    0.3068874    0.1511958 -47.40  0.001287019    2.955    0.662
        10  -9.7529     96.9398    201.9884   1.0857459902e+02   1.9834974910e+01    0.2101706     0.181167  67.12 0.0009162044    1.016    0.016
        11  -9.0246     58.0757    201.2244   1.1684023329e+02   2.5536016227e+01    0.1616585    0.1490698  68.55 0.0004597141    1.231    0.188
        12 -10.7271    140.7690    196.9134   9.8210295464e+01   1.3478697757e+01    0.3261803    0.2006784 -67.89  0.001499865    2.183    0.542
        13  -8.8418     82.0519    194.9585   1.1096788711e+02   2.3592675311e+01    0.1941662    0.1711129  74.49 0.0004674705    1.047    0.045
        14 -10.3112     61.4136    194.0034   1.1539644580e+02   2.6667825321e+01    0.3212519    0.2356976 -39.33  0.001193052    1.993    0.498
        15  -9.1286    192.4076    193.6340   8.6707531235e+01   4.6737245139e+00    0.2516688     0.123676 -55.37 0.0009530628    3.323    0.699
        16 -10.3193     95.2955    188.7656   1.0717966593e+02   2.2928091452e+01    0.3956937    0.2707618  77.62  0.001263096    1.625    0.385
        17 -10.2804    149.6348    188.1531   9.4774520611e+01   1.3600934892e+01    0.3398597    0.2230048 -74.66  0.001503562    2.325    0.570
        18 -10.4816     99.4156    180.8758   1.0508625839e+02   2.4017143511e+01    0.2651442    0.2570388 -78.90 0.0007014407    1.153    0.133
        19 -10.3267    143.2359    178.0306   9.4395314855e+01   1.6866726387e+01    0.3754736    0.1869636 -40.33  0.001178462    2.370    0.578
        20  -9.4302    187.3961    175.9319   8.4304422510e+01   8.7677041393e+00     0.286093    0.2595134  -9.29 0.0008554244    1.088    0.081
        21  -9.2534    149.4589    177.0401   9.2794346497e+01   1.5889194352e+01     0.210071    0.1447741 -50.86 0.0005594037    1.546    0.353
        22 -10.9574    114.5192    173.6678   1.0034921669e+02   2.3075575832e+01    0.2676816    0.2347103  41.54  0.001396769    1.147    0.128
        23  -9.5921    139.2239    171.3759   9.4085789823e+01   1.9038990011e+01    0.2167871    0.1296798  49.67  0.000951447    1.663    0.399
        24 -11.0258     75.2102    249.1778   1.1773876140e+02   1.3916942986e+01     0.296562    0.1472869 -61.06  0.001705194    2.343    0.573
        25  -9.8890     91.7961    156.8858   1.0310764004e+02   3.0804839051e+01    0.2818531    0.2256286 -52.85 0.0004962503    1.284    0.221
        26 -11.0081     97.1730    150.7877   1.0063311713e+02   3.1375264282e+01    0.5554323    0.4454574 -23.77  0.001703596    1.639    0.390
        27  -9.6111     62.4728    250.7828   1.2013404104e+02   1.5314847748e+01    0.1370937   0.07382754  43.46 -4.149126e-05    1.537    0.350
        28  -8.6430     58.2136    228.2725   1.1920082103e+02   2.0007502892e+01   0.09400373   0.08430981 -73.24 0.0002078718    1.406    0.289
        29 -10.1290    134.1639    146.1572   9.0212859475e+01   2.5613819962e+01     0.669208    0.2106992 -52.73  0.002005117    3.485    0.713
        30  -8.0348     44.5299    230.5069   1.2192364053e+02   2.1268261006e+01    0.1189367   0.08450858  67.63 4.334292e-05    1.076    0.071
        31 -10.9463    108.7822    137.8033   9.4984573108e+01   3.2440172155e+01    0.4843223    0.3389939 -55.57  0.002289829    1.396    0.284
        32 -10.7707     96.9018    136.7128   9.7974445479e+01   3.4802065477e+01    0.3266245    0.2766345 -66.31  0.001730763    1.135    0.119
        33 -10.1944    105.9491    130.9560   9.4271171669e+01   3.4587708525e+01    0.3671957    0.3280788 -76.22  0.001167501    1.122    0.109
        34  -9.3713    115.1781    128.5326   9.1207592457e+01   3.3433019246e+01    0.2893327    0.2405907 -18.20 0.0007104522    1.460    0.315
        35  -9.7075    103.0732    124.1730   9.3545308075e+01   3.6727146872e+01    0.3231245    0.2545456 -18.03 0.0008482548    1.631    0.387
        36  -8.4618    110.6404    117.9985   8.9956593011e+01   3.6776373324e+01    0.2144674    0.1922456 -50.85 0.0004604508    1.081    0.075
        37  -8.7597    231.3181    113.8834   6.2065489955e+01   1.1146604278e+01    0.2257846    0.1996104  71.09 0.0008107515    1.315    0.240
        38  -9.8943    119.4727    111.0188   8.5733164373e+01   3.6642303729e+01    0.3015631    0.2231739  61.52   0.00103998    1.566    0.362
        39 -10.7461     50.5433    224.8679   1.2038854561e+02   2.1632853721e+01     0.209556    0.1320424  71.15 0.0004710665    1.353    0.261
        40 -10.0795     70.2815    103.0492   9.8448188070e+01   4.7112330870e+01    0.2115855    0.1751942 -59.64  0.001158779    1.119    0.106
        41  -9.7870     55.0743    222.4971   1.1933462435e+02   2.1535540371e+01    0.1575771    0.1146819  56.79 0.0003767502    1.140    0.123
        42  99.0000     43.8964    221.4023   1.2138913804e+02   2.3120243714e+01    0.2098822    0.1461955  36.81  0.001365099    1.587    0.370
        43  99.0000     57.0846    218.5344   1.1861384469e+02   2.2070923902e+01     0.451228    0.1855245  61.21  0.002071707    2.533    0.605
        44 -11.8763    173.1570     55.6849   5.6811942041e+01   3.4745380671e+01    0.5064725    0.4820553 -22.33  0.000953037    1.122    0.109
        45  -9.8528     62.0541    245.2929   1.1980701979e+02   1.6341912613e+01    0.1627691    0.1260231  84.11 0.0005124547    1.214    0.176
        46 -11.6021    193.3028     35.7495   4.7856255575e+01   3.2494521710e+01    0.5503125    0.4480491  58.61  0.001516724    1.235    0.190
        47  -9.0005     71.5519    243.0695   1.1790959307e+02   1.5493018816e+01    0.1733116    0.1037949 -81.67 0.0007895842    1.764    0.433
