#   1 NUMBER                 Running object number                                     
#   2 MAG_AUTO               Kron-like elliptical aperture magnitude                    [mag]
#   3 X_IMAGE                Object position along x                                    [pixel]
#   4 Y_IMAGE                Object position along y                                    [pixel]
#   5 X_WORLD                Barycenter position along world x axis                     [deg]
#   6 Y_WORLD                Barycenter position along world y axis                     [deg]
#   7 A_WORLD                Profile RMS along major axis (world units)                 [deg]
#   8 B_WORLD                Profile RMS along minor axis (world units)                 [deg]
#   9 THETA_WORLD            Position angle (CCW/world-x)                               [deg]
#  10 FWHM_WORLD             FWHM assuming a gaussian core                              [deg]
#  11 ELONGATION             A_IMAGE/B_IMAGE                                           
#  12 ELLIPTICITY            1 - B_IMAGE/A_IMAGE                                       
         1 -13.5505    194.5780     27.7530   6.9937276078e+01   3.3386388163e+01      1.53586     1.429705  53.65  0.006854531    1.149    0.130
         2 -13.6527    210.4693      8.0459   6.2658169541e+01   3.1550465673e+01     1.342308    0.9811051  43.74  0.007318815    1.618    0.382
         3 -12.7061      3.7329      6.6883   1.1866682022e+02   7.3662422066e+01      1.33434     0.261177 -46.67  0.005729768    3.315    0.698
         4 -10.6951    153.0430    248.9946   1.2710784223e+02   4.3459872705e+00    0.1825903    0.1424869  44.77 0.0006346248    1.016    0.016
         5 -12.0016    173.0848    248.6983   1.2359122966e+02   1.2198125903e+00    0.4966364    0.2432229  48.05  0.002752338    1.744    0.427
         6 -11.9803    140.3996    249.9338   1.2941475317e+02   6.1941172094e+00    0.5624296    0.1752293  44.23  0.002563588    2.446    0.591
         7 -11.0663    139.4801    245.4970   1.2907840583e+02   6.9855666529e+00    0.1919537    0.1524805  50.79 0.0009149698    1.027    0.026
         8 -11.0050    123.1777    249.9310   1.3240206195e+02   8.8466547842e+00    0.2712672    0.1345271  41.09  0.001542118    1.667    0.400
         9  -9.9270     46.9828    249.6757   1.4516517966e+02   1.9372327039e+01    0.1499411   0.09863612  59.09 0.0004419674    1.113    0.101
        10 -14.3527    102.0252    229.0140   1.3402890397e+02   1.5452375452e+01     6.113242          nan  44.96   0.01317062   10.759    0.907
        11  -9.4801      2.5000    249.5161   1.5199197839e+02   2.4224465941e+01   0.09967825   0.06325664  69.28 0.0008104737    1.004    0.004
        12 -10.0675     82.2099    243.0399   1.3884584730e+02   1.5928189354e+01    0.1876524    0.1002553  73.06 0.0008288095    1.962    0.490
        13  -9.9696     12.7835    240.3738   1.5008448237e+02   2.4745966432e+01    0.1831235    0.1329588  55.38  0.001305605    1.329    0.247
        14 -10.4138    237.5068    247.0009   1.1251605336e+02  -8.3891352877e+00    0.1477215    0.1009612 -21.11 0.0006596619    1.591    0.371
        15 -10.4042     81.1945    248.7046   1.3947496663e+02   1.5132985437e+01    0.2951557    0.1253782  60.73  0.001571721    2.205    0.546
        16 -12.9059     35.1760    234.8860   1.4622292956e+02   2.3294799083e+01    0.2799824    0.2124138  89.82 0.0007917219    1.285    0.222
        17  -8.3473     69.6868    234.6713   1.4033841169e+02   1.9065450438e+01   0.09155378   0.09031605 -24.31 0.0007043439    1.671    0.402
        18 -15.0538      8.5036    149.9773   1.4556672880e+02   4.3077490391e+01     7.886673     1.983559 -83.79   0.02698134    4.663    0.786
        19  -9.0307    248.6599    230.6951   1.0816725360e+02  -8.2724212482e+00     0.119719   0.07066087  13.62 0.0007040736    1.679    0.404
        20  -9.2231    177.5171    227.4774   1.1992471863e+02   3.4108280516e+00    0.1233604    0.1013326  41.81 0.0001345274    1.054    0.051
        21 -10.8823    101.6126    246.7950   1.3582877362e+02   1.2551714990e+01    0.2390175    0.1521844 -73.04  0.001573865    1.810    0.447
        22 -10.4152    173.2015    222.3104   1.1996106065e+02   4.8986532140e+00    0.2955088    0.2400121  38.23  0.001931526    1.034    0.033
        23  -8.8983     94.6134    216.8681   1.3414306473e+02   1.8746087073e+01    0.1626001    0.1019142 -88.09 0.0004193583    1.763    0.433
        24 -12.5522      9.4984    207.1889   1.4906462556e+02   3.1119299150e+01    0.6629687    0.4658825  31.87  0.003709785    1.929    0.482
        25 -11.7712     61.5916    200.3011   1.3887305847e+02   2.6624026261e+01    0.2671385    0.2261943 -62.82 0.0005312068    1.483    0.326
        26  -9.7449    192.0803    193.2600   1.1168124587e+02   6.0417005413e+00    0.4130181    0.2330631 -65.02  0.001531278    4.229    0.764
        27 -10.1442     17.7027    198.7731   1.4712347098e+02   3.1968927372e+01    0.2631412    0.1204559  54.13 0.0004715364    1.788    0.441
        28 -12.0412     67.8145    191.8741   1.3678475689e+02   2.7517444956e+01    0.2595372     0.218385 -76.85 0.0004627571    1.254    0.203
        29  -9.0108    152.6409    213.0454   1.2248084279e+02   9.9129948467e+00    0.1586042    0.1514575  61.88 0.0003018389    1.134    0.118
        30 -10.9000     77.9635    178.7024   1.3312550621e+02   2.8878642287e+01     0.231072    0.1987846  84.41 0.0003431692    1.066    0.062
        31 -13.2525     64.7364    176.9767   1.3579245820e+02   3.1093954740e+01    0.4707005    0.2680981 -49.28  0.001726539    2.248    0.555
        32  -9.8354    100.5664    177.1474   1.2796192983e+02   2.5726559370e+01    0.3298138     0.195156  72.49  0.001204204    2.081    0.519
        33 -11.9223     85.6493    169.2873   1.3016281368e+02   2.9787118321e+01    0.6100192     0.591033  17.87  0.003422088    1.371    0.270
        34 -14.0325     40.3991    227.8980   1.4492057899e+02   2.3946828896e+01     0.882682    0.5275858  60.23  0.002857903    1.260    0.207
        35 -10.2455     97.8321    153.2027   1.2480244082e+02   3.1438878260e+01    0.3038465    0.2964815 -55.84 0.0008370132    1.223    0.182
        36  -9.4059    100.9404    149.0045   1.2331320487e+02   3.1865959154e+01    0.2210267    0.2003099   3.14  0.000357138    1.463    0.316
        37 -12.0472     86.5224    152.4977   1.2741107319e+02   3.3420300006e+01    0.2841225    0.2441459 -52.92 0.0005499907    1.297    0.229
        38  -9.0901    134.0000    146.5217   1.1491923851e+02   2.6294942707e+01    0.4869265   0.08324066 -49.54  0.001156763    5.939    0.832
        39 -10.0509    109.9043    137.5196   1.1889877715e+02   3.2897324166e+01    0.4124722    0.2801071 -23.44  0.001398872    2.458    0.593
        40 -10.5709     96.7845    135.2642   1.2176908232e+02   3.5721592961e+01    0.2368298    0.2198707 -49.36  0.000335143    1.191    0.160
        41 -10.6691     33.2405    132.4582   1.3781721550e+02   4.4863042802e+01    0.2781045    0.1594093  67.85  0.001275769    1.898    0.473
        42 -12.2971     67.2213    143.6920   1.3076890419e+02   3.8269346020e+01    0.6909299    0.4245911  65.68  0.003481199    1.787    0.440
        43  -9.1399    106.7755    124.2508   1.1687633731e+02   3.6500206704e+01    0.1791895    0.1681596 -10.11 0.0002593083    1.273    0.215
        44  -8.9494    115.8113    129.8034   1.1577940016e+02   3.3547624322e+01    0.2446398    0.1678208 -10.88 0.0009513886    2.864    0.651
        45  -9.6308    167.8204    112.8385   9.9246294226e+01   2.6031362739e+01     0.282003    0.2337781 -78.90  0.001214493    1.417    0.294
        46  -9.5640    203.2015    111.7832   9.1843963279e+01   1.7973395324e+01    0.2078522    0.1772178   8.78 0.0005308083    1.330    0.248
        47  -8.9581     38.6648     94.9273   1.3031164840e+02   5.3066899380e+01    0.1792211    0.1396475 -67.87 0.0004689746    1.084    0.077
        48  -8.6835     68.8703     83.8075   1.1801739970e+02   5.1960132609e+01    0.1722554    0.1509171  84.57 0.0003958153    1.314    0.239
        49 -10.1754    157.3429     76.2302   9.1250820514e+01   3.5607914704e+01    0.2617073     0.228822  62.38 0.0005685172    1.166    0.142
        50 -11.7498      2.2123     62.6123   1.3645461997e+02   6.2976235679e+01    0.7497202    0.1223822 -68.85  0.002311919    5.474    0.817
        51 -13.1050     49.5591    216.9168   1.4254604331e+02   2.4893505694e+01    0.9691676    0.9435695 -48.61  0.006788089    1.667    0.400
        52 -12.4720      3.2598     45.0980   1.3216746405e+02   6.6583839177e+01    0.6409528     0.221701 -63.72  0.003120015    2.292    0.564
        53 -10.3625    249.7532    248.5261   1.1078918134e+02  -1.0255106178e+01     0.192375    0.1241844 -38.71  0.001291808    2.188    0.543
        54  -9.9284     23.0096    245.5207   1.4872819966e+02   2.2798212428e+01     0.198434   0.08588508  64.12  0.001266039    1.731    0.422
