#   1 NUMBER                 Running object number                                     
#   2 MAG_AUTO               Kron-like elliptical aperture magnitude                    [mag]
#   3 X_IMAGE                Object position along x                                    [pixel]
#   4 Y_IMAGE                Object position along y                                    [pixel]
#   5 X_WORLD                Barycenter position along world x axis                     [deg]
#   6 Y_WORLD                Barycenter position along world y axis                     [deg]
#   7 A_WORLD                Profile RMS along major axis (world units)                 [deg]
#   8 B_WORLD                Profile RMS along minor axis (world units)                 [deg]
#   9 THETA_WORLD            Position angle (CCW/world-x)                               [deg]
#  10 FWHM_WORLD             FWHM assuming a gaussian core                              [deg]
#  11 ELONGATION             A_IMAGE/B_IMAGE                                           
#  12 ELLIPTICITY            1 - B_IMAGE/A_IMAGE                                       
         1 -16.7948    142.3123    108.6179   7.6442114188e+01   3.2209269724e+01     7.199367      3.40776 -50.40   0.02584836    2.254    0.556
         2 -14.4563    185.1111    110.2338   6.7231391999e+01   2.2139022618e+01     1.814031     1.203446  14.03  0.007135786    2.439    0.590
         3 -15.7301     68.4547     50.2622   8.0064645251e+01   5.8549593029e+01     2.952131     1.922371  37.48   0.01547131    1.616    0.381
         4 -16.5685     33.1652     88.1246   1.0464436189e+02   5.4995942009e+01     3.914152     2.805105 -74.78   0.02211222    1.459    0.314
         5 -14.5129     17.8329     11.1383   8.5480205499e+01   7.1468833082e+01      1.50276     1.015781  -2.77  0.007455207    1.305    0.233
         6 -13.9423      8.0402     51.8603   1.0557126803e+02   6.4879187592e+01     1.474871    0.7427171 -45.66  0.006659305    1.495    0.331
         7 -14.0201    164.0301      5.6304   4.0884887778e+01   4.3018480046e+01     1.703708    0.9244491  84.93  0.008031664    1.953    0.488
         8 -14.4051    186.4637     11.8044   3.9962335236e+01   3.6921650605e+01     1.835317    0.9981576  64.06  0.009164947    1.670    0.401
         9 -13.3661    197.2340      4.8754   3.7036072022e+01   3.5018531424e+01     1.137523     0.411974  69.45  0.004865886    2.417    0.586
        10 -11.8542     64.9657      8.5645   6.3371188587e+01   6.5071084137e+01    0.4626969    0.4110866  11.24  0.002663103    1.154    0.133
        11 -11.7783     55.3184     12.3103   6.8747899655e+01   6.6321945165e+01    0.4930041    0.3342007  28.51  0.002332021    1.328    0.247
        12 -12.4673     55.9936      4.5554   6.4636681246e+01   6.7057297490e+01    0.7847275    0.4689312  31.26  0.003984614    1.480    0.324
        13 -11.1409     89.4517      2.9888   5.3451775453e+01   6.0763442138e+01    0.5887542    0.2523182  47.71  0.002790752    1.928    0.481
        14 -14.4742     93.0281    192.1485   1.0603274805e+02   2.2268776175e+01       1.8953     1.239768 -86.90  0.009457164    1.789    0.441
        15 -12.1183    186.4744    248.3698   9.4849615969e+01  -3.0038647474e+00    0.4115533    0.2585674  32.87   0.00248859    1.307    0.235
        16 -11.9027    149.8180    209.7552   9.6207411157e+01   9.1979238077e+00    0.6299759     0.397603  43.46  0.003245133    1.448    0.309
        17 -11.2016    148.9499    203.0697   9.5300963270e+01   1.0613341953e+01    0.3909706    0.2599689  78.52  0.001709293    2.646    0.622
        18 -10.2362     14.0008    210.9687   1.2450447560e+02   2.8064722620e+01    0.1922692   0.09846989  67.72 0.0007490427    1.662    0.398
        19 -11.2559    217.4821    207.2562   8.2228748545e+01  -1.8215372797e+00    0.2554515    0.2070065  37.61  0.001570132    1.345    0.257
        20  -9.9124    123.9991    205.9899   1.0114899710e+02   1.4322564970e+01    0.1957451     0.177807  52.92            0    1.003    0.003
        21 -10.0635      1.4868    205.4855   1.2653158982e+02   3.0355679279e+01    0.2052901   0.08044815  86.71  0.001035927    2.292    0.564
        22 -10.4387    123.3853    194.4914   9.9512496534e+01   1.6790144427e+01     0.311803    0.1861519  50.57  0.001475697    1.651    0.394
        23 -11.6942      8.7402    187.0038   1.2399451306e+02   3.3671026979e+01    0.4192355    0.2395172 -65.86  0.002519159    1.640    0.390
        24 -11.0984    140.1602    175.0912   9.2286962385e+01   1.7914980439e+01    0.2769336    0.2423252 -22.45  0.001138633    1.277    0.217
        25 -15.2320     71.0265    197.8733   1.1168585027e+02   2.4220876896e+01     3.014043     1.363723  55.50   0.01337801    2.306    0.566
        26 -11.3888    134.7134    168.7683   9.2346858576e+01   2.0315769345e+01    0.4727548    0.1811762  46.44  0.001652258    2.675    0.626
        27 -14.3599     73.0271    182.7794   1.0937033023e+02   2.7345567713e+01     1.526748    0.9419958  43.55   0.00739469    1.573    0.364
        28 -12.5993     20.1294    153.6734   1.1862862541e+02   4.0333617688e+01    0.6844544    0.6729841  72.85  0.004961174    1.300    0.231
        29 -11.0625    180.6577    151.0533   7.8119971551e+01   1.4939005683e+01    0.2586262    0.2173729  56.54  0.001319692    1.331    0.248
        30 -10.7721    198.9594    150.0127   7.4104422586e+01   1.1420649097e+01     0.235465    0.2157211 -14.40  0.001301569    1.023    0.023
        31 -12.1104    107.3017    148.0736   9.5048180920e+01   3.0142060393e+01    0.5466636    0.3477683  24.64  0.002351817    2.015    0.504
        32 -12.8563    106.2653    142.1328   9.4090537664e+01   3.1749943743e+01    0.8316444    0.6915957  31.39  0.003153053    1.309    0.236
        33 -10.0148    173.7558    249.4128   9.7377284204e+01  -1.2267857503e+00    0.1806682   0.09646941  29.69 0.0009585437    1.696    0.410
        34 -10.8282    239.7761    243.9647   8.4582551863e+01  -1.0027459647e+01    0.3517961    0.1463654  33.13  0.001738789    2.091    0.522
        35 -10.3052      1.3638    121.0003   1.2003621134e+02   4.9512895392e+01    0.2846794   0.09077531 -73.05  0.001224098    2.389    0.581
        36 -10.3988      6.7083    241.0092   1.2736646011e+02   2.2891971510e+01    0.2114307   0.09766115  59.92  0.001339959    1.635    0.388
        37  -9.9937    102.8639    107.6734   8.6878806581e+01   4.0562886307e+01    0.3043095    0.1439707  32.73  0.001100055    2.553    0.608
        38 -11.3195    175.0447    106.0694   6.8214602549e+01   2.5266471290e+01    0.2463129    0.2329635 -40.90 0.0007676271    1.018    0.018
        39 -12.2558    173.0293     98.0284   6.6467745033e+01   2.7308207296e+01    0.4050726    0.3115188   6.10  0.001829175    1.726    0.421
        40 -11.3955     22.8579    133.5767   1.1561282982e+02   4.4942344048e+01    0.3201796    0.2353724  22.19  0.001937969    1.716    0.417
        41 -12.5365    176.9915     90.0515   6.3459510501e+01   2.7882894610e+01    0.6002817    0.3467908 -18.28   0.00219473    2.602    0.616
        42 -12.1380    184.8891    118.8443   6.9483941978e+01   2.0499862027e+01    0.4930839    0.4272369 -15.14  0.001822433    1.219    0.180
        43 -10.0718     89.9386     83.8062   8.4050183769e+01   4.8272666869e+01    0.2719603    0.2001417 -43.69 0.0009132292    1.273    0.215
        44  -9.3234     90.6867    145.3038   9.8901138550e+01   3.3639976568e+01    0.1502248    0.1107124  77.04 0.0003591634    1.616    0.381
        45 -14.4168    134.7817    116.9443   8.0572081237e+01   3.2022914591e+01     1.819189    0.9399989 -46.64  0.007039591    1.886    0.470
        46 -12.0555     93.4734     75.7179   8.0398052451e+01   4.9318318682e+01    0.7336665    0.6905308 -23.83  0.004160082    1.030    0.029
        47 -12.6591    104.4959     76.5005   7.7262113301e+01   4.7019579988e+01    0.7431622    0.6792184  38.96  0.003213326    1.142    0.124
        48 -12.4359    105.5261     69.3286   7.4606086949e+01   4.8208542980e+01    0.9633282    0.6868817  84.52  0.004051892    2.506    0.601
        49 -12.5535    177.8000     71.9778   5.8225796016e+01   3.0900000582e+01    0.5424082    0.4512326 -79.18  0.002017574    1.331    0.249
        50 -12.1142    177.1527     64.9911   5.6346583865e+01   3.2215458745e+01    0.7548822    0.4146078  58.86  0.003203231    1.836    0.455
        51 -12.9615    191.0179    114.8085   6.7225762892e+01   1.9918253215e+01    0.9610741    0.5693616  29.11  0.003765464    2.353    0.575
        52 -12.1205    181.8188    129.4957   7.2781118848e+01   1.9048944944e+01    0.4127829    0.2533738  36.27  0.001746109    1.809    0.447
        53 -10.0917    250.5843     63.2538   4.5481197706e+01   1.5626333604e+01    0.3548486    0.1115179 -35.69  0.001357757    2.698    0.629
        54 -10.4148    250.2915     57.8754   4.4305766145e+01   1.6465103279e+01     0.288281    0.1720463 -40.69  0.001300536    1.421    0.296
        55 -12.1900    249.6763     50.6300   4.2750416066e+01   1.7615032135e+01    0.8103644    0.3568051 -32.06  0.003649964    2.184    0.542
        56 -10.4822    250.1877     43.1866   4.1050696464e+01   1.8525776394e+01     0.248879    0.1628224 -50.14  0.001418263    1.285    0.222
        57 -11.6932     98.9756     69.4928   7.6637947302e+01   4.9495485343e+01    0.5643944    0.4002165  60.25  0.001948723    1.809    0.447
        58 -10.9615    194.1876     55.5382   5.0862881369e+01   2.9513417793e+01    0.2931219    0.2140881 -66.86  0.001460369    1.473    0.321
        59 -10.9712    200.4795    238.2892   9.0712607076e+01  -3.7126510988e+00     0.320773    0.1159523 -38.14  0.001428355    3.088    0.676
        60 -11.5061    126.8216     43.1908   5.9847725723e+01   4.7839032648e+01    0.4881908    0.3270001  40.29  0.002364337    1.485    0.327
        61 -10.5639    123.7129     40.5662   5.9663078296e+01   4.8937068383e+01    0.4823641    0.2841073  47.67   0.00193322    1.604    0.376
        62 -11.1312    182.1848    239.3491   9.4322662042e+01  -1.0590635275e+00    0.2379307    0.1829387  57.60  0.001451191    1.692    0.409
        63 -12.0088     14.1777    237.0408   1.2592468678e+02   2.2891212859e+01    0.3509799    0.2209117  30.06  0.002354997    2.047    0.511
        64 -11.5761     17.9832    231.0686   1.2494895264e+02   2.3643899615e+01     0.843543    0.2645769  71.51  0.003301655    4.320    0.769
        65 -12.6062     11.2466    230.0854   1.2607217526e+02   2.4512169711e+01    0.5982347    0.2554795  58.58  0.003507684    1.863    0.463
        66 -11.4562    212.5787    228.1148   8.6809694211e+01  -4.1167834550e+00    0.3531781    0.1531228  27.93  0.001546799    2.378    0.579
        67 -10.5515    181.2036    139.2086   7.5256511610e+01   1.7217748755e+01    0.2088543    0.1839344 -75.08 0.0006508338    1.351    0.260
        68 -11.4333    218.0357    225.5510   8.5370737000e+01  -4.5801131282e+00    0.3717386    0.2142453   2.54  0.001832559    2.281    0.562
        69 -12.2585    205.0379    229.4990   8.8443139917e+01  -3.1634327288e+00    0.5400293     0.277638  31.08  0.002795199    1.743    0.426
        70 -12.0346    222.9563    219.8571   8.3484560381e+01  -4.5201626717e+00    0.3910972    0.2967729  -3.40  0.002476301    1.186    0.157
