#   1 NUMBER                 Running object number                                     
#   2 MAG_AUTO               Kron-like elliptical aperture magnitude                    [mag]
#   3 X_IMAGE                Object position along x                                    [pixel]
#   4 Y_IMAGE                Object position along y                                    [pixel]
#   5 X_WORLD                Barycenter position along world x axis                     [deg]
#   6 Y_WORLD                Barycenter position along world y axis                     [deg]
#   7 A_WORLD                Profile RMS along major axis (world units)                 [deg]
#   8 B_WORLD                Profile RMS along minor axis (world units)                 [deg]
#   9 THETA_WORLD            Position angle (CCW/world-x)                               [deg]
#  10 FWHM_WORLD             FWHM assuming a gaussian core                              [deg]
#  11 ELONGATION             A_IMAGE/B_IMAGE                                           
#  12 ELLIPTICITY            1 - B_IMAGE/A_IMAGE                                       
         1  -8.3724    101.6799     29.3840   5.4279402618e+01   5.5246408125e+01    0.2179734    0.1586738 -42.07 0.0006369346    1.576    0.366
         2  -9.1995     74.2479     19.4228   5.8348887061e+01   6.2087021734e+01    0.2885378    0.1999546 -42.25 0.0007944882    1.808    0.447
         3  -8.5948     55.7339     10.1592   6.0720687514e+01   6.6504175108e+01    0.1908937    0.1525139  46.04 0.0006817997    1.360    0.265
         4  -7.7718     27.9862      9.9298   7.2925932035e+01   7.0789966838e+01    0.1418931    0.1080007  -6.78 0.0004967793    1.089    0.082
         5  -8.3392     90.9688      9.0023   4.9228935294e+01   5.9689816727e+01    0.1849702    0.1481427 -70.80 0.0005547466    1.710    0.415
         6  -7.6043     12.6893      8.7010   8.0675189162e+01   7.2720847777e+01    0.1170505   0.06872784  -8.93 0.0003022857    1.601    0.375
         7  -7.9160      5.3573      7.6973   8.4571838349e+01   7.3549980110e+01   0.09367335   0.08495168  26.23 0.0007038639    1.715    0.417
         8  -8.1493    165.9372      6.2935   3.5439247953e+01   4.2596099406e+01    0.1738233     0.139147  81.22 0.0003278946    1.059    0.056
         9  -8.5010     33.3525      5.1871   6.7817414776e+01   7.0614679351e+01    0.2458263    0.1615201 -52.44      0.00129    3.288    0.696
        10  -8.3224     79.2226      4.1068   5.0320765315e+01   6.2573189472e+01    0.2011441    0.1566689 -42.17  0.001142361    1.636    0.389
        11  -8.4135     62.3316      1.5004   5.4282568679e+01   6.6116856898e+01    0.2042962    0.1082727  57.05 0.0006447109    1.929    0.482
        12  -7.5491     39.4903      1.5114   6.3065664814e+01   7.0075566037e+01     0.116307   0.09234078  15.60 0.0002030116    1.051    0.048
        13  -9.2017    103.7493    246.5655   1.0406495102e+02   8.5233174071e+00    0.3942956     0.219517 -81.40  0.001849544    2.751    0.636
        14  -8.4214     93.8504    249.5372   1.0645259975e+02   9.3759130527e+00    0.2338286    0.1301262  63.84  0.001017752    2.149    0.535
        15  -7.8984     25.5261    250.4788   1.2007887521e+02   1.7802835454e+01    0.1163847   0.08703351  65.69 0.0002031413    1.011    0.011
        16 -10.0088    223.8472    243.9304   7.9391580025e+01  -8.3298619969e+00    0.4463099     0.214768 -45.14  0.002273714    2.609    0.617
        17  -9.2041    210.8702    246.6608   8.2241748392e+01  -7.0370371884e+00    0.2089506    0.1682675 -36.71 0.0009382785    1.496    0.331
        18  -8.9786    146.9563    245.7747   9.4882051135e+01   2.2431749919e+00    0.2694729    0.1951743  81.14  0.001420934    2.311    0.567
        19  -9.2731    120.1741    245.5533   1.0048321133e+02   6.2978764707e+00    0.3599191    0.2319106  75.93  0.001748199    2.382    0.580
        20  -8.3014     67.5157    245.0383   1.1144756242e+02   1.3843771949e+01    0.1719871    0.1157154 -76.24 0.0009211887    1.568    0.362
        21  -8.1898     50.3658    244.5752   1.1488156518e+02   1.6109529324e+01    0.2252011   0.09544478  88.71 0.0009494399    3.256    0.693
        22  -8.7944    201.9854    243.2827   8.3397534051e+01  -5.3474316083e+00    0.2326266    0.1640228 -45.14 0.0007901489    1.749    0.428
        23  -8.6250    168.9751    243.4232   8.9989826587e+01  -6.4639631289e-01    0.1965372    0.1822879 -78.80 0.0005923655    1.490    0.329
        24  -8.8329    139.0577    244.0429   9.6300953750e+01   3.7366687149e+00    0.2033679    0.1480147  63.93  0.001129014    1.759    0.431
        25  -7.9169     34.4847    243.9698   1.1797116326e+02   1.8102058483e+01      0.17246    0.0761472  73.81  0.000809822    2.510    0.602
        26  -8.9895     77.4587    242.7987   1.0918239574e+02   1.2961285139e+01    0.2461362    0.1531974  77.69  0.001043855    1.843    0.457
        27  -8.9436    194.2030    240.2601   8.4431327299e+01  -3.8014050826e+00    0.3403908    0.1683913 -47.76  0.001073783    2.478    0.596
        28  -9.1504    194.0862    233.8501   8.3417996947e+01  -2.7732827221e+00    0.3391826    0.2039053 -37.88  0.001856676    1.718    0.418
        29  -9.7802    159.8436    239.8394   9.1342269588e+01   1.3249129788e+00    0.3330754    0.2553302 -78.32  0.001441606    2.068    0.516
        30  -8.2206    153.6097    242.3026   9.3003468360e+01   1.8425348569e+00    0.1866974    0.1458165  63.95  0.000910114    1.697    0.411
        31  -8.3602     88.2641    242.0930   1.0684083051e+02   1.1604333076e+01    0.1739723    0.1455675  86.24 0.0005908552    1.240    0.193
        32  -9.1729    182.9506    239.9994   8.6629008888e+01  -2.1423263547e+00    0.3207195    0.2335556  55.99  0.001502204    1.996    0.499
        33  -8.5379    146.5886    240.0869   9.4162494634e+01   3.2980295107e+00     0.354747    0.2164085  65.98  0.001160551    3.007    0.667
        34  -8.1637    240.6123    240.1751   7.5771020411e+01  -9.8830845717e+00    0.2302747   0.09613673 -33.34  0.001128872    2.204    0.546
        35  -8.6637    242.6446    236.6665   7.4831071992e+01  -9.6503607560e+00    0.2528435    0.1396886  -7.30   0.00137313    1.991    0.498
        36  -9.0969    135.3832    239.0221   9.6396794066e+01   5.2046908346e+00    0.2386901    0.1607933  53.76  0.001065677    1.617    0.382
        37  -8.6016    129.1916    238.7371   9.7684758525e+01   6.2043901553e+00    0.2142085    0.1450138  51.61 0.0009634948    1.500    0.333
        38  -7.6539     40.5167    239.5012   1.1647200860e+02   1.8317229335e+01    0.1230091   0.09517533  65.62 -0.0001324014    1.032    0.031
        39  -8.8374    230.8721    237.1433   7.6996669483e+01  -8.2662266184e+00    0.2307705    0.2040456 -74.09  0.001135942    2.271    0.560
        40  -7.8271    208.7960    238.0002   8.1236348683e+01  -5.4877418347e+00    0.1559812   0.09114017 -36.27 0.0007214076    1.728    0.421
        41  -8.3055     13.9352    238.2353   1.2157451528e+02   2.1466658341e+01    0.1472343   0.08177208  39.59 0.0008866661    1.654    0.396
        42  -8.1299     25.3921    236.5978   1.1927064972e+02   2.0611370533e+01    0.2328937      0.08577  85.38 0.0009479474    3.427    0.708
        43  -9.7934    214.5163    232.7668   7.9281017777e+01  -5.4797289274e+00    0.4715195    0.3564064 -78.57  0.002281736    3.636    0.725
        44  -8.8654    203.1674    234.8337   8.1798377894e+01  -4.2243450114e+00    0.2565905    0.1935484 -59.78  0.001013962    2.147    0.534
        45  -9.9133    175.6711    233.3138   8.7055200014e+01   4.3828951991e-02    0.4764357    0.2533953 -55.33  0.002208965    2.643    0.622
        46  -8.1368    170.4291    235.5422   8.8488478758e+01   4.5799489003e-01    0.1287724    0.1123307  19.02 0.0001193953    1.040    0.039
        47  -8.3514    122.8497    234.3491   9.8469499358e+01   8.0105671489e+00    0.2341632    0.1685657  79.63 0.0009863377    1.893    0.472
        48  -9.1818    108.8108    234.2744   1.0152265601e+02   1.0160728194e+01    0.4309295    0.2427104  56.97  0.001115401    1.998    0.500
        49  -8.4206     99.8121    234.4841   1.0351098358e+02   1.1458547456e+01    0.2518744    0.1662978  84.37  0.001294093    1.967    0.492
        50  -8.8079     92.7337    232.9319   1.0487364074e+02   1.2808657678e+01    0.3835095    0.2347972  76.84  0.001873338    2.147    0.534
        51  -8.6429     78.5647    233.9353   1.0805730597e+02   1.4610074804e+01    0.2303315     0.146792  89.87  0.001009882    1.805    0.446
        52  -9.3599     68.3778    232.4947   1.1010127694e+02   1.6293304157e+01    0.4690476    0.1977842  62.96  0.001820579    3.277    0.695
        53  -8.6941    140.2014    230.3329   9.4125921936e+01   6.0802757446e+00    0.3137698    0.1884307  57.41 0.0009702233    2.181    0.542
        54  -8.3552    132.5703    232.7264   9.6130214942e+01   6.8188557309e+00    0.1615488    0.1305261 -75.16 0.0005366039    1.536    0.349
        55  -9.5107    186.0868    230.4301   8.4460428747e+01  -1.0375113262e+00    0.3054539    0.2691487 -89.17  0.001308189    1.790    0.441
        56  -8.8868    236.2347    230.5408   7.4921830411e+01  -8.0053882071e+00    0.2402363    0.1634567 -35.54 0.0005355842    1.503    0.335
        57  -8.3402      1.7698    230.7940   1.2349568573e+02   2.4171169390e+01     0.166566   0.09695577  66.51 0.0006063624    1.360    0.265
        58  -9.9231    149.5882    226.1223   9.1450336590e+01   5.3911807570e+00     0.606348    0.3809854 -84.42  0.002369998    3.824    0.739
        59  -8.5356    229.7433    228.8782   7.5801818586e+01  -6.9320557237e+00    0.2200247    0.1345039 -36.98 0.0009237654    1.624    0.384
        60  -8.7841    162.4992    228.0289   8.8972383443e+01   2.9987402147e+00    0.3038694    0.1683636  47.69  0.001426812    2.016    0.504
        61  -8.8581    127.7484    227.2587   9.6417034423e+01   8.6352524510e+00    0.3028639    0.2128455  70.70   0.00108119    1.914    0.478
        62  -8.1154    120.0438    227.9556   9.8222552140e+01   9.7025471396e+00    0.2187939    0.1517661  66.89  0.001119234    1.783    0.439
        63  -8.5002      8.3038    227.9927   1.2210223820e+02   2.4144801843e+01    0.1923375   0.06164521  77.05 0.0007019249    4.087    0.755
        64  -8.3711    206.1079    226.2184   7.9779778599e+01  -3.2861120353e+00    0.1999234    0.1681616 -67.16 0.0006623763    1.950    0.487
        65  -7.5759    177.6616    227.2822   8.5669286140e+01   7.7479563384e-01    0.1242224    0.1010697  56.84  0.000401004    1.625    0.385
        66  -7.8780     49.6304    226.8087   1.1358698312e+02   1.9902124910e+01    0.2773275     0.126178  76.16  0.001155193    2.937    0.659
        67  -7.8769    200.1450    226.1755   8.0938058830e+01  -2.4158316213e+00    0.1576251    0.1535063   7.89 0.0005351894    1.346    0.257
        68  -9.1365     94.2060    224.5162   1.0355207200e+02   1.4346007078e+01    0.4448765    0.2257225  62.27  0.001757654    2.651    0.623
        69  -9.0555    104.7298    223.8802   1.0110448177e+02   1.2899061582e+01    0.3350383    0.2279231  74.55  0.001438317    1.835    0.455
        70  -7.7533     72.3425    225.3161   1.0851478151e+02   1.7286145759e+01    0.1227334    0.1019701 -21.51 0.0007048389    1.712    0.416
        71  -8.6613    216.3545    223.4971   7.7348860768e+01  -4.3077832756e+00    0.2276653    0.2023163  71.54    0.0009231    1.935    0.483
        72  -8.7616    180.3102    223.9130   8.4562527258e+01   9.5227316029e-01    0.2149572    0.1990687  74.38 0.0006194969    1.490    0.329
        73  -8.7398    173.0115    223.2108   8.5967969202e+01   2.2141467019e+00    0.2614015    0.1857584 -54.86 0.0007456464    1.750    0.428
        74  -7.9094    113.9779    224.0212   9.9041020120e+01   1.1445198537e+01    0.2146188     0.150113  64.87 0.0006887974    1.656    0.396
        75  -7.7052     38.2805    224.6388   1.1581198106e+02   2.1717306370e+01    0.1337767   0.07523962  67.18 0.0004230749    1.672    0.402
        76  -8.2144    144.9992    233.4544   9.3544950444e+01   4.7459262481e+00    0.2897483    0.1605002  57.54  0.001241689    2.687    0.628
        77  -9.1384    239.0545    221.0954   7.2787234251e+01  -6.9940201614e+00    0.3168866    0.1561785 -32.15  0.001114238    1.814    0.449
        78  -9.2265    225.2325    221.5201   7.5348788297e+01  -5.2268211267e+00    0.2179175    0.1506986 -28.88   0.00056383    1.321    0.243
        79  -9.2102    192.3415    221.2293   8.1647212162e+01  -4.3033128188e-01    0.3014479      0.24886 -63.69   0.00122362    1.770    0.435
        80  -8.8745    158.9604    220.3201   8.8493664206e+01   4.9831521229e+00    0.2574067    0.2013551  70.16  0.001339047    1.820    0.451
        81  -7.8419    140.4765    222.5354   9.2899378696e+01   7.5385880677e+00    0.1363696    0.1225845  38.62 0.0006783034    1.061    0.058
        82  -9.0432    120.3644    219.2396   9.6926788174e+01   1.1428786723e+01    0.4761006    0.2559124  62.70  0.001863728    2.963    0.662
        83  -8.8153     82.8702    220.7676   1.0565947527e+02   1.6801315104e+01    0.3173631    0.1641816  61.65  0.001091783    2.317    0.568
        84  -7.9012     73.3086    220.9764   1.0783654221e+02   1.8097111822e+01    0.2105066   0.09710054  86.54 0.0007041264    4.210    0.762
        85  -7.9710    202.7191    220.1745   7.9396923284e+01  -1.8100104182e+00    0.1818825    0.1573156 -42.49 0.0006996518    1.400    0.285
        86  -8.7816    249.2816    218.4935   7.0561737053e+01  -7.9073429131e+00    0.2509667    0.1988166  67.72  0.001400509    3.062    0.673
        87  -8.3305    210.0487    219.3018   7.7817542196e+01  -2.7412344479e+00    0.1781307    0.1495665   9.63 0.0004720669    1.081    0.075
        88  -9.3107    132.8206    215.9401   9.3603473000e+01   1.0100594433e+01    0.4790885    0.3073431  79.56  0.001996284    2.876    0.652
        89  -8.5255     62.0124    217.4085   1.0999551826e+02   2.0401954477e+01    0.3010342    0.1579304  68.77   0.00122598    2.245    0.555
        90  -9.0490     51.5253    217.2425   1.1231776571e+02   2.1771986670e+01    0.2961925    0.1666859  75.50 0.0008066585    1.919    0.479
        91  -8.7014    169.2318    215.9545   8.5551373866e+01   4.1412988089e+00    0.2767688    0.2159816 -75.53 0.0007964148    1.947    0.486
        92  -8.4487    143.0124    216.6630   9.1419229302e+01   8.2875348510e+00     0.277363     0.207104  81.08  0.001306343    1.987    0.497
        93  -8.3823    111.8481    217.2477   9.8589020529e+01   1.3195360950e+01    0.2393949    0.1330081  66.02  0.000947718    2.810    0.644
        94  -8.1316     18.4226    216.2544   1.1936412395e+02   2.5691660497e+01    0.1722227   0.09526235  85.22 0.0007520514    1.626    0.385
        95  -8.5680    232.3185    214.8221   7.2872286611e+01  -5.1592911455e+00    0.2090915    0.1798656 -44.89 0.0008504319    1.556    0.357
        96  -8.3533    185.6375    214.5377   8.1852600240e+01   1.7739142145e+00    0.2011678    0.1645817 -63.97 0.0006815426    1.706    0.414
        97  -8.2105    154.4864    215.0563   8.8607625152e+01   6.7201786154e+00    0.2056892    0.1773844 -81.64 0.0005759369    1.510    0.338
        98 -10.3620    149.7396    213.3020   8.9371013879e+01   7.8484970850e+00    0.4719854     0.321537 -77.76  0.000703029    2.411    0.585
        99  -9.4305    213.8743    212.1486   7.5808224866e+01  -2.1293619101e+00    0.3197611     0.290943  81.36  0.001476423    1.780    0.438
       100  -8.9338     92.8682    213.8190   1.0251256654e+02   1.6862148312e+01     0.378279    0.1924078  56.95  0.001307264    2.279    0.561
       101  -8.7360    161.5799    211.8625   8.6510745295e+01   6.1702505012e+00    0.3236372    0.1963952 -50.37  0.001010739    1.812    0.448
       102  -9.3878     72.8829    211.7963   1.0690608437e+02   2.0202889745e+01    0.5530515     0.240013  59.42  0.002098146    3.010    0.668
       103  -7.7709    224.9868    212.4912   7.3786623597e+01  -3.7823495289e+00    0.1435683    0.1117293  57.95 0.0005056791    2.162    0.537
       104  -9.0647    204.2878    210.9071   7.7441419212e+01  -4.8781676282e-01    0.3125177    0.2111785 -49.24 0.0008870086    1.769    0.435
       105  -8.9378      8.5418    212.0576   1.2114734409e+02   2.7570383925e+01      0.18218   0.07326243  74.54 0.0008089378    2.581    0.613
       106  -9.4738    175.3535    209.3799   8.3101034979e+01   4.3733650023e+00    0.4639311    0.2781647 -53.58  0.001420515    2.012    0.503
       107  -8.9569    116.3237    210.4028   9.6561889522e+01   1.3949942704e+01    0.3617996    0.2420762  71.51  0.001093944    2.015    0.504
       108  -8.0174    192.0240    210.2602   7.9781180958e+01   1.5270188785e+00     0.177623    0.1458121 -60.04 0.0004884513    1.645    0.392
       109  -9.5687    100.1567    207.1358   9.9896458439e+01   1.7238666074e+01    0.5881174    0.3305978  76.75   0.00223247    3.127    0.680
       110  -8.5416     85.5392    209.5455   1.0367685851e+02   1.8907392997e+01     0.316453    0.1767068  68.29  0.001165281    2.374    0.579
       111  -8.1357     46.5389    209.5493   1.1271197344e+02   2.4122052543e+01    0.2824779    0.1292194  73.54  0.001132522    2.908    0.656
       112  -9.0940    236.3179    208.1508   7.0953490988e+01  -4.6686582973e+00    0.3017486     0.194543 -46.27 0.0009636278    1.832    0.454
       113  -9.3281    246.4365    207.2944   6.9041594884e+01  -5.8880999041e+00    0.2563559    0.1782097 -34.36 0.0007148783    1.337    0.252
       114  -7.8657    156.4732    207.9476   8.6966573274e+01   7.7899868486e+00    0.1780364    0.1274356 -81.92 0.0008058634    2.334    0.572
       115  -8.3905    138.9872    208.0105   9.0932055844e+01   1.0717929821e+01    0.2263708    0.1692735  69.82   0.00071839    1.765    0.433
       116  -7.4885    242.6693    211.7232   7.0489410602e+01  -6.0652811797e+00    0.1256699   0.08045394  -4.05 0.0002617938    1.598    0.374
       117  -8.5366     56.7551    205.5524   1.0996449678e+02   2.3784489371e+01    0.3307388    0.1461456  57.85  0.001306092    2.540    0.606
       118  -8.8696    183.6566    203.9665   8.0369445575e+01   4.0223579974e+00    0.2860585    0.2313792  67.01 0.0008771146    1.806    0.446
       119  -8.1434    109.0259    205.2866   9.7519560956e+01   1.6250064045e+01    0.1978719    0.1759851  57.13 0.0006848685    1.076    0.070
       120  -9.4161    250.1865    201.9565   6.7434389820e+01  -5.5669053490e+00    0.3899224    0.1528516 -36.99  0.001614426    2.190    0.543
       121  -7.5867    218.3360    204.3239   7.3530202080e+01  -1.4891283094e+00    0.1386621     0.090663  -5.10 0.0007051014    1.715    0.417
       122  -9.2788    194.9072    203.4664   7.7954896295e+01   2.2851091679e+00    0.3399085    0.2450311 -38.07  0.000963077    1.371    0.271
       123  -9.2478    192.4320    197.2876   7.7304251099e+01   3.8189476658e+00    0.3341882    0.2378621 -51.44 0.0007796514    1.628    0.386
       124  -9.5181    163.8437    202.9819   8.4458960459e+01   7.5312229708e+00    0.4407977    0.2952546  59.34  0.001218779    2.086    0.521
       125  -8.5994    131.0767    203.7347   9.2062652790e+01   1.2953512378e+01    0.2985655    0.2150314  81.82  0.001054682    2.005    0.501
       126  -7.6227     66.6600    203.3069   1.0738175700e+02   2.3010059641e+01    0.1465515   0.09095565  64.37 0.0006136327    1.683    0.406
       127  -7.6923      6.6508    203.6607   1.2102844537e+02   2.9624762579e+01    0.1171173     0.082465 -50.36 0.0007045639    1.792    0.442
       128  -9.1895    243.0937    200.6607   6.8396449979e+01  -4.4206056036e+00    0.3328888    0.1591226 -37.97  0.001076673    1.850    0.459
       129  -8.3341    210.9540    201.9799   7.4500362981e+01   2.4392119776e-02    0.1885673    0.1664533 -74.75 0.0005839168    1.738    0.424
       130  -9.0386    140.3047    200.9047   8.9433799975e+01   1.1989515349e+01    0.3415344    0.2405795 -87.14  0.001010634    2.238    0.553
       131  -8.4870     80.1291    201.5852   1.0394172992e+02   2.1528494202e+01    0.3118026    0.1926432  72.86  0.001434734    1.964    0.491
       132  -8.0457     72.6993    202.3335   1.0582348497e+02   2.2409532753e+01    0.1457322   0.09464166  68.12 0.0002614364    1.654    0.395
       133  -8.3059     48.4016    202.2202   1.1156876606e+02   2.5600177729e+01     0.193731    0.1116504 -89.89 0.0008896199    1.801    0.445
       134  -8.1155    221.8322    201.0392   7.2264833147e+01  -1.4590361436e+00    0.1933792    0.1442913 -56.95 0.0007336175    1.930    0.482
       135  -9.2660    237.0612    198.5499   6.9049808755e+01  -3.2520603534e+00     0.357546    0.1601172 -41.44  0.001299552    2.097    0.523
       136  -9.4518    149.6034    198.6669   8.6895069452e+01   1.0857939523e+01     0.449333    0.3167207 -89.79  0.001343917    2.436    0.589
       137  -8.8085    123.8017    199.2741   9.3050720470e+01   1.5154739109e+01    0.3350433    0.2381447  78.51  0.001196324    1.953    0.488
       138  -9.3746    112.7606    198.3782   9.5562563956e+01   1.7197495595e+01    0.4708796    0.2815568  68.88  0.001839575    2.551    0.608
       139  -9.1016     88.5752    198.4092   1.0146150887e+02   2.1021555913e+01    0.4102974    0.2573773  86.43  0.001673023    2.089    0.521
       140  -8.5899    176.8660    198.8035   8.0858279972e+01   6.1384302917e+00    0.2622023    0.1950248 -56.30 0.0006578789    1.614    0.381
       141  -8.2554    202.0939    197.9819   7.5483752850e+01   2.1196470758e+00    0.1934682    0.1714503 -84.72 0.0006359089    1.700    0.412
       142  -9.0834     61.2932    197.0740   1.0794093414e+02   2.5197165779e+01    0.4469869    0.2096486  63.65  0.001456093    2.807    0.644
       143  -9.1046     12.9700    197.3008   1.1923205872e+02   3.0515496756e+01    0.3837508    0.1347885  70.62   0.00139073    3.838    0.739
       144  -9.5726    245.8711    193.8727   6.6658762902e+01  -3.7310533866e+00    0.4197475    0.2700355 -59.38   0.00201961    2.931    0.659
       145  -8.6623     35.1695    196.5286   1.1410912828e+02   2.8468706915e+01     0.225079    0.1612956 -79.30 0.0005511395    1.250    0.200
       146  -8.6799    216.0217    195.7107   7.2348469020e+01   3.2675805507e-01    0.2556339    0.1954888 -63.25 0.0009345149    2.014    0.503
       147  -8.0333    133.0513    196.0095   9.0296044157e+01   1.4296255859e+01    0.2257566    0.1728948  73.22 0.0005806107    1.673    0.402
       148  -7.7577     53.3379    196.6524   1.0981240679e+02   2.6314400972e+01    0.1491148   0.08812983  66.35 -0.0001521537    1.783    0.439
       149  -8.7551    224.4584    193.8033   7.0412386213e+01  -6.3369851803e-01    0.3292533    0.1160908 -45.50  0.001257565    3.021    0.669
       150  -8.9169    185.1910    194.7207   7.8321125985e+01   5.5134470399e+00    0.2833924    0.2389369 -58.26 0.0008514982    1.450    0.311
       151  -9.2155    161.0925    194.2862   8.3486879105e+01   9.7634185817e+00    0.3219277    0.2496982 -76.88 0.0008936383    1.822    0.451
       152  -8.0634    230.8054    194.2165   6.9341269568e+01  -1.6463931759e+00    0.1776893     0.130204 -12.05 0.0004059603    1.278    0.218
       153  -8.9005     77.1785    193.9292   1.0365211862e+02   2.3765998652e+01    0.2670965    0.2078408  62.93 0.0007089759    1.250    0.200
       154  -8.8895     43.5655    193.1890   1.1179229727e+02   2.8320973459e+01    0.4108292    0.2140238  79.33  0.001820989    2.255    0.557
       155  -8.6150    241.3318    192.0434   6.7085366000e+01  -2.8059778995e+00    0.1824205    0.1397815 -26.17 0.0004988607    1.102    0.092
       156  -8.1945    198.9578    191.9364   7.4954817900e+01   3.7317945436e+00     0.196577    0.1733324 -84.64  0.000529232    1.661    0.398
       157  -8.3655    172.1696    191.8445   8.0567582444e+01   8.3194109181e+00    0.2076879    0.1963222  77.25 0.0008224132    1.292    0.226
       158  -9.1276    139.4629    190.6287   8.7820877362e+01   1.4358717863e+01    0.3656357    0.2663894  79.56 0.0009796683    2.023    0.506
       159  -8.3375    178.8567    191.3768   7.9027768061e+01   7.2479780175e+00    0.1905337    0.1757846 -41.77 0.0005094295    1.173    0.148
       160 -10.4559     92.2232    188.8769   9.9164710055e+01   2.2722025018e+01     1.035906    0.3090599  47.00  0.003181417    3.747    0.733
       161  -8.6755    148.4757    189.4724   8.5485211568e+01   1.3010164529e+01    0.2500136     0.199717  85.61 0.0009553556    1.707    0.414
       162  -9.0149    216.5879    187.9414   7.0744208484e+01   1.5968683956e+00    0.2882866    0.2148921 -51.45 0.0007886532    1.600    0.375
       163  -9.1802    155.9885    187.8358   8.3436599452e+01   1.2016644120e+01    0.3195526    0.2340626 -63.08 0.0009210019    1.651    0.394
       164  -8.9448    129.2651    188.6457   8.9916176374e+01   1.6596526684e+01     0.303784    0.2301382  73.65 0.0008676344    1.689    0.408
       165  -9.6927    120.6762    186.2709   9.1604608605e+01   1.8637131272e+01     0.558326    0.3079709 -73.18  0.002071637    2.821    0.645
       166  -8.6571     34.2553    188.1646   1.1353047764e+02   3.0574571004e+01    0.3175132    0.1567189  71.14  0.001124711    2.345    0.574
       167  -8.2423    237.1343    188.1901   6.7075019705e+01  -1.5737363918e+00    0.1986743    0.1485588 -18.52 0.0005723762    1.170    0.146
       168  -8.7961    191.4525    187.3692   7.5595054559e+01   5.8543490587e+00    0.3132555    0.2231632 -60.01 0.0009320166    1.864    0.464
       169  -9.1138     54.8008    186.9465   1.0834126347e+02   2.8481629304e+01    0.4683869    0.2406607  70.18  0.001544211    2.532    0.605
       170  -7.9137    230.4300    187.2654   6.8076040306e+01  -4.2544511459e-01    0.1784907    0.1138641 -44.83 0.0009389141    1.612    0.380
       171  -8.6485    164.8396    186.8661   8.1238735390e+01   1.0633407463e+01    0.2509147    0.2036927 -73.60 0.0007089337    1.617    0.382
       172  -9.2558    109.5139    186.1636   9.4372208135e+01   2.0566446476e+01    0.3895354    0.2714215  74.89 0.0009984963    1.871    0.466
       173  -9.0354    249.2666    185.6487   6.4539053688e+01  -2.8901510472e+00    0.2487873    0.1920521 -37.55 0.0008882568    1.270    0.213
       174  -8.8912    210.2263    183.9298   7.1168043251e+01   3.3427958214e+00    0.3404133     0.175317 -37.97   0.00109362    1.799    0.444
       175  -8.5931    183.0883    184.7625   7.6834474459e+01   7.8145460207e+00    0.2419358    0.1893311 -53.46 0.0006541245    1.440    0.306
       176  -8.9752     66.6441    184.6548   1.0505839177e+02   2.7496344988e+01    0.3917993    0.2265743  62.16  0.001221392    1.961    0.490
       177  -8.5406    224.0497    183.7529   6.8541754198e+01   1.1570892206e+00    0.2375638     0.167802 -34.66 0.0006806612    1.266    0.210
       178  -8.9182    174.2577    183.6408   7.8518507939e+01   9.6087379119e+00    0.2790338    0.2341421 -89.58 0.0009346045    1.672    0.402
       179  -8.1389      1.8083    183.7666   1.2080062771e+02   3.4638718665e+01    0.1768954    0.1148722  65.21  0.001058285    1.379    0.275
       180  -8.5575    196.8632    183.4137   7.3706400636e+01   5.6823276474e+00    0.1870589    0.1758761 -39.85 0.0005847436    1.192    0.161
       181  -9.1534     44.3457    182.2659   1.1042110626e+02   3.0894678912e+01    0.3685345    0.2258402  79.82  0.001159661    1.728    0.421
       182  -9.1433    147.5327    180.6789   8.4038440218e+01   1.5100423679e+01    0.3465835    0.2656728  79.60  0.001027711    1.837    0.456
       183  -9.2518     36.1422    177.7271   1.1199089314e+02   3.2932758523e+01    0.6504495    0.2599857 -87.68  0.002292674    3.425    0.708
       184  -9.4922     25.6073    179.0247   1.1475846307e+02   3.3691056834e+01    0.6355511    0.2561797  76.83  0.002225072    3.777    0.735
       185  -7.8813    240.2338    179.9982   6.4959821552e+01  -6.6728201583e-01    0.1791734   0.09372748 -37.51 0.0008840894    1.646    0.392
       186  -8.6647    137.4512    179.2831   8.6194166215e+01   1.7255846522e+01    0.3116713    0.2295237  79.76 0.0009166937    1.943    0.485
       187  -9.5866    248.4743    176.5743   6.2925720746e+01  -1.3058037653e+00    0.4660577    0.2170653 -46.74  0.001850769    2.259    0.557
       188  -8.6205    250.5008    172.8851   6.1882249084e+01  -9.9333014511e-01    0.2571791    0.1550633 -37.21 0.0005558819    1.391    0.281
       189  -8.8524    204.9747    177.9176   7.0986503655e+01   5.3336565237e+00    0.2891026      0.18847 -34.73  0.001107259    1.426    0.299
       190  -9.3097    191.4965    178.4364   7.3805036462e+01   7.5760868699e+00    0.3165022    0.2497215  59.04  0.000578493    1.647    0.393
       191  -8.0429    169.1677    178.7220   7.8664070534e+01   1.1546735553e+01    0.2278149    0.1613498  82.51 0.0007520195    2.624    0.619
       192  -8.7864    231.1984    176.9616   6.5922557331e+01   1.2213202782e+00    0.2621024    0.1623585 -46.75 0.0008228593    1.671    0.402
       193  -8.5052    217.5287    177.3033   6.8463317338e+01   3.3458630891e+00    0.2605969    0.2034733 -65.35 0.0007560868    1.847    0.459
       194  -8.8201    129.0400    177.4332   8.7914298989e+01   1.9207253737e+01    0.2895568    0.2139556 -78.44  0.000785347    1.726    0.421
       195  -8.2337     97.1054    177.9282   9.6162612366e+01   2.4598530999e+01    0.2405201    0.1797177 -23.50  0.001127123    1.785    0.440
       196  -8.8647    183.0602    176.1073   7.5101437430e+01   9.5488896739e+00    0.3067107    0.2276146 -56.13 0.0005592454    1.553    0.356
       197  -9.0479     88.9534    176.8693   9.8119900272e+01   2.6158797084e+01    0.3041112    0.2193567  81.72  0.001022261    1.632    0.387
       198  -9.4440     58.7606    175.5240   1.0587656656e+02   3.0814359799e+01    0.4915002    0.2463376  66.48   0.00188084    2.797    0.643
       199  -9.2770     55.9810    171.2185   1.0603050471e+02   3.2254454441e+01     0.458436    0.2483208  77.09  0.001839797    2.543    0.607
       200  -8.6278     13.0842    176.8967   1.1763139309e+02   3.5358842554e+01    0.2799613    0.1353659  64.89   0.00131708    2.158    0.537
       201  -8.7926    202.7270    184.3467   7.2716412452e+01   4.5119499048e+00    0.2960801    0.1765661 -53.99 0.0009362929    2.107    0.525
       202  -9.2183    158.9831    175.2004   8.0268614464e+01   1.4181134147e+01    0.4103749    0.2876277  75.08  0.001529057    2.361    0.576
       203  -9.5111    104.5624    174.9146   9.3699559287e+01   2.4099427639e+01    0.5675141    0.3023095  61.81  0.002026945    2.866    0.651
       204 -10.7576     75.8197    170.1180   1.0053638728e+02   2.9833877160e+01     1.376707    0.5245641 -74.95  0.003793695    4.845    0.794
       205  -8.3324     79.2265    158.5430   9.7672485995e+01   3.2269417201e+01    0.4142532    0.1585434  25.14  0.001292288    3.765    0.734
       206  -8.5988    224.4261    174.1928   6.6574849030e+01   2.7807574766e+00    0.2904649    0.1150875 -47.44  0.001118097    2.733    0.634
       207  -7.6903    241.3467    174.2551   6.3648367791e+01   1.3040566909e-01    0.1287439   0.09067819  -3.38 0.0002864028    1.591    0.371
       208  -9.5667    175.7394    172.1634   7.5871939713e+01   1.1700185316e+01    0.4069002    0.2367163 -43.62  0.001285677    1.673    0.402
       209  -8.7076    142.9540    172.7625   8.3578634078e+01   1.7720237423e+01     0.261523    0.2034836 -73.10 0.0009022171    1.575    0.365
       210  -7.9438    194.4849    172.4407   7.1965072544e+01   8.2186586237e+00    0.1446083    0.1302639 -13.22 0.0001085083    1.031    0.030
       211  -8.6769    134.3747    171.4837   8.5433400618e+01   1.9611564663e+01    0.4277806    0.2820023 -89.39  0.001625198    2.710    0.631
       212  -9.5651    121.4066    170.4205   8.8503967448e+01   2.2238012808e+01    0.4365864    0.3090523 -83.95 0.0009823242    1.928    0.481
       213  -8.9782     45.0977    171.0670   1.0890132281e+02   3.3605124842e+01    0.3892472    0.2110336  86.08  0.001251851    2.200    0.545
       214  -8.4331    205.7430    170.1483   6.9248594511e+01   6.6682016406e+00    0.3056113    0.1817145 -56.49  0.001150178    2.222    0.550
       215  -8.5130    198.6238    170.2894   7.0683002575e+01   7.8986653251e+00    0.2479675     0.210858 -77.76 0.0008491359    1.617    0.382
       216  -8.6908    230.4802    170.0135   6.4660250053e+01   2.5464397448e+00    0.2109009    0.1167637 -37.72  0.001027263    1.577    0.366
       217  -9.2191    167.1175    168.6233   7.7053476846e+01   1.4066655341e+01    0.3521723     0.264706  78.77  0.001018701    2.035    0.509
       218  -8.3858    149.6849    169.4805   8.1289875107e+01   1.7192607587e+01    0.2847341    0.2254029 -85.77 0.0008286224    1.696    0.410
       219  -8.0771    244.1722    169.1625   6.2176263827e+01   5.6289549102e-01    0.1731649    0.1399542 -46.88 0.0004691042    1.348    0.258
       220  -8.3662    237.0407    169.3559   6.3401268972e+01   1.6248418750e+00     0.176939    0.1598222 -22.33 0.0007467862    1.117    0.105
       221  -8.5027    218.9235    168.4229   6.6403836000e+01   4.7278376798e+00    0.2485687    0.1769967 -50.41 0.0006010013    1.526    0.345
       222  -8.2589     88.7864    169.0477   9.6861343348e+01   2.8132184054e+01    0.2349046    0.1894878  78.72  0.000851365    1.338    0.252
       223  -7.8365    211.3902    168.2372   6.7769570635e+01   6.0468408893e+00    0.1985187    0.1228131 -48.35 0.0006112202    1.668    0.401
       224  -8.7483    111.6917    167.6347   9.0494758630e+01   2.4644482192e+01    0.3076012    0.2118228  78.19  0.001013829    2.052    0.513
       225  -9.0174    191.8812    166.3641   7.1229891581e+01   9.8927802432e+00    0.3658307    0.1909958 -44.30  0.001077191    1.833    0.454
       226  -8.6598    184.9900    166.5483   7.2705306278e+01   1.1132043092e+01    0.2723432    0.1989606 -56.83 0.0006846838    1.572    0.364
       227  -9.9950     94.9914    162.5851   9.4028888274e+01   2.8750298256e+01    0.9432814     0.569009  84.03   0.00298289    2.832    0.647
       228  -9.8661    136.5150    164.3483   8.3455336907e+01   2.0868763636e+01    0.6318181    0.3218439  56.76  0.001974714    2.860    0.650
       229  -8.7582     20.2245    166.1129   1.1485801524e+02   3.7389193800e+01    0.2631433       0.1309  56.39  0.001230665    2.134    0.531
       230  -8.0763    250.8027    165.0275   6.0295975973e+01   2.6127722232e-01    0.1783151   0.08523289 -38.61  0.000646924    1.738    0.425
       231  -8.3203    233.7338    164.9450   6.3075204316e+01   2.9148652917e+00    0.1975131    0.1455042 -35.68 0.0005160824    1.175    0.149
       232  -8.7432    159.6120    164.4518   7.7895602860e+01   1.6408470304e+01     0.304497    0.2540316 -83.09 0.0009165349    1.529    0.346
       233  -9.3530     33.4790    163.3834   1.1106536636e+02   3.6809798581e+01    0.5905243    0.2294369  53.35  0.002237028    3.103    0.678
       234  -8.7571    246.0221    163.1552   6.0684067916e+01   1.2964352845e+00    0.2295331      0.15927 -34.72 0.0005024998    1.201    0.167
       235  -8.5013    212.9229    163.6077   6.6518788462e+01   6.6478724949e+00    0.2687495    0.1824629 -44.09 0.0006816192    1.400    0.286
       236  -8.3176    205.0152    162.9589   6.7888502865e+01   8.1716518657e+00    0.2096825    0.1738038 -71.56 0.0005798334    1.611    0.379
       237  -7.8123     56.6339    163.6993   1.0479774304e+02   3.4084895193e+01    0.1445649    0.1052966 -32.40 0.0007033996    1.732    0.423
       238  -9.2492      3.6429    162.4677   1.1876430179e+02   3.9629464390e+01    0.4052974    0.1806028  52.68  0.001715749    2.324    0.570
       239  -9.1718    177.5503    160.8866   7.3091034553e+01   1.3711524465e+01    0.3386991    0.2815299 -75.74  0.001262866    1.543    0.352
       240  -8.9753    151.5350    160.9519   7.9056905639e+01   1.8754181381e+01    0.3394177    0.2558435 -89.25 0.0008784902    1.939    0.484
       241  -8.8576     60.5572    160.8218   1.0328188168e+02   3.4316884565e+01    0.3768299    0.2779611  81.02   0.00157956    1.451    0.311
       242  -8.5305    237.5081    159.6744   6.1370926088e+01   3.2304306032e+00    0.3158553    0.1073272 -46.76  0.001143949    3.073    0.675
       243  -9.3375    245.2727    158.6715   5.9906773735e+01   2.1739980296e+00    0.4752609    0.2509054  24.12  0.002086732    2.938    0.660
       244  -9.7923    250.1620    157.8041   5.8964670440e+01   1.5663094692e+00    0.3475046    0.1770111 -41.33 0.0007288461    1.662    0.398
       245  -8.2835    246.7125    155.6651   5.9074580164e+01   2.4617517866e+00    0.2385406     0.133283 -30.96 0.0005039825    1.618    0.382
       246  -8.5053    227.2078    158.8610   6.2952329916e+01   5.0698433910e+00    0.2776751    0.1663308 -49.59  0.001080666    1.745    0.427
       247  -9.2555    167.8074    157.5359   7.4523215821e+01   1.6319686806e+01    0.3932087    0.2990561  88.22  0.001133873    1.983    0.496
       248  -8.2845    128.1365    158.9274   8.4457796991e+01   2.3736264171e+01    0.2414366     0.208015  81.62 0.0006785319    1.334    0.251
       249  -9.7157    105.5970    157.7702   9.0210903354e+01   2.8145281610e+01    0.5450503     0.360302  72.50  0.001071446    2.171    0.539
       250  -8.3698    196.4855    158.0882   6.8529840661e+01   1.0686304227e+01    0.2187342    0.1997474 -73.74 0.0007147812    1.317    0.241
       251  -8.3166    188.1324    157.6437   7.0137576021e+01   1.2353247099e+01    0.2577282    0.1884908 -49.63 0.0006492178    1.387    0.279
       252  -8.2955    217.9081    156.5844   6.4125982408e+01   7.0863803156e+00    0.2782924    0.1652439 -53.49 0.0008870434    1.954    0.488
       253  -8.8435    157.6952    156.4218   7.6611144751e+01   1.8558548991e+01    0.3008883     0.225805 -72.14 0.0009824743    1.734    0.423
       254  -9.3943    119.4752    155.2756   8.5962322282e+01   2.6243711788e+01    0.4659732    0.3108425 -83.56  0.001629489    2.280    0.561
       255  -9.5940     81.9077    154.8289   9.6250841546e+01   3.2808547592e+01      0.57509    0.3489883  79.99  0.001423878    2.582    0.613
       256  -9.2210     34.0518    156.4577   1.1006463869e+02   3.8512178755e+01    0.4082391    0.2068797  21.86  0.001846544    2.406    0.584
       257  -8.4345     23.0260    156.1107   1.1305611720e+02   3.9650234995e+01    0.3454295    0.1650857 -27.89   0.00125789    4.171    0.760
       258  -9.2756     49.7363    155.2736   1.0549724674e+02   3.7093091881e+01    0.3967322    0.2259077  68.65  0.001464666    2.260    0.558
       259  -9.6866    242.5842    149.8122   5.8537014546e+01   4.1258935796e+00    0.3640181    0.2539779  43.60  0.001768924    1.698    0.411
       260  -8.4726    242.6382    154.8361   5.9552443302e+01   3.2479639933e+00    0.2025809    0.1621446 -50.68 0.0003320383    1.338    0.253
       261  -8.4221    239.7109    153.3115   5.9712144501e+01   3.9843993870e+00    0.1937227    0.1637956  81.97 0.0004881923    1.725    0.420
       262  -7.9276    204.7919    155.5435   6.6351232462e+01   9.6444582991e+00    0.1756508    0.1409898  57.96 0.0004573599    1.530    0.346
       263  -8.4491    144.6992    154.9607   7.9421583511e+01   2.1458761052e+01    0.2724464     0.200795  60.67 0.0007832097    1.617    0.381
       264  -9.9840    133.0166    152.0319   8.1722466035e+01   2.4435736567e+01    0.6691816    0.3757254 -52.62  0.001500136    1.793    0.442
       265  -9.5070     68.0725    153.7923   1.0002034365e+02   3.5108805951e+01    0.4606263    0.2733646  69.33  0.001353515    2.327    0.570
       266  -8.3934    151.7706    152.7920   7.7219291592e+01   2.0549984026e+01    0.2148269    0.1862095 -81.83 0.0007017357    1.360    0.265
       267  -8.5289     20.0578    152.7087   1.1348848293e+02   4.0768935161e+01     0.178059    0.1568351  84.25 0.0004652583    1.091    0.084
       268  -9.4065     29.4282    150.7582   1.1064176415e+02   4.0420192673e+01    0.4718788    0.2297339  67.88  0.001893666    2.802    0.643
       269  -8.9625      2.8438    150.1131   1.1789851049e+02   4.2728077033e+01      0.39707    0.1331485 -72.94  0.001679355    2.328    0.571
       270  -9.5714    248.8152    149.4906   5.7503485787e+01   3.1827188816e+00    0.3240721    0.1784994 -41.76 0.0007747607    1.533    0.348
       271  -9.2014    246.9572    143.7505   5.6620373091e+01   4.4614781987e+00    0.2704501    0.1590811 -41.61 0.0006556346    1.430    0.300
       272  -8.9534    189.4385    150.1768   6.8227186915e+01   1.3622097729e+01    0.3188693    0.2206368 -63.12 0.0008370641    1.863    0.463
       273  -8.1405    182.4041    151.2317   6.9929340070e+01   1.4782736463e+01     0.211104    0.1366633 -53.48 0.0004926721    1.660    0.398
       274  -8.2292    162.8016    150.7369   7.4158281950e+01   1.8796558657e+01    0.2837925    0.2010121 -72.83  0.001014537    2.004    0.501
       275  -8.7680     98.3182    150.7156   9.0813843981e+01   3.1173537279e+01    0.3251403    0.2395694  77.77 0.0009748192    1.724    0.420
       276  -8.3893    213.0824    149.8829   6.3574982273e+01   9.2095214909e+00    0.2070972    0.1807177 -56.43 0.0004081933    1.257    0.204
       277 -10.1140     39.9880    147.8647   1.0722293733e+02   4.0098546872e+01    0.6196122    0.3327957  74.31  0.002008809    2.584    0.613
       278  -8.6698    198.7782    148.9238   6.6076420231e+01   1.2070409393e+01     0.254452    0.1905267 -57.60 0.0005361929    1.502    0.334
       279 -10.2080     89.2100    146.2903   9.2519545166e+01   3.3822422760e+01    0.7243269    0.4270659 -89.59  0.002524996    3.072    0.675
       280  -9.7315    233.9209    146.7585   5.9298695199e+01   6.1038884442e+00    0.5190437    0.1945571 -31.95  0.001856516    3.063    0.674
       281 -10.2860    148.9700    144.9604   7.6128315377e+01   2.2891660669e+01    0.5845406    0.4090713 -86.37  0.001530657    2.336    0.572
       282 -10.5256     54.9420    144.8283   1.0234936099e+02   3.9156909004e+01     0.901172    0.5013688  81.90  0.003454037    2.773    0.639
       283  -8.1212    223.3130    147.0063   6.1136667350e+01   7.9042394798e+00    0.1996823    0.1575308 -37.75 0.0004280722    1.113    0.102
       284  -8.1999    206.9314    146.5051   6.3980472339e+01   1.0996574953e+01    0.2213999    0.1766464 -40.21 0.0004883134    1.143    0.125
       285 -10.0166    138.8968    144.7988   7.8599757783e+01   2.4969331269e+01    0.5164661    0.3357763 -70.58  0.001333799    2.162    0.537
       286  -9.4084    139.5352    137.6230   7.6768211450e+01   2.6506523364e+01    0.4026617    0.2582073 -15.40  0.001211957    2.658    0.624
       287 -10.2903    106.7690    144.2926   8.7092153099e+01   3.1285125549e+01    0.8027675    0.5300141  86.97  0.002168364    2.465    0.594
       288  -9.2850     77.8840    146.6352   9.5885311449e+01   3.5522231741e+01    0.2965415    0.1948371 -82.41  0.000830227    1.863    0.463
       289  -9.2933     13.0721    146.3208   1.1472377413e+02   4.2942702031e+01    0.3287393    0.1836314  68.92 0.0009613904    1.996    0.499
       290  -8.3705    175.6709    146.1332   7.0228882256e+01   1.7195104576e+01    0.2402656    0.1850083 -63.53 0.0008189506    1.517    0.341
       291  -9.3029    240.3589    145.2014   5.7939949581e+01   5.2948035314e+00    0.2169988    0.1639443 -49.46 0.0004674926    1.312    0.238
       292  -9.4393    242.6858    143.3252   5.7188470461e+01   5.2355121550e+00    0.2027004    0.1893544 -83.45 0.0006996827    1.341    0.254
       293  -8.0525    194.3929    144.1316   6.5875819429e+01   1.3875397368e+01    0.2095446    0.1305958 -51.92 0.0004027562    1.677    0.404
       294  -8.8042    165.6330    144.0158   7.1979087554e+01   1.9692198062e+01    0.2630405    0.2316895 -80.58 0.0006454733    1.325    0.245
       295 -10.8364     69.3456    139.8369   9.7131913588e+01   3.8524853450e+01    0.9594316    0.4784867 -68.79  0.003465759    2.192    0.544
       296  -9.2416      2.7316    141.7015   1.1713332781e+02   4.4820658318e+01    0.4138301    0.1870832  70.33  0.001779672    2.742    0.635
       297  -8.4847    182.1007    141.8735   6.7878585619e+01   1.6788816098e+01    0.2304271    0.2008568 -74.72 0.0005847351    1.341    0.254
       298 -10.0017    124.6946    142.9256   8.1873009227e+01   2.8232824531e+01    0.5618268     0.425277 -80.08  0.001981999    1.686    0.407
       299  -9.8875     23.3124    138.1861   1.1079452130e+02   4.4177524315e+01    0.5271995    0.2603403  64.12  0.002123655    2.730    0.634
       300  -7.9567    218.6233    138.7692   6.0173297782e+01   1.0282012321e+01    0.1994243    0.1190632 -47.47  0.000542366    1.583    0.368
       301  -8.4472    172.1795    138.2589   6.9175978997e+01   1.9583390795e+01    0.2759316    0.1912564 -67.86 0.0006053151    1.930    0.482
       302  -8.4501    207.1930    137.8802   6.2022755490e+01   1.2613013515e+01    0.2186193    0.1863728 -61.37 0.0006031348    1.282    0.220
       303  -8.7326    197.5490    137.6487   6.3792124636e+01   1.4546179471e+01    0.2816366     0.221887 -60.75  0.000929283    1.413    0.292
       304  -8.3693    162.5162    136.4845   7.0931268719e+01   2.1980625521e+01    0.2615405    0.2071061 -80.96 0.0006895238    1.638    0.390
       305  -9.2434    248.3775    135.4355   5.4705082627e+01   5.6539457884e+00    0.2855542    0.1841993 -47.74 0.0007969618    1.414    0.293
       306  -9.1391    247.0005    130.4768   5.3884279590e+01   6.7335861940e+00    0.2484664    0.1530886 -48.59 0.0005667567    1.487    0.328
       307  -7.9652    187.7800    135.9348   6.5335767882e+01   1.6856550671e+01    0.2015932    0.1164854 -40.90  0.000428708    1.623    0.384
       308  -8.7865    151.4312    135.8613   7.3397550057e+01   2.4440744042e+01    0.3240741    0.2092853  25.95  0.001318659    1.973    0.493
       309  -9.0180     39.1078    136.1108   1.0571929683e+02   4.3216058819e+01     0.238655    0.1930608  62.31 0.0006931698    1.335    0.251
       310 -10.4596     83.5896    133.0345   9.1425768587e+01   3.8100775026e+01      0.62897    0.3765953 -71.21  0.001380154    2.009    0.502
       311  -8.8096     84.7472    122.7550   8.8763227280e+01   4.0490392815e+01    0.4356536    0.2687408   9.15  0.001667569    2.602    0.616
       312  -7.8257    231.4794    133.9562   5.6986642864e+01   8.8218845511e+00    0.2097634    0.1187009 -40.74 0.0005196478    1.516    0.341
       313  -8.5605    179.7333    133.9547   6.6538283682e+01   1.8921173330e+01    0.2780204    0.2021033 -59.27 0.0008097725    1.531    0.347
       314  -9.2659    112.7608    133.3792   8.2942774591e+01   3.2850735966e+01    0.3807378    0.2962197  76.27  0.001082447    1.630    0.387
       315  -7.8025    237.4682    133.5185   5.5950695763e+01   7.8415774788e+00    0.1370107    0.1151523 -44.06 0.0008082448    1.081    0.075
       316 -10.0064    132.3702    131.3761   7.7122168361e+01   2.9429482152e+01    0.5583482    0.3935886  86.01  0.001668289    2.242    0.554
       317  -9.7036    133.1656    125.1446   7.5377668205e+01   3.0707570069e+01    0.6499647    0.4314969  -2.42  0.002354419    2.779    0.640
       318 -10.3379     98.0580    130.1306   8.6432490685e+01   3.6369574274e+01    0.8009024    0.3417393 -55.37  0.001842084    2.337    0.572
       319  -8.9386    100.9574    119.6173   8.3042979458e+01   3.8412153769e+01    0.6337628    0.3261416  17.13  0.001808542    4.453    0.775
       320  -9.1208    143.0611    131.7039   7.4457245893e+01   2.7134175119e+01    0.3180768    0.2494574 -70.63 0.0008080945    1.507    0.337
       321  -8.9500    250.6926    130.0369   5.3262522407e+01   6.1900858807e+00    0.3872038    0.1036139 -37.61  0.001332062    3.305    0.697
       322 -10.7749     44.9518    123.5843   1.0172919107e+02   4.5796209869e+01     1.190149    0.6184992  78.39   0.00392894    4.103    0.756
       323 -10.0580     12.9497    129.3229   1.1276784882e+02   4.7229011781e+01    0.5013386    0.2564877  75.80  0.001975179    2.533    0.605
       324  -7.8014    220.5962    129.8039   5.7869748190e+01   1.1578135631e+01    0.1967217    0.1190869 -47.80 0.0005654893    1.539    0.350
       325  -7.9225    204.5471    130.4748   6.0839733337e+01   1.4561615088e+01    0.1467095    0.1319541 -47.60 0.0005361139    1.063    0.059
       326  -9.3450    168.1386    129.4221   6.7967468633e+01   2.2317065577e+01    0.3404256    0.2691681 -89.25 0.0007735777    1.668    0.401
       327  -9.4408    152.8948    128.9006   7.1360213806e+01   2.5683495698e+01    0.4493593    0.2667504 -59.12  0.001027982    2.025    0.506
       328  -9.6052     72.9985    129.3188   9.3895803840e+01   4.0684636862e+01    0.4099901    0.2895373  77.11   0.00100575    1.895    0.472
       329  -7.7932      1.6222    130.2797   1.1627723172e+02   4.7723453827e+01    0.1292372   0.08281875  63.61 0.0006636833    1.710    0.415
       330  -8.0080    192.5618    130.0762   6.3021370316e+01   1.7060615870e+01    0.2286228     0.136949 -43.81 0.0005370885    1.550    0.355
       331 -10.4039     60.2146    125.2767   9.7112927919e+01   4.3508872368e+01    0.7999956    0.4726695  72.54  0.002616064    2.841    0.648
       332  -9.9691    117.8841    125.2374   7.9541038576e+01   3.3807316073e+01    0.5510308    0.3955713  83.12  0.001400456    2.090    0.521
       333  -7.9179    228.3559    125.6707   5.5697520764e+01   1.0880668221e+01    0.1419868    0.1022919 -68.95 0.0007044876    1.782    0.439
       334  -8.9888    179.2564    124.8773   6.4475548050e+01   2.0898546903e+01    0.2778694    0.2444614 -87.24  0.000732453    1.303    0.233
       335 -10.1936     28.3124    122.2982   1.0692093610e+02   4.7782019578e+01     0.728525    0.3610772  77.47  0.002626186    3.634    0.725
       336  -8.7251     26.6748    113.7860   1.0604473382e+02   5.0065302933e+01    0.2531252     0.162477 -27.22  0.001187265    1.821    0.451
       337  -8.1239    188.5748    123.8286   6.2334379707e+01   1.9138154396e+01    0.2139756    0.1330557 -52.35 0.0004728676    1.649    0.394
       338  -9.7681     71.5090    120.3852   9.2422588281e+01   4.3160176528e+01    0.6900398    0.3960669 -83.43   0.00214133    3.122    0.680
       339  -9.1992    158.5555    121.4488   6.8178079855e+01   2.6089382208e+01    0.4226803    0.2647916 -55.83  0.001398074    1.749    0.428
       340  -7.8424    194.8373    122.0586   6.0702466430e+01   1.8178011632e+01    0.2397406     0.154394 -61.66 0.0005954783    1.908    0.476
       341  -8.5660    171.9956    121.5630   6.5205447566e+01   2.3143724982e+01    0.2767048    0.2074808 -59.89  0.000589604    1.449    0.310
       342 -10.0582    141.4911    118.0402   7.1432017122e+01   3.0542121300e+01    0.6367953    0.3122557 -52.84  0.001661699    2.220    0.550
       343  -9.6010    130.5447    118.4352   7.4365665290e+01   3.2791448946e+01    0.4707704    0.3349864 -75.10  0.001320372    1.940    0.484
       344  -9.9875    133.5683    109.3447   7.1178930580e+01   3.4174685125e+01    0.7074341    0.3233971 -45.57  0.002419395    2.148    0.534
       345  -9.6708      2.6863    116.7671   1.1438402658e+02   5.1002770545e+01     0.521944    0.2392919  79.30  0.002142794    3.058    0.673
       346  -7.8658    231.2282    117.4444   5.3461514212e+01   1.1814467705e+01    0.1678015    0.1328584  77.24 0.0006267918    1.583    0.368
       347  -7.9777    185.5457    116.0690   6.1064934574e+01   2.1329638860e+01     0.227997    0.1398879 -43.81 0.0004797443    1.526    0.345
       348  -9.9007    109.3593    114.2732   7.9193017229e+01   3.8077374404e+01    0.5199997    0.3648541 -78.09   0.00126501    2.052    0.513
       349  -8.7782     59.3504    115.2619   9.5280549484e+01   4.6148841393e+01    0.4153123    0.2383785  -9.46  0.001521758    3.218    0.689
       350  -8.2058    193.0065    115.2736   5.9434880087e+01   1.9888615064e+01    0.2053563    0.1870314 -53.90 0.0005309189    1.048    0.046
       351  -7.8231    153.2824    115.6274   6.7933266460e+01   2.8493549495e+01    0.1619036     0.122526 -76.04 0.0007014304    1.704    0.413
       352 -10.1618     92.6610    112.4098   8.3758106608e+01   4.1652898193e+01    0.5938383    0.3509099 -65.79  0.001438226    2.148    0.534
       353  -8.9995     93.7829    104.4112   8.1300538681e+01   4.3332794642e+01    0.3343713    0.2294489  -5.85  0.001215215    2.195    0.544
       354  -9.9992     78.9565    112.3925   8.8124178915e+01   4.3983963110e+01    0.6415231    0.4236294 -84.66  0.001719454    2.387    0.581
       355  -8.5764     78.9450    104.8671   8.6222616441e+01   4.5795224332e+01    0.2497918    0.1728113  -3.89  0.001078769    2.032    0.508
       356  -7.9295    167.4962    114.4928   6.4416858788e+01   2.5593580571e+01    0.1539044    0.1474301 -50.97 0.0001540078    1.003    0.003
       357  -8.6643    174.7636    111.9797   6.2236942433e+01   2.4500739098e+01    0.3193164    0.1936523 -53.53 0.0008651472    1.741    0.426
       358  -9.8495    121.8573    112.5989   7.5195839306e+01   3.5936337751e+01    0.4704672    0.3200652 -71.34 0.0005077245    2.038    0.509
       359  -9.1852    108.1819     92.2566   7.3453021467e+01   4.3246362790e+01    0.6618333    0.3217777  27.74   0.00216757    3.243    0.692
       360  -9.9845    117.7526    104.5888   7.4181591462e+01   3.8588556348e+01    0.5476428    0.3912529 -82.43  0.002263419    2.141    0.533
       361 -10.4737    108.9636     98.9009   7.5133336233e+01   4.1649479225e+01    0.6880124    0.4634731  74.48  0.001798436    2.455    0.593
       362 -11.2225    248.4067    108.0284   4.9022333772e+01   1.0296990989e+01    0.6941965    0.2649674 -40.09  0.002969781    2.158    0.537
       363  -9.9223     66.5419    110.9306   9.1878705562e+01   4.6230798632e+01    0.3752535    0.3044372  79.12  0.001120091    1.530    0.346
       364 -10.0582     14.0217    111.1727   1.0989127642e+02   5.1684508210e+01    0.4015858    0.2327821  68.96  0.001444412    2.312    0.567
       365  -7.6101    182.7366    109.3695   5.9972415723e+01   2.3262910152e+01    0.1558244    0.1124389 -67.21 0.0006984418    1.655    0.396
       366  -8.9484     43.2277    109.3723   9.9520838538e+01   4.9560573551e+01    0.3513315    0.1445891  19.40  0.001323404    3.139    0.681
       367  -8.1936    189.2051    108.1347   5.8421471873e+01   2.2087892600e+01    0.2107788    0.1649928 -63.59 0.0004470801    1.363    0.266
       368  -9.0661    110.4184    107.0622   7.6966437787e+01   3.9530686062e+01     0.527168    0.2617477  25.14  0.001663126    3.429    0.708
       369  -9.3317    139.8861    104.6261   6.8289461644e+01   3.3806658492e+01     0.400836    0.3018677 -77.96 0.0009694191    1.759    0.432
       370 -10.6010     45.5009    102.2321   9.7171189715e+01   5.1061581284e+01    0.7516694    0.4508083  73.80  0.002823698    3.119    0.679
       371  -9.2963     45.4681     92.7950   9.4956008242e+01   5.3323305689e+01    0.4758622    0.2592121  -9.18  0.001851749    3.076    0.675
       372 -10.6015     22.8535    102.6786   1.0538961138e+02   5.3124791739e+01    0.7401544    0.4169796  75.14  0.002938114    2.887    0.654
       373  -8.6459    166.6794    104.2733   6.1974894012e+01   2.7854111880e+01    0.2627939    0.2232743 -70.27 0.0005877173    1.267    0.211
       374  -9.5920    150.4694    102.9246   6.5257530408e+01   3.1792808440e+01    0.5101581    0.2939115 -59.81  0.001272979    2.244    0.554
       375  -8.7656      6.5873    102.8004   1.1115436026e+02   5.4198876031e+01    0.2439882    0.1694433  78.60  0.001000648    1.669    0.401
       376  -8.2087    175.5004    102.0330   5.9565351712e+01   2.6306482791e+01    0.2303599    0.1436032 -42.25 0.0004407415    1.531    0.347
       377  -8.4058    159.8081    100.9631   6.2601431154e+01   3.0074089940e+01    0.2898929    0.2009679 -60.10 0.0007055694    1.629    0.386
       378  -9.1434     82.0646     99.8769   8.3859521301e+01   4.6447306976e+01    0.3465219    0.2630819 -83.07 0.0008026932    1.819    0.450
       379 -10.2097     63.8639     95.8562   8.9034613406e+01   5.0230311189e+01    0.6856759      0.42881 -74.91  0.001636926    2.361    0.576
       380  -8.6496     64.4823     88.0111   8.6670189035e+01   5.1939929608e+01    0.4723437      0.26158 -14.18  0.001642589    3.512    0.715
       381  -8.6152    185.7589     98.8738   5.6774334991e+01   2.4610221139e+01    0.3460719    0.2106111 -78.40  0.001267588    2.970    0.663
       382  -9.8802     95.2491     95.4734   7.8350664517e+01   4.5088181488e+01    0.7975211    0.3444399 -39.76  0.002390896    2.451    0.592
       383  -8.3800    159.1052    111.8637   6.5613537756e+01   2.8000680850e+01    0.2717206    0.2155068 -47.84 0.0006404167    1.226    0.184
       384  -8.1780    164.7186     94.0954   5.9712714910e+01   3.0298296915e+01    0.2442059    0.1755091 -56.56 0.0005742453    1.462    0.316
       385  -9.3036    139.1750     92.3402   6.5061387183e+01   3.6502419831e+01    0.4235291    0.2968089 -74.62 0.0007502101    2.035    0.508
       386  -7.3732     90.2871     94.3114   7.9605869630e+01   4.6265963809e+01    0.1519522    0.1153248 -14.02 0.0002615841    1.579    0.366
       387  -9.5866    128.5099    102.1194   7.0544992601e+01   3.6840010409e+01    0.3728313    0.2836663 -81.11 0.0008288675    1.780    0.438
       388  -8.1456    176.4832     93.0578   5.7059613768e+01   2.7795899946e+01    0.2304172    0.1406275 -43.46 0.0007939416    1.564    0.361
       389 -10.5341    124.0305     90.9364   6.8573667424e+01   4.0164389374e+01    0.6047733    0.5443084  15.74  0.001936468    1.194    0.163
       390  -9.7915     34.6393     89.7300   9.8308477131e+01   5.5193751803e+01    0.4532329     0.295028  89.83  0.001638953    2.337    0.572
       391  -8.0666    157.6135     91.3135   6.0486895186e+01   3.2472505134e+01    0.2048175     0.144719 -32.45 0.0007682644    1.503    0.335
       392  -9.1094     22.9763     90.1480   1.0286531786e+02   5.6126919863e+01    0.2996761    0.2445045  -3.94  0.001198235    1.352    0.260
       393  -8.2346    150.7570     89.0381   6.1387780627e+01   3.4496237413e+01    0.2002569    0.1270755 -41.86 0.0004998621    1.557    0.358
       394 -10.2450     86.4982     85.9197   7.8386037865e+01   4.8785756864e+01    0.6760428    0.4151238 -52.88  0.001607087    1.720    0.419
       395  -8.4546    163.8391     87.1385   5.8026928628e+01   3.1817593078e+01    0.2042038    0.1820939  -3.14 0.0003773626    1.326    0.246
       396  -9.9375     48.4018     83.9395   9.1548741759e+01   5.5019402327e+01    0.5874037    0.3862805 -79.57  0.002353478    2.352    0.575
       397  -9.7518    104.7339     83.1159   7.1747127656e+01   4.5851244602e+01    0.4437901    0.3098215 -67.48    0.0011129    2.004    0.501
       398  -8.4916    157.8865     83.9119   5.8393501316e+01   3.3803762876e+01    0.2687338    0.1948664 -48.27  0.000543735    1.371    0.271
       399  -9.1932    140.8535     82.4831   6.1828941822e+01   3.8035395628e+01     0.387062      0.24683 -55.72 0.0009410236    1.793    0.442
       400  -9.4586      5.2789     92.3609   1.0995134052e+02   5.6774363489e+01    0.3187406    0.2045931  59.12  0.001480687    2.062    0.515
       401  -8.4439     64.0090     82.5147   8.5259168090e+01   5.3229359664e+01    0.2265262    0.1758671 -46.91 0.0005289393    1.224    0.183
       402  -8.7511     35.8209     82.2961   9.6024902457e+01   5.6794129397e+01     0.283506    0.1348125 -37.57  0.001118632    2.091    0.522
       403  -9.7596     24.7822     80.5208   9.9994942070e+01   5.8215575225e+01    0.4467879    0.2925666  89.27  0.001394929    2.320    0.569
       404  -9.3850      9.7990     81.0442   1.0612404622e+02   5.9163062612e+01    0.3245814      0.20031  57.68  0.001379165    2.376    0.579
       405  -8.5875    150.0878     80.5533   5.9148048360e+01   3.6246130745e+01    0.3000745    0.1974751 -55.01 0.0008432177    1.670    0.401
       406  -8.7116    119.3385     80.1983   6.6652070792e+01   4.3330223248e+01    0.3226356    0.2171942 -53.82 0.0007472706    1.665    0.399
       407  -8.8278     74.6832     80.5779   8.0817832911e+01   5.1971128350e+01    0.3252119    0.1923051 -56.38  0.000982093    1.924    0.480
       408  -7.9602    184.1421     78.1707   5.1802733035e+01   2.8704390232e+01    0.2056612    0.1556031 -59.35 0.0008039824    1.319    0.242
       409  -9.3497    128.1730     75.3276   6.2828797544e+01   4.2274415605e+01    0.3672091    0.2374936 -54.97 0.0005927318    1.797    0.443
       410  -8.7293    106.4078     76.7640   6.9273021435e+01   4.6764069629e+01    0.3282973     0.169547  34.12   0.00127246    2.243    0.554
       411  -8.9804    140.0824     74.5905   5.9697762384e+01   3.9664572135e+01    0.4389011    0.2836663 -58.40  0.001564241    1.864    0.464
       412  -9.7522     82.3983     72.6116   7.5606312947e+01   5.2266957858e+01    0.4400977    0.3014213 -61.70  0.001039478    1.951    0.488
       413  -8.4009    166.8265     79.6848   5.5402013329e+01   3.2473612368e+01    0.2448685     0.194816 -31.15 0.0003983144    1.340    0.254
       414  -9.8946     63.0132     73.6826   8.2942366622e+01   5.5261735143e+01    0.4131706     0.269167 -57.96  0.001074218    1.776    0.437
       415  -8.3547    163.5455     73.3053   5.4298894341e+01   3.4359061084e+01    0.2660659     0.135561 -43.10 0.0008175094    1.928    0.481
       416  -7.9805    151.4779     73.4841   5.6823440871e+01   3.7183513791e+01    0.1480739    0.1412078 -85.44 4.952904e-05    1.033    0.032
       417  -8.8881    115.5946     72.9051   6.5421606485e+01   4.5528043329e+01    0.2758859    0.2164066 -67.99 0.0006668718    1.605    0.377
       418  -9.1979    105.9218     71.8245   6.7844065243e+01   4.7804350035e+01     0.300503    0.2125141 -53.50  0.000800274    1.614    0.381
       419  -9.2018     95.2213     71.2639   7.0936533738e+01   5.0096407717e+01    0.3687704    0.2396376 -56.37  0.001061238    1.918    0.479
       420  -8.2776     42.6227     72.7898   9.0684114499e+01   5.8162974046e+01    0.2365619    0.1622974 -58.83 0.0007948006    1.531    0.347
       421  -7.7937    175.4690     72.5652   5.1863447436e+01   3.1672998934e+01      0.14398    0.1350527 -78.80 5.683324e-05    1.007    0.007
       422  -9.4565     51.5171     69.8382   8.6199854780e+01   5.7684046128e+01     0.440968    0.2686038 -68.25  0.001454384    2.575    0.612
       423  -9.0581     28.5210     70.8490   9.5983079687e+01   6.0044855564e+01    0.2590719    0.1561143 -10.82  0.001303988    1.957    0.489
       424  -9.0943     16.6681     70.2091   1.0085262397e+02   6.1152868108e+01    0.2619605      0.19685 -88.79 0.0009381925    1.793    0.442
       425  -7.7942    157.2265     69.9452   5.4616657858e+01   3.6428745453e+01    0.1871146    0.1193401 -39.78 0.0003375257    1.572    0.364
       426  -8.8245    147.0831     68.3572   5.6282258983e+01   3.9103678276e+01     0.284694    0.2039518 -50.07 0.0006680368    1.450    0.310
       427  -8.8854    138.6914     66.2671   5.7528385628e+01   4.1435566189e+01    0.2735866     0.207436 -64.04 0.0008000348    1.538    0.350
       428  -8.9509    121.4848     65.9653   6.1639231082e+01   4.5457161661e+01     0.329239    0.2393821 -67.68 0.0007170052    1.839    0.456
       429  -8.7208     84.4030     64.8533   7.2339737919e+01   5.3382644192e+01    0.3881231    0.2320497  12.09  0.001528392    2.713    0.631
       430  -8.8441    110.2497     63.8023   6.3982062181e+01   4.8321217238e+01    0.3061965    0.2147707 -59.09 0.0008345321    1.821    0.451
       431  -8.9477     64.2081     63.5768   7.9178227635e+01   5.7102526510e+01    0.3535506    0.1900648 -23.78  0.001119674    2.485    0.598
       432  -9.4366     37.2664     64.2109   9.0331191906e+01   6.0573404332e+01    0.2972967    0.2267424 -73.42  0.001083591    1.808    0.447
       433  -8.0956     51.3267     62.3496   8.3852010677e+01   5.9225587183e+01    0.1457538   0.09407419 -17.05 0.0007048856    1.758    0.431
       434  -7.7663    158.4113     61.5619   5.2001587957e+01   3.7517797177e+01     0.141459    0.1347665  89.92 3.831986e-05    1.010    0.010
       435  -9.1225     97.7711     60.6995   6.6607941374e+01   5.1498003667e+01    0.3113972    0.2445928  58.32  0.001024166    1.433    0.302
       436  -9.6542     73.2496     59.5412   7.4408657978e+01   5.6365681507e+01    0.3775959     0.246856 -53.48  0.001080676    1.877    0.467
       437  -7.8277    164.4758     60.4218   5.0545352916e+01   3.6247480894e+01    0.1431638    0.1318887 -88.29  5.45378e-05    1.033    0.032
       438  -7.9358    146.8048     58.9880   5.3572192192e+01   4.0697303147e+01    0.1898707    0.1132539 -35.60 0.0004292011    1.743    0.426
       439  -8.3404     88.8044     59.3624   6.8983648701e+01   5.3527635265e+01    0.1874152    0.1739293 -33.24 0.0005007623    1.143    0.125
       440  -8.3270     95.7307     64.4114   6.8500482580e+01   5.1260221340e+01    0.2075954    0.1299224  33.52 0.0009454397    1.663    0.399
       441  -8.3490    130.7111     57.8912   5.6793975759e+01   4.4673028720e+01    0.1963281    0.1831445 -49.86 0.0005559523    1.120    0.107
       442  -9.7870     23.4318     56.3640   9.4017849631e+01   6.3543907621e+01    0.4017802     0.283147  87.67  0.002030788    2.725    0.633
       443  -9.4047      7.5159     57.1978   1.0159240007e+02   6.4542590762e+01    0.2691333    0.2001535 -88.09  0.001023073    1.895    0.472
       444  -8.3833    139.9645     55.8244   5.4066512358e+01   4.2816520001e+01    0.2553399    0.1735687 -51.65  0.000592564    1.611    0.379
       445  -9.4003    119.0261     55.4134   5.8859947674e+01   4.7755349566e+01    0.4157953    0.2274222 -46.12  0.001636794    2.035    0.509
       446  -9.3788     62.8101     53.7836   7.6264935782e+01   5.9138708885e+01    0.5867233    0.1911637 -45.02  0.002145392    3.136    0.681
       447  -8.9470     43.9645     54.6325   8.4296700439e+01   6.1682620066e+01    0.4660118    0.1704373 -50.61  0.001854591    2.814    0.645
       448  -9.0051     54.0045     53.7124   7.9752401948e+01   6.0492109618e+01    0.3430058    0.1874428 -55.14  0.001433012    2.426    0.588
       449  -8.7694    105.8965     53.3946   6.1706999872e+01   5.0988904489e+01     0.259264    0.1924998 -54.72 0.0007741753    1.633    0.388
       450  -9.6482     92.3652     50.3695   6.4656725357e+01   5.4311534299e+01    0.5028178    0.2318184 -44.22  0.001902094    2.446    0.591
       451  -8.4271     92.8354     42.4054   6.1604329390e+01   5.5418578977e+01    0.2334675    0.1827794   9.00  0.001281826    1.372    0.271
       452  -8.7854    129.2696     49.8775   5.4580342181e+01   4.6233422845e+01    0.3683227    0.2645945   7.38   0.00170258    1.923    0.480
       453  -8.4961     75.2214     51.3220   7.0733105789e+01   5.7452223476e+01    0.2813717    0.1131706  35.29  0.001077984    2.656    0.623
       454  -8.2632    144.6561     48.8555   5.0969920316e+01   4.2732980559e+01    0.2020864    0.1218668 -45.47 0.0006161964    1.748    0.428
       455  -8.9833    120.9660     47.5277   5.5769541817e+01   4.8503929908e+01    0.2458995    0.1906735 -52.09 0.0005008926    1.457    0.313
       456  -8.5163    112.1307     46.7664   5.7734960161e+01   5.0620829064e+01    0.2363333    0.1867541 -47.86  0.000790585    1.417    0.294
       457  -9.1572     82.0961     46.1704   6.6434712022e+01   5.7001445414e+01    0.3321098     0.202758 -44.08 0.0007544428    1.843    0.457
       458  -8.2443     45.1227     44.8823   8.0226565638e+01   6.3304842218e+01    0.1784348    0.1668792 -31.26 0.0005168139    1.297    0.229
       459  -9.2865     16.5516     44.4747   9.3457864064e+01   6.6459934120e+01    0.2955211    0.1796369 -63.15  0.001150859    2.050    0.512
       460  -9.1086     58.1544     42.7205   7.3915326963e+01   6.1759343835e+01    0.2662312    0.1786643 -50.61 0.0009540436    1.903    0.474
       461  -8.3201     32.7965     44.3908   8.5612992102e+01   6.4909676423e+01    0.1798522    0.1086091   9.91 0.0009578228    1.772    0.436
       462  -8.3374    132.9536     43.3035   5.1663891632e+01   4.6298220184e+01     0.196227    0.1725635  63.63 0.0004001094    1.074    0.069
       463  -9.2784     69.5605     41.5646   6.9071067152e+01   6.0027919011e+01    0.3291567    0.2382925 -53.76  0.001158397    1.900    0.474
       464  -9.7714      5.1844     41.8433   9.8309258947e+01   6.7770623084e+01    0.3420536    0.2030574 -71.29  0.001757289    2.345    0.574
       465  -8.6733    106.0103     41.4743   5.7507708681e+01   5.2732437170e+01    0.2487088     0.186214 -50.01 0.0006359939    1.577    0.366
       466  -7.4175    140.4667     41.5110   4.9557539082e+01   4.4753003078e+01    0.1384219    0.1283397  71.98 0.0001104834    1.021    0.020
       467  -8.5664     36.8358     40.8977   8.2412490120e+01   6.5055633968e+01    0.2081829    0.1726744 -55.52 0.0006425495    1.611    0.379
       468  -7.7154    160.6710     39.7108   4.5381069378e+01   4.0135899421e+01    0.1371526    0.1007829  37.09 0.0002119958    1.619    0.382
       469  -8.9190     95.4983     37.9608   5.9166301172e+01   5.5483920867e+01    0.2402873    0.2113297 -86.43 0.0007386726    1.476    0.322
       470  -8.3982     80.7986     36.7389   6.3254109419e+01   5.8641672207e+01    0.2290896    0.1688244 -57.75 0.0008403371    1.976    0.494
       471  -9.3588     26.2673     35.6317   8.5403913798e+01   6.7160658241e+01    0.2672528    0.2022867 -52.99 0.0008945532    1.646    0.393
       472  -8.2536    133.3966     36.2280   4.9315756197e+01   4.7124240236e+01    0.1875745     0.124232 -43.81 0.0008016836    1.634    0.388
       473  -8.1297    125.9610     35.7002   5.0704002541e+01   4.8944936717e+01     0.194181    0.1625871  60.59 0.0003899212    1.108    0.098
       474  -8.4070    111.9291     34.7152   5.3602348075e+01   5.2305243433e+01     0.225101    0.1674734 -48.80 0.0005974102    1.565    0.361
       475  -8.1627    226.8012     34.6091   3.5857275432e+01   2.5687272640e+01    0.1658798    0.1032585 -88.73   0.00030836    1.585    0.369
       476  -7.9271     88.5139     34.5186   5.9943389425e+01   5.7399493401e+01    0.1322604    0.1214241  29.87 9.083236e-05    1.067    0.063
       477  -8.8664     48.5348     33.3819   7.4122305054e+01   6.4697399546e+01    0.2178671    0.2111794  50.56  0.000795346    1.488    0.328
       478  -8.4313    119.3905     33.2946   5.1353495014e+01   5.0774669214e+01     0.220839    0.1630066  84.45 0.0005160157    1.652    0.395
       479  -8.7749     60.8366     32.6417   6.8762378069e+01   6.2855738117e+01    0.2239962    0.1781909 -35.02 0.0005866055    1.388    0.279
       480  -7.7614    139.4550     31.9399   4.6786038658e+01   4.6209702320e+01    0.1918781   0.09984758 -54.23 0.0008077623    2.460    0.594
       481  -8.8035     72.3245     31.0480   6.3855235006e+01   6.1032834894e+01    0.2410911    0.1884253 -48.25 0.0007546587    1.661    0.398
       482  -8.9960     12.9319     30.2313   9.0158300254e+01   6.9344214332e+01    0.2522237    0.1553384 -56.44 0.0009131242    1.960    0.490
       483 -10.0753    248.6568    241.7705   7.4643096214e+01  -1.1040130799e+01    0.6555864    0.1979176 -39.15   0.00291052    3.240    0.691
       484  -8.8951     81.4729     27.4501   5.9347201432e+01   5.9724997964e+01    0.2408084    0.2069495 -69.42 0.0007721149    1.652    0.395
       485  -9.4050      3.7248     27.3979   9.4119730154e+01   7.0524307780e+01    0.3005629    0.1568929 -60.54  0.001615297    2.393    0.582
       486  -8.8837     91.8119     26.3955   5.5836119705e+01   5.7725806936e+01    0.2630574    0.1806508 -37.63   0.00079614    1.645    0.392
       487  -7.6765    150.3044     26.6469   4.3297798225e+01   4.4227877435e+01    0.1400424   0.09443753 -68.24 0.0007040784    1.709    0.415
       488  -7.7665     42.3368     30.1713   7.5493452049e+01   6.6073213329e+01    0.1622831    0.1074267 -41.89 0.0004357998    1.671    0.402
       489  -7.8622     34.6425     23.2923   7.6043543867e+01   6.8124983135e+01    0.1046062    0.0971288  50.03  0.000702954    1.691    0.409
       490  -8.1163    116.4953     22.5006   4.8287676105e+01   5.2684150292e+01    0.1345247    0.1156815  46.19 -0.0002176961    1.061    0.058
       491  -8.9351     63.6320     21.0195   6.2715644250e+01   6.3890966721e+01     0.268179    0.1893453 -50.12 0.0008550158    2.091    0.522
       492  -8.8774     48.2690     21.5250   6.9039070659e+01   6.6411543009e+01    0.2095377    0.1840597 -22.96 0.0006228656    1.320    0.242
       493  -7.8207    120.5465     21.0494   4.6939879547e+01   5.1899442662e+01    0.1805694    0.0982162 -52.65  0.000807645    2.446    0.591
       494  -8.7682    247.6414    234.5374   7.3609458024e+01  -9.9563578172e+00    0.2303318    0.1597507 -18.45 0.0008534376    1.181    0.154
       495  -8.1853     19.4846     21.4930   8.2961506085e+01   7.0165132554e+01    0.1176899    0.0930648 -11.05  0.000809986    1.048    0.046
       496  -8.3736     11.6777     20.3497   8.6758538072e+01   7.1088947664e+01   0.09648971   0.09324215  54.54 0.0007048707    1.746    0.427
       497  -7.4736    189.0000     19.0317   3.6108923862e+01   3.5922699628e+01     0.183295   0.07007787 -30.86 0.0003734532    2.792    0.642
       498  -8.2904     87.8674     17.3835   5.3396139125e+01   5.9547865255e+01    0.2006302    0.1678548 -33.35 0.0006169545    1.381    0.276
       499  -8.1582     38.8669     18.1940   7.1680599782e+01   6.8250223079e+01    0.1706226    0.1494052  -5.58 0.0006185029    1.226    0.184
       500  -7.9842    112.7833     16.9779   4.7152760506e+01   5.4103783649e+01    0.1494666    0.1073065 -21.50 0.0003003051    1.579    0.367
       501  -7.8936     30.1354     16.1344   7.4910252907e+01   6.9706512544e+01    0.1470263      0.13205  -6.63 0.0005956842    1.339    0.253
       502  -7.8086     97.1950     15.1908   5.0084293767e+01   5.7768111012e+01    0.1610057    0.1478093 -85.20 0.0003783903    1.310    0.237
       503  -7.5516      7.6626     15.3508   8.6836173538e+01   7.2215420632e+01   0.09513941   0.09062837  45.27 0.0007045428    1.791    0.442
       504  -8.2151     16.9838     13.9852   8.0838470622e+01   7.1538171459e+01    0.1467535    0.1397483  13.28 0.0004584096    1.620    0.383
       505  -7.7425    119.6873     11.3202   4.3804211088e+01   5.3047076612e+01    0.1272201   0.09398452 -72.33 0.0007037891    1.651    0.394
       506  -9.4945    246.6041    228.8371   7.2817915144e+01  -9.0473830985e+00    0.4434671    0.1688034 -34.60  0.001941787    2.348    0.574
       507  -7.8394     47.6894     10.3726   6.4025820581e+01   6.7842117229e+01    0.1052752   0.09673161 -61.79 0.0007033071    1.776    0.437
       508  -7.6387    191.6842    249.7209   8.6401704864e+01  -4.8916580744e+00    0.1241769   0.08215555   3.53  0.000457228    1.572    0.364
       509  -9.0420    175.6104    247.7753   8.9293336497e+01  -2.3195592628e+00    0.2778352    0.2275507  72.09  0.001171654    1.971    0.493
       510  -8.8430    132.3380    248.1051   9.8248216538e+01   4.0228202166e+00    0.2821321    0.1906258  70.26  0.000731434    2.172    0.540
       511  -8.3822    113.1547    248.6778   1.0233544266e+02   6.7581633563e+00    0.2048552    0.1643922 -86.13 0.0009767844    1.491    0.329
       512  -8.9884    243.0948    246.2613   7.6338207528e+01  -1.0984587284e+01    0.3247488    0.1511224 -27.78  0.001791225    1.989    0.497
       513  -9.2240    233.1154    246.2583   7.8094585256e+01  -9.7988556375e+00    0.4343098    0.2007636 -20.69  0.001761821    2.490    0.598
       514  -8.5795    218.6190    247.7741   8.0972797189e+01  -8.2001153838e+00    0.2221393    0.1371994 -39.44  0.001144595    1.797    0.443
       515  -8.3965    156.1956    248.1113   9.3293661302e+01   4.6796930059e-01    0.2240172    0.1443991  53.04 0.0004599637    1.896    0.473
