#   1 NUMBER                 Running object number                                     
#   2 MAG_AUTO               Kron-like elliptical aperture magnitude                    [mag]
#   3 X_IMAGE                Object position along x                                    [pixel]
#   4 Y_IMAGE                Object position along y                                    [pixel]
#   5 X_WORLD                Barycenter position along world x axis                     [deg]
#   6 Y_WORLD                Barycenter position along world y axis                     [deg]
#   7 A_WORLD                Profile RMS along major axis (world units)                 [deg]
#   8 B_WORLD                Profile RMS along minor axis (world units)                 [deg]
#   9 THETA_WORLD            Position angle (CCW/world-x)                               [deg]
#  10 FWHM_WORLD             FWHM assuming a gaussian core                              [deg]
#  11 ELONGATION             A_IMAGE/B_IMAGE                                           
#  12 ELLIPTICITY            1 - B_IMAGE/A_IMAGE                                       
         1 -10.1503     83.1045     40.2516   1.0217348226e+02   5.7117802667e+01    0.3595308    0.2574879 -17.77 0.0002652466    1.655    0.396
         2 -10.5736     24.9251     16.8956   1.1547224976e+02   6.9398513670e+01    0.4293389    0.3272748 -60.31  0.001280836    1.314    0.239
         3  -9.1612     31.7777     10.3930   1.0944053031e+02   6.9889765542e+01    0.3961876    0.1780918 -36.30   0.00108761    2.038    0.509
         4  -9.2269     74.6732     13.5547   9.3683935459e+01   6.3103161988e+01    0.4604267    0.2900656 -16.22  0.001852475    1.716    0.417
         5  -9.6475     64.0117     14.3686   9.7844446656e+01   6.4800529548e+01    0.3654381    0.2447485  19.32 0.0008629728    1.837    0.455
         6  -8.1495    146.8039     14.2103   7.5864194253e+01   4.6860482755e+01    0.2028131    0.1976048 -51.45 0.0003386011    1.086    0.079
         7  -8.8914    137.0336      9.2598   7.5703865398e+01   4.9902813219e+01    0.4112873    0.1612707 -33.39  0.001546708    2.400    0.583
         8  -8.2495     88.4758     13.5380   8.9272705207e+01   6.0489025231e+01    0.3104525    0.1842881  17.07  0.001356074    2.399    0.583
         9  -8.1857    134.6559     13.3933   7.7843343336e+01   5.0034392201e+01    0.3103417    0.1698569  27.82 0.0009988643    2.312    0.567
        10  -8.7203     97.2448     12.1048   8.6082198605e+01   5.8880864353e+01    0.2670918      0.20316  24.06 0.0006801956    1.370    0.270
        11  -8.4178    157.4935     11.0011   7.2822613871e+01   4.4428845641e+01    0.2306428    0.1432938 -20.80  0.001037891    1.605    0.377
        12  -8.3045    105.7425     10.3498   8.3032296020e+01   5.7257267094e+01    0.2395973    0.2130851 -45.26 0.0007408551    1.242    0.195
        13 -10.6282     20.0069      8.8259   1.1444517200e+02   7.1364315159e+01    0.2891328     0.215854  -0.63 0.0004712833    1.575    0.365
        14  -8.4514      2.1819      8.1906   1.2348389697e+02   7.2836215668e+01    0.1981775      0.15297 -51.29  0.001487281    1.049    0.047
        15  -8.8371    128.3638      7.3093   7.6583453683e+01   5.2280461656e+01    0.4274295    0.2028887  -8.10  0.001600125    2.651    0.623
        16  -8.9309     80.1158     12.6989   9.1478188741e+01   6.2228620441e+01    0.2821046    0.2225227 -53.19 0.0009339259    1.531    0.347
        17  -8.8103     56.4642      4.8972   9.5982460832e+01   6.7461703419e+01    0.3516283    0.2008786  -8.55  0.001627663    2.497    0.600
        18  -8.8185     68.9439      3.7185   9.0736255901e+01   6.5530952586e+01    0.4720655    0.1960589 -22.59   0.00172325    2.695    0.629
        19 -10.0707     49.1059      4.6745   9.8852401572e+01   6.8611698981e+01    0.2537738     0.189715 -17.13 0.0003928888    1.224    0.183
        20  -8.4704     12.2354      4.7098   1.1664442970e+02   7.2787333220e+01    0.2845379    0.1544967 -59.31  0.001420934    1.754    0.430
        21  -9.1323    110.8755      4.1695   7.8971424516e+01   5.6813012464e+01    0.3616196    0.1955277 -32.52 0.0009477178    1.785    0.440
        22  -8.3440    125.3668      3.9858   7.5765574700e+01   5.3370973224e+01    0.2383942    0.1810238  40.37 0.0005031763    1.280    0.219
        23  -8.5991    104.9960      3.5138   8.0063234873e+01   5.8230961897e+01    0.3099003    0.1664287   0.58 0.0007049714    2.447    0.591
        24  -8.3184    153.7629      3.1897   7.0447270977e+01   4.6196006012e+01    0.2044327    0.1574194  28.21 0.0003615792    1.338    0.253
        25  -8.0252    182.1578      2.1784   6.6236456688e+01   3.8715178595e+01    0.2156731    0.1858413  42.01 0.0004469351    1.169    0.145
        26  -7.7856    143.0325      2.0050   7.1699817218e+01   4.9109279642e+01    0.2188832    0.1801579  31.45 0.0003336286    1.199    0.166
        27  -7.8859    139.1145      2.5796   7.2601294990e+01   5.0061712168e+01    0.2752787    0.1450029  80.22 0.0009144472    2.434    0.589
        28  -7.7165      2.9214      1.2895   1.2029689527e+02   7.4099366766e+01    0.1278449    0.0898234  -8.90 0.0003946024    1.657    0.397
        29  -7.4937    100.4882    229.5167   1.3215654560e+02   1.9254396078e+01    0.1015124   0.07468281  55.46 0.0008099223    1.045    0.043
        30  -8.1216    233.4731    250.5254   1.1445667169e+02  -1.7273721513e+00    0.1814535   0.05955362  36.54 0.0008007083    2.229    0.551
        31  -9.5120    212.9695    249.9027   1.1724972190e+02   1.1449308939e+00    0.2465574    0.1248497  47.96  0.001680046    1.693    0.409
        32 -10.0043    200.6557    249.0368   1.1890597989e+02   2.9459528746e+00    0.3741392     0.157203  32.22  0.001773699    2.253    0.556
        33  -9.0836    151.3420    249.6112   1.2616620500e+02   9.8395807257e+00      0.27363    0.1226126  44.08  0.001240945    1.573    0.364
        34  -8.0082    123.7686    250.3961   1.3031228939e+02   1.3514816147e+01    0.1754582   0.09234454  40.88  0.001241035    1.531    0.347
        35  -8.0095     92.0021    235.0118   1.3390388129e+02   1.9611819609e+01    0.1250429   0.08519505  55.09 0.0004242522    1.047    0.045
        36  -8.6488    247.1825    225.4685   1.0925019399e+02  -1.7067681893e+00    0.2515968    0.1431618  16.93  0.001718462    1.680    0.405
        37  -8.1407    187.2905    226.6569   1.1824896913e+02   7.0565542359e+00    0.2157258   0.09685475  31.82 0.0009420546    2.350    0.574
        38  -7.4896     92.6449    227.6959   1.3324749942e+02   2.0531609647e+01   0.08876936   0.07351833  29.15 0.0007040175    1.713    0.416
        39  -8.5781    236.9114    225.2568   1.1068195754e+02  -2.1330779743e-01    0.1932895    0.1069919  12.05 0.0009559816    2.107    0.525
        40  -7.7511     70.2269    225.6269   1.3662981477e+02   2.3626251655e+01     0.130859   0.07742511  39.62 0.0006111796    1.681    0.405
        41  -7.5493    200.3332    223.3253   1.1583520254e+02   5.4195576665e+00    0.1097798   0.06706521  23.45 0.0007051128    1.711    0.416
        42  -8.1077    238.0000    221.0005   1.0992771673e+02  -1.4635902746e-02    0.1676557   0.09730078  19.38 0.0004376635    1.643    0.391
        43  -8.4429    239.9678    218.0072   1.0921496205e+02  -5.0104270465e-02    0.1714143    0.1103678  24.93 0.0007253471    1.234    0.190
        44  -7.5779     51.5249    221.5250   1.3931138814e+02   2.6399390562e+01   0.09761491   0.06865431  63.92 7.335548e-05    1.025    0.024
        45  -8.2901    182.4475    219.8960   1.1815809716e+02   8.5242595534e+00    0.2109139    0.1150539  34.73 0.0008871806    1.600    0.375
        46  -7.8441    130.0087    220.5180   1.2661290483e+02   1.6366342124e+01    0.1632454   0.08170717  44.60  0.001013332    1.538    0.350
        47  -7.8442    173.7684    219.1220   1.1942853883e+02   9.9505568881e+00    0.1464676    0.1046991  29.13 0.0004823616    1.366    0.268
        48  -7.9412    227.0489    217.7802   1.1107024888e+02   1.8964049601e+00    0.1856886   0.08957309  27.93  0.001073705    1.984    0.496
        49  -9.0774    246.9973    215.7206   1.0787102453e+02  -8.9095635968e-01    0.2229643    0.1423542 -13.00 0.0005794772    1.694    0.410
        50  -8.8373    248.2337    211.5663   1.0707486746e+02  -7.2601257783e-01    0.2191807    0.1028911  36.53 0.0008613935    1.623    0.384
        51  -7.4986    203.5381    216.4662   1.1443378729e+02   5.6231972523e+00    0.1115671   0.08111884  31.22 0.0001393317    1.111    0.100
        52  -8.1912    193.8209    215.4700   1.1580521220e+02   7.2406423861e+00    0.2588321    0.1317846  30.41  0.001063771    1.987    0.497
        53  -7.6226    179.3869    214.7932   1.1799216740e+02   9.5747304753e+00    0.1249379    0.1016206 -11.48 0.0005699769    1.578    0.366
        54  -8.5809    232.1437    212.0759   1.0949390264e+02   1.6435033628e+00    0.2562258    0.1428106   6.18  0.001499349    2.365    0.577
        55  -7.4180    169.5358    212.4347   1.1927225909e+02   1.1397007821e+01    0.1114728    0.0852389  40.03 0.0001058056    1.065    0.061
        56  -7.8004     54.4939    210.9897   1.3819268018e+02   2.7677379819e+01    0.1106622   0.07717352 -51.70  0.000717203    2.300    0.565
        57  -7.5821    186.0296    210.4777   1.1636656168e+02   9.0206039124e+00    0.1706129   0.08602706  41.70  0.001004979    1.542    0.352
        58  -7.6217    133.3114    209.3203   1.2487478002e+02   1.7393872549e+01    0.1009804   0.07973593  22.88 0.0003587201    1.648    0.393
        59  -7.5382    163.1535    207.6253   1.1970499280e+02   1.2997604777e+01    0.1603888   0.08420739  37.94 0.0008563825    1.664    0.399
        60  -8.0917    246.5812    205.6763   1.0641460895e+02   2.4823188877e-02    0.1784688   0.09714754 -17.38   0.00112772    2.046    0.511
        61  -9.2529    124.0133    205.9954   1.2607807146e+02   1.9253805447e+01    0.1561934     0.122562  53.92  0.001162706    1.021    0.021
        62  -7.9112    215.8097    205.2556   1.1095284127e+02   4.8413425458e+00    0.1566704    0.1027255  25.99 0.0006619662    1.352    0.260
        63  -7.5278    205.3750    205.2969   1.1258075779e+02   6.5026966277e+00    0.1182481   0.07060964  24.16 0.0007026175    1.746    0.427
        64  -7.6662    148.5014    204.9850   1.2181600538e+02   1.5651926663e+01    0.1286953     0.095783  -8.13 0.0007010733    2.287    0.563
        65  -8.0689    117.7176    205.1663   1.2706177290e+02   2.0302645861e+01    0.1888914    0.1286013  27.34  0.001082726    1.985    0.496
        66  -8.2600    121.9532    213.2793   1.2719401812e+02   1.8522545458e+01    0.1919652    0.1251531  36.44  0.001044369    1.558    0.358
        67  -8.1632    227.0986    203.3997   1.0895054562e+02   3.2402058607e+00    0.2652499    0.1352085  -3.97  0.001298472    3.377    0.704
        68  -7.5066    229.7667    198.9868   1.0786595896e+02   3.2484328114e+00    0.1501575   0.09689967  -4.82  0.000474445    1.759    0.431
        69  -7.7033    156.6775    203.6818   1.2027981184e+02   1.4534760598e+01    0.1089985   0.07957768  22.40 0.0005542423    1.668    0.401
        70  -8.3196    250.5228    199.4793   1.0487064709e+02  -3.0479219878e-02    0.1934669    0.1000572 -23.00  0.001191636    2.102    0.524
        71  -7.8697    196.2687    200.4341   1.1331896069e+02   8.5149564824e+00    0.2246509   0.08692937  41.18  0.001120955    2.082    0.520
        72  -8.0188    243.3850    198.7534   1.0579613074e+02   1.1317124025e+00    0.1798082    0.1226183  -1.95 0.0006986483    1.479    0.324
        73  -7.4738     42.4936    198.4912   1.3940095028e+02   3.1020559445e+01    0.1019333   0.07292283  68.38 -3.784378e-05    1.003    0.003
        74  -8.0907    165.9771    197.4707   1.1789441598e+02   1.3850403399e+01    0.1811522    0.0927936  43.92 0.0007732501    1.570    0.363
        75  -8.1669    236.9216    195.0280   1.0616028971e+02   2.4953420532e+00    0.1829251    0.1083752  19.79 0.0006931574    1.652    0.395
        76  -8.2601    193.1111    194.0859   1.1289121452e+02   9.7764835877e+00    0.2470376    0.1494216  16.36  0.001344522    2.302    0.566
        77  -7.2440    124.4581    193.4792   1.2457751382e+02   2.1038098625e+01    0.1137151   0.09198726  55.52 0.0002200182    1.016    0.016
        78  -7.6457     90.0141    192.4810   1.3060936774e+02   2.6201668905e+01    0.1337525   0.09370027  21.69 0.0006097674    2.395    0.582
        79  -8.6523    246.2961    190.3233   1.0399815456e+02   1.4556847219e+00    0.1953206    0.1206259  -2.52  0.001030413    1.722    0.419
        80  -8.1949    224.8280    188.7919   1.0699443213e+02   5.0818591060e+00    0.2219239    0.0844093 -24.26 0.0009977123    3.525    0.716
        81  -7.5017     64.9973    189.4850   1.3482066891e+02   2.9939849743e+01     0.125224    0.0938685  15.72 0.0008093981    2.477    0.596
        82  -7.3036    148.6840    185.6620   1.1926392213e+02   1.8339773029e+01    0.1132419   0.08771677  16.96 0.0007048043    1.700    0.412
        83  -7.4560    231.4735    184.5196   1.0525973851e+02   4.4267359255e+00    0.1187174   0.09118067  24.13 0.0008092597    1.050    0.048
        84  -7.7252    176.2841    204.3235   1.1711223530e+02   1.1307284680e+01    0.1084639   0.07752467  20.86 0.0002498263    1.597    0.374
        85  -7.3459    165.3160    182.3201   1.1583867600e+02   1.6016284717e+01    0.1174608   0.08653565  19.38 0.0007040564    1.658    0.397
        86  -7.3968    130.6719    182.6578   1.2210486307e+02   2.1733213740e+01    0.1106256   0.09017015  13.53 0.0007051235    1.741    0.426
        87  -7.5795    224.6796    180.6536   1.0566079540e+02   5.9754380972e+00    0.1250007   0.07686163  18.39 0.0007049354    1.732    0.423
        88  -7.3814    156.5010    180.5125   1.1713202944e+02   1.7780464982e+01    0.1203357    0.1009301  41.66 0.0008093512    1.078    0.073
        89  -7.7625    183.4911    180.4813   1.1239955495e+02   1.3121839832e+01    0.1212115    0.1005164  37.72 0.0001248542    1.013    0.013
        90  -7.4900     96.5896    178.4971   1.2792556218e+02   2.7616840368e+01    0.1126729   0.09373626  66.67 -0.0004654892    1.040    0.038
        91  -7.4884    204.9858    175.2317   1.0791068982e+02   1.0011409507e+01    0.1626554   0.08669178  44.86 0.0008692282    1.603    0.376
        92  -7.5283     46.5254    175.5055   1.3707996341e+02   3.4539879344e+01    0.1067164   0.08142727  73.51 0.0008099891    1.025    0.025
        93  -7.7302    148.9858    174.5099   1.1760081889e+02   1.9960916143e+01    0.1642775   0.09674814  27.01 0.0006228336    2.359    0.576
        94  -8.3517    177.1993    167.5382   1.1137395733e+02   1.6009733790e+01    0.2276303    0.1528788  10.99  0.001189017    2.189    0.543
        95  -7.9813    168.6771    163.6629   1.1225304497e+02   1.8121749149e+01    0.1903483    0.1411145  14.35 0.0008625537    1.728    0.421
        96  -7.5034    122.6902    162.6586   1.2083424076e+02   2.6321254800e+01    0.1137246   0.09726072   3.42 0.0007044753    1.693    0.409
        97  -7.7757    159.8362    160.1963   1.1329837068e+02   2.0259610913e+01    0.1751588    0.1422801  22.40 0.0008011301    1.386    0.278
        98  -7.7280    204.6987    159.3136   1.0512368313e+02   1.2067214303e+01    0.1147046   0.09986433  85.32 0.0003299645    1.612    0.379
        99  -7.2371    138.4986    158.4729   1.1709357133e+02   2.4350937544e+01    0.1253027    0.1102873  55.90 8.784897e-06    1.009    0.009
       100  -7.8456    168.5052    151.9994   1.1022523423e+02   1.9926413731e+01     0.174321    0.1131231 -11.66 0.0008106072    2.582    0.613
       101  -7.5015    107.2205    151.6526   1.2232726432e+02   3.0793069784e+01    0.1684177    0.1081508  38.21 0.0005294376    1.644    0.392
       102  -7.9969    133.3284    147.9260   1.1637200269e+02   2.7075482512e+01     0.173995    0.1635493 -70.38  0.001144997    1.144    0.126
       103  -9.3905     66.9699    144.4590   1.2989924058e+02   3.7971986766e+01    0.4066972    0.2270567  71.09  0.002215785    1.950    0.487
       104  -7.2246    202.3257    140.2960   1.0181637208e+02   1.5077880466e+01    0.1363617   0.09406143  19.72 0.0003664347    1.626    0.385
       105  -8.1308     14.5160    139.4972   1.4075005832e+02   4.4515594703e+01    0.2393409    0.1387775 -30.31  0.001198489    4.511    0.778
       106  -7.9060    140.0304    137.9405   1.1321260968e+02   2.7627274191e+01    0.3192384    0.2016266  16.90  0.001338239    3.113    0.679
       107  -7.4672    107.3487    137.2685   1.2003646606e+02   3.3487403774e+01    0.1169405    0.1018529   7.09 0.0004174711    1.620    0.383
       108  -7.6570    124.6399    135.7012   1.1602882344e+02   3.0833001793e+01     0.126307    0.1041958   8.59 0.0007035052    1.713    0.416
       109  -7.8791     55.0081    135.4940   1.3145959934e+02   4.1242537287e+01    0.1376292    0.1056295  -5.36 0.0008095941    2.459    0.593
       110  -8.5447      5.5231    133.9832   1.4229638417e+02   4.6329606469e+01    0.1792634    0.0995076 -40.10  0.001013536    3.330    0.700
       111  -7.5650     68.6428    133.6732   1.2813791867e+02   3.9917372123e+01     0.113017   0.09276328 -33.84 0.0007044564    1.779    0.438
       112  -8.2602     23.5582    130.1730   1.3801449509e+02   4.5597221394e+01    0.2268303    0.1377121 -36.30  0.001275971    3.030    0.670
       113  -7.9618     41.9958    129.4781   1.3373055781e+02   4.3932576173e+01     0.134866    0.1014882 -13.54  0.000809051    2.493    0.599
       114  -7.1526    144.3488    126.3339   1.1003040197e+02   2.8882863430e+01    0.1374058    0.1074105   9.31 0.0007048004    1.775    0.437
       115  -7.9154    133.0196    124.4969   1.1207195464e+02   3.1391118874e+01    0.1809307    0.1167248  23.63  0.000807714    2.371    0.578
       116  -7.1980    129.6918    123.7203   1.1263972484e+02   3.2161086007e+01    0.1264034    0.1071098   8.39 0.0003335565    1.559    0.358
       117  -9.6028     13.4489    120.2332   1.3947145626e+02   4.8491370196e+01    0.3930378    0.1672092 -49.68   0.00199652    3.188    0.686
       118  -7.7190     85.4682    121.4895   1.2235623183e+02   4.0064848690e+01    0.2171452    0.1251542  28.65  0.001039376    2.454    0.593
       119  -9.1325    242.9503    118.9151   9.0606911313e+01   9.7549201619e+00    0.2718734    0.1777179  46.60 0.0004574049    1.515    0.340
       120  -7.4638    119.4775    119.4504   1.1405212866e+02   3.4857145523e+01    0.1321352    0.1243598  78.06 0.0002185344    1.022    0.022
       121  -7.9821     99.4346    119.1655   1.1863384586e+02   3.8362796700e+01     0.245619    0.1584357   9.05 0.0009272544    4.122    0.757
       122  -7.4807    203.4882    113.4958   9.5720900089e+01   1.8657941383e+01    0.1371772    0.1304839  17.50 -3.915222e-06    1.049    0.046
       123  -7.7374     59.9478    114.0000   1.2736834182e+02   4.5115119630e+01    0.1839294   0.06783532  36.46 0.0008031868    2.948    0.661
       124  -7.1559     53.9490    112.0167   1.2857681148e+02   4.6260495424e+01     0.141497    0.1190381 -89.48 0.0003053951    1.023    0.023
       125  -9.3514      2.1168    110.1263   1.4134868562e+02   5.1415253516e+01    0.2886945    0.1301036 -61.02  0.001712648    2.034    0.508
       126  -7.5058    142.6481    111.7047   1.0722370874e+02   3.1888853520e+01    0.1398125    0.1102456  13.01 0.0007032917    1.684    0.406
       127  -8.1465    133.6322    107.1079   1.0816635507e+02   3.4554846091e+01    0.2691667    0.1749963 -30.85  0.001262763    1.908    0.476
       128  -7.4271     31.6985    108.7140   1.3379115137e+02   4.9323680359e+01    0.1071469   0.07910951 -51.12 0.0002429038    1.557    0.358
       129  -7.8163    123.8363    107.3593   1.1046651576e+02   3.6409295948e+01    0.1955543    0.1258806  36.77 0.0004418208    1.745    0.427
       130  -9.4266     13.8539    105.9198   1.3803841828e+02   5.1446649019e+01    0.2662797    0.1672567 -51.18  0.001624655    1.817    0.450
       131  -8.3343     17.4994    103.4605   1.3684111581e+02   5.1681800834e+01    0.1561365     0.105831  35.67 0.0006034073    1.742    0.426
       132  -7.6755    109.3456    106.3269   1.1367076357e+02   3.9279208160e+01    0.1331957    0.1092942  -8.36 0.0007050323    1.747    0.428
       133  -7.6031     92.8155    104.0086   1.1726088674e+02   4.2554634755e+01    0.1801721    0.1528308   9.71  0.001038684    1.631    0.387
       134  -7.5721     77.9739    104.5081   1.2114822291e+02   4.4718066704e+01    0.1648674    0.1179976   5.01 0.0008102974    2.577    0.612
       135  -9.4189    246.1674    100.4565   8.5871234446e+01   1.1332349687e+01    0.2781957    0.1583884 -40.81   0.00125095    1.920    0.479
       136  -7.7224    129.2370     97.6016   1.0690684903e+02   3.7251881670e+01    0.1946994     0.131247  37.11 0.0009357245    1.648    0.393
       137  -9.6636      9.1472     96.3593   1.3828626333e+02   5.3821967852e+01    0.3003487    0.1745165   4.16  0.001644632    3.060    0.673
       138  -9.0585     20.0814     93.1120   1.3492432109e+02   5.3692070285e+01    0.4403959   0.08476776 -53.65  0.001528674    5.023    0.801
       139  -7.7602     52.8696     93.1455   1.2576839273e+02   5.0454628954e+01    0.1681119    0.1319282 -51.16 0.0006336374    1.330    0.248
       140  -8.7831     44.0968     92.1077   1.2804661040e+02   5.1663274479e+01    0.3110482    0.1989739 -30.26  0.001655995    2.486    0.598
       141  -8.0167    109.8504     90.8441   1.0994344367e+02   4.2321320121e+01    0.2809838    0.1667079  24.78  0.001141165    2.834    0.647
       142  -8.3734     96.5838     90.2188   1.1321154359e+02   4.4803107347e+01    0.3208374    0.2188148  15.03  0.001472526    2.518    0.603
       143  -8.9299     66.5866     86.3102   1.2054770107e+02   5.0211882367e+01    0.4967271    0.2768888  20.83  0.002218583    3.106    0.678
       144  -9.6860     35.5929     82.1527   1.2880198266e+02   5.4703067012e+01    0.5304922    0.2876028 -35.18  0.002610666    2.839    0.648
       145  -7.4801    127.3615     83.2867   1.0363648718e+02   4.0388738872e+01    0.1440536    0.1139756  10.54 0.0007022615    1.687    0.407
       146  -8.3198     90.4903     78.2742   1.1187012750e+02   4.8312628856e+01    0.3659243     0.164661  36.43  0.001495788    2.730    0.634
       147  -8.1177    184.3087     78.2260   9.0109179295e+01   2.8369644687e+01    0.2551785    0.1781168 -26.32  0.000691904    1.449    0.310
       148  -9.7884      8.1653     77.2077   1.3632363859e+02   5.7999789545e+01     0.383569    0.2103676 -44.33  0.001670823    2.102    0.524
       149  -7.0795    213.3036     78.7501   8.5307792767e+01   2.1405431215e+01    0.1359217    0.1120549 -67.55 0.0006884797    1.501    0.334
       150  -8.9184     48.7667     76.8337   1.2379156812e+02   5.4481291791e+01    0.3123904    0.2208548 -40.26   0.00150262    1.599    0.374
       151  -7.4891    105.4597     76.4609   1.0730091847e+02   4.6034842007e+01     0.138497    0.1307378 -49.01   0.00043911    1.044    0.042
       152  -8.3423     29.6926     68.6425   1.2815090945e+02   5.8203871975e+01    0.2312336    0.1534715 -30.53 0.0009022378    2.015    0.504
       153  -9.8770     24.0808     73.2283   1.3078934259e+02   5.7687125830e+01    0.5243077    0.1931864 -48.12  0.001944619    2.822    0.646
       154  -8.0892     23.4951     69.5083   1.3032370415e+02   5.8546401927e+01    0.1815867    0.1572663  80.83 0.0005857798    1.206    0.171
       155  -7.9646     75.0073     74.7892   1.1540781321e+02   5.1489501344e+01    0.1994664    0.1521723 -10.81 0.0009227777    1.951    0.487
       156  -8.9993     61.7870     67.0031   1.1744098143e+02   5.5004203710e+01    0.3026996    0.1524314 -47.49 0.0009268666    1.819    0.450
       157  -9.5899     65.2229     61.1383   1.1476678834e+02   5.5777214574e+01    0.3538859    0.3219184 -44.60   0.00229125    1.105    0.095
       158  -8.2572     80.5002     68.0462   1.1198118092e+02   5.2062925956e+01    0.2340693    0.1874995 -34.68 0.0006763509    1.328    0.247
       159  -8.4629     84.0737     63.9469   1.0973944525e+02   5.2329860657e+01    0.3740894    0.2375231  14.87  0.001616266    2.860    0.650
       160  -8.4918     43.2929     67.7736   1.2354826492e+02   5.7055597831e+01    0.2189953    0.1947857 -53.32  0.001140644    1.154    0.133
       161  -7.7908     50.2961     67.3356   1.2118504222e+02   5.6365879178e+01    0.1269832   0.08599892 -38.32 0.0002999596    1.648    0.393
       162  -7.4924    106.6220     66.7022   1.0415567983e+02   4.7745897735e+01    0.1431112    0.1117214   2.68 0.0007024372    1.756    0.430
       163  -9.6920     17.5563     62.4095   1.3100443626e+02   6.0554034226e+01    0.4335062    0.2018654 -52.24  0.001899868    1.858    0.462
       164  -7.7549    148.0056     63.4724   9.3019497605e+01   3.9427415562e+01    0.2143609    0.1465852  52.48 0.0003676183    1.485    0.327
       165 -10.7558     38.1401     57.9129   1.2296950704e+02   5.9723367942e+01    0.5131071    0.3167322 -30.29  0.002782196    2.156    0.536
       166  -8.7299     52.1569     61.1042   1.1902363049e+02   5.7482318128e+01    0.2153212    0.1888663   2.94 0.0009826341    1.440    0.306
       167  -7.8861     49.5330     58.5234   1.1922495413e+02   5.8344661289e+01    0.1953875    0.1077873 -66.71 0.0008401448    1.803    0.445
       168  -9.5950      2.6711     55.1640   1.3490732325e+02   6.3086756997e+01    0.4859754    0.1905856 -56.16  0.002650385    1.969    0.492
       169 -10.2749     10.0251     47.4289   1.3079283913e+02   6.4303947493e+01    0.5783362    0.2568929 -40.62  0.002630764    2.493    0.599
       170  -7.4079    111.3527     58.3307   1.0025093000e+02   4.8409173487e+01    0.1479543    0.1126818   3.38 0.0007046609    1.777    0.437
       171  -8.1494     99.4403     54.2454   1.0218881276e+02   5.1517249444e+01    0.2656075    0.1293603 -39.52  0.001118769    1.950    0.487
       172  -9.3245     75.3027     50.1742   1.0816159447e+02   5.6518353341e+01    0.3342042    0.3064286  40.01  0.001590675    1.230    0.187
       173  -7.9641    117.7435     51.2762   9.6206554974e+01   4.8358821231e+01    0.2614062    0.1807619  63.15  0.001243021    1.701    0.412
       174 -10.3069     45.3854     49.0003   1.1803460842e+02   6.0834102020e+01    0.2222645    0.2060701 -36.67 0.0003911047    1.165    0.142
       175  -8.2570    106.8274     48.2456   9.8059294626e+01   5.1174013034e+01    0.2237293    0.1893423 -32.30 0.0002003764    1.120    0.107
       176  -7.8977    135.9733     47.7376   9.0536100752e+01   4.4867882720e+01    0.1916994    0.1881319  35.49 0.0002094267    1.050    0.047
       177 -10.3523     25.6715     46.7095   1.2469800415e+02   6.3285170486e+01    0.8555394    0.4137147  -1.57  0.003195805    5.918    0.831
       178  -9.4006      2.0769     45.6392   1.3346273431e+02   6.5156980431e+01    0.2536865    0.1712913 -73.58  0.001152568    1.158    0.137
       179  -9.3613    250.2591     42.9144   7.0750792327e+01   1.7210587257e+01    0.2508893    0.1779653 -18.35 0.0005985369    1.312    0.238
       180 -10.0354    192.5606    244.3246   1.1954522968e+02   4.5265092013e+00    0.2417489    0.1855555 -14.80  0.001738954    1.735    0.424
       181  -9.3033     39.5608     41.1873   1.1785205599e+02   6.3100105664e+01    0.3686033    0.2136236 -19.61  0.001745754    2.913    0.657
       182  -7.0435    123.3515     40.3340   9.0889544744e+01   4.8973716537e+01    0.1555201    0.1113797  15.33 0.0007046349    1.783    0.439
       183  -8.7098      3.5719     40.0023   1.3175940094e+02   6.6271326687e+01    0.1769201   0.08431892 -67.49 0.0006588006    1.569    0.363
       184  -9.1745     91.4976     37.1393   9.8391854156e+01   5.6150623300e+01    0.3815118    0.2413184  32.32  0.001046941    1.888    0.470
       185  -9.2155     96.1053     33.2111   9.5481073199e+01   5.5934241139e+01    0.3278767    0.2202206 -23.07 0.0003040601    1.553    0.356
       186  -8.6252     70.0728     36.4762   1.0506309438e+02   5.9985579752e+01    0.5148092    0.2984333   8.23  0.001862425    4.364    0.771
       187  -9.3628     54.6387     36.5356   1.1060291419e+02   6.2219002568e+01    0.2887937     0.244823 -11.01 0.0009971373    1.324    0.244
       188  -9.7969     17.9707     38.4074   1.2556850357e+02   6.5659629917e+01    0.5001366    0.2209987 -36.29  0.002418569    2.783    0.641
       189  -8.4796    106.9001     36.5901   9.3745413367e+01   5.3173860755e+01    0.3530389    0.2323573  20.71  0.001591388    2.071    0.517
       190  -8.7956     37.1932     35.7596   1.1704280916e+02   6.4460738350e+01    0.2853536    0.1773564  11.93  0.001565647    2.341    0.573
       191  -9.0715      7.0587     34.4135   1.2906046942e+02   6.7243678135e+01     0.280982    0.2300443 -68.68  0.002106766    1.109    0.099
       192  -8.1963     76.3459     33.9656   1.0197195652e+02   5.9424192370e+01    0.1997829    0.1592984 -37.94 0.0006837482    1.112    0.101
       193  -7.7141     81.9483     32.5042   9.9556146674e+01   5.8713616744e+01    0.1850767    0.1348481  42.15 0.0003945431    1.512    0.339
       194  -8.2808     93.9006     42.3594   9.9635854910e+01   5.4767822157e+01    0.4176405    0.1238824  43.50  0.001385125    3.793    0.736
       195  -9.2344      1.6905     29.2523   1.3010641331e+02   6.8627408625e+01    0.4443237   0.08750475 -62.12  0.001861117    3.011    0.668
       196  -8.1086    127.8524     30.2055   8.5989341483e+01   4.9485750433e+01    0.2022783    0.1956916 -40.53 0.0003442719    1.082    0.076
       197  -8.0566    112.2858     30.0775   8.9755140839e+01   5.3057163065e+01    0.3651863     0.158601  38.04  0.001316488    2.943    0.660
       198 -10.0548     72.3291     25.8161   1.0001199137e+02   6.1534044717e+01    0.3576771    0.2691651  31.91 0.0007740532    1.482    0.325
       199  -7.6683    184.3955     27.5054   7.4471314640e+01   3.5454523116e+01    0.1472293    0.1414456 -10.22 7.826596e-05    1.026    0.025
       200  -7.6883    153.3770     26.8467   7.9409369066e+01   4.3637440816e+01     0.210272    0.1401727  -8.20 0.0006031306    1.689    0.408
       201  -8.9845     61.6945     26.6908   1.0418001989e+02   6.3069645160e+01    0.2080155    0.1743457  12.53 0.0006200196    1.340    0.254
       202  -9.1480     57.9857     24.9980   1.0486327244e+02   6.3921694819e+01    0.3863283    0.2814857  -5.61  0.002190933    1.699    0.411
       203  -7.6582    102.3624     25.2967   9.0462042967e+01   5.5922295048e+01    0.1470274    0.1042611  16.06 0.0004546487    1.713    0.416
       204  -8.0040    110.6098     24.2039   8.7799409833e+01   5.4304560042e+01    0.2098602    0.1308506 -17.07 0.0008019335    1.738    0.424
       205  -7.8493     73.9754    247.4746   1.3744026867e+02   2.0166916711e+01    0.1427792   0.06732242  45.44  0.000762904    1.565    0.361
       206  -7.5237    150.4575     23.3872   7.8678420446e+01   4.4825389124e+01    0.1441997    0.1418574  24.55 0.0001408211    1.031    0.030
       207  -8.1384    144.9001     23.1051   7.9633583085e+01   4.6275383483e+01    0.2253444    0.2093482  15.32 0.0005694749    1.061    0.058
       208  -9.3239     83.7824     21.9933   9.4557636055e+01   6.0132793555e+01    0.4473977     0.244238  37.82  0.001197504    2.064    0.516
       209 -10.7814     48.2824     25.5142   1.0885665943e+02   6.5158023785e+01     0.252443    0.2223311 -10.36 0.0004047297    1.206    0.170
       210  -8.4723    132.3185     20.2915   8.1100327479e+01   4.9768030999e+01    0.4130469     0.242281  18.68  0.001657034    2.362    0.577
       211  -8.3830     92.4570     20.8394   9.1387784913e+01   5.8630599039e+01    0.2631001    0.2118938  18.24 0.0008195493    1.321    0.243
       212  -9.9418      8.7227     20.1017   1.2429969362e+02   7.0075112924e+01    0.2192557    0.2152047   4.93 0.0003084853    1.321    0.243
       213  -8.6127     12.6788     18.6204   1.2191670932e+02   7.0093329322e+01    0.2306284    0.1425256 -43.21 0.0004877277    1.338    0.253
       214  -7.6039    116.9906     20.0711   8.4482990458e+01   5.3443533047e+01     0.174406    0.1514633 -19.38 0.0002901247    1.094    0.086
       215  -8.1515     45.5890     19.9284   1.0762692580e+02   6.6530629578e+01    0.2269676    0.1338155 -48.71  0.001249285    1.504    0.335
       216  -7.4416    155.6969     19.3135   7.6218707307e+01   4.3968735637e+01    0.1532466    0.1103093 -57.81 0.0007021072    1.615    0.381
       217  -7.8201     32.4861    247.4453   1.4338958637e+02   2.4720144824e+01   0.09155276   0.05643909  61.94 9.856315e-05    1.040    0.039
       218  -8.1032    127.8741     16.8609   8.0665481490e+01   5.1285241073e+01    0.2128316    0.1854543  24.23 0.0003373052    1.139    0.122
       219  -8.6942    249.4089    245.2706   1.1161100752e+02  -3.4957069792e+00    0.1548533   0.08530928 -13.33  0.001103106    2.141    0.533
       220  -8.8844    242.9897    244.6615   1.1241207324e+02  -2.5856435055e+00    0.1908247    0.1179476  -1.85  0.001371528    1.814    0.449
       221  -8.6443     50.5271     15.1379   1.0344994918e+02   6.6711757674e+01    0.2591422    0.1782978   6.40  0.001024913    1.879    0.468
       222  -7.4060    189.6656     15.6937   6.9838450918e+01   3.5383931504e+01    0.1575865    0.1050162  33.36 0.0007040166    1.668    0.401
       223  -8.8231    218.7677    245.2733   1.1587749038e+02   7.1719440165e-01    0.1753111    0.1228697   0.68  0.001406136    1.663    0.399
       224  -9.6159    158.0899    244.9294   1.2470979783e+02   9.3959392017e+00    0.2352802    0.1078985  41.90  0.001475497    1.596    0.373
       225  -8.7902    176.1967    243.5850   1.2187427207e+02   6.9494313175e+00    0.1524682   0.07029813  37.64   0.00095103    1.726    0.421
       226  -7.6014     95.5492    243.4975   1.3398397728e+02   1.8042459174e+01   0.09732421   0.06908255  55.36 0.0001507205    1.042    0.040
       227  -9.0163    170.3964    239.8122   1.2233395950e+02   8.1760738424e+00    0.2006967    0.1474361  21.78  0.001164747    1.557    0.358
       228  -7.8566     25.6897    240.9899   1.4409885211e+02   2.6287852144e+01    0.1216085    0.0826396  69.01 0.0004796347    1.105    0.095
       229  -8.7917    249.2750    238.9214   1.1079881244e+02  -3.0210061077e+00    0.2205017    0.1145822  15.98  0.001462356    2.011    0.503
       230  -7.6775    202.0000    239.9768   1.1765859127e+02   3.5707648011e+00    0.1242825   0.05864837 -35.49 0.0007909522    2.863    0.651
       231  -8.2738    224.5712    238.7496   1.1424231944e+02   4.3742956854e-01    0.1072512   0.09572935 -25.03 0.0009294777    1.607    0.378
       232  -8.7549    234.0280    244.0775   1.1358048457e+02  -1.3139295072e+00    0.2023397    0.1378476  -9.59  0.001047107    1.707    0.414
       233  -7.6623    121.8111    239.3273   1.2967393139e+02   1.5110127599e+01    0.1435426   0.07113446  40.51 0.0008284213    1.673    0.402
       234  -9.0178    242.3323    236.4904   1.1143899547e+02  -1.8822614761e+00    0.2141691    0.1440393  19.23 0.0008950651    1.238    0.192
       235  -7.5022    147.9715    237.9724   1.2554508250e+02   1.1612277877e+01    0.1261263   0.08948052  47.18 0.0006178435    1.020    0.020
       236  -7.8759     79.2846    238.4198   1.3608299966e+02   2.0736458582e+01    0.1770958   0.07504729  40.20  0.001115856    2.068    0.516
       237  -8.1157    195.8338    236.1346   1.1810905575e+02   4.8307851472e+00    0.1448039    0.0932873  30.41 0.0005868869    1.328    0.247
       238  -9.8615    189.0634    234.5262   1.1892906868e+02   5.9854686521e+00    0.2292956    0.1701776  45.96  0.001358972    1.167    0.143
       239  -8.2917    161.8450    234.3525   1.2304441423e+02   1.0015141486e+01    0.1858093    0.1205344  31.47 0.0007472895    1.523    0.343
       240  -8.1684      2.8185    234.9483   1.4713264383e+02   2.9280411013e+01     0.118861   0.08772017  67.16 0.0004356089    1.245    0.197
       241  -7.4653    138.0571    234.7771   1.2675617011e+02   1.3403494918e+01    0.1376685   0.06293263  45.62 0.0006768149    1.596    0.373
       242  -8.3668    248.1952    233.1709   1.1017522215e+02  -2.4446852245e+00    0.1549486   0.09920965  24.34  0.000465382    1.178    0.151
       243  -7.6849    204.5259    230.9686   1.1618168472e+02   4.0426456641e+00    0.1292295   0.07877515   6.76 0.0006239425    2.368    0.578
       244  -7.5298    195.0210    229.0359   1.1736600622e+02   5.6487674826e+00    0.1650576    0.1010839  24.91 0.0009608354    1.681    0.405
