#   1 NUMBER                 Running object number                                     
#   2 MAG_AUTO               Kron-like elliptical aperture magnitude                    [mag]
#   3 X_IMAGE                Object position along x                                    [pixel]
#   4 Y_IMAGE                Object position along y                                    [pixel]
#   5 X_WORLD                Barycenter position along world x axis                     [deg]
#   6 Y_WORLD                Barycenter position along world y axis                     [deg]
#   7 A_WORLD                Profile RMS along major axis (world units)                 [deg]
#   8 B_WORLD                Profile RMS along minor axis (world units)                 [deg]
#   9 THETA_WORLD            Position angle (CCW/world-x)                               [deg]
#  10 FWHM_WORLD             FWHM assuming a gaussian core                              [deg]
#  11 ELONGATION             A_IMAGE/B_IMAGE                                           
#  12 ELLIPTICITY            1 - B_IMAGE/A_IMAGE                                       
         1 -13.6436     11.6123     23.8465   9.5063098136e+01   6.9840917958e+01     0.871814    0.3338048 -27.73  0.003971121    2.773    0.639
         2 -12.5921     19.4200     14.2686   8.6711881806e+01   7.0744949980e+01    0.5090889    0.2262267 -18.79  0.002338941    2.829    0.647
         3 -12.2514      8.1773      1.9713   8.7009094013e+01   7.3584598404e+01    0.8193485    0.1863663  26.69  0.003408152    4.396    0.773
         4 -12.0761     12.8270     13.0921   8.9782574452e+01   7.1525224568e+01    0.3337753    0.2171306 -11.94  0.001545064    1.288    0.224
         5 -13.1166      5.9500     11.4371   9.2946036256e+01   7.2327501779e+01    0.7672048     0.384515 -26.63  0.004232441    1.657    0.396
         6 -12.1813     15.4332      7.0083   8.5368968047e+01   7.2205044196e+01    0.4620901    0.2507541  -8.17   0.00237904    1.873    0.466
         7 -13.1647     24.1837      4.2465   7.9119148576e+01   7.1657307284e+01    0.5935474    0.3586568  14.54  0.003250213    1.499    0.333
         8 -13.3745    248.4922      4.3079   3.1888231379e+01   2.3618185267e+01    0.7742975    0.5197936 -71.49  0.005023728    1.266    0.210
         9 -12.1428     40.5811      2.8530   7.0252405330e+01   6.9664548686e+01    0.3852923    0.1733259  22.70  0.001825218    2.511    0.602
        10 -11.0514     21.5163     23.1448   8.9588228259e+01   6.9132603047e+01    0.2430866    0.1353009  -0.21  0.001337742    1.954    0.488
        11 -11.7993    250.0106    232.7476   7.9503492292e+01  -9.6960665440e+00    0.3708629    0.1750837 -22.94  0.001911231    2.075    0.518
        12 -12.8252    242.5759    246.0701   8.3032829474e+01  -1.0341365487e+01    0.6527432    0.3283082 -12.55  0.003474764    2.269    0.559
        13 -12.3629    247.6860    239.1358   8.0992193613e+01  -1.0172829105e+01    0.4062078    0.2203277 -13.84  0.002286895    1.836    0.455
        14 -11.0600    249.3308    250.0048   8.2500297813e+01  -1.1650073914e+01    0.3822074    0.1545821  28.82   0.00203104    2.126    0.530
        15 -11.2575    248.8884    245.1314   8.1780874185e+01  -1.1035213829e+01    0.3277425    0.1966473 -14.96  0.002086072    1.509    0.337
        16 -10.9600    169.0149    250.2414   9.7385195517e+01  -4.1662454455e-01    0.1748397   0.08563781  35.93 0.0008975421    1.657    0.396
        17 -11.0537     74.3068    250.5748   1.1577260217e+02   1.3355853197e+01    0.2366339   0.08291462  42.06  0.001144048    2.202    0.546
        18 -11.6316     65.1901    249.2537   1.1735976146e+02   1.4767762811e+01    0.3629933    0.1373241  46.87   0.00185557    2.059    0.514
        19 -11.1241     50.4923    250.1892   1.2010739996e+02   1.6408025717e+01    0.3284677    0.1239495  39.69  0.001729576    2.159    0.537
        20 -11.6314     36.4188    248.7955   1.2251581347e+02   1.8284596824e+01    0.3960295    0.1575904  52.80  0.002208201    1.969    0.492
        21 -11.4063     19.9695    249.0411   1.2535987167e+02   2.0003340003e+01    0.3107712    0.1597177  55.09  0.001987217    1.473    0.321
        22 -11.3503     11.9810    248.9709   1.2669156110e+02   2.0819363395e+01    0.3241157    0.1509417  51.18  0.001706624    1.613    0.380
        23 -10.6198      3.0537    250.5215   1.2821404271e+02   2.1400830082e+01    0.2352119   0.08372812  35.32  0.001336988    2.631    0.620
        24 -11.8561      3.2605    243.1150   1.2787879805e+02   2.2714154666e+01    0.3644951    0.1812148  67.02  0.002416682    1.554    0.357
        25 -12.0404     84.8207    244.0028   1.1318964749e+02   1.3123061769e+01    0.3438039    0.1349096  42.44  0.001682638    2.030    0.508
        26 -12.4791    226.4175    240.7817   8.5054010055e+01  -7.5327080789e+00    0.2980936    0.1778239   3.60  0.001690594    1.741    0.426
        27 -11.7666     15.6201    240.2101   1.2566000225e+02   2.2060839113e+01    0.4611769     0.177247  50.09  0.002573971    1.973    0.493
        28 -11.7366     56.5565    241.8832   1.1839616616e+02   1.7194733293e+01    0.4136936    0.1623809  53.28   0.00207768    2.202    0.546
        29 -12.5368    240.3604    238.9891   8.2252395723e+01  -9.1977664602e+00    0.3155346    0.1823541   2.56  0.001694892    1.758    0.431
        30 -11.3096      6.2709    236.1513   1.2706961466e+02   2.3721840332e+01    0.3024167    0.1577021  72.53  0.001845308    1.538    0.350
        31 -10.5212     45.0058    237.0348   1.2019655734e+02   1.9490610293e+01    0.1977639    0.1028639  63.21  0.001136891    1.720    0.419
        32 -10.8384     81.9764    236.4698   1.1302807401e+02   1.4902372254e+01    0.1864648   0.07229974  53.37 0.0008097837    2.567    0.611
        33 -11.5299     29.2631    240.5049   1.2328720290e+02   2.0595549888e+01    0.3357323      0.15817  65.37  0.001946046    1.873    0.466
        34 -10.4045     38.0098    240.3429   1.2170611834e+02   1.9665280867e+01    0.2162597    0.1186627  68.93  0.001078737    1.613    0.380
        35 -11.6669    107.0947    240.1856   1.0840598522e+02   1.0638086129e+01    0.3045612    0.1343816  43.76  0.001489218    1.865    0.464
        36 -10.9577     14.2435    231.9480   1.2547883371e+02   2.3757426510e+01    0.3052529    0.1596285  66.91  0.001931984    1.561    0.359
        37 -10.8955     39.7614    230.8939   1.2074782301e+02   2.1275839697e+01    0.2449721    0.1017463  56.61  0.001258871    2.133    0.531
        38 -11.5298      4.5058    228.1513   1.2700514716e+02   2.5406270062e+01    0.3671006    0.1642508  65.16  0.002185654    1.842    0.457
        39 -11.6729    237.0013    227.9784   8.0974885653e+01  -7.3414844613e+00    0.2826436    0.1408673 -12.40  0.001322689    2.586    0.613
        40 -12.0688    249.2960    224.7929   7.8243286213e+01  -8.6028813735e+00    0.3332389    0.1752502 -20.32  0.001812107    1.820    0.451
        41 -10.7276     11.1393    225.6105   1.2570267338e+02   2.5283411448e+01    0.2661039    0.1231433  58.69  0.001548701    1.759    0.432
        42 -11.1136     18.5793    221.7578   1.2412847355e+02   2.5325504904e+01    0.2359733    0.1220962  67.90  0.001211456    1.665    0.399
        43 -11.2350      2.1533    220.8266   1.2707504254e+02   2.7044793297e+01    0.2709574     0.137425  84.87  0.001688941    1.631    0.387
        44 -11.4128     11.9648    216.5863   1.2506345425e+02   2.6999387333e+01    0.3617908    0.1634552  55.36  0.002091018    1.843    0.457
        45 -10.7636     34.2112    216.7935   1.2081158704e+02   2.4713168568e+01    0.2145439   0.08378034  63.90  0.000954576    2.808    0.644
        46 -11.6778     25.8567    228.4812   1.2318384727e+02   2.3258006222e+01    0.3908755    0.1584653  84.48  0.001899846    2.724    0.633
        47 -11.7555    248.6162    214.5028   7.6518123738e+01  -7.1611373950e+00    0.3662293    0.1729779 -22.67  0.001815411    2.133    0.531
        48 -11.3112      2.4530    212.6340   1.2661801082e+02   2.8654657822e+01    0.2928664    0.1517783  84.46  0.001807091    1.595    0.373
        49 -12.0904     12.4641    204.9437   1.2428505983e+02   2.9348904888e+01    0.3528727    0.1722393  62.62  0.002010274    1.809    0.447
        50  -9.8083    250.3202    200.3373   7.3588228762e+01  -5.4499902309e+00    0.1337151   0.08194291  -1.46 0.0007049894    1.709    0.415
        51 -11.6746      3.4960    196.8274   1.2556421128e+02   3.1843623524e+01     0.306359    0.1478562  75.21  0.001719757    1.848    0.459
        52 -11.5713      4.2192    188.9847   1.2495051738e+02   3.3467031477e+01    0.3413642    0.1343007  66.92  0.001633471    2.582    0.613
        53 -10.9495      1.5859    178.2435   1.2481963231e+02   3.6029384868e+01    0.2310532   0.09189577 -84.01   0.00114192    2.131    0.531
        54 -10.6855      6.3910    171.1978   1.2328853888e+02   3.7240268250e+01     0.178171   0.09026214  89.54 0.0009569465    1.723    0.420
        55 -11.0709    248.5887    129.7928   5.9323317839e+01   5.7948205474e+00    0.2011953    0.1108711 -43.16 0.0009528887    1.689    0.408
        56 -11.8995    248.8889    118.6171   5.6808466403e+01   7.5667774690e+00     0.286079    0.1764909 -41.60  0.001440128    1.439    0.305
        57 -11.6440    247.9877    112.2997   5.5533512855e+01   8.7634676685e+00    0.1888961    0.1731934 -33.86 0.0007050413    1.070    0.065
        58 -11.0364    243.2320    105.2231   5.4631193046e+01   1.0827303059e+01    0.2312714   0.08764714 -44.48 0.0008813216    2.470    0.595
        59 -12.0425    249.2441     97.9100   5.2132221520e+01   1.0838022375e+01     0.298936    0.1555851 -44.83   0.00113534    1.726    0.421
        60 -11.6844    242.9886     93.2067   5.1925317433e+01   1.2815060475e+01    0.2107984    0.1315916 -51.91 0.0008059837    1.606    0.377
        61 -12.6350    248.8777     86.5069   4.9621224881e+01   1.2698545182e+01    0.4315635    0.2313796 -47.56  0.002077495    1.718    0.418
        62 -11.4213    248.5925     73.7682   4.6799908830e+01   1.4693510328e+01    0.1988324    0.1030788 -44.68 0.0006405702    1.672    0.402
        63 -11.2841    249.6065     59.7916   4.3576040546e+01   1.6520910790e+01      0.19791   0.09888069 -44.38 0.0009593617    1.705    0.413
        64 -11.0464    249.2044     52.3907   4.1990203517e+01   1.7634221606e+01    0.1733217    0.1150697  87.90 0.0009510547    1.690    0.408
        65 -11.2971      2.9678     51.0395   1.0796004228e+02   6.5111916376e+01    0.3158661    0.1194193 -53.08  0.001601798    1.840    0.456
        66 -11.7385     18.2307     30.9429   9.4405924279e+01   6.8073253804e+01    0.3414964    0.1535548 -25.17  0.001644971    2.352    0.575
        67 -12.0799    225.9202    248.1772   8.6339431944e+01  -8.3926652465e+00    0.2791262     0.182841  19.06  0.001765803    1.219    0.180
        68 -12.7701    213.3094    247.5430   8.8548352308e+01  -6.5672236883e+00    0.4903675    0.2540064  15.63  0.002494574    2.151    0.535
        69 -12.2036    127.2020    248.2826   1.0533998914e+02   6.2441869784e+00    0.3343967    0.1662528  43.08  0.001753047    1.647    0.393
        70 -10.3107     27.0930    248.6812   1.2412814916e+02   1.9322884943e+01    0.1833026   0.09497179  55.13  0.001137525    1.480    0.324
        71 -12.4042    143.0481    247.9152   1.0216728301e+02   3.8995009183e+00     0.372274    0.1569177  35.91  0.001763715    1.985    0.496
        72 -11.8119    195.4876    245.0156   9.1511181509e+01  -3.6486972685e+00     0.283562    0.1307375  22.37  0.001279913    2.477    0.596
        73 -12.7501    234.4017    244.4992   8.4221925655e+01  -9.0818495646e+00    0.4454852    0.2467313   1.02  0.002434448    2.020    0.505
        74 -11.9206     25.7149     16.6440   8.4511316245e+01   6.9742731808e+01    0.2745448     0.156155 -12.64  0.001542317    1.756    0.430
        75 -11.1593     34.1140     16.2463   8.0109197949e+01   6.8833741879e+01     0.279522    0.1436774  12.42   0.00139082    2.298    0.565
        76 -11.2100     44.7319    245.0322   1.2079662477e+02   1.8024985976e+01    0.2541537    0.1380009  56.76  0.001576236    1.486    0.327
        77 -11.9134      1.4808     25.2156   1.0098846867e+02   7.0242518459e+01    0.4446743   0.08213206 -55.40  0.001659342    4.073    0.754
        78 -11.9678     97.5280    244.5689   1.1076923813e+02   1.1243621676e+01     0.353941     0.154367  51.24  0.001716593    2.114    0.527
