#   1 NUMBER                 Running object number                                     
#   2 MAG_AUTO               Kron-like elliptical aperture magnitude                    [mag]
#   3 X_IMAGE                Object position along x                                    [pixel]
#   4 Y_IMAGE                Object position along y                                    [pixel]
#   5 X_WORLD                Barycenter position along world x axis                     [deg]
#   6 Y_WORLD                Barycenter position along world y axis                     [deg]
#   7 A_WORLD                Profile RMS along major axis (world units)                 [deg]
#   8 B_WORLD                Profile RMS along minor axis (world units)                 [deg]
#   9 THETA_WORLD            Position angle (CCW/world-x)                               [deg]
#  10 FWHM_WORLD             FWHM assuming a gaussian core                              [deg]
#  11 ELONGATION             A_IMAGE/B_IMAGE                                           
#  12 ELLIPTICITY            1 - B_IMAGE/A_IMAGE                                       
         1 -12.1067      3.1371     30.2633   5.4746125373e+01   7.3862168449e+01    0.3895068    0.2594666  20.21  0.002196842    1.512    0.339
         2 -13.0509     71.9228      9.6627   4.1015490860e+00   6.5280827324e+01    0.2923364    0.2721814 -19.73  0.000532835    1.202    0.168
         3 -11.4630     50.9363     13.4358   1.3685793364e+01   6.9624766055e+01    0.2185238    0.1893166 -25.15 0.0002636905    1.254    0.202
         4 -10.8716    116.5045     11.5212   3.5564171481e+02   5.4130192181e+01    0.2234677    0.1333992  -4.52  0.001037368    2.500    0.600
         5 -10.5369     82.3804     11.2273   2.0885472201e+00   6.2604420188e+01    0.1775929    0.1184485 -41.44 0.0002616664    1.620    0.383
         6 -11.2732     83.0773      7.0843   3.5996659436e+02   6.2837713550e+01    0.1970035    0.1778774  74.65 0.0004452144    1.029    0.028
         7 -10.0859    103.7797      3.9549   3.5466247899e+02   5.7993389568e+01     0.150063    0.1091234 -23.53 0.0002768774    1.570    0.363
         8 -11.5350     72.4943      2.4687   2.2800469129e-01   6.5819572011e+01    0.2199445    0.1838047 -43.62 0.0006050193    1.330    0.248
         9 -13.1665     36.0803    230.5818   6.8270567253e+01   2.0001712082e+01    0.5238754    0.2937701 -66.63  0.002495865    2.004    0.501
        10 -11.7697    139.3319    248.7520   4.6510294465e+01   5.4389252371e+00    0.2886152    0.1803972 -38.99  0.001487358    1.725    0.420
        11 -13.8283     20.8829    241.9773   7.2382149151e+01   1.9081215191e+01      0.95085    0.6748619 -16.91  0.004527203    1.989    0.497
        12 -14.1795      6.7286    234.3795   7.5330144870e+01   2.1810163180e+01    0.8187571     0.597129 -51.96   0.00331638    1.777    0.437
        13 -13.8329     14.8517    230.9404   7.3326971578e+01   2.1849614135e+01    0.6425291    0.4131519  80.24  0.002592057    1.562    0.360
        14 -13.2284      9.5522    241.5966   7.4920598089e+01   2.0121630874e+01    0.4117089    0.3444155  25.06  0.002233875    1.239    0.193
        15 -12.4179     13.2608    236.5379   7.3907804856e+01   2.0830502089e+01    0.2932065    0.2874311  19.88  0.001290706    1.278    0.217
        16 -12.3803      7.3183    250.4263   7.5678622188e+01   1.8584068953e+01    0.4235972    0.1618553  14.41   0.00167274    3.127    0.680
        17 -13.5882      6.1311    247.1342   7.5843005294e+01   1.9313778155e+01    0.6094353    0.3477216  15.41  0.003577894    1.840    0.457
        18 -11.9459     33.5832    223.6906   6.8470626201e+01   2.1697717805e+01    0.3068025    0.1732285 -64.77  0.001635212    1.972    0.493
        19 -11.2554    226.3143    246.5327   3.0372179152e+01  -2.8124247540e+00    0.1662957    0.1208177 -13.04 0.0002809825    1.128    0.113
        20 -10.7887     44.3539    246.8455   6.7295159594e+01   1.5952053853e+01    0.1503742    0.1053886 -60.06 0.0009419327    1.729    0.422
        21 -12.1689     29.3866    246.0745   7.0640923256e+01   1.7514357616e+01    0.2735898    0.1647797  32.98  0.001601655    1.310    0.237
        22 -10.5879     99.7694    246.4145   5.4726855046e+01   1.0191786154e+01    0.1741738    0.1006213  15.38 0.0008121959    1.646    0.392
        23 -10.7398    246.1003    245.1516   2.7180086987e+01  -4.2751610801e+00    0.1471557   0.09135853 -11.51 0.0002530312    1.146    0.127
        24 -10.8068    132.8908    244.8868   4.7391041567e+01   6.7609485848e+00    0.2542104    0.1304207  21.54 0.0009670812    1.678    0.404
        25 -10.5837    181.3428    244.4431   3.7761674284e+01   1.6551967244e+00    0.1418272   0.09030218  27.05 0.0009284151    1.498    0.332
        26 -11.1900    142.9200    243.3683   4.5121871023e+01   5.8937347206e+00    0.1818783     0.162898 -46.90  0.001309822    1.448    0.309
        27 -10.6340    205.3096    243.6652   3.3412587634e+01  -5.7443711788e-01    0.0897752   0.08224712  16.68  0.000547661    1.677    0.404
        28 -10.9506    186.7854    242.1517   3.6457319166e+01   1.4266151010e+00    0.2291755    0.1245571 -29.75  0.001014033    1.708    0.415
        29 -11.4799    116.7673    241.5087   5.0459600910e+01   9.1375470601e+00    0.2806207    0.2081498 -84.56  0.001681411    2.122    0.529
        30 -10.7894     38.1300    242.1087   6.8446583317e+01   1.7472201659e+01    0.2185202    0.1407434  32.09 0.0006602815    1.255    0.203
        31 -10.5784    179.1022    241.2834   3.7750371299e+01   2.3304658947e+00    0.1568559    0.1130887  10.72 0.0003144167    1.138    0.121
        32 -10.8570    211.5370    237.9561   3.1566398499e+01  -4.1541661997e-01    0.1485578   0.08794802 -32.10  3.67179e-05    1.507    0.336
        33 -10.5542     64.3539    238.0927   6.2076444012e+01   1.5608958255e+01    0.1605728    0.1109217  81.36 0.0009347294    1.766    0.434
        34 -10.9927     53.8029    236.9754   6.4471689292e+01   1.6933372118e+01     0.169967    0.1594799 -14.70  0.001181186    1.265    0.209
        35 -10.7504    166.2201    234.3835   3.9266975193e+01   4.7242736203e+00     0.159687   0.09369017  31.91  0.000462218    1.650    0.394
        36 -11.6480    158.5962    233.5562   4.0663585809e+01   5.7001465575e+00     0.203836    0.1744499   6.88 0.0007292422    1.131    0.116
        37 -10.3784    250.5975    233.5167   2.4892666939e+01  -3.2921749190e+00    0.1013436   0.06822298 -14.64 4.351241e-05    1.021    0.020
        38 -10.7814     99.8205    233.2115   5.3350460509e+01   1.2577451863e+01    0.2148792    0.1101686  55.34 0.0009494323    2.838    0.648
        39 -11.9407    152.9364    230.8058   4.1437397438e+01   6.7833415705e+00    0.3406517     0.221683 -47.75  0.002029178    1.751    0.429
        40 -12.4662    154.9985    224.6907   4.0170134587e+01   7.5470856569e+00    0.2587229    0.1910229 -36.06  0.001647734    1.381    0.276
        41 -12.4813    160.0696    222.4057   3.8810737673e+01   7.3270942959e+00    0.4261228    0.2028949  39.32  0.002110328    2.325    0.570
        42 -10.2485     71.9830    233.0000   5.9852618044e+01   1.5783526340e+01    0.2145997     0.107257  11.35 0.0009510843    2.447    0.591
        43 -10.3028     73.7013    230.0354   5.9177933821e+01   1.6182274837e+01    0.1774395    0.1010439  68.17 0.0008444602    2.417    0.586
        44 -10.7088    216.8564    231.3781   2.9744811055e+01  -5.6742644707e-02    0.1478032   0.08235633  10.25 0.0004860832    1.688    0.407
        45 -13.5808    138.1870    228.4684   4.4216502187e+01   8.8969624496e+00    0.3421682    0.2556083  10.15 0.0006742011    1.176    0.150
        46 -10.9811     61.7878    231.3058   6.2144351397e+01   1.7232275818e+01    0.2454368    0.1248655  30.68   0.00124901    1.602    0.376
        47 -10.3225    194.5874    228.7983   3.3170876637e+01   2.5102505643e+00    0.1379087    0.1002628 -41.16 0.0004126208    1.599    0.374
        48 -11.1137     57.8305    228.8311   6.2901791784e+01   1.8160031972e+01    0.1780836    0.1614764  10.92 0.0005553157    1.183    0.155
        49 -10.9599     43.4500    229.2334   6.6412868485e+01   1.9560442555e+01    0.1663211    0.1112664  76.12 0.0005017866    1.623    0.384
        50 -10.6189    204.5313    227.9719   3.1311306146e+01   1.6078698014e+00    0.1647087   0.09167262 -33.61  0.001028704    1.595    0.373
        51 -13.5786    115.1515    226.1470   4.9021123889e+01   1.2075901569e+01    0.5623297    0.4032714 -50.55  0.001740914    1.569    0.363
        52 -11.3305    230.5142    227.4939   2.7004018938e+01  -8.2499306929e-01    0.1072714   0.07684978 -11.95 1.228125e-05    1.013    0.013
        53 -11.8106    106.4797    225.6507   5.0958455647e+01   1.3215857773e+01    0.4392458    0.2389952  16.67  0.002000903    1.861    0.463
        54 -12.9320    147.4698    224.7560   4.1743727213e+01   8.4278031578e+00    0.3005962    0.2382586 -34.15 0.0006044123    1.306    0.234
        55 -10.4798    180.9859    225.1991   3.5133637032e+01   4.4976420400e+00    0.1641629    0.1238853  43.09 0.0007577412    1.866    0.464
        56 -12.8399    173.9677    222.9408   3.6139195256e+01   5.6317644706e+00    0.3121313    0.2313447 -20.23 0.0003617085    1.202    0.168
        57 -12.7837    170.3685    219.7208   3.6365393431e+01   6.5564261306e+00    0.3435978    0.2148865   9.59  0.000283715    1.550    0.355
        58 -13.6278     11.0772    191.2560   7.2535586976e+01   3.1151452568e+01    0.6768346    0.4790919  14.94  0.001656308    1.527    0.345
        59 -12.6497     31.2512    214.6163   6.8507056615e+01   2.3908666509e+01     1.432872    0.4729756 -43.49  0.004212962    6.595    0.848
        60 -13.6883      4.1621    215.7923   7.5334234532e+01   2.5981704586e+01    0.9012302    0.4515539 -80.57  0.004715804    2.041    0.510
        61 -13.5932      4.1778    201.4317   7.4819494618e+01   2.9253934319e+01    0.7113866    0.5843469 -82.53  0.004539228    1.270    0.212
        62 -13.1807     12.9759    214.9652   7.3126188780e+01   2.5457624863e+01    0.6761837    0.3788677 -76.55  0.003659534    1.868    0.465
        63 -13.1676     24.0642    217.4140   7.0476887716e+01   2.3951341605e+01    0.5162009    0.4675235 -53.10  0.003307001    1.336    0.251
        64 -12.5336     18.8689    215.4959   7.1679051401e+01   2.4837863988e+01    0.3719627     0.242931 -77.14 0.0006924446    1.624    0.384
        65 -12.9490    127.5015    214.5280   4.4696327862e+01   1.2719865930e+01    0.3580861    0.2561677  43.28  0.002042467    1.513    0.339
        66 -12.1021    120.5182    214.0125   4.6228715887e+01   1.3706658256e+01    0.3164865    0.2782532  68.44  0.001901896    1.459    0.315
        67 -13.2943    125.1136    221.3484   4.6153760084e+01   1.1747566387e+01    0.7007877    0.3217631  28.48  0.002989643    1.908    0.476
        68 -12.5645     49.3726    221.2870   6.4399839828e+01   2.0637769413e+01    0.3850399    0.2674219  45.41  0.001761433    1.249    0.199
        69 -11.1387     48.4602    216.9344   6.4298190204e+01   2.1677431428e+01    0.2429298    0.2060223  54.87 0.0007487878    1.095    0.086
        70 -11.1620     30.3929    227.4265   6.9460450882e+01   2.1202642035e+01    0.2388827    0.2049356  47.38   0.00129723    1.045    0.043
        71 -11.4273     91.9959    225.2503   5.4324467342e+01   1.5025566892e+01    0.1913722    0.1857465 -73.63 0.0005596568    1.207    0.172
        72 -11.4932    193.6915    216.7436   3.1532491101e+01   4.3689074284e+00    0.3194154    0.1297702 -33.07  0.001412485    2.350    0.574
        73 -10.1114    164.3112    219.3474   3.7511374369e+01   7.3284784027e+00    0.1295066    0.0810233 -11.66 0.0007045683    1.712    0.416
        74 -10.9133     76.7948    219.5719   5.7424566725e+01   1.7967188037e+01    0.1915219    0.1005146  37.64 0.0009339674    1.631    0.387
        75 -10.9449    216.9604    216.9983   2.7582637942e+01   1.8696355097e+00    0.1648762     0.124236 -12.06  0.001210737    1.022    0.021
        76 -12.7278    139.9048    207.5340   4.0908142346e+01   1.2433934183e+01    0.6221641    0.3990258 -68.86  0.003062869    2.497    0.600
        77 -12.1904    145.5799    215.7058   4.0867809696e+01   1.0227244025e+01    0.3250932    0.2495429 -40.10  0.001720683    1.364    0.267
        78 -12.1672    142.3131    214.6884   4.1426636162e+01   1.0817325909e+01    0.3225189    0.2452671  24.37 0.0009867169    1.198    0.166
        79 -11.0386     91.7638    217.0322   5.3468627537e+01   1.6705930048e+01    0.1715523    0.1646698  25.57 0.0003620197    1.097    0.088
        80 -11.6506     85.6314    215.1122   5.4763452939e+01   1.7849078408e+01    0.5960487    0.1907047  41.40    0.0022465    2.870    0.652
        81 -12.5265    108.9940    214.7228   4.9029500866e+01   1.5030145639e+01    0.3188771    0.2666934 -11.11 0.0009292981    1.234    0.190
        82 -11.6043    156.8413    213.8193   3.8215244328e+01   9.1597927020e+00     0.205898    0.1928463 -27.06 0.0003842931    1.274    0.215
        83 -10.2097    153.2638    213.3417   3.8890265352e+01   9.6857752355e+00     0.127129    0.1104216   2.46 0.0002811779    1.054    0.052
        84 -11.2924    172.2077    211.8882   3.4822691276e+01   7.6100066133e+00    0.2234358    0.1356989 -38.85  0.001182674    1.587    0.370
        85 -11.5288     40.4440    212.2754   6.5999710680e+01   2.3535027520e+01     0.294779    0.2372999 -22.05  0.001326458    1.553    0.356
        86 -10.5631     73.3318    212.2797   5.7552275997e+01   1.9923521996e+01    0.2645257     0.171487   4.46  0.001214718    1.855    0.461
        87 -10.9188     72.6798    208.9281   5.7371373774e+01   2.0732234430e+01    0.2167103    0.1759481  82.71  0.000417023    1.391    0.281
        88 -11.0891     96.9724    208.1279   5.1120883675e+01   1.7903659874e+01     0.292238    0.1765242 -59.48  0.001305952    1.840    0.457
        89 -12.2851     25.7882    208.5487   6.9546369790e+01   2.5792289647e+01    0.4043227    0.2525233  89.43  0.002146629    1.657    0.397
        90 -10.8348    242.2568    209.0357   2.2450278253e+01   4.6110392660e-01    0.1335555    0.0704072 -32.11 0.0002921363    1.481    0.325
        91 -12.2113    161.7091    208.5865   3.6418274243e+01   9.4549014315e+00    0.2909602    0.2256625  35.93  0.001809339    1.433    0.302
        92 -11.0519    180.5296    207.9556   3.2601625726e+01   7.2507258171e+00    0.1880879    0.1451883  14.09 0.0008967773    1.194    0.163
        93 -12.6412     36.1822    205.7641   6.6646927060e+01   2.5445654511e+01    0.4493884     0.386005  42.44  0.002699175    1.039    0.038
        94 -11.0096     46.6566    206.4589   6.3935897295e+01   2.4216064792e+01     0.262954    0.1062566  30.78  0.001126704    2.054    0.513
        95 -11.7042    150.7075    198.3255   3.7120180177e+01   1.2716657529e+01    0.3201064    0.2103536 -70.91  0.001508888    2.723    0.633
        96 -12.2874    145.9363    202.7243   3.8849724706e+01   1.2536437678e+01    0.4304666    0.2877765 -33.67  0.002389751    1.492    0.330
        97 -11.2598    103.0702    206.0604   4.9345619579e+01   1.7551563293e+01    0.2521682    0.1817334  10.17   0.00127637    1.435    0.303
        98 -13.1836     84.7006    199.0036   5.3116938816e+01   2.1452575000e+01    0.6385037    0.4326898 -66.46  0.003319865    1.645    0.392
        99 -12.5137     91.7979    199.2739   5.1307319606e+01   2.0475295660e+01    0.5744888    0.2926392 -44.82  0.001070755    2.196    0.545
       100 -11.5981     92.4862    193.9911   5.0433424490e+01   2.1557312560e+01    0.2765238    0.2332146  48.02 0.0007059433    1.190    0.160
       101 -10.8512     21.1698    204.0443   7.0495853682e+01   2.7250149387e+01    0.1846332    0.1690762 -54.50 0.0007506912    1.291    0.225
       102 -10.5086    160.2878    203.3300   3.5889933537e+01   1.0551549284e+01    0.1314304   0.08705036 -13.31 0.0002486627    1.618    0.382
       103 -10.8417    172.6910    201.5705   3.3101336960e+01   9.2728313493e+00        0.181    0.1524254 -60.34 0.0005317644    1.670    0.401
       104 -11.7720    136.4067    199.9711   4.0548270817e+01   1.4333442234e+01    0.3674825    0.2389996 -82.19   0.00131914    3.303    0.697
       105 -12.6186    123.2823    196.3787   4.3057114195e+01   1.6841903412e+01    0.3975464    0.2709084  36.19  0.002112221    1.411    0.291
       106 -11.8534    176.2663    198.3195   3.1871484338e+01   9.3707808852e+00      0.40016    0.2168969  42.03   0.00203773    2.243    0.554
       107 -12.6179     23.0730    194.3252   6.9412929726e+01   2.9392259614e+01    0.4702699    0.2337186  66.29  0.002138582    2.064    0.516
       108 -11.5117     20.3950    197.7482   7.0346833251e+01   2.8805691134e+01    0.2356338    0.2275073 -63.87 0.0007510698    1.209    0.173
       109 -11.6093     36.7382    196.8894   6.5843149524e+01   2.7479629176e+01    0.2835289    0.1721699  50.76 0.0008291669    1.503    0.334
       110 -11.5610    121.1717    200.8464   4.4226068786e+01   1.6221854106e+01    0.2362498    0.1523509 -30.72 0.0008913114    1.738    0.425
       111 -12.3354    192.7222    193.7800   2.8026523900e+01   8.0577501820e+00    0.2396061    0.2170545  -7.88  0.000314408    1.218    0.179
       112 -11.0707    160.6088    193.1659   3.4175011084e+01   1.2329840872e+01    0.2184283    0.1609873 -12.45 0.0006154937    1.352    0.260
       113 -11.0227    164.2867    191.6517   3.3159985309e+01   1.2106770105e+01      0.19607     0.122648  31.03 0.0004764516    1.583    0.368
       114 -12.3862    132.8582    191.7596   4.0076111383e+01   1.6443138545e+01    0.3644973    0.2576531 -20.56  0.001125768    1.563    0.360
       115 -12.3201     51.7533    191.6275   6.1229794653e+01   2.7156800073e+01    0.5449643    0.2464162  53.69  0.001762573    2.390    0.582
       116 -10.7031     45.4912    191.0593   6.2928964950e+01   2.7980685415e+01     0.195424    0.1338388 -76.10 0.0005482626    1.523    0.343
       117 -12.3330    110.2759    188.2222   4.5017797621e+01   2.0383845282e+01    0.3835778    0.2308776 -74.88  0.001665717    2.468    0.595
       118 -10.5352    174.6684    188.7032   3.0571207359e+01   1.1234301987e+01    0.1322541   0.08821344  -9.16 0.0003011816    1.641    0.391
       119 -10.6939    150.5928    203.2723   3.7925713996e+01   1.1822372125e+01    0.2644737    0.1419868 -39.03 0.0008494323    1.854    0.461
       120 -11.9433     17.0322    198.7876   7.1308038847e+01   2.8847670920e+01    0.2689283    0.1800382 -87.09  0.000588742    1.489    0.328
       121 -11.0787    207.1480    186.9725   2.4351647966e+01   7.3721027170e+00    0.2062392    0.1506789  -2.75 0.0008260035    1.297    0.229
       122 -12.5116    128.5876    185.7563   4.0112227273e+01   1.8280293329e+01    0.3290495    0.2447531  -5.13  0.001628759    1.506    0.336
       123 -12.5745      3.3089    184.4294   7.4373584678e+01   3.3416672667e+01    0.4484209    0.2932046  73.48   0.00185736    1.388    0.279
       124 -11.9825    164.1781    184.7581   3.2004533279e+01   1.3376717399e+01    0.3689222    0.2641701 -61.89  0.001676425    1.928    0.481
       125 -12.8045     26.2553    183.2390   6.7769526648e+01   3.1839607889e+01    0.3595866    0.3120841  52.37  0.002145479    1.034    0.032
       126 -12.1673    105.1120    183.2728   4.5586177058e+01   2.2215399343e+01    0.2601208    0.2080884 -64.70 0.0007611885    1.386    0.278
       127 -11.7768     94.8070    180.9035   4.7961382620e+01   2.4226078514e+01    0.4290621    0.2397322 -54.46  0.001476145    1.839    0.456
       128 -10.4048     16.6458    182.7183   7.0503966737e+01   3.2811943127e+01    0.1322846   0.09907735 -34.14 0.0007015753    1.659    0.397
       129 -11.5804     12.0267    179.9050   7.1671713335e+01   3.3894816501e+01    0.2794081    0.1314053  62.52  0.001157863    2.066    0.516
       130 -12.5315    136.7836    176.1789   3.6536952266e+01   1.9053753391e+01    0.4412097    0.3291706 -77.78  0.001416674    1.976    0.494
       131 -14.0143    127.6953    172.7107   3.8104889973e+01   2.1174984960e+01    0.8479367    0.4323148 -49.38  0.001362205    1.955    0.489
       132 -12.4207    121.2055    168.1121   3.8903989304e+01   2.3190679451e+01    0.4936481    0.3016641  16.20  0.002161151    2.009    0.502
       133 -12.3923    117.3138    177.8687   4.1581011409e+01   2.1628348233e+01    0.3191845     0.216406  35.26 0.0005556052    1.421    0.296
       134 -12.0805     62.6879    177.0245   5.6495175454e+01   2.9463315612e+01    0.2871347    0.2024383  20.21 0.0005232709    1.457    0.314
       135 -13.2317     20.4914    173.1879   6.8745250554e+01   3.4917112088e+01    0.6012753    0.2971908 -67.24  0.002707416    1.968    0.492
       136 -12.6812     14.9450    171.0473   7.0274558694e+01   3.5932841826e+01    0.7196319    0.2451652 -48.54  0.002470957    3.735    0.732
       137 -12.6258     31.5701    174.7738   6.5532503737e+01   3.3493655030e+01     0.470731    0.2152766 -72.08  0.001994873    2.139    0.533
       138 -11.9264     90.5026    174.5038   4.8174503913e+01   2.6347080355e+01    0.3598452    0.2038655  50.00  0.001541519    1.948    0.487
       139 -12.9014     91.5356    169.9999   4.7182372249e+01   2.7278759542e+01    0.5346454    0.3215998 -63.93  0.002401245    1.795    0.443
       140 -12.5657    107.1075    175.5092   4.3828604332e+01   2.3681592209e+01     0.304679     0.252187  38.08  0.000670812    1.180    0.153
       141 -12.0489      1.9407    175.2949   7.4367921976e+01   3.5805066917e+01    0.3234699    0.1842839 -84.27 0.0008625701    1.654    0.395
       142 -12.0208    142.5611    172.4080   3.4519270404e+01   1.8949935039e+01    0.3435793    0.1974997  46.32  0.001570601    2.012    0.503
       143 -11.5028     80.0279    172.9796   5.0912290006e+01   2.8190894700e+01    0.3407671    0.2032942  28.43  0.001324147    1.618    0.382
       144 -13.1636     17.2271    167.9899   6.9371549349e+01   3.6544923303e+01    0.7568307      0.19487  41.51  0.002617083    3.114    0.679
       145 -11.9900    157.3260    170.5551   3.0898332473e+01   1.7064302652e+01    0.3370628    0.2412426 -78.85  0.001573901    2.522    0.604
       146 -11.6289    152.9508    170.4781   3.1832703269e+01   1.7745970428e+01    0.2068538    0.1743301 -33.66 0.0005465214    1.123    0.110
       147 -11.0838    208.7820    170.2019   2.1129514714e+01   9.8196999056e+00    0.1725062    0.1478871 -29.23 0.0005612019    1.160    0.138
       148 -10.8282    199.1872    170.1604   2.2738306213e+01   1.1099293223e+01    0.1549569    0.1444996 -43.04 0.0004289689    1.335    0.251
       149 -13.1686    169.9641    159.8813   2.6242231216e+01   1.7170056399e+01    0.9424939    0.3245145 -51.49  0.003245319    3.583    0.721
       150 -12.7733     85.8258    169.2575   4.8687562011e+01   2.8286948761e+01    0.5126403    0.3131834  38.16  0.002346252    1.552    0.356
       151 -11.2828    202.0455    166.7815   2.1629100398e+01   1.1272255253e+01    0.1760229      0.15779 -42.11  0.000639228    1.298    0.230
       152 -11.4166     98.9840    167.4909   4.4693419638e+01   2.6770918962e+01    0.2217397     0.139845  31.88  0.000425567    1.532    0.347
       153 -11.7414     77.5348    166.4058   5.0665656134e+01   3.0168902899e+01    0.2656594    0.1774707  25.79 0.0007000343    1.496    0.332
       154 -11.9328    111.0781    164.7548   4.0935062679e+01   2.5544189347e+01    0.2794124    0.2038969   9.21  0.001286663    1.602    0.376
       155 -11.6715     25.1051    160.3641   6.6290777513e+01   3.7885779520e+01    0.4028366    0.2275692 -53.34  0.001664215    1.863    0.463
       156 -11.9981     12.7156    160.4048   7.0258797097e+01   3.8905165286e+01     0.385889     0.228579 -67.93  0.001062545    1.630    0.386
       157 -11.5347     37.2371    160.8218   6.2436668565e+01   3.6586991833e+01    0.2164906     0.182664  62.24 0.0006445044    1.124    0.110
       158 -12.3236      5.7758    159.9123   7.2428336482e+01   3.9537537844e+01    0.3777392    0.2927656  38.84  0.001649131    1.242    0.195
       159 -11.9743    111.3907    158.2064   3.9655359432e+01   2.7014978311e+01    0.3466419    0.2246991 -23.22  0.001002892    2.080    0.519
       160 -12.3531    104.6195    157.8439   4.1437901365e+01   2.8191748473e+01    0.4795555    0.2701964  63.23  0.001723363    3.020    0.669
       161 -10.6883    150.7221    158.5706   3.0054836016e+01   2.0488230236e+01    0.1876702     0.131646  45.91 0.0009452541    1.593    0.372
       162 -11.5835    132.5073    156.7633   3.3951455961e+01   2.3865246260e+01    0.2909201    0.2326928  15.23  0.001522761    1.338    0.252
       163 -12.0379    134.7285    153.5653   3.2777458495e+01   2.4189272625e+01    0.3731812    0.1871881  48.40  0.001330851    2.362    0.577
       164 -11.6277    118.1595    157.2645   3.7680508299e+01   2.6127119897e+01    0.2400047    0.1864206   4.68   0.00118516    1.498    0.332
       165 -10.5262     90.7540    156.9778   4.5234049347e+01   3.0581992590e+01    0.1860803    0.1266571 -58.18 0.0001866012    1.491    0.329
       166 -11.3962     77.0227    155.9998   4.9185600810e+01   3.2880882221e+01    0.2220579    0.2004737 -29.20            0    1.198    0.165
       167 -14.3021     74.7031    151.3293   4.9131897210e+01   3.4420764250e+01    0.7165328    0.5111266  46.60  0.003407459    1.400    0.286
       168 -13.0105     84.1998    149.8281   4.5928851238e+01   3.3386247626e+01    0.4210327    0.3374762  12.61 0.0009153198    1.387    0.279
       169 -11.2492    143.6879    152.7112   3.0483770497e+01   2.2862972630e+01    0.1931645    0.1754135  83.77 0.0004354765    1.349    0.258
       170 -11.2534    124.4689    155.9296   3.5794246424e+01   2.5385864083e+01    0.2163469     0.192734  26.56 0.0003551743    1.121    0.108
       171 -10.2527     21.1126    155.1742   6.7137920718e+01   3.9630348084e+01    0.2004333    0.1463039  56.99 0.0004780903    1.299    0.230
       172 -11.0221     13.9955    154.9644   6.9458620995e+01   4.0263337452e+01     0.330228    0.1283688  45.32  0.001291555    2.372    0.578
       173 -11.0297      1.6314    154.7715   7.3465310078e+01   4.1174807641e+01    0.2472553    0.1534168  80.32 0.0008400529    1.491    0.329
       174 -12.3307     81.6985    152.6787   4.7195108703e+01   3.3040429959e+01    0.3444194    0.2636417 -33.27  0.001057174    1.478    0.323
       175 -11.5252    141.0689    155.3331   3.1619085027e+01   2.2748255110e+01    0.2519439    0.1974111 -46.16 0.0008525376    1.247    0.198
       176 -12.2417     43.5040    151.0423   5.9246757805e+01   3.8539543548e+01    0.3961004    0.2279215 -37.12  0.001643419    2.175    0.540
       177 -12.4712      4.4250    149.7550   7.2264283135e+01   4.2343144221e+01    0.3701479    0.2766595  48.54  0.001435602    1.263    0.208
       178 -12.1168     64.3110    150.8712   5.2367717399e+01   3.6000328521e+01    0.2452971    0.1886237  84.91  0.001186792    1.430    0.301
       179 -11.5307     27.8918    150.0934   6.4397105653e+01   4.0404489304e+01    0.4409952    0.2308564 -24.79  0.001665423    2.926    0.658
       180 -11.8883     19.7138    150.2539   6.7176431141e+01   4.1082059683e+01    0.5097597    0.2826881  54.23   0.00149678    1.779    0.438
       181 -11.6241    108.8614    149.0860   3.8594892645e+01   2.9581784050e+01    0.2971787    0.2556517 -77.96 0.0006438167    1.303    0.233
       182 -11.6096    177.0600    169.7884   2.6725382649e+01   1.4271126899e+01    0.2324029    0.1750087 -54.15 0.0004773573    1.555    0.357
       183 -11.6885     96.2481    149.0241   4.2174489248e+01   3.1682117076e+01    0.2543291    0.2144507  33.64  0.000414987    1.176    0.150
       184 -10.6115     58.6399    146.8427   5.3600893048e+01   3.7828996785e+01    0.2158172    0.1402104 -83.45 0.0009384978    1.729    0.422
       185 -10.9676    157.1805    145.4355   2.5980898889e+01   2.2069769045e+01    0.3293886    0.1359594  42.90  0.001178175    2.607    0.616
       186 -11.0190    105.6601    144.6808   3.8612006799e+01   3.1177261046e+01    0.2773628    0.2312881  -2.02  0.001165444    1.386    0.279
       187 -12.0513    102.4103    142.0042   3.8998688702e+01   3.2379036668e+01    0.2839557    0.2606421  76.68 0.0004597045    1.171    0.146
       188 -10.4679    146.0000    155.0806   3.0428191187e+01   2.1981307202e+01    0.2234345    0.1756893 -48.16  0.001191583    1.260    0.206
       189 -11.1486     41.2622    143.1353   5.8985024037e+01   4.0944456691e+01    0.2130603    0.1942376 -53.47 0.0004724852    1.140    0.123
       190 -10.9097      3.2883    143.3658   7.2250738662e+01   4.4145579022e+01    0.1473794    0.0925517 -49.45 0.0007023464    1.701    0.412
       191 -12.0185    164.5056    141.1455   2.3546676526e+01   2.1666525385e+01    0.2335737    0.2225268   1.84 0.0002766331    1.091    0.084
       192 -12.3216     48.8106    141.8660   5.6186282949e+01   4.0415563233e+01    0.5197042    0.2578601  27.18  0.002091296    2.004    0.501
       193 -12.4002     11.5760    141.9162   6.9271475474e+01   4.3992559210e+01    0.4036624    0.1812557  15.24  0.001642514    2.429    0.588
       194 -12.5112     96.5541    138.4232   3.9987133208e+01   3.4256388014e+01    0.4236761    0.2941717  14.57 5.196833e-05    1.794    0.443
       195 -10.0508    133.2923    139.6672   3.0238776606e+01   2.7477536512e+01     0.145665    0.1177006  89.52 0.0006578386    1.634    0.388
       196 -12.4971     67.3792    129.1130   4.7540981696e+01   4.1356792884e+01     0.452437    0.2570873 -81.00   0.00164261    2.360    0.576
       197 -13.0535     70.3889    138.0100   4.8194968382e+01   3.8545289827e+01    0.4914056    0.2641727  49.56  0.001936367    2.034    0.508
       198 -12.0396     65.1701    137.1603   4.9797346373e+01   3.9529765864e+01    0.3121226    0.2016474  42.47 0.0005947794    1.531    0.347
       199 -10.9039     41.0116    137.8060   5.8345851914e+01   4.2437231409e+01    0.2708848     0.143957  52.43  0.001087541    2.028    0.507
       200 -11.2177     20.0355    137.9706   6.5909277438e+01   4.4430017528e+01    0.2189147    0.2033124  77.16 0.0005443635    1.016    0.016
       201 -11.6146      1.6503    137.4774   7.2446455683e+01   4.5849461461e+01    0.3154981    0.1513917 -80.44   0.00107346    1.889    0.471
       202 -10.0150     58.3198    170.6569   5.7005870249e+01   3.1614189090e+01    0.1589988    0.1004869  59.98 0.0007049702    1.722    0.419
       203 -11.9663      7.3969    135.0781   7.0218680348e+01   4.6158853209e+01    0.2524384    0.2056294  31.29 0.0003765151    1.271    0.213
       204 -12.3600     13.5013    134.6077   6.7957894012e+01   4.5869631893e+01    0.3592572    0.2277256 -86.68 0.0008978951    1.498    0.332
       205 -12.1316     45.8206    133.3045   5.5952050400e+01   4.3121596002e+01    0.3126338    0.2832552  49.15  0.001679389    1.094    0.086
       206 -11.7348     50.5066    130.5037   5.3800069251e+01   4.3314000870e+01    0.3428595    0.2650328  -1.29  0.001123791    1.550    0.355
       207 -11.2831    160.0952    132.6235   2.2615259516e+01   2.4119054026e+01    0.2481431    0.1846092 -36.69 0.0003802378    1.261    0.207
       208 -11.3141    115.6812    133.0492   3.3352565380e+01   3.2172475476e+01    0.2133289    0.1910439 -46.00 0.0001690785    1.096    0.087
       209 -12.7503     19.8440    131.6615   6.5323480069e+01   4.6197565178e+01    0.3914768    0.3510567 -72.78 0.0005465197    1.074    0.069
       210 -12.3128     83.6438    132.1650   4.2706217775e+01   3.7999241718e+01    0.3106199    0.2087878  50.98 0.0008151879    1.588    0.370
       211 -12.2679     82.8029    127.4770   4.1995087151e+01   3.9343638197e+01    0.3580478    0.2428575 -57.19 0.0009273316    1.458    0.314
       212 -12.9499     57.6927    126.3712   5.0458811090e+01   4.3488434643e+01    0.5154915    0.4052984 -10.27 0.0005430504    1.550    0.355
       213 -11.5928     49.4778    123.9802   5.3055510685e+01   4.5233822956e+01    0.2592059    0.2077273  37.76 0.0001805049    1.251    0.200
       214 -11.5427     52.1768    121.7819   5.1642129717e+01   4.5484455142e+01    0.5791643    0.3127517  63.68  0.002107033    2.602    0.616
       215 -12.4853     35.7655    127.0859   5.8740933058e+01   4.5978362950e+01    0.3600761      0.25941 -62.45 0.0003674597    1.325    0.246
       216 -11.4048    121.1997    127.9443   3.0712112588e+01   3.2329595046e+01    0.2281396    0.2018014 -83.53 0.0004929205    1.266    0.210
       217 -12.4894     74.9244    125.2412   4.4156431858e+01   4.1212352523e+01    0.4078345    0.2322054 -44.37   0.00164751    1.874    0.467
       218 -12.9765      9.5565    125.2537   6.8580180035e+01   4.8740632536e+01    0.4600667     0.248263   7.56  0.002016708    2.149    0.535
       219 -12.1891      5.5235    121.4694   6.9806904536e+01   5.0043074676e+01    0.2459435    0.1778485  84.16   0.00110412    1.306    0.234
       220 -12.0760     25.2979    124.9296   6.2458973017e+01   4.7607031390e+01    0.5545304    0.1639463  32.87  0.001883831    2.963    0.662
       221 -10.2665    130.3356    127.6929   2.8299034694e+01   3.0663760756e+01    0.1508179    0.1190464  84.79  0.000704135    1.673    0.402
       222 -11.0913     41.4198    123.6438   5.6052724676e+01   4.6306916355e+01    0.2822953    0.1467584 -76.08 0.0006995414    2.033    0.508
       223 -13.5411     14.8554    120.7733   6.6058185952e+01   4.9621723953e+01    0.6133711    0.3265195  47.88  0.002666216    1.925    0.481
       224 -12.7423      9.1416    117.4591   6.7995078075e+01   5.0937296289e+01    0.3482386    0.2172254  68.19 0.0007507543    1.661    0.398
       225 -11.2105    194.1154    122.1106   1.4046454421e+01   2.0109412879e+01    0.1976192    0.1614417 -24.77 0.0003948939    1.198    0.165
       226 -11.0137    179.0509    121.9494   1.6579329031e+01   2.2757276725e+01    0.2028663     0.178233 -36.69 0.0003299483    1.019    0.018
       227 -11.4328    105.3840    121.2207   3.3550164428e+01   3.6878513561e+01    0.4912892    0.1649656  40.55  0.001567297    2.977    0.664
       228 -11.2355     28.3262    120.4927   6.0674857094e+01   4.8565418849e+01     0.307988    0.2467384  35.39 0.0007525208    1.271    0.213
       229 -12.2159     79.6991    119.6896   4.1320759759e+01   4.1868622374e+01    0.2811229    0.2693685 -69.89 0.0004393731    1.029    0.028
       230 -12.8213     82.6554    116.9656   3.9696992240e+01   4.2059424973e+01    0.4822657    0.4331543  58.01 0.0009414642    1.139    0.122
       231 -11.2454     38.0947    119.2430   5.6621693712e+01   4.7903843175e+01    0.2526572    0.1934961 -50.53 0.0009586112    1.303    0.232
       232 -11.8504     22.0145    119.4004   6.3040979461e+01   4.9439197669e+01     0.350818    0.2462303 -17.78  0.001676232    1.708    0.414
       233 -11.6807     95.8994    119.5136   3.6010105947e+01   3.9053374953e+01    0.2430816     0.214479 -84.77 0.0003311094    1.222    0.182
       234 -11.8980     71.2356    118.4199   4.3975294909e+01   4.3591673872e+01     0.300192    0.2127172 -58.74  0.000817492    1.386    0.279
       235 -12.0620     54.7047    116.9134   4.9745869430e+01   4.6466792321e+01    0.3926951    0.2683304 -49.31 0.0003762891    1.464    0.317
       236 -12.0419     19.2358    116.3971   6.3779151301e+01   5.0507844000e+01     0.207884    0.1261542  34.22 0.0009497958    1.657    0.396
       237 -12.5127     66.3867    105.6515   4.2813022507e+01   4.7709682855e+01    0.5015057     0.272513  56.80  0.001027317    2.452    0.592
       238 -11.8728     60.5456    114.8268   4.7102872274e+01   4.6192464786e+01    0.3859525    0.2482876  28.33 0.0009069422    1.611    0.379
       239 -13.0569     61.7522    109.2031   4.5407641504e+01   4.7507120485e+01    0.5858803    0.5042704 -65.96  0.002216436    1.147    0.128
       240 -11.2027     73.9969    114.0347   4.2007516234e+01   4.4285097570e+01     0.186282    0.1801884  47.54 0.0003935891    1.043    0.041
       241 -11.5818    115.0520    112.5775   2.8672822835e+01   3.7029352596e+01    0.2591206     0.206994 -62.35 0.0004588152    1.301    0.231
       242 -13.5045      8.4288    110.4052   6.7557528296e+01   5.2944947817e+01    0.5947073    0.3304835  34.14  0.002727428    1.826    0.452
       243 -10.7751    165.4985    112.0153   1.6819361692e+01   2.7121918272e+01    0.2021173    0.1124205 -60.88 0.0006910263    2.441    0.590
       244  -9.9930    123.5484    109.4279   2.5591387246e+01   3.6027875883e+01    0.1492977    0.1450825 -43.60 0.0001094937    1.037    0.035
       245 -10.8073     87.9062    108.4710   3.5872692493e+01   4.3246958494e+01    0.2380695    0.2045725 -54.05 0.0005175796    1.148    0.129
       246 -10.0414    201.6907    114.3030   1.1189544486e+01   2.0155056724e+01    0.1270853   0.09257637 -63.23 0.0002811813    1.606    0.377
       247 -12.1091      1.6254    108.5535   7.0247960554e+01   5.3835655881e+01    0.3941184    0.1220058 -63.35  0.001035266    2.626    0.619
       248 -11.5075      1.3819    103.6937   6.9898792411e+01   5.5189736353e+01     0.271553    0.1259688 -78.50 0.0006323924    1.947    0.486
       249 -10.8620    115.1792    105.4848   2.6807999000e+01   3.8605741239e+01    0.2120745    0.1970644 -54.74 0.0003698161    1.047    0.045
       250 -13.4898     10.1120    102.9874   6.5975600125e+01   5.4898333407e+01     0.994679    0.5265481  63.24  0.004183906    2.176    0.540
       251 -12.1343      5.8371     95.0939   6.6946204214e+01   5.7327494231e+01    0.2590569    0.2253249  53.83 0.0002997665    1.208    0.172
       252 -12.1156    167.1030    104.6798   1.4763305604e+01   2.8185843109e+01    0.2484223    0.2077966 -42.27 0.0003045159    1.088    0.081
       253 -10.0667     30.3242    103.7145   5.7176610150e+01   5.3028752993e+01    0.1541959    0.1064263  58.62 0.0003741995    1.602    0.376
       254 -10.2844    104.5290    102.4705   2.9057226783e+01   4.1453291166e+01    0.1527652     0.149828 -56.98 5.310371e-05    1.027    0.026
       255 -10.9503     78.3624    101.9290   3.7470539253e+01   4.6611210859e+01    0.2790843    0.2074148  47.74  0.001013838    1.377    0.274
       256 -11.4426     55.9906    101.1055   4.5789573356e+01   5.0513433007e+01    0.2424939    0.2145322 -66.85 0.0003919804    1.116    0.104
       257 -11.0664     57.9167     97.5336   4.4136918100e+01   5.1156585503e+01    0.2687538    0.2275613 -45.21 0.0006354303    1.184    0.155
       258 -10.6103    178.4529     99.5133   1.1523685763e+01   2.6905592578e+01    0.1373034    0.1213699 -42.54 -7.423551e-06    1.042    0.041
       259 -11.4772     94.0330     98.2970   3.1168857559e+01   4.4523503621e+01    0.2218906    0.2039758  55.56 0.0005191655    1.098    0.089
       260 -10.3432     41.7319     93.5520   5.0066952464e+01   5.4482825292e+01    0.4773656    0.2188015 -59.00 0.0008588146    2.023    0.506
       261 -10.4133    182.7109     94.6786   9.6822698954e+00   2.6920164412e+01    0.1291448    0.1042877  -7.52  0.000272257    1.603    0.376
       262 -11.7532    119.0242     94.0886   2.2670026530e+01   4.0287318986e+01    0.2199062    0.2123232 -52.50 0.0003726434    1.042    0.040
       263 -11.7943     90.5282     93.9335   3.1088803593e+01   4.6239580987e+01    0.3606286    0.2024716  34.20  0.001432032    1.975    0.494
       264 -11.4656     26.4949     92.5545   5.6827856105e+01   5.6459272006e+01    0.3006499    0.2356516 -38.56 0.0007511923    1.295    0.228
       265 -10.7826     57.9266     91.7009   4.2627922762e+01   5.2656721995e+01    0.2099717    0.1919607  31.69 0.0004145653    1.114    0.103
       266 -11.0324     11.4263     90.9401   6.3726475859e+01   5.8126350767e+01    0.2223067    0.1891946  39.79   0.00123469    1.249    0.199
       267 -11.9272     73.9644     90.0031   3.5810183012e+01   5.0341894824e+01    0.3092698    0.2648668  56.31  0.001328647    1.215    0.177
       268 -12.6369      7.0494     86.6352   6.5235217406e+01   5.9565711581e+01    0.3548093    0.2883134 -62.09  0.000501938    1.118    0.106
       269 -13.0227      3.1865     87.1536   6.7220341159e+01   5.9630142518e+01    0.5185996    0.3040528 -80.56  0.001587078    1.611    0.379
       270 -11.1159    125.2240     87.8508   1.9317256901e+01   4.0236835671e+01    0.3737739    0.1976046 -46.41 0.0008823983    1.834    0.455
       271 -12.0980     54.7907     85.4547   4.2250700109e+01   5.4730400030e+01    0.5130658    0.4788887 -47.33  0.002782587    1.056    0.053
       272 -10.4604    134.8349     84.5731   1.6111904965e+01   3.8768009613e+01     0.287834    0.1065318 -39.30 0.0009811413    2.728    0.633
       273 -10.4021    129.7833     85.3845   1.7509266409e+01   3.9725620371e+01    0.1877102    0.1405918  42.57 0.0002832363    1.453    0.312
       274 -12.4634    151.5219     80.2858   1.1447174326e+01   3.5888527035e+01    0.4896184    0.3275491 -28.51   0.00170146    1.711    0.416
       275 -11.2790     79.0365     83.0890   3.1871105601e+01   5.1020308035e+01     0.274461    0.2196146 -48.49 0.0007425577    1.248    0.198
       276 -11.0729    189.8445     83.1007   5.8632734799e+00   2.7455245849e+01    0.1984897    0.1545857 -54.77  0.000291573    1.150    0.130
       277 -10.3487    178.9835     83.7738   7.6286306476e+00   2.9497684754e+01    0.1610743    0.1128301  60.01 0.0002517605    1.588    0.370
       278 -12.2276     64.2341     81.6055   3.7148462612e+01   5.4112096522e+01    0.2743504     0.262722 -77.30 0.0002846243    1.068    0.064
       279 -11.7935      5.1697     80.8320   6.5339201124e+01   6.1232214193e+01     0.264801    0.2368205  62.71 0.0007939087    1.196    0.164
       280 -11.0456     10.6454     81.6562   6.2635265124e+01   6.0687666328e+01    0.3320372    0.1701976 -42.58  0.001445261    1.917    0.478
       281 -11.6098      8.7132     77.5553   6.2947901901e+01   6.1903558943e+01    0.4489069    0.2086559 -75.36  0.001873318    2.079    0.519
       282 -12.4008     89.1793     78.1754   2.6774502583e+01   5.0071205360e+01    0.3683903    0.2621793 -41.18  0.000425121    1.450    0.311
       283 -10.6083    161.6881     78.1896   9.0314360451e+00   3.4048822799e+01    0.3077587    0.1137505  64.09  0.001029551    3.709    0.730
       284 -11.0633     70.3116     76.0653   3.2962480896e+01   5.4307579210e+01    0.2253158    0.2047261 -23.16   0.00038703    1.177    0.151
       285 -12.2371     70.0547     70.8761   3.1341988107e+01   5.5526407011e+01    0.5683955    0.3865801 -16.62  0.001753885    2.225    0.551
       286 -10.2646    105.5219     73.7393   2.0281704307e+01   4.7448934199e+01     0.242283    0.1471218 -34.87  0.001022374    1.840    0.457
       287 -12.0157     53.6829     70.6747   3.8262259253e+01   5.8506222759e+01    0.3844168    0.3288255 -14.97  0.002012773    1.285    0.222
       288 -11.2069    132.9149     70.5702   1.2456733321e+01   4.1804184616e+01    0.2164432     0.194893 -39.91 0.0003559145    1.151    0.131
       289 -10.9021     80.5144     68.8126   2.6669577523e+01   5.3880499478e+01    0.3022024    0.2027862  24.69 0.0005604716    1.935    0.483
       290 -12.0771     61.8985     67.6059   3.3586672756e+01   5.7783013591e+01    0.3822947     0.253333  59.30  0.001301654    1.875    0.467
       291 -11.4338     49.3416     65.3276   3.8499783409e+01   6.0458364975e+01    0.3624686     0.252654 -49.86  0.001068722    1.419    0.295
       292 -11.2825     47.0482     62.7333   3.8715671184e+01   6.1420567528e+01    0.2406923     0.212423  26.30 0.0003296634    1.130    0.115
       293 -11.6819      7.8185     67.1989   6.1523998399e+01   6.4671261367e+01    0.2051538    0.1452722 -37.57 0.0009841877    1.353    0.261
       294 -10.4702     13.2409     66.0724   5.8137005240e+01   6.4591105280e+01    0.2244017    0.1492088  70.47  0.001066726    1.906    0.475
       295 -12.0701     18.2048     59.9530   5.3660519357e+01   6.5717439626e+01    0.3607548    0.2722172 -35.61  0.001945208    1.277    0.217
       296 -12.5581     12.5215     59.7209   5.7039611574e+01   6.6249694168e+01    0.2682625    0.2544059   9.23 0.0003391583    1.112    0.100
       297 -12.0714     23.1181     55.6522   4.9421205157e+01   6.6275829440e+01    0.3998316    0.3452644 -51.63  0.002305878    1.123    0.109
       298 -11.8949     34.2650     59.0639   4.4114075892e+01   6.4132960403e+01    0.3224683    0.2496347 -57.60 0.0003721991    1.303    0.232
       299 -10.8249     28.3161     60.1039   4.7790598454e+01   6.4628351668e+01    0.2458516    0.1881977   1.14  0.001210426    1.402    0.287
       300 -11.2869     42.1450     59.2082   3.9947276785e+01   6.2983198856e+01    0.2242151    0.1930862 -12.17  0.001090725    1.215    0.177
       301 -10.7378    126.0296     54.9891   9.0745557709e+00   4.6079358489e+01    0.1722268    0.1589187 -69.43 0.0003285346    1.032    0.031
       302 -12.0226    110.4521     54.1436   1.2386530269e+01   4.9924334655e+01     0.371002    0.2385199 -42.71  0.001211779    1.561    0.359
       303 -10.7577    106.1533     50.8969   1.2333541588e+01   5.1487196665e+01    0.1902063    0.1717238  26.98 0.0002477491    1.278    0.217
       304 -12.2912     98.2591     47.9791   1.3378129797e+01   5.3838770807e+01    0.5743754    0.3152145 -66.88  0.002055891    3.181    0.686
       305 -11.7372     36.6589     49.9220   3.9434030301e+01   6.5869410550e+01    0.2451464    0.1905123  56.08 0.0006691588    1.549    0.354
       306 -12.5355     30.4527     49.8993   4.3016150204e+01   6.6735523812e+01    0.3774837    0.2496575   6.83  0.001817503    1.767    0.434
       307 -11.9482     16.1551     49.8647   5.1938193479e+01   6.8341962614e+01    0.2228806    0.2111615 -39.40 0.0002783554    1.067    0.063
       308 -11.6257    128.7068     46.7103   5.8281483861e+00   4.6732349318e+01    0.4421215    0.2461421 -21.57  0.001806377    2.511    0.602
       309 -10.6975     42.9630     47.0995   3.4826406190e+01   6.5491306259e+01    0.3657524    0.2873847  58.56  0.001921553    1.533    0.348
       310 -10.7865    142.3841     45.8236   3.0848978652e+00   4.3593218789e+01    0.1804216    0.1329762 -24.00  0.000359596    1.602    0.376
       311 -12.1527     22.7996     41.8217   4.4666847936e+01   6.9476330343e+01    0.2109997    0.1753539 -16.53 0.0009046996    1.169    0.145
       312 -12.9018     33.0634     40.0131   3.7391752105e+01   6.8492267773e+01    0.3212001    0.2580758  10.69  0.001059868    1.259    0.206
       313 -11.1141     80.4809     36.6645   1.4182302247e+01   5.9798384894e+01    0.4474973    0.1809679 -40.19   0.00173427    2.560    0.609
       314 -12.1435     37.5392     53.8801   4.0460785726e+01   6.4866770532e+01    0.2593602    0.2026281  28.84 0.0009543117    1.270    0.213
       315 -12.8949     20.2338     35.1788   4.3627907600e+01   7.1202775580e+01    0.3837619    0.2097697  27.28  0.001860992    1.786    0.440
       316 -11.8858     41.9995     32.1047   2.8447717171e+01   6.8550206380e+01     0.302556    0.1927258 -47.64 0.0003205003    1.708    0.415
       317 -12.6781     30.4755     31.4577   3.4967903962e+01   7.0569149787e+01     0.418588    0.2338383  29.58  0.001425727    1.770    0.435
       318 -10.5396    190.2247    248.8490   3.6741959463e+01   1.7668668300e-01    0.1490714   0.09553962  -8.82 0.0003617217    1.333    0.250
       319 -11.7868     89.7563     29.5162   8.3535896189e+00   5.8645946769e+01    0.2492273    0.1921021 -30.22 0.0007076738    1.420    0.296
       320 -11.0857     61.4791     28.1348   1.7157789894e+01   6.5341825712e+01    0.2074897    0.1865907  87.45 0.0004991337    1.279    0.218
       321 -12.2742     45.3730     25.3421   2.3106527195e+01   6.9067052467e+01    0.3536621    0.3066672  -8.44  0.002063773    1.199    0.166
       322 -12.6893     85.3097     23.7111   7.0468363079e+00   6.0474175639e+01    0.3003439    0.2558608  83.25 0.0003904088    1.182    0.154
       323 -11.5533     90.6628     23.0376   5.3461974180e+00   5.9262256075e+01    0.2926588     0.227456  16.29  0.001016028    1.637    0.389
       324 -10.6472     81.5521     19.5299   6.1862175230e+00   6.1889003386e+01    0.2050539    0.1591727 -72.61 0.0006367592    1.477    0.323
       325 -12.1599     77.6150     30.5082   1.2402649689e+01   6.1377581440e+01    0.2922404    0.2421304  64.95 0.0005240325    1.170    0.146
       326 -11.7624     19.1968     23.6979   3.8796145392e+01   7.3627808115e+01    0.2149521    0.1888181  -5.25  0.000333768    1.020    0.020
       327 -11.9879     70.2394     21.3287   1.0514577041e+01   6.4331546155e+01    0.2757842    0.2332157  -2.18 0.0007471383    1.360    0.265
       328 -10.4042     58.5766     20.2112   1.4256888211e+01   6.7098024147e+01    0.1719636    0.1302241 -11.51  0.000565661    1.549    0.354
       329 -11.2898    132.4700     17.5400   3.5549391556e+02   4.9571707444e+01    0.2156506    0.1912837 -15.15 0.0005774229    1.377    0.274
       330 -11.2563     74.2089     15.1805   6.2127465083e+00   6.4145211572e+01     0.290807    0.1803727 -83.03  0.001301605    2.373    0.579
       331 -11.4514    125.0418    246.0319   4.9184176255e+01   7.4456827636e+00    0.1783393    0.1451939  15.20 0.0003369521    1.015    0.015
       332 -11.1142    114.4226    248.9557   5.1782048955e+01   8.1359766088e+00    0.1803418    0.1647728  57.90 0.0006370041    1.390    0.280
       333  -9.9361     54.4654    249.4123   6.5166213912e+01   1.4466170281e+01    0.1210572    0.0955828  34.90 0.0001863546    1.013    0.013
       334 -11.8712     67.8220    246.7479   6.1949922221e+01   1.3592011756e+01     0.343273    0.2215666  41.19  0.001878078    1.312    0.238
       335 -11.9151     37.7357    247.7278   6.8841678353e+01   1.6418444431e+01    0.4272087    0.1453299  40.38  0.001879205    2.129    0.530
       336 -12.3790     32.7548    240.6042   6.9603611127e+01   1.8277884773e+01    0.3376911    0.2214903  65.14 0.0008370383    1.494    0.331
