#   1 NUMBER                 Running object number                                     
#   2 MAG_AUTO               Kron-like elliptical aperture magnitude                    [mag]
#   3 X_IMAGE                Object position along x                                    [pixel]
#   4 Y_IMAGE                Object position along y                                    [pixel]
#   5 X_WORLD                Barycenter position along world x axis                     [deg]
#   6 Y_WORLD                Barycenter position along world y axis                     [deg]
#   7 A_WORLD                Profile RMS along major axis (world units)                 [deg]
#   8 B_WORLD                Profile RMS along minor axis (world units)                 [deg]
#   9 THETA_WORLD            Position angle (CCW/world-x)                               [deg]
#  10 FWHM_WORLD             FWHM assuming a gaussian core                              [deg]
#  11 ELONGATION             A_IMAGE/B_IMAGE                                           
#  12 ELLIPTICITY            1 - B_IMAGE/A_IMAGE                                       
         1 -17.5965     39.4723     90.0416   1.2674413338e+02   5.3580873959e+01     2.286084     1.392639  55.80   0.01182908    2.444    0.591
         2 -17.8570     82.3079     55.5821   1.0297125213e+02   5.4732946473e+01     1.775932     1.606788 -86.98   0.01078896    1.567    0.362
         3 -17.5130    241.0036     16.7600   6.1432210902e+01   2.3709755105e+01     1.897267     1.237863 -87.32   0.01087626    1.393    0.282
         4 -16.7350    214.8592      3.2639   6.0908389490e+01   3.1283051313e+01      2.71931    0.3568279  71.33  0.006861343    6.990    0.857
         5 -16.8852     18.9914     62.7481   1.2707040705e+02   6.0893598103e+01    0.7563613    0.4570867 -41.25  0.004338799    1.315    0.240
         6 -18.5423     35.2216    237.4923   1.4668622245e+02   2.1712513464e+01     2.232355     1.600712  59.54   0.01634305    1.239    0.193
         7 -17.1346     91.1865    247.7247   1.3794461405e+02   1.2178901332e+01     1.468576     0.687297  39.75  0.007176132    2.120    0.528
         8 -16.0159    115.9762    248.8421   1.3361402451e+02   8.0799728382e+00      1.17401    0.3882658  42.80   0.00505198    2.553    0.608
         9 -16.5652    156.4451    247.1252   1.2592735047e+02   1.5584643244e+00     1.501543    0.5975525  34.19  0.006056269    2.964    0.663
        10 -17.2573    134.0499    246.1646   1.2997437292e+02   5.5425439215e+00     1.425098     1.136257  42.86  0.008741658    1.190    0.160
        11 -18.4764    128.4892    227.1397   1.2856086477e+02   9.8888916812e+00     3.563701     2.147348 -36.45   0.01705763    2.643    0.622
        12 -15.5694     59.8426    209.4903   1.3988729920e+02   2.4210238700e+01    0.9118065    0.6951085  13.70  0.005279325    2.381    0.580
        13 -16.9993     93.7881    194.8293   1.3120667292e+02   2.2358715967e+01     1.699687    0.8603356 -62.71   0.00797403    1.948    0.487
        14 -14.6662     82.0072    205.1890   1.3501286343e+02   2.1959951460e+01     0.426561    0.2717514 -76.98  0.001798133    1.520    0.342
        15 -16.8617    161.7617    191.9473   1.1609879147e+02   1.0532138543e+01     2.371607     1.636991 -79.07   0.01080345    2.106    0.525
        16 -15.3181    181.1548    197.4354   1.1306586005e+02   5.6491803700e+00    0.9011222    0.5311534  49.52  0.004192453    1.657    0.397
        17 -15.9227    181.0772    171.5944   1.0798430714e+02   1.0674814661e+01    0.8954381    0.8385469  50.46  0.004873165    1.052    0.049
        18 -17.4974    171.0509    168.6053   1.0951357204e+02   1.3391482810e+01     1.291584     1.070886   8.49  0.006115139    1.477    0.323
        19 -13.6589     71.7831    198.0453   1.3623697513e+02   2.5005693046e+01    0.2861936    0.2167308 -40.27  0.001631065    1.935    0.483
        20 -15.3291    103.9936    181.2202   1.2693142953e+02   2.3685608372e+01    0.5308589    0.2880515 -74.74  0.002232392    2.297    0.565
        21 -16.2939    101.7585    174.0507   1.2626827222e+02   2.5693896099e+01     1.148573    0.8268943  42.95  0.005281928    1.427    0.299
        22 -18.0841     13.5797    156.0952   1.4389280072e+02   4.1058865466e+01     2.995354     1.060259 -59.50   0.01459645    2.304    0.566
        23 -16.6709    123.0855    165.7419   1.1982361260e+02   2.3748402354e+01     2.209596     1.179278 -70.34  0.008340979    2.617    0.618
        24 -14.6534     72.8894    169.3875   1.3218318245e+02   3.1304907583e+01    0.6541291    0.3895795  80.05  0.003058864    2.062    0.515
        25 -13.3224     67.4897    200.9935   1.3745715843e+02   2.4973852220e+01    0.2093333    0.1822942  36.37 0.0009266066    1.490    0.329
        26 -14.8381     95.9518    161.3891   1.2546506014e+02   2.9600576047e+01    0.3788348    0.2609181  79.05  0.001823822    1.707    0.414
        27 -14.9039    102.6345    160.8118   1.2375870206e+02   2.8601273896e+01    0.3616454    0.2562139 -83.49  0.001499743    1.577    0.366
        28 -14.0051     89.8229    157.5694   1.2627160145e+02   3.1496867768e+01    0.3228307    0.2496583 -73.02  0.001740908    1.214    0.176
        29 -16.4807    182.5266    139.3215   1.0049528535e+02   1.6977958375e+01     0.992039    0.6664845 -78.21  0.003878949    2.399    0.583
        30 -16.1446    194.5996    149.1594   1.0024068911e+02   1.2280058477e+01    0.8889357    0.7100952 -73.53  0.004289783    1.550    0.355
        31 -15.7116    186.9667    148.8022   1.0175170664e+02   1.4034670630e+01    0.6063235     0.481706  75.03  0.002881949    1.527    0.345
        32 -13.3926     95.3265    150.5669   1.2364483493e+02   3.2243639599e+01    0.2697483     0.132964  45.08  0.001131267    2.085    0.520
        33 -15.8974      4.0133    129.8087   1.4322353441e+02   4.7627490988e+01    0.8199412    0.4254946 -83.78   0.00464341    1.724    0.420
        34 -14.8503     18.8916    124.6411   1.3885142232e+02   4.7696671117e+01    0.5658216    0.3187539  85.91  0.002992103    2.083    0.520
        35 -16.0772    142.3509    116.4812   1.0409087373e+02   3.0928361893e+01     1.157564    0.6205103  56.79  0.004403073    2.174    0.540
        36 -17.1337    109.0195    100.3048   1.0852493375e+02   4.1318244591e+01     2.628885      1.32595  51.64    0.0104085    2.319    0.569
        37 -15.0839    203.8861    248.1412   1.1727998744e+02  -6.6641468706e+00    0.3567877    0.2481095  -8.97   0.00209974    1.811    0.448
        38 -16.6902    168.5072     90.8539   9.1141694781e+01   3.0084052662e+01    0.9164395    0.7268335  71.29   0.00440082    1.371    0.270
        39 -16.3956     65.3235     77.3557   1.1523308796e+02   5.3237659526e+01    0.7241944    0.6665832  30.30  0.003301004    1.236    0.191
        40 -17.9015    136.3489     88.9052   9.8094337407e+01   3.7992989063e+01     1.733856     1.594443  23.76   0.00925506    1.136    0.120
        41 -18.0074     89.8690     69.6714   1.0519215758e+02   5.0954784832e+01     1.585619     1.122794  21.20  0.008225459    1.587    0.370
        42 -16.3756    185.5695    238.9999   1.1926604237e+02  -2.2265264994e+00     1.173719    0.8272217   2.48  0.005959697    1.976    0.494
        43 -15.8181    211.7783    239.2649   1.1441653585e+02  -6.7404016313e+00    0.5335342    0.4577318  71.60  0.003415904    1.679    0.404
        44 -14.7086    148.3286    239.6329   1.2643369944e+02   4.1981110849e+00    0.3825329    0.3250718 -73.82  0.002025584    1.362    0.266
