#   1 NUMBER                 Running object number                                     
#   2 MAG_AUTO               Kron-like elliptical aperture magnitude                    [mag]
#   3 X_IMAGE                Object position along x                                    [pixel]
#   4 Y_IMAGE                Object position along y                                    [pixel]
#   5 X_WORLD                Barycenter position along world x axis                     [deg]
#   6 Y_WORLD                Barycenter position along world y axis                     [deg]
#   7 A_WORLD                Profile RMS along major axis (world units)                 [deg]
#   8 B_WORLD                Profile RMS along minor axis (world units)                 [deg]
#   9 THETA_WORLD            Position angle (CCW/world-x)                               [deg]
#  10 FWHM_WORLD             FWHM assuming a gaussian core                              [deg]
#  11 ELONGATION             A_IMAGE/B_IMAGE                                           
#  12 ELLIPTICITY            1 - B_IMAGE/A_IMAGE                                       
         1 -12.5599     47.3321     31.5076   4.2282113182e+01   6.7997431899e+01     1.765328     1.608674 -84.25   0.01008935    1.393    0.282
         2 -14.1042     10.7832     69.1140   7.6767998463e+01   6.3419513229e+01     1.560277     1.386142   9.07  0.009349823    1.243    0.195
         3 -12.7937     11.7309     24.4477   6.3057661876e+01   7.4384118481e+01    0.4274699    0.3683909 -70.04 0.0005120745    1.322    0.243
         4 -14.1770     56.8529     67.6434   5.2868304349e+01   5.8523666718e+01     2.970991    0.8149726 -51.66  0.008994228    3.397    0.706
         5 -12.9183     53.5211     20.9092   3.3099103651e+01   6.8605529265e+01     1.255193    0.9815154  59.36  0.004594126    1.437    0.304
         6 -11.8880     41.8522     20.7828   3.9258169885e+01   7.0918718180e+01    0.7453907    0.4214385  36.21  0.002195218    1.759    0.432
         7 -12.2807     25.9155     40.2693   5.9495199352e+01   6.9368046468e+01     1.361981    0.7727328 -54.58   0.00574822    1.645    0.392
         8 -13.0117      3.9798     33.2659   7.2760690912e+01   7.2891443743e+01     1.185264    0.7236825 -71.64   0.00620733    1.600    0.375
         9 -12.8382     78.3414      8.4475   1.6464898607e+01   6.4400300911e+01     1.007504    0.6502172 -86.40  0.004010726    2.040    0.510
        10 -13.3439     13.3026     45.3584   6.9717394514e+01   6.9350370451e+01     1.679548    0.8278547 -67.26  0.007579474    1.917    0.478
        11 -13.7445     34.4282     56.9847   6.0538348135e+01   6.4378339665e+01     2.088241     1.231722  19.28  0.009483628    1.891    0.471
        12 -13.4370     63.6204     34.7326   3.5969210792e+01   6.4195665511e+01     3.828336    0.8783799 -38.15   0.01065898    4.567    0.781
        13 -13.7520    181.9212     73.6529   1.9979279605e+01   2.9486596374e+01     1.969766     1.201017  83.59  0.008601774    2.420    0.587
        14 -12.6344    178.4023     40.2526   1.1050028060e+01   3.5043751448e+01     2.860677     1.226788  42.14   0.01026284    3.656    0.726
        15 -11.9854    190.6747     24.9949   5.4490260139e+00   3.4004223404e+01     1.255947    0.6649007 -18.10   0.00584099    2.199    0.545
        16 -13.0688    197.5675     46.6523   1.0639538201e+01   2.9852564258e+01     1.001907    0.6994923 -49.06  0.004782837    1.267    0.211
        17 -13.1836    208.6161     45.8695   9.2976677232e+00   2.7578473163e+01     2.599593    0.8618998 -57.82  0.007606862    5.611    0.822
        18 -13.3462    215.6692     58.3578   1.1702568479e+01   2.4534343701e+01     1.143545    0.6826894 -11.90  0.001683878    2.242    0.554
        19 -12.9224    220.7414     38.5997   6.4063288015e+00   2.5963404095e+01    0.8169045    0.4660336 -60.67 0.0003018349    1.754    0.430
        20 -12.2465    229.9968     48.2526   7.9323393633e+00   2.3001473580e+01     1.010451    0.1985192 -30.94  0.003477274    3.805    0.737
        21 -13.2749     76.8720     23.2476   2.4880908901e+01   6.2995310111e+01     1.835127     1.331427  77.20  0.008757616    1.655    0.396
        22 -10.3618    163.4315     30.5832   9.9636919707e+00   3.9877323159e+01    0.4157367    0.1465696 -52.01  0.001409796    3.265    0.694
        23 -12.5189    226.0694     22.7364   2.2241902289e+00   2.6667254863e+01    0.4043128    0.3319115  81.72   0.00163518    1.366    0.268
        24 -12.1846    217.4202     28.5738   4.2195813515e+00   2.7783985697e+01     0.523474    0.3834056 -76.18  0.000909536    1.366    0.268
        25 -12.1067    210.9669     21.2621   2.8677341372e+00   2.9928668531e+01    0.4463817    0.3921533  36.98  0.002516509    1.487    0.327
        26 -11.8690    203.4825     16.9194   2.2812514962e+00   3.1998291601e+01    0.5088462    0.2362905 -76.79  0.001675403    2.478    0.596
        27 -10.7811    147.8589     24.8456   1.0112263969e+01   4.4495255211e+01    0.3888336    0.2499629  31.98  0.001780092    2.089    0.521
        28 -10.7245     21.2871     25.2894   5.5835805649e+01   7.3209614724e+01    0.4413248    0.2699972  33.60  0.002261588    1.710    0.415
        29 -10.4800    115.7469     18.7262   1.2901367096e+01   5.3602901266e+01    0.5371483    0.2169395 -34.54  0.002098911    2.378    0.580
        30 -10.4298    108.4795      8.9330   1.0020797049e+01   5.6525749812e+01    0.3256246    0.2015629 -44.65 0.0003986186    1.680    0.405
        31 -10.9782    111.6598      4.8273   7.7013036607e+00   5.6048220482e+01    0.6402153    0.2547967  80.49  0.002360306    2.709    0.631
        32 -11.3985    114.5707     12.7053   1.0591457363e+01   5.4547079433e+01    0.4139774    0.2509339  84.08  0.000817881    1.719    0.418
        33 -11.0115    116.2974      9.6838   9.0372663566e+00   5.4381373056e+01    0.3632424    0.2187965 -31.80  0.001170012    1.690    0.408
        34 -11.3193    141.0669     14.2243   7.2912760104e+00   4.7403568133e+01    0.3866012    0.2385989  10.35  0.001559015    2.404    0.584
        35 -11.0917     94.1264     15.9352   1.6222978419e+01   5.9578577447e+01    0.3507095    0.1989639  51.26  0.001158179    1.647    0.393
        36 -11.2131    232.7394      4.0017   3.5754529272e+02   2.7225946551e+01    0.7486125    0.1625969 -36.72  0.003280232    2.680    0.627
        37 -12.7301    221.5599      8.4413   3.5909484803e+02   2.9025258589e+01    0.7075919    0.1757944 -47.46  0.001149153    2.863    0.651
        38 -11.6497    228.2140     10.0228   3.5913032732e+02   2.7536507039e+01    0.5753484    0.1732173 -42.23  0.002251959    2.263    0.558
        39 -14.0049    244.5441      8.0686   3.5794372152e+02   2.4610047482e+01    0.9138344    0.3577794 -67.67  0.002973496    2.667    0.625
        40 -10.8048    233.7605     11.3887   3.5916928630e+02   2.6319165512e+01    0.2607223    0.1343797  65.92 0.0006914377    2.257    0.557
        41 -10.9680    160.1412     14.5136   5.2319385367e+00   4.2481798407e+01    0.2676728    0.1801507 -34.28 0.0005319314    1.424    0.298
        42  -9.7930    187.1809     14.4408   2.8097840582e+00   3.5933415653e+01    0.2506571   0.09808812 -21.86  0.001018159    2.738    0.635
        43 -10.7005    125.0194     10.5658   8.0752486144e+00   5.1984198052e+01    0.5207502    0.3048152 -12.12  0.002138031    2.053    0.513
        44 -10.6947    149.9271     12.9663   5.8070554499e+00   4.5234432683e+01    0.3325748    0.2305324 -82.16  0.001729421    1.413    0.292
        45 -10.3624    133.9333     12.8738   7.7233592473e+00   4.9406818751e+01    0.3116273    0.1962627 -46.89  0.001523209    1.560    0.359
        46  -9.6932    131.0713      8.1914   6.3356521498e+00   5.0605335217e+01    0.2430643    0.1873121 -76.94 0.0007928114    1.255    0.203
        47  99.0000     30.6109     20.7083   4.6401911834e+01   7.2839206886e+01     1.074116    0.4847297 -45.68  0.004669734    2.201    0.546
        48 -10.4831     88.5644     11.6707   1.5479231615e+01   6.1471089987e+01     0.258436    0.2342665 -12.34  0.001490275    1.187    0.157
        49 -13.0824    173.3758      5.3147   1.2310043674e+00   4.0093457608e+01    0.5841922     0.293278 -13.60  0.002641584    2.458    0.593
        50 -10.4513    100.7706      6.9414   1.0521617781e+01   5.8746321490e+01    0.4586904    0.2717234 -23.12  0.001421905    1.806    0.446
        51 -10.4483    104.6502      6.0822   9.4167809702e+00   5.7798256149e+01    0.2413441    0.2017437 -66.80 0.0004116603    1.232    0.188
        52 -10.3158     26.6450      9.5145   4.1728240115e+01   7.5422962575e+01    0.2937456    0.1964457  15.75  0.001134658    1.636    0.389
        53 -11.6188    193.7271      7.8238   5.3257220157e-01   3.5079505753e+01    0.2812262    0.2417314  56.20  0.001169278    1.398    0.285
        54 -10.8192     47.3040      1.6368   2.3252202562e+01   7.2467121795e+01    0.3867729    0.1454545  50.02  0.001592745    2.294    0.564
        55 -10.1880     47.7855      8.4443   2.7904174765e+01   7.1569526269e+01    0.2466033    0.1926557  18.57 0.0007417129    1.285    0.222
        56  -9.4097     47.4380      5.5086   2.6005324269e+01   7.2003391532e+01    0.2312945    0.1919536 -32.09 0.0007571827    1.304    0.233
        57 -11.1744      2.7789      5.8713   6.1419941364e+01   7.9061242979e+01    0.2637497    0.2285381  -1.68  0.001003684    1.134    0.118
        58 -10.2602     92.6929      4.5784   1.0977177825e+01   6.1075830461e+01    0.3959348    0.2067059  25.89  0.001196891    2.590    0.614
        59 -11.8817     57.3369      4.0350   2.0690898343e+01   6.9943205058e+01    0.5178178    0.3579022  66.09  0.001746609    1.503    0.335
        60  -9.5294    146.0168      5.5223   3.6701247222e+00   4.6939283379e+01    0.1977533   0.08762793  51.68 0.0008073205    2.426    0.588
        61  -9.6835    184.4155      3.1717   3.5985133023e+02   3.7658105421e+01    0.3783859    0.2143362  51.45  0.001918731    2.140    0.533
        62 -11.9542     85.3980      1.4721   1.0928725060e+01   6.3233201636e+01    0.3967907    0.1491704  63.76  0.001067819    2.246    0.555
        63  -9.8283    217.6525      1.6220   3.5765592482e+02   3.0468886428e+01    0.2453063    0.1583773  74.29  0.001510467    1.685    0.406
        64  -9.2373    213.1394      2.1575   3.5799668196e+02   3.1361240506e+01    0.2111667    0.1539317  65.56  0.000665444    1.599    0.375
        65  -8.8387    250.4699      1.4902   3.5631363550e+02   2.4152917318e+01    0.1141415   0.08093181 -48.65 8.452223e-05    1.027    0.027
        66 -11.2315     36.7785    248.5439   8.3777870278e+01   1.8453843913e+01    0.1866253    0.1489692  80.32   0.00142128    1.387    0.279
        67 -11.3206    113.7178    246.1111   6.7532271812e+01   1.0428278577e+01    0.2239042    0.1881237 -14.37  0.001113466    1.371    0.271
        68 -13.0906     87.4671     63.1290   3.8840444507e+01   5.3561549505e+01     1.126512    0.9574798 -22.06  0.002748747    1.285    0.222
        69  -9.7249    218.5969    239.7531   4.7147206560e+01  -7.3554895114e-01    0.1251955   0.08826008 -28.08 0.0007072053    1.594    0.373
        70 -14.0126     66.0758     83.0531   5.3783475933e+01   5.3206866869e+01     1.496135     1.142172 -35.37  0.005656024    1.406    0.289
        71 -10.6425    180.7672    243.8579   5.4214173801e+01   2.8783383287e+00    0.1672035    0.1584134 -15.12  0.001354511    1.619    0.382
        72 -13.0166     38.0360     81.6906   6.5711448472e+01   5.7636749664e+01    0.9399446    0.5345053 -51.98  0.002035498    1.640    0.390
        73 -10.3854     88.2730    238.9904   7.2220864878e+01   1.4558060089e+01    0.1231162    0.1059488 -71.38  0.000425866    1.478    0.323
        74  -9.9656     15.9849    238.4986   8.7717624527e+01   2.2142739925e+01     0.132211   0.08914298  -5.83 0.0004044706    2.292    0.564
        75 -14.2255     36.8413     69.2891   6.3053160045e+01   6.1002248628e+01     2.244301    0.9650758  41.27  0.007619035    2.516    0.603
        76 -12.5480     63.8632     47.2031   4.1723187417e+01   6.1781951205e+01     1.247731    0.8237944 -88.76  0.004238402    3.403    0.706
        77  -9.9744    157.5530    222.5201   5.5767198751e+01   8.5495477962e+00    0.1199742   0.09609286  15.58 0.0001037844    1.035    0.034
        78  -9.9218    236.7043    145.9923   2.8473457105e+01   8.7764824598e+00    0.1690969    0.1232238 -22.13 0.0003643459    1.087    0.080
        79  -9.4038    229.1861    138.3819   2.8035436747e+01   1.0911874909e+01    0.1382524    0.1187468  50.43   0.00027725    1.580    0.367
        80 -13.0557      3.7029     54.3770   7.8119850156e+01   6.7643117071e+01     1.148965    0.6440331 -74.28  0.005644359    1.621    0.383
        81  -9.8308    184.7051    134.9787   3.4648569422e+01   1.8726095765e+01    0.1958763    0.1608373 -26.88 0.0004087441    1.105    0.095
        82  -9.1637    202.6914    131.7151   3.0755780925e+01   1.6130371410e+01    0.1310956   0.09407609  -0.05 0.0003049542    1.569    0.363
        83 -13.2083     49.2764     54.2582   5.1637332339e+01   6.2899148358e+01     1.061254    0.8924723  16.95  0.005664022    1.246    0.197
        84  -9.1567    152.7147    124.2823   3.8748505655e+01   2.6704417864e+01    0.1373118     0.117458 -83.17 0.0001741036    1.521    0.342
        85 -13.1811     78.9731     49.8944   3.6684108720e+01   5.8077544915e+01     1.020698    0.6407936  35.55  0.001446499    1.736    0.424
        86 -13.0413     78.7808     41.3300   3.3005281915e+01   5.9700074891e+01     1.181854    0.3994355  43.61  0.003818524    3.106    0.678
        87 -13.2913     79.7279     59.8298   4.0414276007e+01   5.5920454649e+01    0.5231665     0.422915  -8.22  0.001694391    1.502    0.334
        88 -12.5383     75.1317     58.6270   4.1727481152e+01   5.7136587065e+01    0.3144143    0.2840494 -43.50 0.0003758381    1.105    0.095
        89 -11.6304     49.6093     95.0564   6.3741370005e+01   5.2638759201e+01    0.2971098    0.2281563  30.71 0.0005305139    1.351    0.260
        90  -9.7783    250.1507     93.8648   1.6137157902e+01   1.3724981609e+01    0.1614698    0.1243828 -12.05  0.001075243    1.319    0.242
        91 -13.0653    175.9398     86.6935   2.4476679000e+01   2.8702363988e+01     1.370183    0.6903014  35.16  0.005235116    2.912    0.657
        92 -11.9172    167.3855     64.8470   1.9815911104e+01   3.4160999325e+01      1.14077    0.5834808 -55.98  0.004496967    2.397    0.583
        93 -13.7802    194.8908     86.2133   2.1301744278e+01   2.4785633196e+01     1.184464    0.8941408  30.18  0.006438544    1.608    0.378
        94 -10.5927    115.7105    121.0415   4.7267341982e+01   3.4731864899e+01    0.2148993    0.2002018 -37.58 0.0004510567    1.079    0.073
        95 -13.1114    186.2764     58.0623   1.5087714876e+01   3.0824403769e+01     1.363972    0.8472367  61.89  0.002779945    1.736    0.424
        96 -11.8108     72.9071    118.9974   6.0181100861e+01   4.2929020845e+01    0.2704194     0.250632  67.51  0.001442665    1.078    0.072
        97 -11.0032    181.0514    118.9963   3.1686775635e+01   2.2143125719e+01    0.4945687    0.2984746  25.14  0.001765079    2.203    0.546
        98 -13.4269    204.3952     77.4847   1.7773492225e+01   2.4163936843e+01    0.8931197    0.5318544  80.11  0.004179297    2.492    0.599
        99 -12.5018    202.4664     34.0457   6.8263462140e+00   3.0329648516e+01    0.5879993    0.3522405  50.16 0.0004104601    2.046    0.511
       100 -12.6382    159.9995     38.6258   1.2958150743e+01   3.9720720653e+01    0.8678705    0.6308394  48.80  0.002713559    1.521    0.343
       101 -11.4649    133.5599     41.1205   1.8165935671e+01   4.6093071975e+01    0.7773618    0.4870998  84.18  0.003374807    1.916    0.478
       102 -13.2697    202.7364     68.6287   1.5755969138e+01   2.5773622930e+01     0.943993    0.5618156 -62.34  0.004516821    2.057    0.514
       103 -11.5116    187.9080     43.5944   1.0883889225e+01   3.2407443247e+01    0.5291991    0.3388002 -16.69  0.002614135    1.828    0.453
       104 -10.4130    181.5202    115.4935   3.0768452048e+01   2.2656829880e+01    0.2784913    0.2142362  54.31  0.001271908    1.499    0.333
       105 -10.4229    203.4024    115.9207   2.7124768691e+01   1.8494160918e+01    0.3725079    0.2274915  70.49  0.001651654    3.002    0.667
       106 -12.5772    204.4723     61.6245   1.3759986751e+01   2.6386605821e+01    0.7811816    0.4103828  82.43  0.002125014    2.807    0.644
       107 -11.2460    163.0000    114.7965   3.4218731379e+01   2.6454906189e+01    0.2712561     0.206001 -35.63  0.001051655    1.248    0.199
       108 -12.0951    208.9317     58.2751   1.2404119925e+01   2.5913389772e+01    0.4228134    0.2925339 -64.39  0.001203501    1.545    0.353
       109 -12.2331    143.7306     45.3120   1.7742025400e+01   4.2893343264e+01    0.5612004    0.3368476  29.84  0.001253758    2.505    0.601
       110 -12.1516    148.7051     41.0885   1.5475033203e+01   4.2227168505e+01     0.714779    0.3955295 -56.25     0.002353    2.015    0.504
       111  -9.4653     89.4878     93.4824   4.8115402775e+01   4.6337339881e+01    0.1551743    0.1524256 -24.41 0.0008099626    1.041    0.039
       112 -11.8954     45.2097     91.5097   6.4794602766e+01   5.4156385961e+01     0.389394    0.2667713 -64.02  0.001844504    1.391    0.281
       113 -12.6110    223.2686     87.7586   1.7841163887e+01   1.9084436802e+01     0.527217    0.3497221  46.80  0.003026838    1.797    0.443
       114 -12.3975    220.5329     69.8081   1.3949220702e+01   2.2062803608e+01    0.3990688     0.326234 -47.50  0.001449702    1.105    0.095
       115 -11.7872    220.8054     79.5679   1.6229811155e+01   2.0678720104e+01    0.2869109     0.237904 -27.11 0.0004384442    1.104    0.094
       116 -13.5071    217.6440     75.9794   1.5752388039e+01   2.1773755149e+01     1.078224     0.508533 -19.46  0.004439853    2.791    0.642
       117 -11.7525    216.0195     91.3630   1.9597036778e+01   1.9899179366e+01    0.3065466    0.1660504 -33.61 0.0007432758    1.551    0.355
       118 -11.2990     51.6937     86.9975   6.0905884618e+01   5.4464930029e+01    0.3582699    0.1849183 -48.99 0.0007900397    1.881    0.468
       119 -12.0954     48.2364     85.4653   6.2018887314e+01   5.5346829249e+01    0.4673824    0.3561064  81.33  0.001754008    1.557    0.358
       120 -11.8097      2.0160     88.0213   8.3695101186e+01   5.8812888967e+01    0.6090412    0.2160122  31.81  0.002434054    2.807    0.644
       121 -12.5720    114.3588     81.1940   3.6578670462e+01   4.3758061970e+01    0.7400272    0.5560699 -31.50  0.003090002    1.422    0.297
       122 -10.8867    248.7682     55.5373   8.0369989553e+00   1.8724683799e+01    0.3269745    0.2869924   7.94  0.001413743    1.457    0.314
       123 -12.3242    235.1386     85.4339   1.5933311198e+01   1.7303231198e+01    0.6769198    0.3924666  84.63  0.003249384    3.220    0.689
       124 -12.8655    232.4526     73.0445   1.3428588205e+01   1.9418275218e+01     1.906734    0.5060819 -30.96   0.00712658    3.154    0.683
       125 -11.9027    249.5324     72.0750   1.1553901545e+01   1.6586079736e+01    0.7895792    0.3038402 -30.09  0.003523591    2.099    0.524
       126 -12.0386    241.0558     68.7188   1.1604827953e+01   1.8449138380e+01    0.7726356    0.3268188 -31.88  0.003653676    1.872    0.466
       127 -13.2698    242.4422     60.4449   9.6409873888e+00   1.9234864310e+01    0.6997818    0.4551274 -81.68  0.001826709    2.013    0.503
       128 -11.5219    137.5227    112.4201   3.9377923761e+01   3.2175738445e+01    0.5051163    0.2609803  40.15   0.00201526    2.021    0.505
       129 -10.9679    215.4994     41.8975   7.6600409082e+00   2.6636395379e+01    0.3381386    0.2630789  89.96  0.001318734    1.395    0.283
       130 -11.8101    238.3252     51.4634   7.9757946228e+00   2.1062132499e+01    0.4895754    0.3468025 -27.98  0.002732098    1.267    0.211
       131 -11.5071    225.8101     49.9600   8.6973735660e+00   2.3598622586e+01    0.4435781    0.2160735 -27.35 0.0009241147    1.869    0.465
       132 -10.7612    211.6631    112.0265   2.4969783701e+01   1.7621678993e+01    0.2071959    0.1881822  35.94  0.000163575    1.265    0.209
       133 -11.9727    234.3733     46.1434   7.0837623789e+00   2.2426481604e+01    0.3170664    0.2137557 -78.50  0.001001738    1.698    0.411
       134 -10.2135    138.6470     61.0971   2.4010086471e+01   4.1706685439e+01     1.090535    0.6771222  43.37  0.004772737    1.781    0.439
       135 -11.5696    137.2838     72.1675   2.7883559883e+01   4.0114662503e+01     1.206113    0.5901399  66.75  0.004230856    2.817    0.645
       136 -11.3447    124.8480     69.8878   3.0100161121e+01   4.3522183225e+01    0.5485953      0.34874 -80.58  0.001503007    2.763    0.638
       137 -12.1424    145.6341     66.6536   2.4352810809e+01   3.9063613829e+01     0.866745    0.6801899  17.85  0.003212388    1.640    0.390
       138 -13.6811    115.9940     62.4932   2.9851786683e+01   4.7031478807e+01     1.102482     0.835821  42.58  0.002162002    1.374    0.272
       139 -11.5790     97.2359     69.0619   3.7697300912e+01   5.0158939470e+01    0.4849414    0.3455541 -67.32  0.001678497    1.783    0.439
       140 -10.8181    155.0799     64.4630   2.1844869463e+01   3.7144707376e+01     1.065847    0.2684968 -36.36  0.003216361    3.505    0.715
       141 -10.7909    151.9523     58.9766   2.0714221960e+01   3.8778155453e+01    0.3423186    0.2555763 -11.24  0.001222697    1.652    0.395
       142 -10.8203    207.9433     86.3346   1.9475644190e+01   2.2165705381e+01    0.1786244    0.1651583 -40.25  0.000491076    1.085    0.078
       143 -12.5489    193.5796     67.6242   1.6686134701e+01   2.7849635115e+01    0.6396848    0.5126938 -78.85  0.001273998    1.401    0.286
       144 -11.6675    161.9074     83.7571   2.6227821045e+01   3.2308345331e+01    0.7783321    0.4166263  48.60  0.003320972    1.975    0.494
       145 -12.2863    169.0284     79.5337   2.3731947471e+01   3.1419228624e+01    0.5766773     0.462212 -40.81  0.001546874    1.157    0.136
       146 -10.3474     30.9864     85.4053   6.9828544028e+01   5.7422074185e+01    0.3522849     0.200254 -66.59  0.001205425    1.626    0.385
       147 -11.0663    247.7598     84.2180   1.4334271615e+01   1.5346365280e+01    0.4625237    0.2706281 -46.00  0.002721505    1.544    0.352
       148 -10.9097    250.6741     81.3212   1.3427392306e+01   1.5241696214e+01    0.3993759    0.2256234  84.64  0.002030777    3.276    0.695
       149 -11.1370    238.2204     80.9031   1.4593352598e+01   1.7372468820e+01    0.2042302    0.1836206   5.60  0.001426489    1.302    0.232
       150 -11.4831    110.4759     87.0070   3.9512422441e+01   4.3402833270e+01    0.3626364    0.2634962 -42.85  0.001661408    1.369    0.269
       151 -10.1739    156.1119     76.9336   2.5388552381e+01   3.4817292752e+01    0.3205535    0.2117684  69.48  0.001316255    1.793    0.442
       152 -11.3030    225.9974     74.6449   1.4486108370e+01   2.0384051465e+01    0.2756274    0.1649127 -17.82  0.000942595    1.868    0.465
       153 -10.1990    103.9836     75.6612   3.7835355927e+01   4.7263623665e+01    0.2194645    0.2024549  50.29 0.0005052713    1.089    0.081
       154  -9.9105    173.7341    112.2685   3.1450271347e+01   2.4752671011e+01    0.2891938     0.162363  27.00  0.001157996    2.587    0.613
       155 -11.6380    103.6192     66.6243   3.4833587670e+01   4.9190599761e+01     0.527941    0.3459372 -11.69  0.001180455    2.487    0.598
       156  -9.8671    161.4677     67.0194   2.1465574361e+01   3.5210430183e+01    0.2229585    0.1378735 -34.64 0.0004033417    1.537    0.349
       157 -11.1065    127.8293     58.5692   2.5543608862e+01   4.4813370417e+01    0.5549125    0.2788067  43.56  0.001843959    2.236    0.553
       158 -12.8760     98.0229     77.5055   4.0326894657e+01   4.8196654095e+01     1.418517    0.8291939 -75.01  0.003841926    3.969    0.748
       159 -11.5064     98.4780     55.0705   3.2116555020e+01   5.2618591904e+01    0.7553629    0.4000909 -52.44  0.002346718    2.240    0.553
       160 -10.7793    102.2484     53.4435   3.0345976849e+01   5.2011624589e+01    0.4022178    0.3926911  -7.55  0.001229756    1.063    0.059
       161 -11.7837    173.6296     56.4233   1.6388718954e+01   3.3961972067e+01    0.4013323    0.2893278  68.16 0.0009748302    1.474    0.321
       162  -9.9094    142.7940     54.7212   2.1065295026e+01   4.1710296546e+01    0.3310459     0.166179 -37.40 0.0008174753    1.895    0.472
       163 -11.1533    146.0764     52.1521   1.9596801913e+01   4.1287954160e+01    0.2961971    0.2398601  40.48 0.0003618412    1.379    0.275
       164 -10.9643    136.0555     52.9484   2.1813723257e+01   4.3677956318e+01    0.5605413    0.2222827  61.25  0.001984481    2.596    0.615
       165 -10.4422    245.1900     50.4349   7.1992986612e+00   1.9951597676e+01    0.2328598    0.1244236 -30.38 0.0004661659    1.529    0.346
       166 -10.7414     90.3771     51.1457   3.3155710525e+01   5.5252426341e+01    0.2305701    0.1978473  38.39 0.0003676354    1.179    0.152
       167  -9.9990    161.4479     48.3126   1.5782038766e+01   3.8044381099e+01    0.4216293    0.2961648 -21.59  0.002073956    1.560    0.359
       168 -10.0102    250.4052     48.7643   6.4424242021e+00   1.9235052060e+01    0.2111478    0.1559185 -22.68   0.00114698    1.335    0.251
       169 -11.2996    248.9518     43.4852   5.4006412929e+00   2.0092321229e+01     0.527404    0.2194912 -50.32  0.002211507    2.108    0.526
       170 -10.5163     99.1346     47.2418   2.8804426514e+01   5.3856799056e+01    0.3014832    0.2534628 -26.42  0.001105345    1.255    0.203
       171 -10.2330    122.1184     44.0426   2.1609704881e+01   4.8600987106e+01    0.3754123     0.245581  -7.50  0.001570128    2.183    0.542
       172  -9.6857    104.9733     43.4344   2.5597928227e+01   5.3045179306e+01    0.2324204    0.1441826  56.64  0.001016518    1.570    0.363
       173  -9.9732    100.1401     41.4557   2.6124578139e+01   5.4568358548e+01    0.3195688    0.2772008  -2.74  0.001657413    1.306    0.234
       174  -9.8992     93.8332     41.8673   2.8163119424e+01   5.6053768581e+01    0.2314761    0.2046412  19.78 0.0007543358    1.230    0.187
       175 -10.5512    241.0160     39.7249   5.1277875611e+00   2.1940501359e+01    0.2082634    0.1392099 -32.15 0.0004846549    1.252    0.201
       176 -11.4658    234.2931     36.6489   4.9088606950e+00   2.3541316800e+01    0.4428296    0.2523986 -68.95  0.002477559    1.922    0.480
       177 -11.3569     91.8744     34.2109   2.5390654568e+01   5.7747128434e+01    0.5683638    0.4131134  32.79  0.002531104    1.528    0.346
       178 -11.0057    122.6326     33.0959   1.7328434251e+01   5.0034536312e+01    0.6275052    0.2971937 -29.80  0.001124462    2.152    0.535
       179  -9.5343    248.9879     35.0111   3.5568022173e+00   2.1031451280e+01    0.1438777   0.09573644 -36.98 0.0003744131    1.162    0.139
       180  -9.4698    106.4489     35.2536   2.1841487799e+01   5.3921572373e+01    0.1614351    0.1038174  35.70 0.0006884443    1.825    0.452
       181 -10.6085    131.8586     33.6554   1.5773128871e+01   4.7557353402e+01     0.291406    0.2006827 -52.71 0.0004346992    1.486    0.327
       182 -10.7741    112.4400     32.8533   1.9416213650e+01   5.2717609256e+01    0.3075758    0.2305972  48.42  0.000590487    1.337    0.252
       183 -10.7266     74.5937     33.6088   3.0933968870e+01   6.1968265567e+01    0.4112564    0.2486009  47.99  0.001408741    1.593    0.372
       184 -10.2237    169.8182     32.6172   9.8125957718e+00   3.8058980304e+01    0.3158155    0.1339131  74.49   0.00125101    2.559    0.609
       185 -10.3206     95.5685    112.5066   5.1180425686e+01   4.0604095831e+01    0.1537666    0.1496693  86.94 0.0001296432    1.038    0.037
       186 -10.4057    226.9780     30.6870   4.0401850689e+00   2.5624113103e+01    0.4244866    0.2164127  52.56  0.002199077    2.531    0.605
       187 -10.6507    165.1862    110.8491   3.2786863942e+01   2.6738914817e+01    0.2002455    0.1673991  -3.33 0.0004182641    1.312    0.238
       188 -10.1625     38.3359    111.3074   7.1459364516e+01   4.9649556634e+01     0.152503    0.1058981 -35.05 0.0003624093    1.674    0.403
       189 -10.2729    233.6024    108.9433   2.1271776248e+01   1.4349899531e+01    0.1822245    0.1563928   9.90 0.0005796903    1.284    0.221
       190 -11.3502    202.2733     20.8341   3.3869427780e+00   3.1852561646e+01    0.3171569    0.2232851 -49.56    0.0011179    1.189    0.159
       191 -11.5429    196.4443    108.1308   2.6431844854e+01   2.1017209440e+01    0.4944159    0.3241856 -68.26  0.002239079    2.554    0.608
       192 -10.3439    152.3400     29.6428   1.1114341645e+01   4.2781001591e+01    0.2307836    0.1937228 -88.29 0.0002484871    1.153    0.133
       193  -9.8241    104.7575     27.8601   1.9108481442e+01   5.5378447465e+01    0.2248303    0.1949452  25.50  0.001198007    1.267    0.211
       194  -9.6531    168.8558     26.7957   8.1478460386e+00   3.8984185421e+01    0.1950595    0.1384679 -54.83 0.0004660111    1.307    0.235
       195  -9.6997    242.0083     29.9707   2.8849719961e+00   2.2840209533e+01    0.2596518    0.1423985 -53.06  0.001057527    1.546    0.353
       196 -10.7641    134.7634     25.6559   1.2334903923e+01   4.7800487973e+01    0.3689144    0.2838445 -43.50  0.001474852    1.276    0.216
       197 -10.2769    234.0061     24.4388   2.1283257843e+00   2.4936695519e+01    0.3096381    0.1835219 -19.32  0.001753759    1.828    0.453
       198 -11.5772    161.8130    106.7455   3.2435973892e+01   2.8192929705e+01    0.3478275    0.1914843 -39.66  0.001503643    1.716    0.417
       199 -10.0445    209.8098    105.5031   2.3752619497e+01   1.8942755625e+01    0.2266023    0.1609978 -46.42  0.001265483    1.395    0.283
       200  -9.6844    107.1291     31.3839   2.0047988214e+01   5.4292526591e+01    0.2140147    0.1381358  78.28 0.0008319977    1.766    0.434
       201 -12.3356    176.2644     23.4667   6.3642188017e+00   3.7560075210e+01    0.2957603    0.2446226 -25.35 0.0002697596    1.277    0.217
       202  -9.3665    153.4908     25.4630   9.5724801450e+00   4.2982378809e+01     0.143844    0.1255205 -67.20 4.771538e-05    1.061    0.057
       203 -10.8841    126.1828     24.7023   1.3413603752e+01   5.0164734401e+01    0.4175429    0.2165743  76.34  0.001179871    2.050    0.512
       204  -9.1082     98.0237     21.8383   1.8051521532e+01   5.7882626189e+01    0.3352025    0.2777605 -15.06  0.001790485    1.322    0.244
       205  -9.5776    102.7559     23.0922   1.7486324936e+01   5.6503561485e+01    0.2200196    0.1907048 -83.42 0.0005460723    1.203    0.169
       206 -10.4626    243.9173     18.3501   2.1161256404e-01   2.3709235711e+01    0.3140276    0.1442222 -54.50  0.001741998    1.834    0.455
       207 -10.8125    247.1375     22.8327   1.0203744706e+00   2.2662192775e+01    0.2172024    0.1845081 -52.99 0.0007917213    1.137    0.121
       208 -11.7948    242.3282     22.7710   1.2694429825e+00   2.3546542078e+01    0.3263829    0.2010117  83.97  0.001116445    1.837    0.456
       209  -8.4142    237.4362     30.6954   3.3369743201e+00   2.3611043452e+01    0.2909697    0.1799324  84.52  0.001580796    1.853    0.460
       210  -9.7356    119.4928     22.0073   1.3552464663e+01   5.2242913648e+01    0.2327738     0.166717 -50.95  0.000520816    1.435    0.303
       211 -11.6353    155.9975    105.0163   3.3209524103e+01   2.9741870157e+01    0.3144529    0.2050997 -38.86  0.001456454    1.463    0.317
       212 -10.3128     15.4847    106.1360   7.9857777533e+01   5.3126179126e+01    0.2162188    0.1266045 -76.59  0.001017337    1.545    0.353
       213 -12.3564    145.9260    102.9811   3.4901556619e+01   3.2291511281e+01    0.6162092    0.4892691  66.09   0.00254404    1.470    0.320
       214 -10.9275    109.4334    104.3297   4.4811234275e+01   3.9784453203e+01    0.2873994     0.149106 -43.40 0.0008355643    1.952    0.488
       215 -11.2797    141.0081     96.1315   3.4166368759e+01   3.4713954665e+01    0.4136756    0.3454792 -81.74 0.0008761891    1.450    0.310
       216 -10.7221    112.8170     23.8080   1.5591835437e+01   5.3787377373e+01    0.3801123    0.3180696  36.51  0.001722903    1.288    0.224
       217 -11.0040    130.4252     19.2564   1.0629727833e+01   4.9667953821e+01    0.2965732    0.2032637  83.08  0.001048677    1.452    0.311
       218 -10.1407    122.4546     18.8068   1.1745715542e+01   5.1820857986e+01    0.4861132    0.1679311 -52.80  0.001449525    4.213    0.763
       219  -9.2930    136.3998     19.4594   9.8136122306e+00   4.8076162567e+01    0.1406309    0.1292927 -73.63 9.823537e-05    1.023    0.023
       220  -9.9292     19.9948     20.1659   5.4019126006e+01   7.4419554226e+01    0.3672306    0.1878773 -55.88 0.0009652309    2.115    0.527
       221  -9.3844    143.7162     18.2052   8.3626630189e+00   4.6302322226e+01    0.1342598   0.09533983 -71.89 0.0002070833    1.419    0.295
       222  -9.9163    143.0043     79.6315   2.8912427548e+01   3.7400615711e+01    0.2243872    0.2001764   6.42  0.001162044    1.276    0.217
       223 -13.6971    131.5163     95.1301   3.6191921852e+01   3.7022825142e+01     1.118726    0.7689141  51.52  0.005100196    1.506    0.336
       224 -13.1078    122.3022     99.4962   3.9835066751e+01   3.8131891033e+01    0.7391609    0.5150133 -20.67   0.00316582    1.871    0.465
       225 -11.6323    135.8380     87.1027   3.2795596883e+01   3.7648168514e+01    0.7571433      0.32852  47.32  0.002327324    2.357    0.576
       226 -11.9540    127.0319     89.6118   3.5732312829e+01   3.9151746525e+01    0.5943668    0.2873376  46.36  0.001407941    2.104    0.525
       227 -12.4515    121.3685     86.9258   3.6421817920e+01   4.0982434022e+01    0.5187719    0.4296038 -57.61  0.001285751    1.259    0.206
       228 -12.8917    125.4608     83.6858   3.4351066212e+01   4.0706622289e+01    0.8232346     0.584822 -19.25  0.002480627    1.786    0.440
       229 -12.0745    148.0411     84.7743   2.9336885116e+01   3.5287901323e+01    0.6007639    0.4390399  70.15 0.0006915048    1.618    0.382
       230 -11.0482    147.1988     79.3118   2.7907873089e+01   3.6477511562e+01    0.2958728    0.2767755 -27.53 0.0007788585    1.080    0.074
       231 -10.6046    132.3928     82.8320   3.2346911737e+01   3.9272508859e+01    0.2804815    0.2672765 -36.47 0.0003645816    1.041    0.040
       232  -9.9425    167.6847     14.0925   4.3642899089e+00   4.0644495617e+01    0.2451388    0.1727624 -83.26  0.001328259    1.366    0.268
       233 -12.0454    136.2834     80.8995   3.0826858364e+01   3.8736931354e+01    0.6722408    0.4717504  88.46  0.001788872    2.080    0.519
       234 -11.8223     69.2649    103.0620   5.7894699195e+01   4.7611526054e+01    0.3956506    0.2053136 -55.13  0.001575022    1.862    0.463
       235 -11.5516    223.0041    100.2494   2.0723295946e+01   1.7361742055e+01    0.2612428    0.2010886  66.39   0.00104911    1.698    0.411
       236 -11.8874    226.0000     99.0217   2.0060374319e+01   1.7014850806e+01    0.6347795    0.2290316 -39.33  0.002748422    2.285    0.562
       237 -10.3054    214.1870    102.9731   2.2540597359e+01   1.8530053890e+01    0.2243382    0.1435822  -6.05  0.001095986    2.093    0.522
       238 -10.3786    182.6729    102.2386   2.7320751164e+01   2.4686424199e+01    0.2570252    0.1760438 -25.85 0.0007306284    1.449    0.310
       239 -10.4002    165.8113    101.8355   3.0359299953e+01   2.8248670413e+01    0.2215261     0.197866  -2.44 0.0008402794    1.185    0.156
       240 -10.9075     96.0519    101.4557   4.8164499605e+01   4.3152058949e+01    0.3113569    0.2200506 -34.56  0.001043278    1.579    0.367
       241 -10.9086    159.4940     99.0410   3.0897849497e+01   3.0106869647e+01    0.3322719    0.2330959 -61.02 0.0006087083    1.739    0.425
       242 -11.5430    152.6831     96.9657   3.1771467910e+01   3.1975383121e+01    0.6220206    0.4942731 -64.93  0.003095113    1.460    0.315
       243 -10.0011    157.5081     95.5800   3.0375985015e+01   3.1174680081e+01    0.2647634    0.1866636  52.08 0.0005486376    1.501    0.334
       244 -12.4982     88.0128     98.0270   4.9894979322e+01   4.5535596901e+01    0.6470732    0.4532008  18.80  0.002777196    1.814    0.449
       245 -12.2989     73.2170     96.5714   5.4782680617e+01   4.8597629516e+01    0.4608932    0.3675291  45.29   0.00225205    1.273    0.215
       246 -12.1291     95.8309     90.4016   4.5092729267e+01   4.5779472452e+01    0.6484696    0.4973338  56.66  0.001778877    1.402    0.287
       247 -12.1337    102.4087     96.4246   4.4746846592e+01   4.3037671118e+01    0.5391912    0.4070657 -51.17 0.0005367912    1.326    0.246
       248 -12.5605    106.9213     95.9550   4.3228599397e+01   4.2200768357e+01    0.6666582    0.3545879 -36.03 0.0004120207    2.172    0.540
       249  -9.7493    244.4680     98.2483   1.7682680809e+01   1.4051007388e+01     0.243829    0.1002569 -27.65  0.001135539    2.156    0.536
       250 -10.8734    199.5366     96.6675   2.3192567023e+01   2.2235995031e+01    0.3912615    0.2623886 -31.23  0.001661967    1.329    0.247
       251 -10.6410    170.4081     97.9913   2.8467978986e+01   2.7958824740e+01    0.3743058    0.2457159 -47.86  0.001583706    1.526    0.345
       252 -11.8477     11.8899     97.3550   8.0339803274e+01   5.5753172300e+01    0.3482372    0.3180783  64.27  0.001417936    1.112    0.101
       253 -13.0892     72.5553     73.9460   4.8304655717e+01   5.4233266032e+01     1.952565     0.857814  44.67  0.007095995    2.353    0.575
