#   1 NUMBER                 Running object number                                     
#   2 MAG_AUTO               Kron-like elliptical aperture magnitude                    [mag]
#   3 X_IMAGE                Object position along x                                    [pixel]
#   4 Y_IMAGE                Object position along y                                    [pixel]
#   5 X_WORLD                Barycenter position along world x axis                     [deg]
#   6 Y_WORLD                Barycenter position along world y axis                     [deg]
#   7 A_WORLD                Profile RMS along major axis (world units)                 [deg]
#   8 B_WORLD                Profile RMS along minor axis (world units)                 [deg]
#   9 THETA_WORLD            Position angle (CCW/world-x)                               [deg]
#  10 FWHM_WORLD             FWHM assuming a gaussian core                              [deg]
#  11 ELONGATION             A_IMAGE/B_IMAGE                                           
#  12 ELLIPTICITY            1 - B_IMAGE/A_IMAGE                                       
         1 -13.8373    202.4344     43.5290   3.8668598357e+01   2.9991982443e+01    0.9478141     0.838119 -55.07  0.003046143    1.143    0.125
         2 -14.2165    213.5142     33.4657   3.5179099766e+01   2.8890372098e+01    0.8305817     0.736487  35.06  0.002180022    1.580    0.367
         3 -13.7853    239.6033      7.7601   2.7827138348e+01   2.6559124956e+01    0.7974571    0.5948086 -69.59  0.004499475    1.010    0.010
         4 -12.4649     56.3690      5.9469   5.6615103552e+01   6.6652579557e+01    0.4173745     0.238409  55.20  0.001873088    1.920    0.479
         5 -10.2764      2.0000      2.9539   8.2588846040e+01   7.4458079315e+01    0.1706307   0.05284862 -42.49 0.0008100991    2.996    0.666
         6 -12.2146    193.5165    195.9974   7.4663532871e+01   4.0571099459e+00     0.653143     0.370416 -63.56  0.002369453    3.849    0.740
         7 -12.5394    139.9413    248.6695   9.4907320665e+01   2.5997508744e+00    0.4433309    0.3765812 -44.59   0.00283746    1.355    0.262
         8 -13.6104    123.4888    247.0432   9.8227741852e+01   5.2995237472e+00     1.888722    0.4073512  41.10  0.006151407    3.933    0.746
         9 -12.1385    106.6973    249.9265   1.0219089736e+02   7.1805910846e+00    0.3760678    0.3411054 -35.16  0.001775168    1.307    0.235
        10 -12.8774    101.9641    243.5091   1.0247013898e+02   9.0901281554e+00    0.9507731    0.5091386 -55.50  0.004149302    2.087    0.521
        11 -16.0375     70.9561    150.0753   9.6819746545e+01   3.5633719087e+01     7.791469     4.187963  66.48   0.01026627    3.221    0.690
        12 -10.6528    145.6785    184.1217   8.3093565766e+01   1.4721436932e+01    0.2334255    0.1948841 -75.94  0.001173428    1.482    0.325
        13 -10.8697     80.9934    182.2055   9.9345916232e+01   2.5955092206e+01    0.3920205     0.306696 -75.97   0.00176978    1.294    0.227
        14 -10.9900     99.4227    180.8819   9.4248818052e+01   2.3441797570e+01    0.2797009    0.2684394 -38.57 0.0006745614    1.090    0.082
        15 -11.3482     86.5873    176.2255   9.6899699030e+01   2.6615192622e+01    0.2810473    0.2531682 -84.83  0.000399448    1.104    0.094
        16 -16.3095     35.6004    190.4843   1.1209608034e+02   2.9640691457e+01     5.320045     2.478039  69.58   0.01513602    2.739    0.635
        17 -15.7649      4.4737    167.0503   1.1775456357e+02   3.8229300585e+01     6.875923    0.3145418 -71.20   0.01102875    6.328    0.842
        18 -12.3750    240.9885    173.7746   6.1397804369e+01   6.9702474123e-01    0.4465218    0.1849061  39.64  0.001995867    2.792    0.642
        19 -10.2358    185.8288    172.8176   7.1655121778e+01   9.9123834642e+00    0.2678862    0.2435784 -18.40  0.001504872    1.006    0.006
        20 -14.7113     15.7969    216.2517   1.1874357175e+02   2.5581615834e+01    0.9951628    0.5714073  28.19  0.005622138    1.934    0.483
        21 -11.7175    230.9887    168.9071   6.2135752434e+01   3.0579494368e+00    0.4359771    0.1935538 -52.20  0.001673367    3.083    0.676
        22 -11.4227    240.1401    169.1555   6.0630416569e+01   1.6162395432e+00    0.2052852    0.1567893 -17.38 0.0004100244    1.220    0.181
        23  -9.9544    110.8187    167.5261   8.8782464412e+01   2.4823568534e+01    0.2970354    0.2048035 -76.56 0.0008024937    1.843    0.457
        24 -17.9185     13.9112    240.7881   1.2059384592e+02   2.0491098759e+01     6.961106     2.784054  22.47   0.02634805    3.589    0.721
        25 -12.5150     87.2108    151.5750   9.2301466457e+01   3.2797819163e+01    0.6879185    0.4603706 -27.55   0.00259022    1.933    0.483
        26 -11.5039    133.7154    144.9655   7.7874871333e+01   2.6046700478e+01     1.309854    0.3316453 -54.46  0.002895815    6.003    0.833
        27 -15.7593      9.7751    207.0293   1.1943352045e+02   2.8230010868e+01     1.348722     1.073769 -30.37   0.00572054    1.808    0.447
        28 -10.1861     66.9016    196.6559   1.0499243211e+02   2.4367596739e+01    0.2014656     0.162251  50.55  0.001119445    1.185    0.156
        29 -10.2444    174.8782    149.1517   6.8905889520e+01   1.6908855113e+01    0.2294626    0.2104762 -76.71 0.0007082873    1.263    0.208
        30 -10.0875     82.3101    195.0716   1.0089171120e+02   2.2602276065e+01    0.2468051    0.2022154  18.56  0.001322649    1.385    0.278
        31 -11.0071     29.7645    144.0486   1.0825521346e+02   4.2023384723e+01    0.3482977    0.3128891   1.69  0.002109377    1.321    0.243
        32 -11.2493    101.5018    138.0956   8.5267238100e+01   3.3808769835e+01    0.6127492    0.3821796 -19.42   0.00226225    2.586    0.613
        33 -11.1195    105.9867    130.8939   8.2282668121e+01   3.4778005373e+01    0.4242153    0.3475288 -55.33  0.001446984    1.210    0.174
        34 -10.4685    110.9675    129.0233   8.0380677700e+01   3.4298748929e+01     0.349205    0.2346509  24.73 0.0008658593    1.734    0.423
        35 -12.4554     88.7636    137.3062   8.8897451821e+01   3.6193797423e+01    0.3169205    0.2697949 -42.58 0.0004026933    1.150    0.131
        36 -11.2400     24.7100    137.1228   1.0883777447e+02   4.4257531871e+01     0.327163    0.1868588  33.00  0.001618524    1.924    0.480
        37 -11.4887    134.9861    128.4429   7.3600573654e+01   2.9653399498e+01    0.4222094    0.3551261 -85.23  0.002012879    1.454    0.312
        38 -10.4542    131.4305    191.2443   8.7894451499e+01   1.5616394322e+01    0.2048203    0.1454918 -66.29 0.0009509657    1.670    0.401
        39  -9.5271    160.9986    127.5083   6.6951890369e+01   2.4404062073e+01    0.2160038    0.1383736  70.71 0.0008099813    2.500    0.600
        40 -11.1303     98.1702    124.7243   8.3138895427e+01   3.7717559573e+01    0.3196099    0.2595274   2.92 0.0007174468    1.450    0.310
        41  -9.8253    108.3055    191.3039   9.3694776240e+01   1.9487014059e+01    0.1465016    0.1146232 -17.39 0.0003635978    1.600    0.375
        42 -10.2067    117.4101    123.5043   7.7168198030e+01   3.4367059949e+01    0.2867379    0.1537015  27.77    0.0010282    2.396    0.583
        43 -10.1057    135.0000    120.0024   7.1468826818e+01   3.1573217665e+01    0.2638444   0.08850466 -45.86 0.0005688721    2.913    0.657
        44  -9.8808    107.4785    118.0861   7.8677232118e+01   3.7587218205e+01    0.2187172    0.2065049  23.75 0.0003431902    1.082    0.076
        45  -9.6805     82.6942    116.9787   8.6116124322e+01   4.2283654801e+01     0.212365    0.1868058 -49.06 0.0003340518    1.084    0.078
        46 -10.5282    231.3531    113.7948   5.0561470208e+01   1.2864601399e+01    0.2422324    0.2195585 -46.44  0.000743954    1.065    0.061
        47 -10.8583     39.9971    113.4658   9.9846173996e+01   4.8889433239e+01    0.2599986    0.1908601 -81.62 0.0006496575    1.519    0.342
        48  -9.9381    205.5439    110.2097   5.3861983011e+01   1.8519041607e+01    0.2360619     0.203984  58.80  0.000604272    1.276    0.216
        49 -11.2298     33.0004    108.9677   1.0143091214e+02   5.0701296156e+01    0.3632665    0.2259289  65.94  0.001639451    2.361    0.577
        50 -10.5075    115.2667    108.7394   7.3927296090e+01   3.8209875783e+01    0.3363194     0.186485 -27.51  0.001188493    2.577    0.612
        51 -10.9345     41.8435    103.5053   9.7093580374e+01   5.1171248443e+01    0.3336453    0.2212445  47.97  0.001144117    1.856    0.461
        52 -11.1190    119.0423    103.3444   7.1369599216e+01   3.8630455095e+01    0.2208971    0.2082573  37.83 0.0006094059    1.075    0.069
        53 -11.1604     36.4176    101.2964   9.8606794182e+01   5.2268127450e+01    0.2499665    0.2305399 -72.09 0.0008368098    1.167    0.143
        54 -10.8362    120.8238     98.0847   6.9394317780e+01   3.9388437757e+01    0.2412495    0.2166495 -81.06 0.0009571626    1.282    0.220
        55  -9.6993    152.0567     84.0484   5.7601223007e+01   3.5194558819e+01    0.2366925    0.1787904 -77.06 0.0005829824    1.668    0.401
        56 -10.4029     73.4400     83.9594   8.0309864672e+01   5.1454286559e+01    0.2469906    0.2005896  50.98 0.0005887945    1.461    0.315
        57  -9.5670    159.5382     83.5170   5.5846549272e+01   3.3565563137e+01    0.1466655    0.1425389 -74.45 0.0001087226    1.006    0.006
        58  -9.2063    107.5240     77.5174   6.7094194825e+01   4.6360696751e+01    0.1457192    0.1443444  38.29 6.888475e-05    1.080    0.074
        59 -10.1652      5.3249     71.3130   1.0448142656e+02   6.1621244209e+01    0.1373324   0.07072995 -37.52 0.0003714949    1.662    0.398
        60  -9.0614     94.6529     68.2795   6.8072463799e+01   5.0725090064e+01    0.1399059    0.1172616  81.08 0.0004469091    1.638    0.390
        61  -9.3206    129.7052     64.9950   5.7201366383e+01   4.3703655660e+01    0.1922066    0.1845624 -33.68 0.0003220486    1.081    0.075
        62 -10.6251     13.4901     59.9439   9.8012619908e+01   6.3595034780e+01    0.2209483    0.1940216 -34.51  0.000454122    1.129    0.114
        63 -13.3353    192.4104     50.8798   4.1698715785e+01   3.1220489996e+01    0.7519202    0.5493871  35.37  0.001021942    1.877    0.467
        64 -11.2274    123.4019    200.8846   9.1524473542e+01   1.4796890804e+01    0.3116091    0.2373558  89.66 0.0009957852    1.743    0.426
        65 -10.0910     78.2608     57.1740   6.9755569092e+01   5.5839887129e+01    0.3057225    0.1756598  51.41  0.001369854    2.078    0.519
        66  -9.9582    168.7908    233.7769   8.6541351774e+01   9.6838367338e-01    0.1668588    0.1497378  43.60 0.0003715177    1.317    0.240
        67  -9.6467    198.2041     23.7601   3.4561391579e+01   3.3393547790e+01    0.1541685    0.1445555  49.26 0.0006574127    1.363    0.266
        68  -9.3119    189.5960     15.2019   3.3452981443e+01   3.6260642991e+01    0.1473731    0.1206681 -19.92 0.0006126157    1.587    0.370
        69 -11.4969    184.2278    212.1070   7.9594352519e+01   2.5255852841e+00    0.2399567    0.2007616 -59.87  0.001358782    1.588    0.370
        70 -11.7258    204.3032    199.8189   7.3201575172e+01   1.6499690278e+00    0.3030367    0.1789376  31.47  0.001510346    1.712    0.416
