#   1 NUMBER                 Running object number                                     
#   2 MAG_AUTO               Kron-like elliptical aperture magnitude                    [mag]
#   3 X_IMAGE                Object position along x                                    [pixel]
#   4 Y_IMAGE                Object position along y                                    [pixel]
#   5 X_WORLD                Barycenter position along world x axis                     [deg]
#   6 Y_WORLD                Barycenter position along world y axis                     [deg]
#   7 A_WORLD                Profile RMS along major axis (world units)                 [deg]
#   8 B_WORLD                Profile RMS along minor axis (world units)                 [deg]
#   9 THETA_WORLD            Position angle (CCW/world-x)                               [deg]
#  10 FWHM_WORLD             FWHM assuming a gaussian core                              [deg]
#  11 ELONGATION             A_IMAGE/B_IMAGE                                           
#  12 ELLIPTICITY            1 - B_IMAGE/A_IMAGE                                       
         1 -12.2203      2.8658     50.2433   8.1861393763e+01   6.6974483639e+01     1.154065    0.2988498 -59.06  0.004840771    2.506    0.601
         2 -12.1252     57.3259     34.8802   4.9648577976e+01   6.4511272482e+01    0.5287415    0.3972694 -14.18  0.002866769    1.442    0.306
         3 -11.0522      4.0652     18.2955   7.1615097790e+01   7.3962119825e+01    0.3027885    0.1856148 -44.23  0.001310564    1.284    0.221
         4 -12.0887      3.1286     13.3595   7.0124540251e+01   7.5014843433e+01    0.3384862    0.2051782 -31.85  0.000637192    1.461    0.316
         5 -10.3203    137.1123     14.9262   1.7714952764e+01   4.9246707697e+01    0.3971815    0.1836424 -36.21 0.0003449908    2.102    0.524
         6 -12.4267    132.9825     18.9383   1.9986343454e+01   4.9879999077e+01    0.3552033    0.2728099  52.89 0.0003897392    1.269    0.212
         7 -10.1568     32.2125     15.3802   5.2291811318e+01   7.1740481034e+01    0.3645765    0.3618343 -63.10  0.002552837    1.368    0.269
         8 -12.2598     28.5472     19.6409   5.6707704418e+01   7.1449729516e+01    0.2919909    0.2597059 -15.61 0.0001584046    1.096    0.088
         9 -10.9131     19.8932     16.7636   6.0465459557e+01   7.2948815708e+01    0.3706625     0.344314 -89.56  0.002559624    1.521    0.342
        10 -10.9392     11.3739     14.8179   6.5064091616e+01   7.4115647656e+01    0.4370137    0.1802895 -27.72   0.00182103    3.265    0.694
        11 -10.8015     15.1688     13.2265   6.1687733481e+01   7.4076485114e+01    0.1947468    0.1331779 -34.50 0.0004867015    1.211    0.174
        12 -12.5831    238.0097     17.7927   7.6254790448e+00   2.3776064060e+01    0.3397114     0.270647 -14.28 0.0004432052    1.457    0.314
        13 -11.5740    233.0216     15.9515   7.5257218039e+00   2.5079610695e+01    0.4077109    0.2163706 -35.87  0.002087992    1.574    0.365
        14  -9.7246     76.9480     15.4043   3.2304593153e+01   6.3833582597e+01    0.3525653    0.2089532  21.68 0.0008625899    2.159    0.537
        15 -11.0752     76.1555     10.2089   2.9822460564e+01   6.4641950824e+01    0.7474467    0.2894739  41.23  0.002913896    2.701    0.630
        16 -10.3881     60.1575     13.6828   3.7625740807e+01   6.7454647839e+01    0.3090905     0.163348 -41.65  0.001451758    2.040    0.510
        17  -9.9206    130.4782     13.5159   1.8295113447e+01   5.1127310211e+01    0.2775635    0.1411526 -22.97 0.0009041943    2.049    0.512
        18  -9.8089     99.2782     13.9944   2.5081114362e+01   5.8919614215e+01    0.3117633     0.150947 -21.22  0.001305434    2.192    0.544
        19 -11.0217    102.2657      9.5483   2.2275582423e+01   5.8678475935e+01    0.4372602    0.2259491 -19.30  0.001927459    2.052    0.513
        20 -10.4187     54.0903     14.1089   4.0462833987e+01   6.8512167028e+01     0.194512    0.1590493   5.33 0.0004919195    1.166    0.142
        21 -12.4990    119.5113     11.6973   1.9570840537e+01   5.4143934601e+01    0.3014607      0.26194   0.04 0.0001994559    1.224    0.183
        22 -10.3698    175.5999     11.4321   1.1311816780e+01   3.9516902859e+01    0.3485678    0.2153504  74.66  0.001692874    1.567    0.362
        23  -9.7673    145.0181     10.9993   1.5005910853e+01   4.7578335573e+01    0.1958871    0.1845174 -85.52 0.0004642596    1.020    0.020
        24 -10.7487    145.6742      6.8298   1.3376241238e+01   4.7811645440e+01    0.3868311    0.2578365 -30.85  0.001940957    1.515    0.340
        25  -9.8523    138.1319     10.6401   1.5907038848e+01   4.9423772759e+01       0.2824    0.1578338 -49.23  0.001242459    1.926    0.481
        26 -11.3751    234.5595      9.8705   5.9147581550e+00   2.5391317388e+01    0.2815374    0.1674605 -66.19  0.001515372    1.588    0.370
        27 -10.7760      9.3660      8.6393   6.3243114809e+01   7.5449975085e+01    0.3144291    0.2551855 -21.75  0.002207653    1.088    0.081
        28 -11.0954     11.5266      2.1198   5.7744956247e+01   7.6400252731e+01    0.2953869    0.1699892 -33.47  0.001307682    1.462    0.316
        29 -10.1389    160.0879      8.8846   1.2251133761e+01   4.3821584085e+01    0.2132596    0.1933732 -73.94 0.0003508789    1.042    0.040
        30 -10.7649    154.8835      8.1652   1.2646545083e+01   4.5259995336e+01    0.3928979    0.2270263  74.06  0.001237466    1.662    0.398
        31 -10.7077     35.9780      7.7151   4.5599776935e+01   7.2433198387e+01    0.3780982    0.2207526  38.79  0.002074388    1.811    0.448
        32 -10.4005    214.6406      7.3768   6.6495164921e+00   3.0214709137e+01    0.2371569    0.1654362  87.75  0.001324975    1.409    0.290
        33  -9.8565     43.0490      7.1221   4.1502311144e+01   7.1401350865e+01    0.1539793    0.1409216  39.72 0.0005323369    1.325    0.245
        34  -9.8015     34.2038      1.3610   4.2409570430e+01   7.3604638841e+01    0.4946882    0.1202632  47.51  0.001637933    5.302    0.811
        35 -10.3056     20.2505      5.8759   5.4001289975e+01   7.4829030278e+01    0.3901575    0.2012938 -38.48  0.002058697    1.662    0.398
        36 -10.6647     16.9709      2.5067   5.4061300541e+01   7.5755811291e+01      0.24541    0.1909524 -33.96  0.001024537    1.178    0.151
        37 -10.7814     26.7274      2.4600   4.7575617614e+01   7.4540402635e+01    0.2287386    0.1970559  10.15 0.0006501984    1.172    0.147
        38 -10.6710     22.6548      1.6730   4.9639013717e+01   7.5198496500e+01    0.2082681    0.1465436  11.30  0.001299571    1.435    0.303
        39 -10.7513    223.0324      5.4814   5.5705949214e+00   2.8448402616e+01     0.247275    0.1799854 -25.96  0.001435148    1.397    0.284
        40 -11.0939    164.7747      4.9915   1.0396989998e+01   4.2966359604e+01    0.2904468    0.2143914 -43.48 0.0004844113    1.315    0.240
        41 -11.8347    168.1213      1.9853   9.0534856882e+00   4.2369405885e+01    0.2522597    0.2071898  84.36 0.0002727197    1.141    0.123
        42 -11.1302     73.9355      2.6613   2.6383527447e+01   6.5944452377e+01    0.4044842    0.2855085 -34.64  0.001779021    1.507    0.336
        43 -11.0455    229.8190      2.7131   4.4434275207e+00   2.7182280473e+01    0.3817196    0.1953897 -17.46  0.001820789    2.272    0.560
        44 -10.7312    126.1478      3.0068   1.4775978555e+01   5.3264085177e+01    0.3883425    0.2383127   5.37  0.001696861    2.038    0.509
        45 -11.9409    242.9795      3.0497   3.7676567433e+00   2.4259322171e+01    0.3606164    0.2443081  76.64  0.001089403    1.574    0.365
        46 -10.5376    178.9953      3.8688   8.5937094842e+00   3.9385284987e+01    0.2127199    0.1854653 -42.53 0.0002517074    1.133    0.117
        47  -9.5061     64.9720      8.4978   3.2788001846e+01   6.7183020619e+01    0.1895448    0.1270183  52.40 0.0005698833    1.545    0.353
        48  -9.4732     98.0009      3.6742   2.0464240443e+01   6.0290119674e+01    0.1603714    0.1200961  60.57 0.0005337414    1.276    0.216
        49 -10.8744     90.9876      2.1355   2.1362320030e+01   6.2110783756e+01    0.2031213    0.1816813   0.97 0.0002752295    1.116    0.104
        50 -10.2902    244.7010    188.0473   4.5164252052e+01  -5.4004354846e-01    0.1653872    0.1282889  -6.18 0.0004737308    1.060    0.056
        51 -11.4121    247.5233    249.8180   5.4597657907e+01  -7.4841899629e+00    0.2402868    0.1546021  15.91  0.001167809    1.127    0.113
        52  -9.7464    155.6754    250.3006   6.9813196615e+01   4.2734984222e+00    0.1072824   0.07311279  53.47  0.000702831    1.634    0.388
        53  -9.9953    109.8801    250.1783   7.8022317702e+01   1.0539806755e+01    0.1738466    0.1168097  50.12 0.0006895944    1.210    0.174
        54 -10.8014     90.6275    249.3302   8.1444202340e+01   1.3200331560e+01     0.195666    0.1602095  44.85 0.0006800634    1.148    0.129
        55 -12.2899     21.5509    248.5400   9.3645111947e+01   2.1347574970e+01    0.5986621    0.1246959  43.77  0.003076927    2.598    0.615
        56 -11.4064     14.4840    245.0168   9.4727168644e+01   2.2638840393e+01    0.1930531     0.120815  60.39 0.0009736407    1.096    0.088
        57 -10.4838     12.7065    250.2725   9.5198078520e+01   2.1937427700e+01    0.1737528    0.1201623  35.09 0.0009708066    1.576    0.365
        58 -10.0329    184.4076    184.8372   5.5042915883e+01   9.3350530451e+00    0.2235315    0.1398188  33.78  0.001194478    1.473    0.321
        59 -10.0466     61.7888    184.5103   8.1567306705e+01   2.8943825672e+01     0.230172    0.1607919 -80.32  0.001365807    1.392    0.282
        60 -12.3967     16.8962    181.9996   9.1506082260e+01   3.4488943695e+01    0.4551097    0.2600032  47.58  0.002784933    1.489    0.328
        61 -10.5379      2.2308    180.2991   9.4626016957e+01   3.6145331310e+01    0.2639194    0.1291607  50.05  0.001194588    1.649    0.393
        62  -9.8240    226.4674    188.4817   4.8179518860e+01   2.0697966477e+00    0.1221426    0.0992471   4.15 6.699292e-05    1.006    0.006
        63 -11.1446     23.4066    180.5838   8.9972044880e+01   3.4168392121e+01    0.3980365    0.1578466  61.01  0.001607559    2.295    0.564
        64 -10.0512    172.4841    175.5058   5.5698052897e+01   1.2924766270e+01    0.1329946    0.1214728  22.03 -2.056661e-05    1.016    0.016
        65 -11.0764     17.8155    172.4192   9.0728345979e+01   3.6496585317e+01    0.3479942    0.1364893  49.14  0.001744043    2.108    0.526
        66 -11.4208      5.4230    168.6886   9.3371080129e+01   3.8407397823e+01    0.2778291     0.118969  89.76  0.001425796    1.992    0.498
        67 -11.6242     33.8460    166.1581   8.6466875742e+01   3.6316611755e+01    0.3708456    0.1993084  29.65 0.0002800351    2.047    0.511
        68 -10.4337     67.6518    165.5390   7.8070322958e+01   3.2365123094e+01    0.2219041    0.1175303 -69.64 0.0007478301    1.856    0.461
        69 -10.1779    186.7774    165.5861   5.0998701569e+01   1.2051385618e+01    0.1881769    0.1240918  49.92 0.0009532849    1.659    0.397
        70 -10.9384     51.3051    161.8868   8.1732100130e+01   3.5315922473e+01     0.400618    0.2173091 -71.04  0.001315676    1.724    0.420
        71 -10.6615      8.4734    163.3482   9.2371078335e+01   3.9349592594e+01    0.2642465    0.1747752 -18.71  0.001464281    2.780    0.640
        72  -9.5792    132.5614    161.2733   6.1678318159e+01   2.2813045944e+01    0.1907496    0.1334359 -39.31 0.0009464676    1.607    0.378
        73  -9.0707     55.2945    159.3430   8.0437018320e+01   3.5414377681e+01     0.126222   0.09775345 -43.45 0.0004404137    1.662    0.398
        74 -10.4609     67.0482    157.7839   7.7238702599e+01   3.4235304439e+01    0.2099799    0.1723018 -87.48 0.0002885679    1.119    0.106
        75 -10.9746     20.0205    157.0269   8.9145385218e+01   3.9787905172e+01    0.3685796    0.2310505  89.73  0.001483809    1.341    0.254
        76 -10.4566    247.3764    157.2139   3.8901149107e+01   3.0118136565e+00    0.1789255   0.09983131 -37.10 0.0009576954    1.733    0.423
        77  -8.9353      7.6550    157.3221   9.2217131131e+01   4.0786179405e+01     0.133344   0.06647979  62.68   0.00063422    1.733    0.423
        78 -10.0226      1.7741    157.4384   9.3648351307e+01   4.1219876097e+01    0.1341453    0.1166216   6.89 0.0009461291    1.645    0.392
        79 -10.1678    216.2526    154.4069   4.3344928017e+01   8.5772010234e+00    0.1685063    0.1255929  50.30 0.0003942035    1.581    0.367
        80 -10.3090    158.6895    153.9340   5.4414239744e+01   1.9381028599e+01    0.3205623    0.1919135  33.45  0.001459347    1.759    0.431
        81  -9.7254     40.8735    152.9545   8.3451139190e+01   3.8629608071e+01    0.1886388    0.1510517 -73.10 0.0007095383    1.214    0.177
        82 -10.4119     10.7359    153.0172   9.1186202671e+01   4.1527341200e+01     0.280134    0.1572021  38.22 0.0008882889    1.760    0.432
        83  -9.4780    222.5338    151.5226   4.1681710200e+01   7.9153847021e+00    0.1303185    0.1154387 -11.26  0.000166332    1.060    0.057
        84  -9.3584    176.6696    150.2886   4.9891940797e+01   1.6598156204e+01    0.1351791     0.113522  85.25 0.0004115409    1.621    0.383
        85  -9.5374    143.8416    148.1774   5.6543489536e+01   2.3382192601e+01    0.1963829    0.1714539  -8.59 0.0007998585    1.316    0.240
        86 -11.0013     13.8782    147.9142   9.0030900978e+01   4.2459915002e+01    0.2035078    0.1574325  71.22 0.0002726089    1.092    0.085
        87 -10.8513      7.5545    145.5053   9.1499839799e+01   4.3536752294e+01    0.2910285    0.1719846  36.19   0.00171296    1.751    0.429
        88 -10.3672    216.8134    145.2410   4.1321628616e+01   9.8890459883e+00    0.1894979    0.1454899   2.02 0.0006853911    1.346    0.257
        89 -10.1489    187.6538    144.1570   4.6396716293e+01   1.5560827031e+01    0.2221081    0.1902063  49.66 0.0004716504    1.264    0.209
        90  -9.0880     39.2984    141.2987   8.2595188152e+01   4.1605804886e+01    0.1247324   0.09492327 -47.09  0.000477524    1.576    0.365
        91  -9.7321     33.3482    141.7023   8.4278201615e+01   4.2136888931e+01    0.1403359   0.08137092  64.55 0.0007035208    1.681    0.405
        92 -10.1312     13.8556    140.1546   8.9444583645e+01   4.4305607701e+01    0.1605977    0.1314374 -66.72 0.0003193345    1.293    0.227
        93 -10.7995     24.9681    142.9387   8.6683703830e+01   4.2660725857e+01    0.1919325    0.1547365  84.29 0.0003632974    1.006    0.006
        94 -10.3511     65.4056    138.9461   7.5008493545e+01   3.8956871563e+01    0.2197687    0.2014805  43.64 0.0004702068    1.211    0.174
        95  -9.9648    236.4450    138.0137   3.6590005170e+01   7.4908100472e+00    0.1920054    0.1647202  23.44 0.0007756911    1.212    0.175
        96  -9.6999    144.1911    136.8666   5.4056415841e+01   2.5647123902e+01    0.2013917    0.1747239  -7.18 0.0004415879    1.338    0.253
        97 -10.9091      2.8568    135.4534   9.2074415693e+01   4.6261370737e+01     0.352466    0.1298492 -76.55  0.001641445    2.162    0.538
        98  -9.6910     44.2680    136.6453   8.0639821171e+01   4.2189669774e+01    0.1415859    0.0884871  73.57 0.0006991623    1.632    0.387
        99  -9.1785      9.5025    136.4836   9.0340682987e+01   4.5530076713e+01    0.1256183   0.09933982  86.37 -9.774289e-05    1.014    0.014
       100  -9.9595     20.8282    134.7990   8.7060314903e+01   4.5008035267e+01    0.1865629    0.1231209  75.10 0.0007885644    1.355    0.262
       101 -10.6279    241.3222    134.1078   3.5012478987e+01   7.2111756059e+00    0.1884312    0.1476377 -26.17  0.001139876    1.111    0.100
       102 -11.1089     53.5331    131.7721   7.7308171375e+01   4.2283823471e+01    0.4414726    0.2598416  59.69  0.001671154    1.798    0.444
       103 -10.5242     59.0024    131.4934   7.5677561639e+01   4.1650433490e+01    0.2397517    0.2073813 -48.81 0.0005562453    1.308    0.235
       104 -12.0002     37.6061    129.7304   8.1679985131e+01   4.4631846667e+01    0.4553827     0.262232 -59.01            0    1.643    0.391
       105 -10.8208     73.5341    128.9843   7.1041287160e+01   4.0227129734e+01    0.2868511    0.2567245  84.87 0.0006605955    1.031    0.030
       106 -11.1688     56.4592    126.7943   7.5682303549e+01   4.3147866938e+01    0.3187129     0.262948 -36.60 0.0005914003    1.490    0.329
       107 -10.9832     55.7103    121.9893   7.5123011379e+01   4.4443441233e+01    0.4129904    0.2248538 -42.35  0.001788804    2.313    0.568
       108  -9.5800      4.3267    126.2969   9.1013100222e+01   4.8358979521e+01    0.1203628   0.08105089 -53.09 0.0003446485    1.630    0.387
       109 -10.1359    229.6305    125.2272   3.4829375594e+01   1.0615548807e+01    0.2001193    0.1150991 -24.05 0.0009554035    1.693    0.409
       110 -11.2452     15.6888    125.1866   8.7619373288e+01   4.7791412662e+01    0.3054251    0.2052834  34.42  0.001800008    1.642    0.391
       111 -12.1233     10.1081    120.7159   8.8855504611e+01   4.9314406346e+01    0.5162391    0.2917882  80.34   0.00276386    1.611    0.379
       112 -10.9196      4.4000    130.2244   9.1284860098e+01   4.7406107128e+01    0.1943429    0.1663876  42.76 0.0007646814    1.344    0.256
       113 -10.1772     30.0897    124.5265   8.3263937174e+01   4.6686666312e+01    0.1761285    0.1282461  34.22 0.0005704273    1.531    0.347
       114  -9.8639    243.5347    122.4723   3.2146649709e+01   8.4988023274e+00    0.1324804    0.1109621 -18.04 0.0001637322    1.025    0.025
       115 -10.5415     19.9952    121.6794   8.5978406908e+01   4.8304496926e+01    0.2512237    0.1562584 -71.24 0.0009568736    1.358    0.264
       116  -9.7761     71.4905    120.9663   7.0159774830e+01   4.2508981780e+01     0.214329    0.1326266 -62.85 0.0004342932    1.504    0.335
       117 -10.8216     24.5839    118.8090   8.4251081985e+01   4.8621905642e+01    0.3360999    0.1772211 -75.81  0.001676345    1.608    0.378
       118 -11.1336      1.4727    118.5702   9.1251821328e+01   5.0419714523e+01    0.2226437    0.1171767 -80.07 0.0002674368    1.510    0.338
       119  -9.6126     85.9861    115.9881   6.4802594643e+01   4.1433775503e+01    0.1809483    0.1590694 -68.28 -0.007547014    1.070    0.065
       120  -9.8150     52.7883    116.1597   7.5038072354e+01   4.6276255385e+01    0.1835162     0.151256 -49.49 0.0002511804    1.294    0.227
       121 -12.0819      9.9268    111.2077   8.7996275524e+01   5.1671893563e+01    0.9763604    0.3520338 -43.77  0.003741462    3.840    0.740
       122 -11.3819     24.9608    106.8208   8.2589332066e+01   5.1592419445e+01    0.4419214    0.2765329 -27.48  0.002212869    2.287    0.563
       123 -11.7387     16.0549    115.1629   8.6483964089e+01   5.0240259824e+01    0.3667084    0.3239354  40.49 0.0004819318    1.320    0.243
       124 -11.6031     16.7424    111.2393   8.5828230148e+01   5.1163314967e+01    0.5462878     0.282852 -31.48  0.002443937    3.026    0.670
       125 -11.4502    182.2044    114.6551   4.0572977285e+01   2.1996048995e+01    0.4521397    0.2739611  42.37  0.000747246    1.739    0.425
       126 -10.1951    105.7702    114.5819   5.8757634478e+01   3.8213924848e+01    0.2954032    0.2075225 -53.13 0.0009625679    1.382    0.276
       127  -9.8067     71.8238    115.3540   6.8955179332e+01   4.3849877515e+01    0.1930771    0.1404645  23.14 0.0006840262    1.701    0.412
       128 -10.5688    249.6811    111.9048   2.8943415766e+01   8.9167122405e+00    0.1929805     0.142169 -30.54  0.000887494    1.140    0.123
       129 -10.5429     92.9182    111.4384   6.1717269222e+01   4.1332393471e+01    0.3964841    0.2497054  58.15 0.0009542084    1.834    0.455
       130  -9.4943     51.6824    112.3448   7.4720627260e+01   4.7373774266e+01    0.1487955   0.09805594  73.51  0.000704882    1.721    0.419
       131 -12.2281     37.2393    109.6341   7.8953674025e+01   4.9707150664e+01    0.5878693    0.4093989  34.86  0.002308608    1.588    0.370
       132 -10.7776     55.1193    109.6834   7.3123495022e+01   4.7608131023e+01     0.268029    0.2062557 -70.25  0.000649117    1.164    0.141
       133 -10.0369    111.4588    105.9600   5.5018843371e+01   3.9098461535e+01    0.2990075    0.1825074  44.08  0.001284372    1.685    0.406
       134 -10.7550     53.0753    105.0498   7.2904772457e+01   4.9035086023e+01    0.3224725    0.1615347  55.96  0.001313027    2.503    0.600
       135 -11.4747     35.7440    100.5124   7.7955584972e+01   5.2163032237e+01     0.371919    0.2331845  67.87  0.001261443    1.828    0.453
       136 -10.1977     32.4148     96.4828   7.8424663101e+01   5.3509538615e+01     0.239889    0.1841402 -86.12 4.419634e-05    1.208    0.172
       137 -10.3388    119.3172    101.8823   5.1774291164e+01   3.8404518127e+01    0.3869445    0.2605941  -7.46  0.001433887    2.819    0.645
       138 -11.5336     62.2340     98.3650   6.8419300281e+01   4.9477955500e+01     0.491963    0.3052028 -45.82  0.001732485    1.641    0.390
       139  -9.8564      2.5076    104.9776   8.9768654972e+01   5.3684895255e+01    0.1972655    0.1004563 -79.14  0.001023966    1.563    0.360
       140 -11.9223     21.3951     98.0075   8.2552699759e+01   5.4107126929e+01    0.6505834    0.3469751 -86.60  0.002832975    1.840    0.456
       141 -10.2620     15.8532     96.7027   8.4311549509e+01   5.4862372138e+01    0.2419391    0.1666341 -21.23  0.001276454    1.956    0.489
       142 -11.0101     21.5942     86.7493   8.0709381262e+01   5.6909895925e+01    0.4239204    0.2076382 -87.35  0.001483995    2.296    0.565
       143 -11.1178     21.6718     83.3323   8.0086702808e+01   5.7754834620e+01    0.4135681    0.2405203 -45.13  0.001613459    1.728    0.421
       144 -10.3537     75.5790     99.2480   6.4190155180e+01   4.7239021868e+01    0.4303212    0.2244498 -38.30    0.0016642    2.453    0.592
       145  -9.2546    144.5367     99.5088   4.4704901280e+01   3.3377685329e+01    0.1553256    0.1491413 -62.64 9.147944e-05    1.031    0.030
       146  -9.8002      9.8080     99.1091   8.6713008570e+01   5.4683061660e+01    0.1845146    0.1396023  83.73 0.0003221671    1.188    0.158
       147  -9.8705     57.1808     96.1531   6.9652210593e+01   5.0726691168e+01     0.207702    0.1749305 -50.61 0.0003046708    1.167    0.143
       148 -10.5538      1.7163     93.4025   8.8877551739e+01   5.6580926922e+01    0.2241845    0.1374937 -77.86 0.0005586982    1.291    0.225
       149  -9.9864     66.9546     97.7681   6.6689875130e+01   4.8939640662e+01    0.2120152    0.1888249 -35.72 0.0002879913    1.236    0.191
       150 -11.5885    158.7614     90.3935   3.8909835061e+01   3.1892002292e+01    0.4773907    0.3848651  55.34  0.001326894    1.288    0.224
       151 -10.2880     56.3138     90.9896   6.8774287462e+01   5.2125604171e+01    0.3037335    0.1585621 -50.91  0.001025626    1.759    0.431
       152  -9.6184    231.5354     91.4732   2.6624331336e+01   1.5362736763e+01    0.1392488    0.1198147 -35.76 0.0001690323    1.037    0.036
       153 -10.7541     10.5910     90.7293   8.5387212755e+01   5.6715550898e+01     0.212698    0.1857517 -58.77 0.0004579667    1.180    0.152
       154  -9.7862      9.7550     86.1787   8.5074940447e+01   5.7898382247e+01    0.2669535    0.1137032  67.02  0.001040589    3.334    0.700
       155 -10.7706      7.1074     81.8719   8.5476865909e+01   5.9123437083e+01    0.3508758    0.1949103 -56.80  0.001902811    1.532    0.347
       156  -9.9543     94.4368     88.5057   5.5284625344e+01   4.6468586748e+01    0.2233572     0.151467  43.85  4.34318e-05    1.548    0.354
       157 -10.1503     84.1529     88.7877   5.8656761630e+01   4.8303340298e+01    0.3609953    0.2059596  35.36  0.001402011    1.959    0.490
       158 -12.0204    107.3869     84.7544   5.0242872528e+01   4.4714542670e+01     0.375577    0.2969345  76.40  0.000319601    1.532    0.347
       159 -10.4491     65.3906     86.4351   6.4416997704e+01   5.1949410459e+01    0.2754296    0.1786421 -56.52  0.001317661    1.399    0.285
       160  -8.7978    184.6765     85.2942   3.2357104401e+01   2.6693234517e+01     0.153475    0.1145659 -68.47 0.0002750666    1.618    0.382
       161 -10.4711    156.7140     84.2683   3.7573803096e+01   3.3543755804e+01    0.3580132    0.3311888 -83.92  0.001872097    1.137    0.121
       162  -9.7277     34.4605     84.9798   7.5497282668e+01   5.6190148735e+01    0.2080599    0.1180787 -67.79 0.0008893596    1.534    0.348
       163 -11.2493     30.5641     81.5418   7.6290959796e+01   5.7424048831e+01    0.4292349    0.2368615 -55.23   0.00161157    1.548    0.354
       164 -10.2564    167.4008     83.0663   3.5000980591e+01   3.1200456364e+01     0.385877    0.2570916  76.36  0.001626645    1.984    0.496
       165  -9.7457    116.9942     83.7380   4.7185198146e+01   4.2873455126e+01    0.2132973     0.206334  60.46 0.0005222209    1.065    0.061
       166 -10.8029     76.4406     82.3609   5.9424728585e+01   5.1155944202e+01    0.3218713    0.2441922  63.49 0.0007444698    1.557    0.358
       167 -10.4283     42.6414     81.1472   7.1516887969e+01   5.6261098575e+01    0.3941896    0.1573881 -66.42  0.001523442    2.428    0.588
       168 -11.7132     19.7897     76.6538   7.9604426547e+01   5.9556443236e+01     0.808901      0.35679 -30.00   0.00314821    3.598    0.722
       169 -14.2872     16.7311     67.3130   7.9032224055e+01   6.2068727520e+01    0.5860739    0.3983166 -54.36  0.001249812    1.248    0.199
       170 -13.3189     12.2504     47.1666   7.6391466683e+01   6.7147043572e+01    0.5856627    0.4435716 -62.56 0.0009552827    1.115    0.103
       171 -11.7952     11.8277     58.1302   7.9267581777e+01   6.4608302770e+01    0.7105718    0.2859947 -67.07   0.00283186    2.007    0.502
       172 -12.2945    226.8719    246.5335   5.7327441746e+01  -4.7098335131e+00    0.4844956    0.3444191  16.58  0.003751984    1.023    0.022
       173 -11.0115     84.1541     78.9806   5.5790538393e+01   5.0581362373e+01    0.2863442    0.2172144  40.35 0.0004012037    1.409    0.290
       174 -11.0856     88.0167     77.2387   5.3963161768e+01   5.0257642926e+01    0.2614419    0.2309792 -66.81 0.0002952509    1.151    0.131
       175  -9.3725    155.0609     77.0628   3.5769374507e+01   3.5288163076e+01    0.1814331    0.1708132 -42.35 0.0003987921    1.030    0.030
       176 -10.8758     99.9461     76.4703   4.9901960144e+01   4.8070140245e+01    0.2819546    0.2154019 -46.55 0.0003100466    1.251    0.201
       177 -12.2519    167.7544     73.3188   3.2053605555e+01   3.2849296228e+01    0.3474317    0.2594001 -38.89 0.0004009184    1.276    0.216
       178 -10.2043     56.4622     75.0158   6.4596452713e+01   5.5992531491e+01    0.2026223    0.1963791  28.02 0.0006365853    1.151    0.131
       179 -10.8253     44.6928     74.6267   6.9096285302e+01   5.7613251954e+01    0.2250173    0.2101148 -85.82 0.0003220286    1.123    0.109
       180 -10.2686      7.5474     73.5391   8.4050192284e+01   6.1144740768e+01    0.2695804    0.1775468  15.41   0.00157281    1.886    0.470
       181 -10.2442      1.5693     73.2755   8.6455335120e+01   6.1526352687e+01    0.2775836    0.2221971 -37.01   0.00101298    1.377    0.274
       182  -9.8827     50.8269     78.1981   6.7629943791e+01   5.5985409181e+01    0.1984859    0.1516296 -39.70 0.0009110247    1.332    0.249
       183  -9.3497     61.5133     73.4887   6.2225950318e+01   5.5623548850e+01    0.1440929    0.1305193 -53.77 -3.408561e-05    1.000    0.000
       184  -9.7772     36.9015     76.7942   7.2742651342e+01   5.7962009186e+01    0.2043676     0.165777 -44.21 0.0005129551    1.210    0.174
       185 -12.2201      2.6872     63.1792   8.4410562435e+01   6.3915198950e+01    0.8021847    0.4883507 -74.40  0.004613888    1.347    0.258
       186 -11.6477    122.7810     67.4712   4.0357684830e+01   4.4874026407e+01    0.3478479    0.2663763 -57.26 0.0003411289    1.394    0.283
       187 -11.5655     50.2523     68.2352   6.5085314631e+01   5.8440927565e+01    0.3347365    0.2405185 -38.64 0.0007023735    1.387    0.279
       188 -12.4715    146.9490     65.5602   3.3902598045e+01   3.9369338802e+01    0.3181497    0.2727871 -51.13 0.0003229149    1.150    0.130
       189  -9.2119     93.5446     66.4990   4.8602746461e+01   5.1508890525e+01    0.1503344    0.1426424 -42.84 2.898923e-05    1.004    0.004
       190 -11.3177     32.3849     63.8431   7.1375126781e+01   6.1556057338e+01    0.5214204    0.2982852  -3.45   0.00192205    2.775    0.640
       191 -11.4956     28.4248     61.0626   7.2383694942e+01   6.2600711406e+01    0.6074915    0.3151279   8.69  0.002131698    2.794    0.642
       192 -10.0778    110.2612     64.6107   4.2825530070e+01   4.8309171943e+01    0.3735875    0.2673216  85.97 0.0009727008    2.057    0.514
       193  -9.8960    106.2067     63.8242   4.3734324116e+01   4.9367624409e+01    0.2351018    0.2030392 -15.33 0.0003238687    1.271    0.213
       194 -10.0259     81.2062     64.9432   5.2230694516e+01   5.4245275457e+01    0.2223514    0.2013585 -83.40 0.0007432748    1.238    0.192
       195 -10.7596    155.5565     62.5290   3.1111370436e+01   3.7744213503e+01    0.3914401    0.3202595 -19.46  0.001925687    1.328    0.247
       196 -10.2725    233.3002     63.3107   1.9428043927e+01   1.9077004080e+01    0.1305717    0.1037355   9.96 0.0003559815    1.603    0.376
       197 -10.3907    202.0928     62.3959   2.3166837144e+01   2.6264642010e+01    0.2352579    0.1874238 -24.66   0.00122762    1.261    0.207
       198 -10.4093    230.1585     61.8287   1.9415937624e+01   1.9959996212e+01     0.186467    0.1611754  -2.07  0.001081919    1.336    0.251
       199 -11.5566     46.4332     60.5392   6.4319308129e+01   6.0725032639e+01    0.4357728    0.2927282 -19.56  0.001008174    1.936    0.483
       200 -10.1881     90.5418     60.9821   4.7632949075e+01   5.3261093593e+01    0.3407827    0.1990052  45.89  0.001100486    1.799    0.444
       201  -9.4770     82.9560     61.3234   5.0339277098e+01   5.4684361581e+01    0.2407881    0.1179338  62.65  0.000275832    4.513    0.778
       202  -9.5295     73.8117     61.6198   5.3735379197e+01   5.6302805147e+01    0.1946888    0.1363429  53.00 0.0004951474    1.656    0.396
       203  -9.8061    139.1841     66.3546   3.5915073362e+01   4.1142871819e+01    0.2247198    0.1480355  67.30 0.0009506286    1.746    0.427
       204 -10.8121    135.7057     58.5320   3.4085213470e+01   4.3399647878e+01    0.4401383    0.2849913  84.77  0.001742055    2.285    0.562
       205 -10.6245    120.3042     59.4247   3.8219767216e+01   4.6978337842e+01    0.3692381     0.290622 -54.75  0.001216864    1.332    0.249
       206  -9.6872    109.2855     60.0711   4.1494245566e+01   4.9411870567e+01    0.2091132    0.1840086 -37.95 0.0001871834    1.105    0.095
       207  -9.9136     98.1321     59.9185   4.4796091027e+01   5.1895978132e+01    0.2196619    0.2010851 -78.65 0.0004174124    1.205    0.170
       208 -11.4260     57.2706     58.2913   5.9025032652e+01   5.9728733558e+01    0.3267586     0.281078 -32.32 0.0004853272    1.126    0.112
       209 -10.1390    169.2332     59.5684   2.7572083310e+01   3.4785970442e+01    0.2021807    0.1414671  48.87 0.0002741912    1.512    0.339
       210 -10.0390    127.4581     58.5217   3.6066161800e+01   4.5425219482e+01    0.2613805    0.2038154  14.80 0.0005895986    1.629    0.386
       211 -10.3301     87.4980     57.5054   4.7376842714e+01   5.4580010249e+01    0.2576142    0.1861509 -18.11  0.001193042    1.701    0.412
       212 -10.5793     89.2383     51.8464   4.4632160452e+01   5.5339051520e+01    0.5696876    0.1980145 -41.70  0.001946154    2.746    0.636
       213 -10.8695     80.3698     56.4701   4.9472231546e+01   5.6182866744e+01    0.4687512     0.304981 -13.69  0.001502952    2.375    0.579
       214  -9.5783    163.9232     57.4848   2.7880816202e+01   3.6464054838e+01    0.2145631    0.1510231  62.37 -9.97478e-05    1.463    0.316
       215  -9.3558     38.6659     57.7315   6.6829705882e+01   6.2312493135e+01    0.1355927   0.09422852 -28.38 0.0002617628    1.590    0.371
       216  -9.7585    177.2091     55.8322   2.5051654010e+01   3.3363506863e+01     0.196547    0.1757473  21.47 0.0003912589    1.287    0.223
       217  -9.5114    151.1259     54.1653   2.9260446588e+01   4.0255767154e+01    0.2040044    0.1714676 -68.71 0.0002872829    1.264    0.209
       218  -9.7401    139.8701     54.2085   3.1646135710e+01   4.3099775623e+01    0.2046432    0.1798476   9.81  0.000569399    1.299    0.230
       219 -12.5215    105.0205     52.5592   3.9952726704e+01   5.1785237065e+01    0.3122091     0.296666  12.13 0.0003487843    1.085    0.078
       220 -11.3502     51.8316     47.7607   5.7487877306e+01   6.2807387174e+01    0.7173073    0.3262542 -61.07   0.00251838    3.072    0.674
       221 -12.5335     38.7474     50.3251   6.4365683047e+01   6.3978834802e+01    0.7097949    0.5809677 -11.31  0.004214208    1.345    0.256
       222 -11.0709     44.4691     43.5083   5.9171972031e+01   6.4730927264e+01    0.3609943    0.2739575 -80.78   0.00126999    1.868    0.465
       223 -11.8185     45.2256     38.4256   5.6739276912e+01   6.5672528124e+01    0.3284205    0.2776163 -74.50            0    1.510    0.338
       224 -10.2491     27.8132     53.4666   7.0521337722e+01   6.4433674025e+01    0.3103056    0.2101808 -16.12   0.00147885    1.807    0.447
       225 -10.9845    128.5451     50.1691   3.2809287326e+01   4.6604556002e+01    0.3675045    0.2759235  10.42  0.000975821    1.750    0.428
       226  -9.6973     73.8741     50.1276   4.9413782834e+01   5.8679271299e+01    0.3427539    0.1568328 -34.99  0.001307507    2.393    0.582
       227  -9.8379    164.0742     48.2858   2.4894371361e+01   3.7856493580e+01    0.2089593    0.1946035 -80.96 0.0004586412    1.065    0.061
       228 -10.2682    171.7073     47.0800   2.3226266827e+01   3.6076029188e+01    0.2306275    0.1986322 -79.45 0.0002816694    1.189    0.159
       229  -9.7818     82.6987     46.9143   4.4907332232e+01   5.7605927045e+01    0.2396809    0.1749168 -20.80  0.001165565    1.521    0.343
       230  -9.9639     77.8643     46.2381   4.6363783434e+01   5.8684593183e+01    0.3872928    0.1781417 -55.09  0.001349094    3.135    0.681
       231  -8.9416     62.3208     47.3031   5.2838878782e+01   6.1268360480e+01    0.1423684    0.1053771 -12.12  0.000364266    1.631    0.387
       232 -11.4673    112.3023     45.4716   3.5161120339e+01   5.1338749710e+01    0.2659007    0.2516958  -1.54 0.0003068696    1.080    0.074
       233  -9.5187    104.4914     46.4527   3.7736487338e+01   5.2994983021e+01    0.1471535    0.1435966 -13.71 7.927809e-05    1.006    0.006
       234  -9.6307    152.8078     45.3188   2.5943022386e+01   4.1206763575e+01    0.2174186    0.1293851  52.79 0.0003830835    1.692    0.409
       235  -9.9950    142.5285     45.2078   2.7923722872e+01   4.3869203643e+01    0.2958902    0.2005353  86.08 0.0007694975    1.860    0.462
       236 -11.0456     97.5206     41.5610   3.7831753242e+01   5.5412571846e+01    0.4513797    0.3026282   8.00 0.0006785478    2.223    0.550
       237 -10.6311     72.9976     43.1963   4.6912663789e+01   6.0186262075e+01    0.2511412    0.1951962 -45.88  0.001329479    1.270    0.212
       238 -10.7002     23.8553     41.7508   6.8735126972e+01   6.7446745654e+01    0.4516091    0.3223065 -89.41  0.002167959    1.948    0.487
       239 -12.9105     27.5711     37.7339   6.5329626238e+01   6.7954858703e+01    0.2889352    0.2499322 -56.25 0.0004260797    1.161    0.139
       240 -11.4363     24.3881     34.8131   6.5911266808e+01   6.8893858100e+01    0.2922723    0.1963688 -26.42 0.0009901933    1.522    0.343
       241  -9.9306     34.3560     43.1515   6.3904693119e+01   6.6059066151e+01    0.2175016    0.1369885 -39.31 0.0007772577    1.446    0.308
       242 -10.6215     88.9223     40.7448   4.0216873764e+01   5.7432807548e+01    0.3718962    0.2960655 -75.73  0.001828984    1.685    0.407
       243  -9.4162    130.5369     41.5444   2.9162334959e+01   4.7484574792e+01     0.147931    0.1459731 -69.27 0.0001424462    1.006    0.006
       244 -10.1660     79.2077     41.1110   4.3723584764e+01   5.9371349094e+01    0.2692155    0.2126175  50.71  0.001187376    1.371    0.271
       245 -10.0897     67.4067     41.2337   4.8255012853e+01   6.1581449026e+01    0.1960804    0.1264565 -50.34 0.0006298891    1.618    0.382
       246  -9.8228    235.7724     40.1568   1.3356909443e+01   2.1616277586e+01     0.166873    0.1532067   5.33 0.0004893114    1.326    0.246
       247  -9.8630    226.3815     40.2364   1.4279019283e+01   2.3689909992e+01    0.2009672    0.1049102 -39.61 0.0006213875    1.607    0.378
       248 -10.3793    119.9722     40.6520   3.1301552146e+01   5.0260520647e+01    0.2444245    0.1293308  83.98 0.0007048929    4.425    0.774
       249 -10.4497     83.3695    248.2523   8.2678797290e+01   1.4298023177e+01     0.236243    0.1061386  45.54 0.0009468084    1.635    0.388
       250  -9.6949    155.7965     37.7847   2.2828402619e+01   4.1521156142e+01    0.2560952    0.1794467  41.71  0.001192239    1.585    0.369
       251 -10.2407    109.6631     38.2625   3.2996663629e+01   5.3136217852e+01    0.1928615    0.1802553 -69.37 0.0002883693    1.151    0.131
       252 -11.8849    111.3384     34.7221   3.1104884652e+01   5.3274691378e+01    0.2966183      0.26705  38.68 0.0003398634    1.113    0.101
       253 -10.7690     83.3984     36.0820   4.0052876982e+01   5.9393246608e+01    0.4209489    0.2560979 -24.01  0.001408473    1.813    0.448
       254 -10.2108      1.4011     37.5728   7.9640216965e+01   6.9953592351e+01    0.2227281    0.0946186 -65.91 7.546628e-05    1.867    0.464
       255 -11.1242    248.1351     36.3848   1.1355394852e+01   1.9449436995e+01    0.2314533    0.1802997 -42.99 0.0002617528    1.052    0.049
       256 -10.2636    202.0294     37.0844   1.6039417165e+01   2.9827860033e+01    0.2121252    0.1890448 -52.78  0.000407576    1.010    0.010
       257 -10.4495    187.2195     37.9811   1.8136754291e+01   3.3392840129e+01    0.2255443    0.2003091  86.90 0.0002785483    1.128    0.114
       258 -10.6114     97.1743     36.2070   3.5680777983e+01   5.6370472310e+01     0.231999    0.1998499 -29.85 0.0005237497    1.137    0.121
       259 -11.5502     75.0597     35.4837   4.2764486820e+01   6.1184313763e+01     0.397519    0.3188062  -4.91  0.001030233    1.352    0.260
       260 -10.3383     73.4911     31.4815   4.1508830701e+01   6.2170525787e+01    0.2854072    0.2216034 -54.95  0.001510155    1.526    0.345
       261 -11.0262     65.5806     36.7735   4.7030573432e+01   6.2737441145e+01    0.3046541    0.2282237  41.47 0.0002450017    1.420    0.296
       262  -9.6410    128.9933     36.0280   2.7416351039e+01   4.8695328733e+01    0.1766731    0.1669906  63.76  0.000323589    1.054    0.051
       263 -10.7328    241.0397     34.1918   1.1412896188e+01   2.1214136256e+01    0.2068753    0.1776886 -47.11 0.0003523127    1.044    0.042
       264  -9.8200    193.0461     34.1777   1.6264362786e+01   3.2423758983e+01    0.3568448    0.1284214 -49.06  0.001230238    2.921    0.658
       265  -9.9082     16.0448     26.6809   6.7432286670e+01   7.1354296905e+01    0.1896562    0.1392938 -46.83 0.0003871977    1.121    0.108
       266 -11.1882     17.8873     31.2655   6.8177541172e+01   7.0240279583e+01    0.4686241    0.3016249  -3.05  0.002646661    1.861    0.463
       267 -10.6074     10.8677     24.4398   6.9693879937e+01   7.2230670119e+01    0.3527462    0.2227006 -20.37  0.001159536    1.681    0.405
       268 -11.2064      2.4096     24.1482   7.4946710211e+01   7.2841250320e+01     0.420679    0.3041131 -25.52  0.002774785    1.347    0.258
       269 -10.9452      9.5385     34.6501   7.4176320421e+01   7.0142614532e+01     0.295661    0.2068211  20.99  0.001836972    1.681    0.405
       270 -11.3797      6.9362     29.9647   7.4151382152e+01   7.1329822177e+01    0.3728605    0.2470808 -76.92  0.000834741    1.681    0.405
       271 -11.3248      6.0362    244.9254   9.6156932688e+01   2.3462755798e+01    0.3342393    0.1364624  61.86  0.001820892    1.749    0.428
       272 -10.5404     28.1610    245.1856   9.2372510548e+01   2.1228285316e+01    0.2319823    0.1296378 -76.43    0.0016181    1.931    0.482
       273 -11.1659    121.7430     33.5408   2.8079378273e+01   5.0882116130e+01    0.5927107    0.2443379  58.15  0.002204891    2.354    0.575
       274  -9.7532     30.5925     32.2129   6.1486746543e+01   6.8778271303e+01    0.1936917    0.1496539 -40.66  0.001173052    1.100    0.091
       275  -9.1994    146.4039     33.5765   2.3021530021e+01   4.4547803484e+01    0.1436463    0.1420413  53.20   4.4599e-05    1.051    0.049
       276  -9.2192    140.9646     33.7330   2.4096198140e+01   4.5941445368e+01    0.1773516    0.1274014  62.24 0.0002385799    1.373    0.272
       277 -11.2082      1.8484     31.6252   7.7719951191e+01   7.1255056945e+01    0.2697361    0.1764396 -80.82  0.001590412    1.660    0.397
       278  -9.6212    221.5902     31.7950   1.2537799173e+01   2.5839761500e+01    0.1922769    0.1051469 -41.58 0.0002705618    1.553    0.356
       279  -9.4347    167.2841     31.2830   1.8807566151e+01   3.9393021123e+01    0.1420847    0.1109881  31.55 0.0001772445    1.520    0.342
       280  -9.6743     34.2584     33.4497   6.0076651892e+01   6.8099762158e+01    0.2332157    0.1802833  40.60  0.001108816    1.548    0.354
       281 -11.0055    100.3810     28.7035   3.1487711275e+01   5.6766801520e+01    0.5146475    0.2644772  43.00 0.0006775742    2.018    0.505
       282 -11.4964    156.7083     28.2236   1.9387085229e+01   4.2548314107e+01    0.3196602    0.2398979  76.47 0.0002585937    1.343    0.255
       283  -9.7952     79.4449     27.0847   3.7276468128e+01   6.1661818411e+01    0.2709324    0.1979582   0.89  0.001346003    1.601    0.375
       284 -10.2662     49.8361     28.1884   4.9883230326e+01   6.6941232102e+01    0.3467118    0.1604584 -28.18  0.001369667    2.759    0.638
       285  -9.4919     12.0027     29.3065   7.0883453516e+01   7.1125537442e+01    0.1584991    0.1311501 -32.98  0.000292791    1.106    0.096
       286 -11.2817    248.6232     27.6084   9.2243713124e+00   2.0391096822e+01    0.2935742    0.1681332 -46.31 0.0005979126    1.423    0.297
       287 -11.1547    196.8546     27.4429   1.3852112015e+01   3.2311127301e+01    0.5108064    0.2479562 -74.11  0.001923861    2.873    0.652
       288 -10.4987    146.1882     27.0517   2.0705371711e+01   4.5455276909e+01     0.349289    0.2325553  65.45 0.0008230337    1.470    0.320
       289 -10.2686    118.4820     27.8418   2.6530056114e+01   5.2487624356e+01    0.2841753    0.1950779  51.57 0.0008117012    1.419    0.295
       290 -10.9672    112.2971     27.1850   2.7719367377e+01   5.4111878640e+01    0.3261178    0.2540812 -11.40 0.0009452894    1.388    0.280
       291  -9.7133    168.1315     39.2353   2.1279564327e+01   3.8113688890e+01    0.2127641    0.1588722 -54.44 0.0007480424    1.336    0.252
       292 -10.7495    238.9646     27.2175   9.8686569850e+00   2.2493472470e+01    0.2076616    0.1392006  38.33  0.001089723    2.094    0.522
       293  -9.8864    176.7751     26.9714   1.6103352162e+01   3.7467298399e+01     0.182965    0.1161153 -27.88 0.0003992422    1.571    0.364
       294 -11.8560    216.5042     25.3829   1.1307011261e+01   2.7795234327e+01    0.3199902    0.2312968  68.19 0.0001832741    1.469    0.319
       295  -9.8310    123.6225     26.2908   2.4758047206e+01   5.1394274607e+01    0.2421699    0.1638239 -62.33  0.001097071    1.806    0.446
       296 -10.4411    140.1545     18.3265   1.8502199063e+01   4.8076184989e+01    0.3494182     0.211554  43.54  0.001578044    1.765    0.434
       297 -10.9426     72.9979    244.7052   8.4310799988e+01   1.6168901962e+01    0.2657512    0.1745132  43.36  0.001258638    1.204    0.170
       298 -11.9497    128.6532     24.0308   2.2813563350e+01   5.0393474947e+01    0.2654749    0.2537542 -22.58 0.0002623016    1.073    0.068
       299 -12.5301     75.3016    238.8946   8.3461918808e+01   1.6836423171e+01    0.4884146     0.414175  54.33  0.003777523    1.157    0.136
       300  -9.2355    189.8100     24.3908   1.3734537669e+01   3.4442376242e+01    0.1794646    0.1273746  61.99 0.0002594069    1.449    0.310
       301 -10.1033    160.1466     24.1797   1.7475431626e+01   4.2141257336e+01    0.2889329    0.2067053 -33.61  0.001437039    1.375    0.273
       302 -10.3583    161.5198     20.4679   1.6015429106e+01   4.2214565363e+01    0.3113104    0.1748639   3.33  0.001189126    2.868    0.651
       303 -10.0246     54.2019     23.1425   4.5325629160e+01   6.7094608561e+01    0.2400025    0.1733584 -51.92  0.001240094    1.654    0.395
       304 -11.0325     22.5549     24.0338   6.2384424845e+01   7.1279550831e+01    0.2642378    0.1978545 -33.88 4.531927e-05    1.134    0.118
       305  -9.7684    102.4608    243.4857   7.8780893985e+01   1.2546557276e+01    0.1135115   0.08715098  47.06 0.0002667361    1.008    0.008
       306 -10.2471     88.6463    241.1811   8.1150383180e+01   1.4743629408e+01    0.1330047    0.1011316 -58.75 0.0009456518    1.687    0.407
       307  -9.9508     24.3851     20.1875   5.9442919371e+01   7.1827205287e+01    0.1785919    0.1448964 -39.04 0.0003623869    1.102    0.093
       308  -9.6120    115.6767    240.3163   7.6023187124e+01   1.1231849493e+01    0.1172803   0.07202821  58.32 0.0005512456    1.666    0.400
       309 -10.1285     60.2123    240.6694   8.6383987299e+01   1.8396969478e+01    0.1497939    0.0863354  34.01 0.0008443457    1.654    0.396
       310 -10.3697    195.5065    238.4863   6.1382453485e+01   2.5424115007e-01    0.1968278     0.158833  15.39 0.0009979438    1.079    0.074
       311 -11.2128     63.7076     22.0995   4.0709444813e+01   6.5555624992e+01    0.3003239    0.2128759 -20.11 0.0005031832    1.401    0.286
       312 -10.4904     59.0371     21.1196   4.2143755853e+01   6.6569657478e+01     0.270756    0.1862774  45.32  0.000426569    1.549    0.354
       313 -10.8181     35.1659    237.8828   9.0797776140e+01   2.1730238895e+01    0.1777729    0.1053103  60.91  0.001232006    1.267    0.211
       314 -10.6188     17.9940    236.6629   9.3818832414e+01   2.3724470444e+01    0.3454551    0.0972968  49.84  0.001855303    2.259    0.557
       315 -10.3466     82.7228     21.8335   3.3631466902e+01   6.1728706628e+01    0.2813491    0.2629301  72.54  0.001249682    1.233    0.189
       316 -10.6322     87.0488     20.0774   3.1405615399e+01   6.1013045058e+01    0.2043749    0.1874296  15.47            0    1.037    0.035
       317  -9.8589     34.6382     21.9739   5.4476695742e+01   7.0257567990e+01    0.2655381    0.2299054 -21.08  0.001578225    1.030    0.029
       318 -10.8289    248.9344     21.0559   7.6507005751e+00   2.1075442487e+01    0.1933524    0.1800593 -79.16   0.00035943    1.210    0.174
       319  -9.4173    193.3031     21.2954   1.2435314714e+01   3.3922408105e+01    0.1351282    0.1055122  34.79 0.0002133188    1.578    0.366
       320  -9.6650     99.1355     20.1164   2.7961717136e+01   5.8218804751e+01    0.1822585    0.1576567 -50.12            0    1.266    0.210
       321 -10.4317     41.4104     19.0840   4.9346287092e+01   6.9814318014e+01    0.2598246    0.1779321  26.64 0.0009743669    1.542    0.352
       322 -10.2922    108.2369     17.8038   2.4633629101e+01   5.6299468862e+01    0.2572251    0.2036318  26.87   0.00126173    1.330    0.248
       323 -10.6411    169.1296     16.6915   1.3758422566e+01   4.0642670508e+01    0.2570116    0.1783771 -41.81 0.0008163151    1.380    0.275
       324 -10.2802     67.5843    236.0560   8.4700928942e+01   1.8281155407e+01     0.219312    0.1420055  36.40  0.001452159    1.430    0.301
       325 -10.2768     72.7046     16.0086   3.4089144011e+01   6.4647913758e+01     0.256732    0.1887037  45.25 0.0009167353    1.346    0.257
       326 -10.9891    183.1112    234.0428   6.2931057428e+01   2.5232202211e+00    0.2826909    0.2050931  24.60  0.001195766    1.118    0.106
       327 -10.3073    249.6564     15.2773   6.2459055587e+00   2.1563670178e+01    0.2208455    0.1479448 -52.03 0.0004668495    1.222    0.182
       328 -10.2582    215.5437     16.3681   8.9766084836e+00   2.9047769985e+01    0.3185177    0.1042368  66.58  0.001238406    2.952    0.661
       329  -9.9033    193.1562     16.1553   1.0937696260e+01   3.4534506409e+01    0.1931136    0.1800239  69.52 0.0003287206    1.163    0.140
       330 -11.6099     39.4043    230.5826   8.9643135217e+01   2.2551177592e+01    0.3353372    0.1785349 -70.98    0.0021323    2.042    0.510
       331 -10.1137     45.4217    244.3339   8.9282234752e+01   1.9499234476e+01    0.1873046    0.0822294  51.53 0.0005068427    1.647    0.393
       332  -9.6563     54.6646    231.6812   8.6839783771e+01   2.0606594148e+01   0.09453249   0.08720922  -7.87 0.0003847353    1.701    0.412
       333  -9.2784     59.4499    229.4688   8.5781958305e+01   2.0424666362e+01    0.1135894   0.08662219  57.62 0.0001791459    1.019    0.019
       334 -11.5276    184.9798    228.3702   6.1816765273e+01   2.9843955755e+00     0.427422    0.2535609  -7.72  0.002307271    2.490    0.598
       335  -9.4577    151.5255    228.4919   6.7954343983e+01   7.8605322881e+00    0.1185915    0.0957291  37.65 8.849486e-05    1.049    0.047
       336  -9.8396     49.9100     16.6085   4.3785833271e+01   6.8864434235e+01    0.2695976    0.1667594 -49.73    0.0013499    1.999    0.500
       337 -10.7887    160.2339    235.4358   6.7220189772e+01   5.6088599171e+00    0.2210257   0.09226426  34.32 0.0007549232    2.005    0.501
       338  -9.7348    131.3158    226.6771   7.1576899277e+01   1.1115115961e+01    0.1195406   0.08051622  60.36 0.0007042264    1.664    0.399
       339 -10.2563      3.8016    225.8941   9.5979622484e+01   2.6996450480e+01    0.1477488    0.1211609  75.53  0.001010123    1.266    0.210
       340  -9.5998    126.0285    220.5143   7.1877405018e+01   1.2887029590e+01     0.176357   0.08136317  53.69 0.0008090063    2.441    0.590
       341 -11.1071     46.4490    219.1127   8.7613786934e+01   2.3855093847e+01    0.3833409   0.09920864  39.59  0.001736631    2.724    0.633
       342 -10.2508    164.9993     12.9849   1.3038739166e+01   4.2118319160e+01    0.2372605    0.1508588 -58.45  0.000792425    1.622    0.383
       343  -9.3949     27.4382     10.4735   5.2256033879e+01   7.3189390537e+01    0.1243399    0.1023464 -19.79 0.0001397104    1.006    0.006
       344  -9.9168    211.8935    219.1208   5.5762230974e+01   3.0828673867e-01      0.16275    0.1425644  22.93 0.0006728672    1.273    0.215
       345 -11.0513     30.8699    234.1970   9.1400830767e+01   2.2834537148e+01    0.2592836    0.1972241  61.48  0.002020743    1.087    0.080
       346  -9.6650    135.8195    216.7823   6.9484944839e+01   1.2023775948e+01    0.1660301     0.130198  58.55 0.0008818887    1.330    0.248
       347 -10.6927     29.3928    215.4946   9.0746318684e+01   2.6424298724e+01    0.2015229    0.1672279  45.48  0.001398239    1.319    0.242
       348 -10.2675     24.2187    216.0192   9.1778807977e+01   2.6861468658e+01    0.1564569    0.1116499  70.57  0.000368506    1.088    0.081
       349 -10.4608     14.7375    215.5596   9.3580007255e+01   2.7891244349e+01    0.1989693    0.1204252  45.29 0.0007709463    1.369    0.270
       350 -11.8816     11.9758    210.3322   9.3894844010e+01   2.9158226924e+01    0.4246077     0.183579  79.19  0.001854298    2.045    0.511
       351 -11.2977      8.2550    215.8741   9.4821499240e+01   2.8444711379e+01    0.3672073   0.08253451  44.82  0.001807914    2.637    0.621
       352 -12.5596      5.0824    207.9226   9.5135847439e+01   3.0260591542e+01    0.5710377    0.2371607  83.29  0.003123862    2.095    0.523
       353 -10.0165    110.2823    212.0267   7.4042213012e+01   1.6681342143e+01    0.1648982    0.1486997  64.29 0.0006500959    1.115    0.103
       354  -9.8368    236.9874    208.9868   4.9997924404e+01  -1.9609089935e+00    0.1381715    0.1064795   1.00 0.0004330678    1.054    0.052
       355  -9.6178    217.0000    209.0146   5.3289819492e+01   8.3004654521e-01    0.1730624   0.06241727 -35.65 0.0007220149    2.913    0.657
       356  -9.1164    188.2949    205.2935   5.7755422223e+01   5.6323086704e+00    0.1217203    0.0845084   8.23 0.0003071869    1.559    0.358
       357 -10.9925     20.0016    200.3880   9.1836980004e+01   3.0352866996e+01    0.4778055    0.1331573 -70.82  0.002170646    3.249    0.692
       358 -10.9530    175.2817    202.2685   5.9708969879e+01   8.1285703542e+00    0.2417855    0.1871327  33.79 0.0004487504    1.130    0.115
       359 -10.1364     67.1398    202.8681   8.2125969256e+01   2.4460065698e+01    0.1887766    0.1350909  63.38 0.0004283245    1.189    0.159
       360  -9.4938     66.7042    215.3067   8.3286898566e+01   2.2112061566e+01    0.1238707   0.07063639  61.93 0.0003351475    1.586    0.370
       361  -9.4540     56.7607    197.2150   8.3856900743e+01   2.6916723768e+01    0.1761498    0.1360513 -29.59  0.001048407    2.124    0.529
       362  -9.3887    134.6003    196.5071   6.6971324689e+01   1.5680353633e+01    0.1265769    0.1132678  41.53 7.598998e-05    1.023    0.022
       363 -11.9539     15.7238    192.1716   9.2305113517e+01   3.2449157385e+01    0.3425214    0.3074341  65.97  0.001674774    1.285    0.222
       364  -9.7790    186.5601    193.4912   5.6134325092e+01   7.6422316248e+00    0.1266989    0.1082178  15.39 7.171967e-05    1.029    0.028
       365  -9.5311    145.0274    190.3070   6.3856434353e+01   1.5069529811e+01    0.1826829    0.1506006  34.81 0.0005705429    1.096    0.088
