#   1 NUMBER                 Running object number                                     
#   2 MAG_AUTO               Kron-like elliptical aperture magnitude                    [mag]
#   3 X_IMAGE                Object position along x                                    [pixel]
#   4 Y_IMAGE                Object position along y                                    [pixel]
#   5 X_WORLD                Barycenter position along world x axis                     [deg]
#   6 Y_WORLD                Barycenter position along world y axis                     [deg]
#   7 A_WORLD                Profile RMS along major axis (world units)                 [deg]
#   8 B_WORLD                Profile RMS along minor axis (world units)                 [deg]
#   9 THETA_WORLD            Position angle (CCW/world-x)                               [deg]
#  10 FWHM_WORLD             FWHM assuming a gaussian core                              [deg]
#  11 ELONGATION             A_IMAGE/B_IMAGE                                           
#  12 ELLIPTICITY            1 - B_IMAGE/A_IMAGE                                       
         1 -14.2562     68.5708    144.2504   9.8555036256e+01   3.7397879560e+01      4.34041     2.283281  74.40  0.004897052    4.479    0.777
         2 -13.5241    202.5994     42.2422   3.9604531870e+01   2.9771765109e+01     1.286397     1.115599 -18.14  0.005510287    1.448    0.309
         3 -13.5156    213.9338     31.5775   3.5867049727e+01   2.8612823757e+01    0.9160718    0.8117999  29.08  0.002457732    1.571    0.364
         4 -11.9546      3.3233     24.4848   9.3913436941e+01   7.0932916989e+01    0.5361221    0.4733964 -50.69  0.003979197    1.512    0.339
         5 -11.6501      2.4456      8.2182   8.7346150001e+01   7.3628918450e+01     0.977208    0.1945148 -44.98  0.003947522    3.983    0.749
         6 -12.7817    239.8821      6.1945   2.8445788801e+01   2.6099131167e+01    0.7654144    0.5755493 -81.66  0.005455391    1.108    0.098
         7 -10.4282     56.2754      6.1213   5.8637480019e+01   6.6790095621e+01    0.2772274    0.2020922  63.18  0.001637862    1.974    0.493
         8  -8.8246     83.0287    194.5056   1.0263316598e+02   2.2711221941e+01    0.2176946    0.1347169  34.41  0.001033149    1.591    0.371
         9  -9.6090    140.2906    250.2173   9.7092987135e+01   2.4926800125e+00    0.2701855    0.1488422  42.27  0.001137602    1.626    0.385
        10 -10.9524    101.6887    246.4755   1.0481836227e+02   8.8398080407e+00    0.6601072    0.2507651 -67.13  0.002625084    3.760    0.734
        11 -15.1735      4.8382    163.9735   1.1906194645e+02   3.8901230112e+01     8.158892    0.8331346 -73.65   0.01646291    6.247    0.840
        12 -14.9203     39.6327    195.6815   1.1341618159e+02   2.8019954543e+01     4.749211     2.010572  70.76   0.01334779    3.531    0.717
        13 -17.0106     14.0976    242.6879   1.2220054798e+02   2.0408549200e+01     6.237185     2.348285  23.79   0.02755142    3.917    0.745
        14  -9.9130    111.0220    203.4294   9.7031193091e+01   1.6323404978e+01    0.2487846    0.1975411  87.63  0.000580577    1.497    0.332
        15  -9.5997    147.9881    189.4651   8.5683013349e+01   1.3094559659e+01     0.359438    0.2190123  58.53  0.001457917    2.347    0.574
        16  -9.6424    146.4543    185.9818   8.5390726921e+01   1.4125314715e+01    0.2942579    0.2332214  85.96 0.0008667073    1.792    0.442
        17 -10.5267     81.9423    182.9850   1.0124423330e+02   2.5652951931e+01     0.607502    0.4095857  75.60  0.002172651    1.813    0.449
        18  -9.5147     99.4532    180.9774   9.6346518562e+01   2.3431984386e+01     0.271715    0.2202252  35.28 0.0005550499    1.228    0.186
        19  -9.3905     90.4926    175.0622   9.7728507096e+01   2.6307011828e+01    0.2274345    0.1430315 -60.12  0.001027907    1.575    0.365
        20  -8.9647     63.9896    178.2737   1.0527710773e+02   2.9328530873e+01    0.1887058    0.1758046  73.72 0.0002883179    1.042    0.040
        21 -10.3460    186.8325    175.0677   7.3950806372e+01   9.0580128744e+00    0.4023021    0.3118283 -44.99  0.001145425    1.327    0.246
        22 -12.7734     67.5901    154.4718   1.0064979693e+02   3.4896209351e+01    0.6441997    0.4497676 -49.79 0.0008393904    1.402    0.287
        23  -9.7903    107.6600    203.5333   9.7863235989e+01   1.6839008468e+01    0.2429808    0.1340441 -58.84 0.0008707605    1.929    0.482
        24 -10.4242    240.0677    169.2800   6.2504655630e+01   1.1269615262e+00    0.1827675    0.1570429 -17.88 0.0004002051    1.058    0.055
        25 -12.1841     79.6385    159.0699   9.7984168935e+01   3.1994213621e+01     1.092925    0.5408846  57.94 0.0003691771    2.967    0.663
        26 -13.5929     18.3764    218.0777   1.1992795457e+02   2.5121192972e+01    0.7794937      0.55555 -31.90  0.004626652    2.260    0.558
        27  -9.7670     35.8489    161.8137   1.1069269108e+02   3.6776318386e+01    0.2973227    0.2423073  48.29 0.0008336958    1.282    0.220
        28 -10.4868     32.7271    155.6949   1.1080050331e+02   3.8641922785e+01    0.4411693    0.2491152 -80.36  0.001462946    1.702    0.412
        29 -11.5403     86.9822    152.5570   9.4680690826e+01   3.2526405857e+01    0.6534138    0.4613017 -24.04  0.001814699    1.843    0.457
        30  -8.3731    112.4323    150.4979   8.7020053354e+01   2.8689232904e+01    0.1546887    0.1511287 -48.02 0.0001324487    1.010    0.010
        31  -9.5010    174.6084    148.7261   7.0881715443e+01   1.6835833019e+01    0.2835374    0.1927095 -51.12 0.0009427362    1.541    0.351
        32 -10.4353    133.6307    144.3140   7.9872612532e+01   2.6122969456e+01     1.092641    0.2931596 -53.72  0.002633931    5.010    0.800
        33 -10.6176     54.3678    146.8187   1.0326420205e+02   3.8576615325e+01    0.5064365    0.2762135 -61.36  0.002271337    1.641    0.390
        34  -8.3365     36.0210    145.1997   1.0846447823e+02   4.1007886756e+01    0.1620049     0.111399  24.59 0.0003990761    1.665    0.399
        35  -9.0457     31.6553    143.3034   1.0948998153e+02   4.1913064627e+01    0.1419389   0.09499914  66.52 0.0001825853    1.686    0.407
        36 -10.2606    101.4799    138.4732   8.7518033085e+01   3.3648644848e+01    0.5919059    0.3805743 -20.37  0.002293513    2.323    0.570
        37 -11.5906     88.5827    138.0357   9.1262313068e+01   3.5963095599e+01    0.3118091    0.2709873 -40.94 0.0004152895    1.138    0.121
        38  -9.7008     24.7220    137.2312   1.1073344798e+02   4.4078654807e+01    0.2824655    0.1863784  34.49  0.001516497    1.689    0.408
        39 -10.0357    105.9020    131.1045   8.4518153771e+01   3.4669720301e+01    0.5356461    0.3592102 -64.02   0.00228484    1.697    0.411
        40  -9.7191    110.7342    129.5542   8.2731265930e+01   3.4141121549e+01    0.3704225    0.2731816   6.56  0.001046351    1.773    0.436
        41 -10.4924    135.1682    129.2156   7.5839628939e+01   2.9335809484e+01    0.4387267     0.340925 -65.09  0.001999174    1.491    0.329
        42 -11.4773     66.3101    172.3271   1.0381573531e+02   3.0511815164e+01    0.4760379    0.3155732 -31.10  0.002190626    2.032    0.508
        43  -8.6237    160.3262    127.6575   6.9139768727e+01   2.4340131274e+01    0.1613439    0.1267745 -83.43 -0.0001016961    1.737    0.424
        44 -10.4131     97.9095    125.2589   8.5515752880e+01   3.7559744180e+01    0.3421692    0.2686206  -6.04  0.001148267    1.558    0.358
        45 -11.4269     70.9602    167.5479   1.0182369873e+02   3.1085865799e+01     0.545741    0.2883604 -53.61  0.001284761    1.817    0.450
        46  -9.8127    117.2545    123.4887   7.9344901955e+01   3.4326248663e+01    0.3524411    0.2527905   0.51  0.001258404    1.975    0.494
        47 -10.4424    111.7581    172.8688   9.1674898345e+01   2.3334382518e+01    0.3073121    0.1896785  59.40  0.001250603    2.080    0.519
        48  -9.1533    135.0000    119.9664   7.3532223840e+01   3.1482853611e+01    0.2674916   0.08964165 -45.52   0.00080089    2.932    0.659
        49  -9.0519    107.2465    118.2861   8.0950697236e+01   3.7516310749e+01    0.2220642    0.2038072 -10.72 0.0006062998    1.123    0.109
        50  -8.8461     83.4948    117.9605   8.8272972731e+01   4.1827231083e+01    0.2827858    0.2082779  53.76 0.0008894749    1.591    0.372
        51 -10.0531    231.1844    113.8246   5.2190159226e+01   1.2375504550e+01    0.2923214    0.2470755 -51.73 0.0008583226    1.118    0.106
        52  -9.4405     40.1478    113.8078   1.0193187584e+02   4.8625070964e+01    0.2038212    0.1829501  87.57  0.000595074    1.225    0.183
        53 -11.6238    247.3520    107.9046   4.8594766340e+01   1.0408465131e+01    0.5174516    0.2247246 -39.04  0.002332397    1.925    0.481
        54  -9.3534    205.2878    110.2393   5.5607389745e+01   1.8183749122e+01    0.2889927    0.2053001  44.41  0.001158667    1.557    0.358
        55  -9.5832    114.8746    108.8569   7.6189011739e+01   3.8201992824e+01    0.2535995    0.2183092 -12.56  0.001240811    1.256    0.204
        56  -9.0148    134.6149    105.8138   6.9848578559e+01   3.4690107579e+01    0.2305636     0.146982 -52.76 0.0009513907    1.691    0.409
        57 -13.3910     51.2440    186.8211   1.0963835758e+02   2.8818615623e+01     1.461748     1.004983  66.36   0.00776157    1.466    0.318
        58 -10.0581    119.1849    103.8340   7.3551436815e+01   3.8435876583e+01    0.2352706    0.2214829 -89.07 0.0004984052    1.193    0.162
        59  -9.6606     41.9750    103.3995   9.9140950405e+01   5.1024800822e+01     0.275692    0.1904122  45.15  0.001042689    1.728    0.421
        60 -10.6728     33.0746    108.5286   1.0337114867e+02   5.0625366020e+01    0.4854375    0.2112238 -67.76  0.001987419    2.223    0.550
        61  -9.9327     36.3313    100.9451   1.0066415142e+02   5.2191843609e+01    0.2720202    0.2112839  28.03 0.0007998198    1.451    0.311
        62  -9.7899    120.8626     98.8217   7.1653995463e+01   3.9171470954e+01     0.242542    0.2150539  -5.99  0.000609901    1.200    0.166
        63 -11.0438    243.1561     92.8691   4.5955978979e+01   1.3647264665e+01     0.391297    0.1220285 -44.71  0.001492684    2.704    0.630
        64  -8.9816     17.2389     90.2158   1.0560987912e+02   5.6336479416e+01     0.169406    0.1465128  88.50 0.0004396522    1.349    0.259
        65  -8.6885     73.3585     83.9485   8.2534445449e+01   5.1419900690e+01    0.2030312    0.1772732 -34.99 0.0003965273    1.084    0.077
        66  -8.9302    159.5392     83.4591   5.7597809416e+01   3.3434190713e+01    0.1492793     0.145386 -78.26 0.0001977068    1.019    0.019
        67  -8.2764    184.6667     76.7155   5.0898825463e+01   2.8725294613e+01    0.1417892    0.1135789  22.97 0.0004965606    1.619    0.382
        68  -9.6144     51.7084     64.3077   8.4684104976e+01   5.8722121392e+01    0.3508662    0.2159852  48.09  0.001462841    2.272    0.560
        69 -10.5072     13.4875     59.8704   1.0015753213e+02   6.3434619187e+01    0.2495374    0.1989826 -48.64  0.000438111    1.144    0.126
        70 -12.9550    192.8649     49.3933   4.2620675427e+01   3.1028220643e+01     1.064178    0.7950758  46.21  0.001076689    1.540    0.350
        71  -9.8777    119.9856    244.5135   1.0067591462e+02   6.5307866629e+00    0.1846097    0.1727984 -68.04 0.0008230504    1.248    0.199
        72  -9.6628    122.2646    198.8839   9.3571968416e+01   1.5488478769e+01    0.3146732    0.2467855  89.97  0.001299418    1.623    0.384
        73  -9.0393     78.6135     57.3467   7.1805788676e+01   5.5779301211e+01    0.2415552    0.1627139  48.51  0.001185749    1.675    0.403
        74 -11.0179    192.9292    194.7208   7.6606565007e+01   4.2019189817e+00    0.8152349    0.4405655 -63.26  0.002553727    5.154    0.806
        75 -14.8846      9.6194    207.4308   1.2107635080e+02   2.8296147624e+01     1.382429     1.133711 -49.50  0.006918733    1.567    0.362
        76  -8.3984    234.3064     45.3027   3.6813811835e+01   2.2515726518e+01    0.1094219   0.09832865  27.09 0.0002728284    1.599    0.375
        77  -8.7831    189.5141     15.0176   3.4530204408e+01   3.6012299266e+01    0.1760025    0.1193924 -36.51 0.0006986471    1.561    0.359
        78  -8.7725     88.9119    210.1645   1.0330699251e+02   1.8225665252e+01    0.2088382    0.1668159  62.21 0.0003910462    1.224    0.183
        79  -9.1591    198.0564     23.5025   3.5659193889e+01   3.3123617938e+01    0.1930475    0.1559722 -48.59 0.0005283019    1.235    0.190
