#   1 NUMBER                 Running object number                                     
#   2 MAG_AUTO               Kron-like elliptical aperture magnitude                    [mag]
#   3 X_IMAGE                Object position along x                                    [pixel]
#   4 Y_IMAGE                Object position along y                                    [pixel]
#   5 X_WORLD                Barycenter position along world x axis                     [deg]
#   6 Y_WORLD                Barycenter position along world y axis                     [deg]
#   7 A_WORLD                Profile RMS along major axis (world units)                 [deg]
#   8 B_WORLD                Profile RMS along minor axis (world units)                 [deg]
#   9 THETA_WORLD            Position angle (CCW/world-x)                               [deg]
#  10 FWHM_WORLD             FWHM assuming a gaussian core                              [deg]
#  11 ELONGATION             A_IMAGE/B_IMAGE                                           
#  12 ELLIPTICITY            1 - B_IMAGE/A_IMAGE                                       
         1 -14.5935      6.7143     24.5238   1.2437232391e+02   7.0379366047e+01     1.265779    0.6283131 -46.64  0.006901346    1.477    0.323
         2 -11.7253     20.9208     14.4556   1.1306304906e+02   7.1009384544e+01    0.3559723    0.2091656 -15.51  0.002137271    1.780    0.438
         3 -11.8287     75.5865     13.4363   8.9577756964e+01   6.3414043211e+01    0.3863633    0.2322858  43.38  0.001144469    1.609    0.378
         4 -12.9315     96.0350      3.4672   7.9001475111e+01   6.0341673762e+01    0.4779146    0.2633989  51.63  0.001726026    1.631    0.387
         5 -11.5600     90.4816      1.6013   7.9586009657e+01   6.1690034803e+01    0.3369306    0.1748754  59.76   0.00107976    1.956    0.489
         6 -11.7527     82.2449     13.6094   8.7523303686e+01   6.2129066990e+01    0.2748246    0.2174862  31.27 0.0007696699    1.169    0.144
         7 -12.6439     87.1482     11.3926   8.5024698011e+01   6.1406491646e+01    0.5720909    0.3977377  69.97   0.00211055    1.948    0.487
         8 -12.0188    123.9818     10.0629   7.5438722323e+01   5.3345286839e+01    0.2501795     0.239269  -0.90 0.0003659177    1.097    0.089
         9 -10.8129    138.1863      5.8266   7.1191428259e+01   5.0259254178e+01    0.1989564    0.1454439  41.53  0.000870252    1.321    0.243
        10 -11.1678    111.4040      5.7036   7.6339128222e+01   5.6712824810e+01    0.3270335    0.1466623  34.02  0.001337691    2.537    0.606
        11 -13.1667     84.5850      4.8401   8.2726355217e+01   6.2601348393e+01    0.6191056    0.3692767  31.44  0.003292555    1.617    0.382
        12 -10.9545     33.7920      4.0161   1.0142529781e+02   7.1123288501e+01    0.1937474    0.1491062  13.35 0.0007886367    1.228    0.185
        13 -11.9141     73.3269      1.4755   8.4493876156e+01   6.5126319513e+01    0.2250379    0.1381468  51.30 0.0003970321    1.634    0.388
        14 -10.5850    234.1901    223.6895   1.0939902942e+02  -5.3201786467e+00    0.1765695    0.1333647  42.10 0.0009544938    1.410    0.291
        15 -12.1244     84.1408    172.0995   1.3089484144e+02   2.9398846553e+01    0.3571914    0.2064965  61.15  0.001778036    1.758    0.431
        16 -11.9072     89.9609    168.7315   1.2910493907e+02   2.9243608881e+01    0.3559052    0.1845699 -69.38   0.00149826    2.004    0.501
        17 -12.7373     43.8237    167.6341   1.3934297743e+02   3.5740015720e+01    0.3103626    0.1695204  56.47  0.001709336    1.722    0.419
        18 -15.9341    171.7541    222.0567   1.2019109780e+02   5.1837965987e+00     1.435729     1.109354  25.92  0.008072213    1.298    0.230
        19 -13.8141    216.1642    206.5620   1.0960690434e+02  -2.1017385938e-01     1.720356     1.032142 -30.64  0.009545187    1.812    0.448
        20 -12.6585    192.4953    156.0005   1.0428743469e+02   1.2301721701e+01    0.5221159    0.3207408 -59.00  0.002236919    2.281    0.562
        21 -16.2684    109.4350    119.9293   1.1519858311e+02   3.6995315550e+01     2.236572     1.209577  51.86  0.009376738    2.007    0.502
        22 -13.8511     74.5828    156.9277   1.3095493882e+02   3.4193920982e+01    0.8391729    0.4477918 -52.69  0.004043443    1.966    0.491
        23 -16.2471     79.1810    130.9167   1.2552053357e+02   3.9548939061e+01     2.197671     1.128719 -63.30  0.009888383    1.830    0.454
        24 -13.3336    159.7611    154.3383   1.1073366088e+02   1.9426453037e+01     1.005558    0.8805789  68.36  0.005469419    1.190    0.160
        25 -13.2265     58.9708    145.9520   1.3315693062e+02   3.8829907004e+01    0.6538923    0.4336873  73.29  0.003282906    1.549    0.355
        26 -13.3514     51.7069    143.6460   1.3463437326e+02   4.0259526967e+01    0.4076759    0.3235638  64.96  0.001693075    1.224    0.183
        27 -10.1865    105.7678    158.9628   1.2390730992e+02   2.8805974452e+01    0.1800182    0.1119603 -58.92 0.0004741088    1.594    0.373
        28 -12.3354     40.9618    144.0457   1.3733672650e+02   4.1388853266e+01    0.1947426    0.1600426 -87.29 0.0004498247    1.024    0.023
        29 -13.3307    123.5475    141.7282   1.1641096722e+02   2.9391062321e+01    0.9122398    0.3242525  45.97  0.003174682    2.788    0.641
        30 -10.6639      7.8555    142.3788   1.4508186499e+02   4.4810014555e+01      0.12484    0.1125198  -6.85 0.0003161646    1.660    0.397
        31 -14.5054    106.6392    133.8127   1.1896109910e+02   3.4334219244e+01     1.175265    0.4710687  34.95   0.00410031    3.152    0.683
        32 -14.4662    148.4360    132.9235   1.0857203289e+02   2.6227895618e+01     1.163983    0.9194016  76.83  0.005651681    1.485    0.326
        33 -12.7926     88.0278    132.5146   1.2349934931e+02   3.7802777615e+01    0.4052489    0.2829172 -61.76 0.0003530567    1.332    0.249
        34 -13.3000     47.3361    129.3458   1.3370761512e+02   4.4103825577e+01    0.5079507    0.2384944  45.15  0.002434771    2.248    0.555
        35 -12.2935     10.4213    130.0247   1.4331983393e+02   4.7387722901e+01    0.3417594    0.2152867  44.17  0.001793185    1.741    0.425
        36 -15.4121     95.4532    126.4661   1.2033393674e+02   3.7986509153e+01     1.107809     0.831629 -59.61   0.00579163    1.250    0.200
        37 -13.3742    133.4824    115.1881   1.0787943880e+02   3.3234787796e+01    0.4496348    0.2876092  46.08  0.001990822    1.590    0.371
        38 -12.5310    122.5950    110.4351   1.0944038506e+02   3.6547772148e+01    0.3840444    0.3192196 -80.24 0.0007158584    1.335    0.251
        39 -13.9591    120.7147    103.6058   1.0815335112e+02   3.8433078240e+01    0.8096561    0.4466842 -44.28  0.003368362    1.772    0.436
        40 -14.2121     73.7329    109.0506   1.2263092840e+02   4.5486728510e+01    0.6681716    0.3165471  42.05  0.001203892    2.274    0.560
        41 -13.6625     89.0703    107.7351   1.1791904153e+02   4.3401223436e+01     0.475199    0.3124462  28.40  0.001113417    1.889    0.471
        42 -13.4913     79.4781    105.0787   1.2006379974e+02   4.5550115829e+01    0.4186392    0.2778349 -59.42   0.00137656    1.384    0.278
        43 -13.4606     42.4066    156.0701   1.3841263112e+02   3.8485371260e+01    0.4851307    0.2196559 -56.86  0.002381943    2.172    0.540
        44 -12.1758    130.1448    104.1099   1.0584018020e+02   3.6343077205e+01    0.2447223    0.2189808 -12.16  0.001253963    1.284    0.221
        45 -13.3186     17.4574    100.9553   1.3785667600e+02   5.3505254326e+01    0.4048723    0.3657148 -62.71   0.00264978    1.192    0.161
        46 -14.1132    105.0890    100.7646   1.1164646073e+02   4.2141963955e+01    0.5124776    0.4813179   0.25  0.001711603    1.205    0.170
        47 -14.2935    113.1225     98.1052   1.0871228363e+02   4.1171358038e+01    0.8750871    0.4328498 -55.29  0.003362546    2.190    0.543
        48 -13.5725     58.6502     98.8969   1.2491378450e+02   4.9900813050e+01    0.5587385    0.3516779  74.18  0.002417615    2.329    0.571
        49 -13.4270     55.0039     94.9346   1.2517139264e+02   5.1267130412e+01    0.5105698    0.3333219 -37.06  0.002666725    1.707    0.414
        50 -14.1529     83.1179     96.5000   1.1690093519e+02   4.6944814978e+01    0.6756359    0.4082199  69.31  0.002735276    2.769    0.639
        51 -12.2262     89.9778     95.0125   1.1447409370e+02   4.6144263300e+01    0.2187808    0.2007051 -57.26  0.001243141    1.010    0.010
        52 -10.7168     36.2976     94.6951   1.3101183719e+02   5.3351152200e+01    0.1240962   0.08958277  80.97 0.0002036726    1.586    0.369
        53 -10.8891     31.8131     93.1820   1.3214061807e+02   5.4115874203e+01     0.172366    0.1212495 -50.03 0.0003058678    1.297    0.229
        54 -14.8501     90.3489     86.5449   1.1205024468e+02   4.7954444039e+01     1.178914    0.4911166  54.37  0.003889035    3.809    0.737
        55 -13.6970     95.9910     84.8347   1.0986652745e+02   4.7321612225e+01    0.6057265    0.3628692 -72.26  0.002312033    2.831    0.647
        56 -11.3069     32.4950    102.6786   1.3362952585e+02   5.1862606440e+01    0.1859595    0.1187889  27.87  0.001018992    1.919    0.479
        57 -12.6517     54.6334     82.9203   1.2245443192e+02   5.4043619012e+01    0.3204789    0.2892328 -10.84  0.002027537    1.266    0.210
        58 -11.0828    128.8887     83.1272   1.0017465545e+02   4.0989846520e+01    0.2284206    0.2059674 -74.40 0.0003584182    1.198    0.165
        59 -12.3481     68.1298     81.4407   1.1761753695e+02   5.2589186223e+01    0.2965129    0.1320646  38.98  0.001263404    2.490    0.598
        60 -10.2608    143.8215     76.8250   9.4528633338e+01   3.8773732775e+01    0.1993379    0.1758662 -72.86 -0.000430966    1.240    0.193
        61 -13.9708     95.8645     72.6111   1.0618678842e+02   4.9902425393e+01    0.7725629    0.4512444  31.30   0.00132048    2.075    0.518
        62 -10.2195     42.5085     76.5006   1.2497409583e+02   5.6848520366e+01    0.1301139    0.1080143 -52.52 6.449318e-05    1.015    0.015
        63  -9.9202    144.6913     73.7019   9.3352081896e+01   3.9148055393e+01    0.1547734    0.1216941  14.43 0.0002802846    1.595    0.373
        64 -12.5893     83.3932     68.3698   1.0874069308e+02   5.2984997496e+01    0.2491078    0.2366826 -64.38 0.0005045949    1.147    0.128
        65 -11.9844     69.2700     66.2546   1.1276891272e+02   5.5666258951e+01    0.2329951    0.2126018 -51.30 0.0002052185    1.108    0.097
        66 -10.7468    130.2874     65.3682   9.4190298463e+01   4.4064691140e+01    0.1561826    0.1186698   5.21 0.0005542151    1.705    0.413
        67 -12.0461     50.0126     63.3646   1.1870933641e+02   5.8843160686e+01    0.4203486    0.2026742  20.05  0.001833178    3.001    0.667
        68 -12.7247    125.6843     57.5213   9.2716682912e+01   4.6508237208e+01    0.3196984     0.292964  30.30 0.0004758026    1.102    0.093
        69 -12.9050     68.4859     55.2628   1.0939272022e+02   5.7978836582e+01    0.3539106    0.3372717 -52.75  0.001274888    1.186    0.157
        70 -10.8509    210.3934     54.5519   7.5352067613e+01   2.5727131380e+01    0.1858951    0.1375091  54.64 0.0006681492    1.408    0.290
        71 -10.8089    132.9102     53.8783   8.9660970230e+01   4.5433423641e+01    0.3065526    0.1889894  49.43  0.001363067    1.603    0.376
        72 -11.1188    145.3577     50.9621   8.5795828839e+01   4.2876690456e+01    0.2446024    0.2138296  77.77 0.0009986435    1.225    0.184
        73 -12.6840     42.4534     47.6572   1.1657702557e+02   6.2889801382e+01    0.3431758    0.2972947 -39.53 0.0006160145    1.083    0.077
        74 -12.3143     41.2987     42.9903   1.1540976779e+02   6.3915461327e+01    0.6140727    0.3318076   2.94   0.00272723    3.201    0.688
        75 -12.1521      2.5388     46.9117   1.3291975025e+02   6.6250832776e+01    0.2539438    0.1945474 -63.02  0.001300611    1.144    0.126
        76 -11.4966    157.0320     43.7948   8.0983355985e+01   4.1010502050e+01    0.2325452    0.2141049 -21.26 0.0005447817    1.131    0.116
        77 -10.7469     95.5126     42.5697   9.5690467338e+01   5.5486712158e+01    0.1383512    0.1281262  -2.95 0.0001205952    1.010    0.010
        78 -10.0252    197.5263     40.9889   7.3364606741e+01   3.0917857285e+01    0.1981923    0.1423791 -30.96 -6.122172e-05    1.412    0.292
        79 -12.8441    193.2729    248.0736   1.2003756132e+02  -1.8720594811e+00    0.3244589    0.2875786  77.72  0.002396261    1.611    0.379
        80 -10.9688     82.0170     34.7088   9.6842153436e+01   5.9308129610e+01    0.1903806    0.1708627  11.16  0.001164585    1.070    0.065
        81 -11.3039     41.2795     33.1036   1.1166386090e+02   6.5724204998e+01    0.2022672    0.1532659   2.10 0.0005819511    1.378    0.274
        82  -9.8029     90.6535     30.2602   9.2229516803e+01   5.8324749513e+01    0.1247722    0.1085744 -80.24 0.0005879624    1.600    0.375
        83 -12.0386     83.5528     22.7783   9.1247494448e+01   6.0737207177e+01    0.3466623    0.2993961 -16.99    0.0010363    1.112    0.101
        84 -11.4641     63.7059     17.6525   9.5753562639e+01   6.4962868793e+01     0.313858    0.2189941  50.14  0.001583103    1.735    0.424
        85 -13.0183    184.4982    246.5227   1.2133509189e+02  -3.0253699132e-01    0.2512421    0.2283015 -45.26  0.001677756    1.441    0.306
        86 -14.0763    190.4919    175.0997   1.0859128706e+02   9.3493215605e+00     1.421845     1.178556  44.22  0.008117444    1.153    0.133
        87 -14.3841    204.1650    209.9032   1.1232837331e+02   1.3793598863e+00     1.398775    0.6875541 -33.58  0.006912782    2.343    0.573
        88 -15.9022    183.8085    198.5744   1.1418955727e+02   6.7100202492e+00     2.373522     2.262514  67.80   0.01551214    1.205    0.170
        89 -13.3906     69.6386    197.3909   1.3698827408e+02   2.6136299784e+01    0.3762971    0.3023975  71.76  0.002528595    1.026    0.026
        90 -11.0749    106.3131    189.6615   1.2849631391e+02   2.2186130415e+01    0.1394236   0.09060038  73.17 0.0003477169    1.694    0.410
        91 -11.1935    249.2412    216.4131   1.0568554154e+02  -6.7652665014e+00    0.1589086    0.1006121  43.84 0.0009574329    1.688    0.408
        92 -11.5272     69.7054    184.1104   1.3554296170e+02   2.8887984352e+01    0.3047985    0.2011004 -87.05  0.001551545    1.424    0.298
        93 -11.3250     33.7610    177.5183   1.4243312289e+02   3.4705295290e+01    0.2356407    0.1812411  30.47  0.001578454    1.722    0.419
        94 -11.3607     82.0228    177.3358   1.3206433831e+02   2.8578107162e+01    0.1908842    0.1541411  62.42  0.001167494    1.115    0.103
        95 -11.3275     42.2845    175.7105   1.4048017983e+02   3.4150364633e+01    0.2284684    0.1531368  73.60  0.001419274    1.279    0.218
