#   1 NUMBER                 Running object number                                     
#   2 MAG_AUTO               Kron-like elliptical aperture magnitude                    [mag]
#   3 X_IMAGE                Object position along x                                    [pixel]
#   4 Y_IMAGE                Object position along y                                    [pixel]
#   5 X_WORLD                Barycenter position along world x axis                     [deg]
#   6 Y_WORLD                Barycenter position along world y axis                     [deg]
#   7 A_WORLD                Profile RMS along major axis (world units)                 [deg]
#   8 B_WORLD                Profile RMS along minor axis (world units)                 [deg]
#   9 THETA_WORLD            Position angle (CCW/world-x)                               [deg]
#  10 FWHM_WORLD             FWHM assuming a gaussian core                              [deg]
#  11 ELONGATION             A_IMAGE/B_IMAGE                                           
#  12 ELLIPTICITY            1 - B_IMAGE/A_IMAGE                                       
         1 -15.2348     10.8012    155.6832   1.4497772231e+02   4.1697733278e+01     6.033994     1.757928 -83.59   0.02383135    3.440    0.709
         2 -13.3589    193.8089     29.6946   6.8989179653e+01   3.3196830874e+01     1.485561      1.33572 -32.88   0.00726316    1.195    0.163
         3 -13.6380    209.0247      9.8303   6.1794281789e+01   3.1571122123e+01     1.306022     1.033763  35.39  0.007404636    1.591    0.371
         4 -11.3800      2.2406      7.4732   1.1956897498e+02   7.3794011562e+01    0.3448213    0.1804316 -62.30  0.001888845    2.745    0.636
         5 -11.0633    198.3358    246.2898   1.1729383877e+02  -2.9229824998e+00    0.2120039    0.1729481  43.59  0.001498953    1.268    0.212
         6 -11.1917    139.8800    250.0735   1.2824340243e+02   5.8562672424e+00    0.3768915    0.1307631  43.35  0.001763344    2.195    0.544
         7 -10.1419    122.4526    250.3260   1.3140063182e+02   8.5341544462e+00     0.219918   0.08537187  42.37 0.0009598733    1.996    0.499
         8 -10.3490    111.3320    250.6318   1.3341654567e+02   1.0178257935e+01    0.2786349   0.08559684  44.18 0.0007421787    2.422    0.587
         9 -10.5238     97.8137    248.7814   1.3564447914e+02   1.2477805811e+01    0.2169067    0.2057468  -0.72  0.001193787    1.637    0.389
        10 -10.6363    101.0324    246.2451   1.3483837389e+02   1.2418779705e+01    0.1874931    0.1681837 -81.04 0.0006099055    1.366    0.268
        11 -11.2927     29.5731    249.9522   1.4729017825e+02   2.1119094467e+01    0.5693274    0.1616759  39.46  0.002925526    2.940    0.660
        12  -9.9789     33.6744    247.6623   1.4651254727e+02   2.1046814320e+01    0.1577599    0.1220637  72.07  0.001134242    1.188    0.159
        13 -10.8519     35.3456    243.9734   1.4604100965e+02   2.1492159894e+01    0.3064075    0.2267982  40.93  0.002327228    1.589    0.371
        14 -10.6384      2.4309    248.7278   1.5146484082e+02   2.4159113399e+01    0.3532125    0.1453009 -79.71    0.0023276    2.174    0.540
        15 -10.5900      5.6730    241.0403   1.5068220318e+02   2.5158390706e+01    0.1636131    0.1183831  53.95 0.0004195225    1.340    0.254
        16  -9.3822     22.9365    245.2448   1.4812528293e+02   2.2653097437e+01    0.1647764   0.09507207  62.31 0.0005685619    1.212    0.175
        17 -11.5766    238.9993    248.8151   1.1071869287e+02  -9.2816700462e+00    0.3063604    0.1972388  36.02  0.002079734    1.355    0.262
        18  -9.1135    183.2877    238.6680   1.1890584797e+02   4.7099875799e-01    0.1124073   0.08784449  63.13 0.0003275901    1.623    0.384
        19 -10.6928    232.4581    235.1094   1.0968906155e+02  -6.8316332281e+00    0.2513809    0.1966863  82.05  0.001373908    3.358    0.702
        20  -9.9805    229.8654    230.7236   1.0942980867e+02  -5.9277747193e+00    0.1943003    0.1603464 -63.20  0.001241328    2.240    0.554
        21 -10.5494    249.8825    247.8949   1.0879778645e+02  -1.0696876160e+01    0.2653126    0.1568436   0.58  0.001686585    1.750    0.429
        22 -11.0246     15.6780    197.0623   1.4682380113e+02   3.2455747494e+01    0.1949111    0.1523733  75.47 0.0003314718    1.114    0.103
        23 -10.0209    193.0739    195.2872   1.1010725722e+02   5.2137780380e+00     0.698033    0.3430285 -61.95  0.001868906    7.984    0.875
        24  -8.9014     51.4358    197.2976   1.3980668458e+02   2.8466440598e+01    0.2165116    0.1066999  57.43 0.0008797112    1.793    0.442
        25 -12.7072     36.6227    232.6321   1.4517613466e+02   2.3361636947e+01    0.2785435    0.2270786  80.59 0.0007494236    1.249    0.199
        26  -9.5560    144.3225    229.6611   1.2494752668e+02   8.2829556952e+00     0.127472   0.08594872  66.34 0.0007050729    1.719    0.418
        27 -11.8726     68.6505    190.3694   1.3553628622e+02   2.7669776650e+01    0.2620361    0.2377388 -72.43 0.0006299012    1.312    0.238
        28 -13.1732     65.3950    175.6650   1.3458070743e+02   3.1301960509e+01    0.4681845    0.2715766 -47.86  0.001527416    2.234    0.552
        29 -10.7366     78.5319    177.6406   1.3185411694e+02   2.9013868311e+01     0.227907    0.2058664  80.19 0.0004559648    1.118    0.105
        30  -9.2606    100.1098    176.7637   1.2682320613e+02   2.5836627434e+01    0.2097585    0.1593959  68.03 0.0006345515    1.252    0.201
        31 -11.7997     86.0027    168.1694   1.2883025215e+02   2.9991770220e+01    0.6206311    0.5610966  66.20  0.003842283    1.106    0.096
        32 -14.7639     42.3174    224.6049   1.4366496209e+02   2.4178831839e+01     5.301353     1.357969  37.86  0.007085659    3.452    0.710
        33 -10.0028     98.3412    152.3161   1.2329186953e+02   3.1597902535e+01    0.3033697    0.2564006 -63.10 0.0008568146    1.178    0.151
        34  -9.1719    101.1408    148.0999   1.2183044819e+02   3.2087686937e+01    0.2056917    0.1928409 -29.91 0.0004206539    1.287    0.223
        35 -12.0200     86.9658    151.5087   1.2600004362e+02   3.3644825825e+01    0.2851401    0.2481378 -51.10 0.0005078971    1.282    0.220
        36 -12.5392     67.1121    143.9309   1.2984390406e+02   3.8344318812e+01    0.7714873    0.5069166  75.20  0.003937787    1.679    0.405
        37 -11.5767     57.3774    132.4706   1.3061551125e+02   4.2329693949e+01    0.7292373    0.3504775 -84.72    0.0028278    2.971    0.663
        38  -8.4098    192.0022    143.9932   9.9894087442e+01   1.4404946561e+01     0.172504    0.1658544 -11.51 0.0003928847    1.035    0.034
        39  -8.6586    181.1872    144.3973   1.0222210534e+02   1.6676158861e+01    0.2002085    0.1405035  58.16  0.000339992    1.560    0.359
        40 -10.4792    173.2764    222.4051   1.1840161538e+02   4.4949884411e+00    0.3299778    0.1890484  47.06  0.001366346    1.540    0.351
        41  -9.7216    109.9111    136.9637   1.1740761010e+02   3.3083152851e+01     0.383278    0.2552528 -23.90  0.001582492    2.484    0.597
        42 -10.5064     97.1410    134.4901   1.2024823402e+02   3.5938015960e+01    0.2635584    0.2205882 -43.93 0.0005255474    1.301    0.232
        43 -11.2989     34.9234    133.4769   1.3679069956e+02   4.4603101513e+01     0.335749    0.2132034  67.88  0.001273994    1.642    0.391
        44  -9.8837     81.2972    133.0032   1.2420884952e+02   3.8870591369e+01    0.2402256    0.1906294  58.93 0.0003219453    1.279    0.218
        45  -8.7313     91.5600    131.6181   1.2116608318e+02   3.7555434866e+01    0.1417564    0.1303002  87.59 0.0001086977    1.029    0.029
        46  -9.0607    106.8460    123.8913   1.1538686237e+02   3.6668186103e+01    0.1992529    0.1928498 -37.61 0.0003011808    1.129    0.114
        47 -13.0999      8.9072    207.2648   1.4863884355e+02   3.1075288606e+01    0.7006081    0.6168063  37.59   0.00399172    1.627    0.385
        48  -9.7861    155.5024    228.4976   1.2266147084e+02   6.5888222042e+00    0.1266889    0.1035273  41.38 0.0008104557    1.034    0.033
        49 -10.1539    167.7229    112.7834   9.7460265553e+01   2.5988146281e+01    0.3421587    0.2750849 -82.17 0.0008704627    1.535    0.349
        50  -9.3548    203.1956    111.5983   8.9905565856e+01   1.7857210086e+01    0.2141498    0.1379639  40.16 0.0004827144    1.674    0.403
        51  -8.8670    152.4888    212.9504   1.2103943117e+02   9.6514420837e+00    0.1628362    0.1315985 -54.07 0.0003802307    1.458    0.314
        52 -10.9076    243.0152     85.7116   7.7012660071e+01   1.3127532062e+01    0.1956644    0.1879001 -63.71  0.001023088    1.078    0.073
        53  -8.7896     69.2390     84.0028   1.1679029089e+02   5.2080188904e+01    0.1853865    0.1417235  61.14 0.0004402341    1.621    0.383
        54  -8.8615    184.4766     77.4646   8.4283689205e+01   2.8500925583e+01    0.1516609    0.1505542  41.18 0.0008085885    1.053    0.050
        55  -9.5515     33.8380     62.8579   1.2378392351e+02   6.0896325121e+01    0.2378816    0.1704518  31.78  0.001450013    1.644    0.392
        56 -10.4846     25.5080     59.5016   1.2616930435e+02   6.2331555187e+01    0.4245667    0.1613055  38.01  0.001921696    3.284    0.695
        57 -10.3375     18.7369     56.9747   1.2824111270e+02   6.3376900202e+01    0.4055094    0.1212121  34.57  0.001726597    3.933    0.746
        58  -9.5835     46.8819    249.1399   1.4442902540e+02   1.9243178636e+01    0.1715093    0.1010087  64.17 0.0004534615    1.255    0.203
        59  -9.9104     80.7536    247.6181   1.3854960813e+02   1.5098311175e+01    0.2976921    0.1247883  69.71  0.001316969    3.416    0.707
        60 -11.6079     62.7864    198.3860   1.3759079167e+02   2.6784416865e+01    0.3038352    0.2463664 -45.64  0.001324653    1.769    0.435
        61 -11.0829     19.1757    199.2217   1.4629260434e+02   3.1675034979e+01    0.2116834     0.154853  67.85 0.0004275462    1.099    0.090
