#   1 NUMBER                 Running object number                                     
#   2 MAG_AUTO               Kron-like elliptical aperture magnitude                    [mag]
#   3 X_IMAGE                Object position along x                                    [pixel]
#   4 Y_IMAGE                Object position along y                                    [pixel]
#   5 X_WORLD                Barycenter position along world x axis                     [deg]
#   6 Y_WORLD                Barycenter position along world y axis                     [deg]
#   7 A_WORLD                Profile RMS along major axis (world units)                 [deg]
#   8 B_WORLD                Profile RMS along minor axis (world units)                 [deg]
#   9 THETA_WORLD            Position angle (CCW/world-x)                               [deg]
#  10 FWHM_WORLD             FWHM assuming a gaussian core                              [deg]
#  11 ELONGATION             A_IMAGE/B_IMAGE                                           
#  12 ELLIPTICITY            1 - B_IMAGE/A_IMAGE                                       
         1 -15.4062    243.3446     21.2564   6.8390895440e+00   2.1373600928e+01     4.277202    0.9972666 -32.01   0.01609595    3.036    0.671
         2 -11.5818     13.5941     12.1909   6.2744897781e+01   7.4432348113e+01    0.2683728   0.09281475 -47.58  0.001202209    2.309    0.567
         3 -12.7725      6.7926     11.3708   6.7252398586e+01   7.5138495453e+01    0.5141425    0.1752915 -40.91  0.002348271    2.335    0.572
         4 -12.8653     11.0706      2.6364   5.8933970906e+01   7.6383049385e+01    0.7415119    0.2603158  28.64  0.003443392    3.033    0.670
         5 -11.5349      3.0172      4.8164   6.6668571033e+01   7.6654255439e+01    0.2776655    0.1681563 -12.05  0.001671501    1.655    0.396
         6 -10.4545    134.6507    245.3103   7.3294697463e+01   7.9583029735e+00    0.1167575   0.07329522  54.46 0.0007044972    1.714    0.417
         7 -11.1555     90.2855    249.9635   8.2039998552e+01   1.3302536953e+01     0.267005    0.1071552  42.79  0.001470354    1.791    0.442
         8 -11.1233     75.7039    250.3371   8.4755930048e+01   1.5090991285e+01    0.3236771   0.08876931  38.41  0.001532032    2.543    0.607
         9 -11.6208     66.0613    248.8676   8.6421529630e+01   1.6499897007e+01    0.3632033    0.1398158  50.80  0.002005116    2.008    0.502
        10 -10.8044     51.7122    249.8320   8.9077704485e+01   1.8025467938e+01    0.3365035   0.08587144  41.03  0.001670551    2.477    0.596
        11 -12.3004    249.0922    244.9907   5.3250448392e+01  -7.4010806325e+00    0.2724276    0.1791297  12.40  0.002070019    1.046    0.044
        12 -11.6143     84.0021    244.6028   8.2787582579e+01   1.4946027667e+01    0.2927584    0.1370112  49.03  0.001697493    1.675    0.403
        13 -10.1771     45.7249    244.5914   8.9871993021e+01   1.9554714242e+01      0.20398   0.09610368  45.45  0.001067067    1.511    0.338
        14 -11.9183    115.5470    242.9805   7.6664356398e+01   1.0971122593e+01    0.2143821    0.1162317  49.75  0.001259796    1.621    0.383
        15 -10.4547    225.2723    242.1647   5.6668840714e+01  -4.1943528573e+00    0.1755615    0.1104957   0.68  0.001195258    1.449    0.310
        16 -11.8863     73.2481    239.9662   8.4465459131e+01   1.7060015507e+01    0.3999273    0.1571505  50.15   0.00212084    2.035    0.509
        17 -10.7132     53.9361    239.6876   8.8082038778e+01   1.9438065991e+01     0.313401     0.136997  63.87  0.001714039    2.284    0.562
        18 -11.3340     94.5732    236.2647   8.0061711739e+01   1.4892659791e+01    0.2803514    0.1224207  52.83  0.001432526    2.164    0.538
        19 -10.9776     82.1407    236.4695   8.2489752259e+01   1.6504261632e+01    0.2923196    0.1277585  52.12  0.001558224    1.981    0.495
        20 -10.1019     45.2364    236.8274   8.9536938069e+01   2.0917097637e+01    0.2014459   0.06758213  59.03 0.0009559264    2.832    0.647
        21 -11.0316    232.7774    244.9816   5.5848610610e+01  -5.4230397984e+00    0.2543604    0.1200537 -17.38  0.001492566    2.348    0.574
        22 -11.1493     63.3003    231.7128   8.5775204756e+01   1.9686355247e+01    0.3465265    0.1596001  65.89  0.001812397    2.402    0.584
        23 -10.5856    235.4678    228.0051   5.2834641144e+01  -4.0502044879e+00    0.2331299    0.0941368 -23.84  0.001211919    2.660    0.624
        24 -11.4347    248.1400    224.3247   5.0201171568e+01  -5.2948355465e+00    0.1976086    0.1207561  -6.77  0.001325376    1.414    0.293
        25 -10.3923      4.0910    243.2078   9.7137696617e+01   2.4000630803e+01    0.2086825   0.07436583  64.08  0.001239774    2.130    0.531
        26 -11.2461    240.1012    219.2648   5.0672065459e+01  -3.7311342815e+00    0.2591069    0.1330621 -11.51  0.001462176    2.055    0.513
        27  -9.9907      1.6585    219.3188   9.6877874739e+01   2.8403171173e+01    0.1178813   0.04966879  58.33 0.0007049493    1.716    0.417
        28 -11.6226    247.4561    216.7723   4.9074085111e+01  -4.4273185368e+00    0.2707933    0.1564206 -16.92  0.001738441    1.566    0.361
        29 -10.2274     14.1625    216.7663   9.4437484420e+01   2.7744631974e+01    0.2046524   0.05718157  58.21 0.0009536373    2.850    0.649
        30 -10.2538    232.8190    213.3892   5.0901584274e+01  -2.1022131436e+00    0.1991645   0.07899598 -33.55  0.001002203    2.634    0.620
        31 -10.2317    250.4581    211.0059   4.7627887093e+01  -4.2061450325e+00    0.1649643   0.09373157 -21.90  0.001034031    1.605    0.377
        32 -10.0619    240.3252    206.9748   4.8570309863e+01  -2.4078056075e+00    0.1644029   0.08511729 -47.11 0.0007048561    4.426    0.774
        33 -10.1574    247.4497    205.9927   4.7247057410e+01  -3.2642390315e+00     0.169221   0.09605035 -22.80  0.001035803    1.615    0.381
        34 -11.5103      4.0792    197.2354   9.5652314743e+01   3.2429464605e+01     0.329208    0.1101677  79.91  0.001542198    2.884    0.653
        35 -10.4156     12.9932    204.0034   9.4129775380e+01   3.0300462424e+01    0.1962833   0.08994144  61.36  0.001135551    1.739    0.425
        36 -11.3865      3.5094    188.9626   9.5443787391e+01   3.4154441169e+01    0.2535251   0.08786155  88.28  0.001212186    2.648    0.622
        37 -11.5230      1.9478    177.7463   9.5311286413e+01   3.6627579003e+01    0.3359692    0.1148876  80.97  0.001524876    2.783    0.641
        38 -11.1305      5.6498    174.3272   9.4330816954e+01   3.7066227243e+01    0.1962437   0.09499608  62.17  0.001097767    1.720    0.419
        39 -11.5147      3.9166    154.3112   9.3702584507e+01   4.1647636203e+01     0.224261    0.1319333  81.61  0.001328659    1.403    0.287
        40  -9.7170    242.4909    153.5139   3.8032894689e+01   3.9368317828e+00    0.1299719    0.1056636  -6.37 -9.143675e-06    1.015    0.015
        41 -11.0011    249.9964    151.2375   3.6395764769e+01   3.0298220072e+00     0.226519    0.1398152 -36.79 0.0008654365    1.648    0.393
        42 -10.4483    234.2641    146.0081   3.7760351324e+01   6.3564531740e+00    0.1974935    0.1529754 -18.22    0.0011707    1.119    0.106
        43 -10.7426    247.5112    143.9684   3.5244157735e+01   4.4010538054e+00     0.199377    0.1089036 -29.22 0.0009264289    1.584    0.369
        44 -11.7424    243.4621    139.7052   3.4946279788e+01   5.6611491577e+00     0.381139     0.108826 -33.21  0.001416743    3.025    0.669
        45 -10.9802    242.1757    133.3439   3.3751419361e+01   6.7680805448e+00    0.3383932    0.1614882 -35.56  0.001408269    1.889    0.471
        46  -9.6035    217.0000    136.9901   3.8670864228e+01   1.0818397412e+01    0.2309161   0.07284489 -34.02 0.0008042445    2.955    0.662
        47 -11.1983      4.3512    136.4886   9.2495773075e+01   4.5765396255e+01    0.2236163   0.09522924 -80.66  0.001089813    1.935    0.483
        48 -11.2212    247.6452    112.5791   2.8280295293e+01   8.7015237544e+00      0.39899    0.1657949 -32.89   0.00175457    2.016    0.504
        49 -10.3990    248.6041    135.2230   3.3198988687e+01   5.4048456558e+00    0.2779989    0.1292812 -39.19  0.001286586    2.116    0.527
        50 -11.4023    248.0602    129.7456   3.2079810185e+01   6.2477072472e+00    0.4135208     0.231405 -37.28  0.001777503    1.675    0.403
        51 -10.6793    249.0000    124.0115   3.0672517896e+01   6.8746453854e+00    0.3174289    0.1511673 -32.09  0.001439794    1.781    0.439
        52 -11.4203    247.3665    118.9867   2.9777029866e+01   7.8590275310e+00    0.5143675    0.2425046 -45.04  0.002248605    2.455    0.593
        53 -11.2287    232.4600    132.5625   3.5091502553e+01   8.6115119302e+00    0.4899157    0.2057903 -39.97  0.002054397    2.367    0.578
        54 -10.3149    219.6101    127.8098   3.6115471846e+01   1.1737491810e+01    0.2079828    0.1174755 -40.08 0.0009601117    1.756    0.431
        55 -10.7165      2.5064    128.0148   9.2424032910e+01   4.7907917104e+01    0.1952989   0.09988619 -83.12  0.001033212    1.597    0.374
        56 -11.5513    238.9897    123.7918   3.2093147209e+01   8.6908962442e+00    0.6058079    0.2626177 -36.80  0.002664075    2.073    0.518
        57 -10.5213    227.1908    124.0796   3.3997788425e+01   1.0848983717e+01    0.3432698    0.1789737 -32.22  0.001587844    1.715    0.417
        58 -10.7479    219.1123    117.0539   3.3655120117e+01   1.3502871571e+01    0.3578083    0.1916535 -31.66  0.001620188    1.695    0.410
        59 -11.4001    231.3627    114.7805   3.1164435337e+01   1.1435880771e+01    0.5104215    0.2135247 -38.61  0.002118781    2.196    0.545
        60 -11.8734    241.1187    109.5219   2.8489087457e+01   1.0339626035e+01    0.4697382    0.2417068 -33.90  0.002159379    1.669    0.401
        61 -11.6791    242.0147     93.2768   2.4520168538e+01   1.2473760650e+01    0.3153422    0.1663617 -35.14  0.001005441    1.611    0.379
        62 -10.8030    248.2205    107.2367   2.6973940822e+01   9.3403066210e+00    0.3555405    0.1441457 -38.58  0.001524675    2.186    0.542
        63 -10.9961    247.3853    103.1604   2.6141554266e+01   1.0062290826e+01    0.3089691    0.1806092 -40.66  0.001366167    1.600    0.375
        64 -11.5890    242.8419     98.4535   2.5644083110e+01   1.1583376485e+01    0.3510111    0.2095375 -46.76  0.001230753    1.772    0.436
        65 -10.5130    230.5136    103.6377   2.8626666569e+01   1.3254479274e+01    0.2862827    0.2105667 -42.41   0.00148405    1.349    0.259
        66 -10.3653    237.9038    102.5476   2.7297547308e+01   1.1955674057e+01    0.2912859    0.1458349 -42.79  0.001305917    1.969    0.492
        67 -11.2977    248.7958     97.6841   2.4678761019e+01   1.0558111854e+01    0.3732208    0.1443417 -35.62  0.001339593    2.134    0.531
        68 -12.7331    244.7062     78.4465   2.0611756873e+01   1.3996580545e+01    0.5473668    0.2946423 -63.01  0.002251108    3.053    0.672
        69 -12.4783    248.1131     72.5118   1.8787951775e+01   1.4115470599e+01    0.6614265    0.1443234 -35.18  0.002246995    3.288    0.696
        70 -11.1931    248.1856     92.1723   2.3462267047e+01   1.1434174116e+01    0.2807035    0.1667798 -35.38 0.0008870017    1.425    0.298
        71 -12.2148    249.2682     87.6555   2.2261371345e+01   1.1846108922e+01    0.3775539    0.1945223 -30.55  0.001241594    1.624    0.384
        72 -12.0326    246.5100     84.5145   2.1852083769e+01   1.2810554542e+01    0.2277618    0.1602371 -23.31 0.0008452153    1.270    0.213
        73 -10.4392    235.7758     95.8203   2.5976458318e+01   1.3345355031e+01     0.195004    0.1467363 -46.33  0.001066577    1.362    0.266
        74 -10.5296    237.0381     90.0098   2.4390878877e+01   1.3925277935e+01    0.2210034      0.15102 -53.95 0.0008995169    1.678    0.404
        75  -9.5594    226.2969     87.6605   2.5285527068e+01   1.6484887824e+01    0.1446985   0.09995731 -54.86 0.0007032352    1.659    0.397
        76  -9.9619    225.3078     81.6331   2.3894516785e+01   1.7578399873e+01    0.1497829   0.09834292 -55.37 0.0007036841    1.753    0.430
        77 -11.8138    239.0622     72.0451   1.9719870052e+01   1.6018989731e+01    0.2640153    0.1468359 -41.39 0.0008413194    1.591    0.371
        78 -11.6333    110.7197    249.0022   7.8153809178e+01   1.0740041351e+01    0.2220251    0.1062231  46.22  0.001147149    1.652    0.395
        79 -10.5044    121.6527    248.3064   7.6043525515e+01   9.3466413852e+00    0.1170144   0.06993359  54.68 0.0006073367    1.699    0.412
        80  -9.7725     34.3120    248.6692   9.2109329417e+01   2.0125019554e+01    0.1135225   0.05191064  58.19 0.0007043521    1.673    0.402
        81 -11.3619    100.1672    247.2056   7.9966920976e+01   1.2425669714e+01    0.1659133    0.1044993  53.30  0.001087717    1.375    0.273
