#   1 NUMBER                 Running object number                                     
#   2 MAG_AUTO               Kron-like elliptical aperture magnitude                    [mag]
#   3 X_IMAGE                Object position along x                                    [pixel]
#   4 Y_IMAGE                Object position along y                                    [pixel]
#   5 X_WORLD                Barycenter position along world x axis                     [deg]
#   6 Y_WORLD                Barycenter position along world y axis                     [deg]
#   7 A_WORLD                Profile RMS along major axis (world units)                 [deg]
#   8 B_WORLD                Profile RMS along minor axis (world units)                 [deg]
#   9 THETA_WORLD            Position angle (CCW/world-x)                               [deg]
#  10 FWHM_WORLD             FWHM assuming a gaussian core                              [deg]
#  11 ELONGATION             A_IMAGE/B_IMAGE                                           
#  12 ELLIPTICITY            1 - B_IMAGE/A_IMAGE                                       
         1  -8.9354     74.0978     19.6479   7.6685537575e+01   6.4336606890e+01    0.3455266    0.1950149 -49.94  0.001100746    2.280    0.561
         2  -8.5587     55.7039     10.0904   7.8762533713e+01   6.9688518468e+01    0.2186739    0.1843101  86.55 0.0008185477    1.545    0.353
         3  -8.0767     47.6485     10.3127   8.2811868284e+01   7.1340945795e+01    0.1899561    0.1587808 -77.76  0.001075657    1.754    0.430
         4  -8.5610     90.8572      9.1823   6.6463569776e+01   6.1390823868e+01    0.2115198    0.1807964 -79.25  0.000642688    1.258    0.205
         5  -7.7691    101.3879      8.1982   6.3635016230e+01   5.8759497879e+01    0.1806861    0.1242477 -41.47 0.0002791967    1.584    0.369
         6  -7.7061     12.3959      8.6938   1.0705925626e+02   7.7151013014e+01    0.1191634   0.09310494  52.20 0.0007004495    1.830    0.454
         7  -8.6481     33.4774      5.0448   8.7601513027e+01   7.4723911706e+01    0.3015124    0.1955523 -56.57  0.001480273    2.607    0.616
         8  -8.5276     79.2099      4.1409   6.6984599610e+01   6.4809757919e+01    0.2808847     0.168389 -34.65 0.0008926453    1.849    0.459
         9  -7.9810     15.5467      3.4584   1.0057770586e+02   7.7693566614e+01    0.1243346    0.1030548  -2.59 6.359895e-05    1.022    0.022
        10  -8.4642     62.3388      1.6393   7.0916199607e+01   6.9110553469e+01    0.2215665    0.1528238  73.22 0.0005270502    1.579    0.367
        11  -7.6143     39.4971      1.4894   8.1304905373e+01   7.4052801216e+01    0.1273766    0.1128885  29.01 -8.309358e-05    1.068    0.064
        12  -8.9731    120.2663    245.4997   1.1751835595e+02   8.9834212856e+00    0.3331012    0.1872173  55.97  0.001723568    2.455    0.593
        13  -9.4821    211.2621    246.8760   1.0002722768e+02  -2.3434232502e+00    0.2649279    0.1789623 -47.11  0.001604852    2.480    0.597
        14  -8.4064     93.8760    249.4891   1.2356707275e+02   1.1685476169e+01    0.2153905    0.1424969  69.19  0.001291773    1.977    0.494
        15  -8.4350    190.4045    246.4639   1.0366911366e+02   6.7451559946e-02    0.1124088    0.0834086  10.40 5.210259e-05    1.017    0.016
        16  -8.6751     67.6762    245.2621   1.2893656323e+02   1.5586702994e+01    0.2472509    0.1358732  83.60  0.001165391    2.503    0.601
        17  -8.7945      9.7345    244.5418   1.4136754478e+02   2.1783980383e+01    0.2612754   0.09674434  74.20  0.001322066    2.714    0.631
        18  -7.7372     58.9745    244.9745   1.3082558239e+02   1.6647462422e+01    0.2572744   0.07444503  54.25  0.000947162    4.036    0.752
        19 -10.0066    248.6184    241.9893   9.3297213040e+01  -5.6503126050e+00    0.3393985    0.1493902 -31.78  0.001559186    2.121    0.529
        20  -9.2729    247.6618    234.9036   9.2418734265e+01  -4.8112604226e+00    0.1919117    0.1291007   7.49 0.0008366652    1.134    0.118
        21  -8.9548    201.9295    243.1981   1.0114832266e+02  -8.6429802274e-01    0.2227171    0.1461394 -43.32  0.001102485    2.113    0.527
        22  -8.7706    169.0787    243.3765   1.0728417159e+02   3.0485545922e+00    0.1814479    0.1644351 -13.53 0.0004913514    1.362    0.266
        23  -9.0113     77.6869    243.2619   1.2658023359e+02   1.4741008779e+01    0.2851752    0.1274589  48.26  0.001442298    1.968    0.492
        24  -7.6134     34.3097    243.6947   1.3612660723e+02   1.9564952179e+01    0.1260424   0.06110401  51.61  0.000445599    1.612    0.380
        25  -8.2550    214.4731    241.9736   9.8794892999e+01  -2.1267928885e+00    0.1480224   0.09385977 -27.95  0.001027455    1.584    0.369
        26  -9.1957    182.8783    239.8065   1.0416579777e+02   1.8220610086e+00    0.2966165    0.2457773  54.30  0.001631402    2.005    0.501
        27  -9.3061    160.1633    240.2945   1.0864247535e+02   4.6054653582e+00     0.276311     0.214917 -73.09  0.001729558    2.384    0.581
        28  -7.7522    153.4277    241.9320   1.1020498770e+02   5.2346237251e+00    0.1338317    0.1055217  80.52 0.0005559561    2.426    0.588
        29  -8.0751     88.4240    242.0571   1.2410445574e+02   1.3624379991e+01    0.1518483    0.1219539 -76.92 0.0006500604    1.588    0.370
        30  -9.1755    241.0930    239.2512   9.4061190881e+01  -4.6230660779e+00    0.3637732    0.1390273 -20.19  0.001834914    3.110    0.678
        31  -9.2589    194.1867    239.4304   1.0201771216e+02   5.0610855323e-01    0.2168733    0.1421778 -23.72 0.0009682322    1.526    0.345
        32  -8.2439    146.0202    239.5666   1.1142499169e+02   6.5445483385e+00    0.1777151    0.1478384  58.17 0.0006036782    1.655    0.396
        33  -8.4507    135.5036    239.0741   1.1356187706e+02   8.0021418752e+00    0.1946965    0.1390673  41.38 0.0007566944    1.354    0.261
        34  -7.8059     41.0000    238.9668   1.3443035448e+02   1.9740126910e+01    0.1630425   0.06573915 -77.53 0.0006557197    2.908    0.656
        35  -9.1150    230.9497    237.2801   9.5386204765e+01  -3.3646999205e+00    0.1970696     0.162921 -41.93  0.001247611    2.102    0.524
        36  -8.1330    208.9645    238.1737   9.9206213382e+01  -1.0585860241e+00    0.1335574    0.1180652 -22.67 0.0008889609    1.575    0.365
        37  -7.9526    129.2338    238.3220   1.1480575360e+02   8.9497494639e+00    0.1509484    0.1058019 -73.56 0.0007998938    2.281    0.562
        38  -8.3205     25.4684    236.9657   1.3775467506e+02   2.1714527548e+01    0.1745967   0.06484935  64.52 0.0008096861    2.679    0.627
        39  -8.7893    216.6924    235.3778   9.7474387201e+01  -1.5960794332e+00    0.1923825    0.1509255 -29.79  0.001050274    1.571    0.364
        40  -9.1625    213.9484    231.9760   9.7447622166e+01  -8.7537700362e-01    0.2169121    0.1960297  40.23  0.001640584    1.867    0.465
        41  -9.3146    203.3528    234.2293   9.9629280507e+01   7.7663254117e-02    0.3626981    0.1923482 -39.34   0.00168402    2.147    0.534
        42  -9.7492    175.7441    233.4571   1.0465625632e+02   3.5755561292e+00    0.3802409    0.2289477 -54.44  0.002123169    2.689    0.628
        43  -8.3898    170.1648    235.7012   1.0605301731e+02   3.9748776885e+00    0.1789301    0.1369494 -57.94  0.000694285    2.080    0.519
        44  -9.5465    109.1652    234.4479   1.1875376554e+02   1.2258878491e+01    0.5177664    0.2553026  48.32  0.001860515    2.071    0.517
        45  -8.1371     58.0112    237.0000   1.3051191965e+02   1.8215676539e+01    0.2104513   0.05594818  29.12 0.0008097279    2.993    0.666
        46  -8.4591     99.5854    234.4107   1.2089303186e+02   1.3529591844e+01    0.2372977    0.1584141  60.25  0.001300195    1.743    0.426
        47  -8.8162     78.6944    234.5159   1.2563335984e+02   1.6187635022e+01    0.2421886    0.1461438  60.19  0.000961753    1.784    0.439
        48  -8.4677      8.0053    235.0327   1.4147251855e+02   2.3718427873e+01    0.1423755    0.1050681  55.34 0.0009090099    1.056    0.053
        49  -8.1803    122.9644    234.0279   1.1566288022e+02   1.0484468648e+01    0.1903981    0.1315474  54.23 0.0007610975    1.701    0.412
        50  -9.3226     68.3543    232.3616   1.2782070020e+02   1.7860339222e+01    0.4699228    0.1800965  56.96  0.001920517    3.209    0.688
        51  -8.6848    194.6255    232.8042   1.0100088282e+02   1.3059058582e+00    0.1909651    0.1632252  -9.80 0.0006673181    1.289    0.224
        52  -8.0510    144.9830    233.4751   1.1087618983e+02   7.6119629879e+00    0.1764073   0.08252632  46.37 0.0008097835    2.527    0.604
        53  -9.3722    139.6151    230.9156   1.1168655904e+02   8.7391858383e+00    0.2994971    0.2362236 -10.99  0.001612007    1.382    0.277
        54  -8.3652    132.6800    232.7487   1.1340210674e+02   9.3840022709e+00    0.1986286    0.1483786  80.93  0.001067019    2.268    0.559
        55  -8.4775     92.5008    231.8139   1.2224000279e+02   1.4918473332e+01    0.2639354    0.1638085  74.28  0.001115371    2.312    0.567
        56  -9.2739    186.5176    230.8000   1.0222076769e+02   2.5756673925e+00    0.2548909    0.2279217 -79.79  0.001390181    2.129    0.530
        57  -7.9141    157.8245    232.0334   1.0802956238e+02   6.1175819039e+00    0.1635084    0.1372288  69.37 0.0006572563    1.929    0.481
        58  -8.7891    236.0940    230.8850   9.3624514274e+01  -3.1864715676e+00    0.1744545    0.1374949  -7.38 0.0006626069    1.250    0.200
        59  -8.6755      1.7359    230.9525   1.4271425307e+02   2.5045720851e+01    0.2139806    0.1090763  61.91 0.0007776407    1.564    0.361
        60  -9.2209    246.5219    229.1742   9.1746528543e+01  -4.0761654917e+00    0.2387841    0.1441917 -27.77  0.001009879    1.531    0.347
        61  -8.9574    151.5028    229.0187   1.0893064934e+02   7.4245073473e+00    0.2409255    0.2014944  73.52  0.001096027    1.904    0.475
        62  -9.3891    148.7780    224.8843   1.0894699772e+02   8.4468718919e+00    0.2820804    0.2304733  70.39  0.001158647    1.896    0.473
        63  -8.7928    229.8466    228.7903   9.4316357893e+01  -2.2751686998e+00    0.1813836    0.1132916 -36.72  0.001007811    1.861    0.463
        64  -8.9014    162.3001    227.8944   1.0655451230e+02   6.1402711470e+00    0.2791285    0.2049267  50.53  0.001210563    1.818    0.450
        65  -8.8643    127.8965    227.3169   1.1377801173e+02   1.0934890191e+01    0.3041657    0.1881433  53.59  0.001207324    2.002    0.500
        66  -8.3008    119.8976    227.5871   1.1558576348e+02   1.1989904791e+01    0.2165235    0.1646082  76.07  0.001019754    1.897    0.473
        67  -9.1849      7.8308    227.9851   1.4131158072e+02   2.5099599973e+01     0.209051   0.08266243  59.15  0.001082074    2.029    0.507
        68  -8.1860    214.9873    227.2367   9.6567113993e+01  -4.1290642168e-01     0.158095    0.1139419  11.34 0.0004435947    1.095    0.087
        69  -9.0346    216.4053    223.5378   9.5766541591e+01  -1.1828408563e-01    0.2430599    0.1906852 -38.66  0.001028177    1.735    0.424
        70  -7.6274    177.6690    227.3027   1.0341383927e+02   4.1937916181e+00     0.109751   0.08744787  45.06  0.000401208    1.653    0.395
        71  -8.2418     49.3391    226.8034   1.3182007049e+02   2.1161358859e+01    0.2655743    0.1304475  63.46  0.001312296    2.131    0.531
        72  -7.7917    223.2714    226.6850   9.5082930474e+01  -1.2953583254e+00   0.09053212   0.08236876   3.19 0.0002534349    1.557    0.358
        73  -8.6435    206.2042    225.4177   9.7827562713e+01   8.5853655902e-01    0.2618126    0.1367697 -34.59  0.001348977    1.948    0.487
        74  -8.8577    200.3176    225.3734   9.8875818844e+01   1.5828328189e+00    0.2759745    0.1261169 -31.82   0.00126254    2.244    0.554
        75  -8.8051    104.6935    223.5880   1.1858009348e+02   1.4787113188e+01     0.307053    0.2046793  69.85  0.001444689    2.080    0.519
        76  -8.9170     94.1678    224.2579   1.2109645674e+02   1.6087521808e+01    0.3792233    0.1728789  53.68  0.001652136    2.611    0.617
        77  -7.6534     78.3148    225.6712   1.2494447270e+02   1.7891805070e+01    0.1353497   0.07830916  53.80 0.0007044681    1.675    0.403
        78  -8.5651    173.0179    223.2785   1.0374679287e+02   5.3902358650e+00    0.2146942    0.1696437 -46.91 0.0007944113    1.674    0.403
        79  -7.9416    113.9879    224.0133   1.1649651066e+02   1.3431046581e+01    0.2017854    0.1351403  55.36 0.0008137146    1.709    0.415
        80  -8.1845     38.2128    224.2221   1.3425539115e+02   2.2895673527e+01    0.1793564   0.08505851  82.53 0.0008728647    2.462    0.594
        81  -8.5713    162.6682    222.3353   1.0569799372e+02   6.9338596579e+00    0.2116351    0.1784158  60.75 0.0009380049    1.765    0.433
        82  -8.7892    158.8841    220.6169   1.0623336736e+02   7.7220988589e+00    0.2715027    0.1819663  46.88  0.001292182    1.763    0.433
        83  -8.3081    140.4753    222.9455   1.1046537355e+02   9.9161550841e+00    0.1617093    0.1278928 -48.73 0.0007116565    1.561    0.359
        84  -7.6345     59.3436    223.6618   1.2925036880e+02   2.0623086482e+01    0.1406401   0.07244039  53.64 0.0007049174    1.773    0.436
        85  -9.0901    238.8850    221.6321   9.1788769318e+01  -2.4243568990e+00    0.1854849    0.1331577 -24.92 0.0007262347    1.384    0.277
        86  -9.1366    225.6139    221.8125   9.3954521780e+01  -9.7145772733e-01    0.2032263    0.1721716  22.40  0.001132833    1.501    0.334
        87  -9.2713    192.3936    221.3971   9.9736265423e+01   3.1159426405e+00    0.2214234    0.2135536  44.74  0.001119786    1.636    0.389
        88  -7.9292      8.6835    222.6518   1.4096291085e+02   2.6085206538e+01    0.1043835   0.08718394 -38.35 0.0007047881    1.727    0.421
        89  -9.1511    120.4311    219.3053   1.1445571933e+02   1.3369713064e+01    0.4185836    0.2213153  55.58  0.001865656    2.674    0.626
        90  -9.0468     82.7418    220.6609   1.2342812338e+02   1.8285892534e+01    0.3399405    0.1447877  53.28  0.001436418    2.637    0.621
        91  -8.0746     73.1827    220.9688   1.2573700970e+02   1.9456611620e+01     0.208311     0.118897  63.53 0.0008009582    1.993    0.498
        92  -8.0416     27.4922    221.4967   1.3661051175e+02   2.4553341898e+01     0.125507   0.09384359  50.52 0.0008104274    1.032    0.031
        93  -8.6514    180.6647    224.3489   1.0240457834e+02   4.2229707062e+00    0.1975461    0.1708086  39.88 0.0006208473    1.509    0.337
        94  -8.7330    179.8501    218.6216   1.0171375410e+02   5.1579098417e+00    0.2981501    0.1752738 -56.10  0.001427905    2.935    0.659
        95  -8.9375    249.8056    218.8096   8.9678581693e+01  -3.2602784119e+00    0.4217963     0.237534 -49.41  0.002119048    4.415    0.774
        96  -8.3230    210.1665    219.2216   9.6186671614e+01   1.1797885642e+00    0.1395498    0.1243604  -1.32 0.0005158319    1.361    0.265
        97  -9.2106    132.9546    216.1329   1.1120958324e+02   1.2141504772e+01    0.4283919     0.260758  63.54  0.001935465    2.962    0.662
        98  -8.5377     62.3029    217.6446   1.2806923303e+02   2.1473156383e+01    0.3679296    0.1355027  51.26  0.001525158    2.617    0.618
        99  -8.9642     51.4951    217.4032   1.3066456198e+02   2.2804737734e+01    0.2724912     0.181069  72.49  0.001196506    1.550    0.355
       100  -8.7090    142.7571    216.3351   1.0906689465e+02   1.0697396760e+01    0.2368172    0.1781218 -75.79 0.0007520968    2.149    0.535
       101  -8.1339    111.8257    217.2758   1.1618930505e+02   1.4956065107e+01     0.210226    0.1145578  58.57 0.0007109075    2.619    0.618
       102  -8.6593    193.5122    215.9831   9.8701140306e+01   3.7248607408e+00    0.2204827    0.1374747  13.68 0.0004256471    1.480    0.324
       103  -8.6216     18.4939    215.5163   1.3844819291e+02   2.6654511227e+01    0.2367542    0.1108381 -83.93  0.001228759    2.227    0.551
       104  -8.6572    232.2117    214.7375   9.1779901303e+01  -8.6257298745e-01    0.1891333    0.1616538 -36.20 0.0009416741    1.734    0.423
       105  -8.4265    185.4875    214.4765   9.9989555550e+01   5.0052506365e+00    0.1742398    0.1609186  53.46  0.000621413    1.636    0.389
       106  -8.0243    154.6222    215.3117   1.0636419005e+02   9.1690969096e+00     0.184875    0.1453869  57.33  0.001096337    1.752    0.429
       107  -8.8735    169.4033    216.1310   1.0341882268e+02   6.9582160574e+00    0.2314134    0.2026546 -86.01  0.001047942    1.929    0.482
       108  -9.5273    214.1946    212.4062   9.4419152219e+01   1.5766015131e+00    0.3078679    0.2354958  48.04  0.001896438    2.083    0.520
       109  -8.8547     93.0145    213.9496   1.2026721949e+02   1.8217958482e+01    0.3444862    0.1603023  48.13  0.001176962    2.075    0.518
       110  -9.5187     73.3726    212.3152   1.2489406594e+02   2.1170636697e+01    0.6217688     0.207671  52.01  0.002212294    3.512    0.715
       111  -8.3756    224.9263    212.9148   9.2682384097e+01   2.1106991371e-01    0.1443726    0.1396304  -3.55  0.001034635    1.697    0.411
       112  -8.5742    161.6561    212.5658   1.0447833488e+02   8.6092652214e+00      0.20584    0.1960797  88.46 0.0008342112    1.518    0.341
       113  -8.5449    106.6719    213.0861   1.1689352849e+02   1.6473507044e+01    0.2011141     0.155444  65.92  0.001162546    1.533    0.348
       114  -8.9702    204.3536    211.1475   9.5955158684e+01   2.9887395692e+00    0.2098957    0.1916351 -40.60 0.0008702499    1.617    0.381
       115  -9.4574    175.6436    210.3054   1.0127401892e+02   6.9830106445e+00    0.3476261    0.2589043  62.37  0.001548591    2.404    0.584
       116  -8.7494      5.6012    207.8582   1.4121384467e+02   2.9409397390e+01    0.1754145    0.1052184  84.83  0.001036739    1.580    0.367
       117  -8.3948    192.1804    210.7178   9.8127959815e+01   4.6503227729e+00    0.1862717     0.157466 -37.27 0.0008517745    1.483    0.326
       118  -8.6474    148.0761    210.6442   1.0709111081e+02   1.0890848293e+01    0.2419059    0.1940645  67.81  0.001149461    1.845    0.458
       119  -9.0349    116.3203    210.4755   1.1428194683e+02   1.5579429367e+01    0.3113842    0.2055009  57.31  0.001023226    1.823    0.451
       120  -8.6896     85.7392    209.5910   1.2156700807e+02   2.0084185550e+01      0.35273     0.183862  60.47  0.001562305    2.431    0.589
       121  -8.0987     46.6537    209.9046   1.3131185373e+02   2.4923817242e+01    0.2519094   0.07198013  52.06 0.0008966035    3.412    0.707
       122  -7.9834     32.0706    210.2824   1.3493164699e+02   2.6421268833e+01    0.1963901    0.1050334  61.51   0.00102999    1.701    0.412
       123  -8.9861    236.4649    208.4170   9.0098485146e+01  -5.7638801629e-01    0.2141333    0.1910121 -35.19  0.001021729    1.729    0.422
       124  -8.0147    126.5338    208.7337   1.1166351582e+02   1.4404262590e+01    0.1559873    0.1313526 -84.34 0.0009246992    1.607    0.378
       125  -9.0750    242.9543    200.9988   8.7888690514e+01  -4.1156460015e-01    0.2290629    0.1602244 -35.79 0.0009266408    1.606    0.377
       126  -9.5737    246.4155    206.8637   8.8312469217e+01  -1.5115328580e+00    0.3505118    0.1544382 -30.62  0.002029908    1.963    0.490
       127  -9.3487    250.0128    202.2778   8.7034971042e+01  -1.3637016204e+00    0.3018876     0.142443 -30.56   0.00101694    1.803    0.445
       128  -8.0351    156.6338    208.3151   1.0489725629e+02   1.0029978596e+01    0.1801206    0.1452833  57.70 0.0008379372    1.687    0.407
       129  -8.3797    139.2416    208.1163   1.0867785824e+02   1.2631486639e+01    0.2385688    0.1496626  52.05 0.0007940236    1.952    0.488
       130  -9.1072     99.3886    206.3201   1.1783086620e+02   1.8835177070e+01    0.3429327    0.2215532  65.06  0.001372918    1.966    0.491
       131  -8.4757    109.0410    205.2185   1.1533829629e+02   1.7653587869e+01     0.216613    0.1705102  79.40 0.0006817439    1.631    0.387
       132  -8.4829     56.6193    205.5747   1.2847669794e+02   2.4683148455e+01    0.3560345    0.1363646  53.34  0.001440878    2.631    0.620
       133  -8.5305     11.9880    206.7506   1.3964788192e+02   2.9097646618e+01    0.1568113   0.08990353  29.55 0.0007022367    1.564    0.360
       134  -9.3125    194.9922    203.7766   9.6484740393e+01   5.2769737365e+00    0.3260055    0.2806506  46.16  0.001905745    1.619    0.382
       135  -9.2913    192.4278    197.4906   9.5927676472e+01   6.5683511718e+00    0.3056557    0.2621561  80.58  0.001208951    2.166    0.538
       136  -8.8597    183.7139    204.0210   9.8681193370e+01   6.8095622820e+00    0.2434201    0.1929044  52.38 0.0009676656    1.804    0.446
       137  -8.7166    131.4003    204.1661   1.0989363127e+02   1.4518885414e+01    0.2755018    0.1759145  56.05 0.0008891464    2.024    0.506
       138  -7.7489     92.5012    205.4964   1.1943296651e+02   1.9979918716e+01    0.1392776    0.1121305  44.92 -4.37195e-05    1.098    0.089
       139  -7.8960     25.3223    205.6498   1.3633989705e+02   2.8094736110e+01    0.1421369   0.06862612  55.17 0.0007048532    1.747    0.428
       140  -9.5336    163.6827    202.8931   1.0256290795e+02   9.8916401883e+00    0.3475573    0.2618691  52.05 0.0009505879    1.715    0.417
       141  -7.6361     41.6466    203.3370   1.3210384392e+02   2.6898907483e+01    0.1477185   0.07343443  54.57 -3.291065e-05    1.797    0.444
       142  -8.0398    222.0134    201.9327   9.1392939844e+01   1.9864264760e+00    0.1469591    0.1423682 -21.71 0.0007268018    1.626    0.385
       143  -8.3481    210.9475    201.9564   9.3293508226e+01   3.3997732820e+00    0.1521132    0.1503433  80.36 0.0005491547    1.685    0.407
       144  -8.9062    140.3606    201.0033   1.0737147831e+02   1.3737179353e+01    0.2919675    0.2208572  82.18 0.0009611647    2.202    0.546
       145  -8.6477     79.9443    201.2998   1.2212028178e+02   2.2595800113e+01    0.3369564    0.1824378  66.69  0.001465555    2.492    0.599
       146  -7.9230     72.7964    202.0421   1.2402585465e+02   2.3396694504e+01    0.1584577    0.1076675 -73.01 0.0004329299    1.682    0.405
       147  -8.0963     10.8182    202.5967   1.3977364377e+02   3.0097033717e+01    0.1830212   0.08363397  39.04 0.0007447738    1.686    0.407
       148  -9.2512    237.1547    198.6338   8.8395946962e+01   5.6241388194e-01    0.2469712    0.1552596 -42.47  0.001190096    1.988    0.497
       149  -8.5230    177.0046    199.4057   9.9258822167e+01   8.4945748071e+00    0.2013593    0.1795682 -51.90 0.0005730774    1.515    0.340
       150  -9.5117    149.5075    198.6286   1.0495077495e+02   1.2761949858e+01    0.3574399    0.2743391  89.76 0.0009107633    2.277    0.561
       151  -8.9235    124.0647    199.2746   1.1090871839e+02   1.6555524747e+01     0.321088     0.232972  73.09   0.00164348    2.024    0.506
       152  -9.3149    112.9983    198.6496   1.1349450854e+02   1.8362900710e+01    0.4388194    0.2554229  59.25  0.001520246    2.331    0.571
       153  -9.0366     88.8914    198.6980   1.1953810614e+02   2.1900667348e+01    0.3848427    0.2221737  62.85  0.001442874    2.178    0.541
       154  -8.3333    202.3628    197.8597   9.4144797444e+01   5.1291148771e+00    0.1943388    0.1838038 -49.05  0.001021019    1.582    0.368
       155  -9.1652     61.5480    197.1029   1.2645076055e+02   2.5922918750e+01    0.4248419    0.2007743  61.33    0.0016381    2.485    0.598
       156  -8.6581     12.8457    198.0063   1.3908791689e+02   3.0928437717e+01    0.2321938   0.09519287  59.74  0.001087061    2.118    0.528
       157  -8.1790     53.7648    197.1590   1.2849387963e+02   2.6867353160e+01    0.2486144   0.09764752  57.02 0.0009528471    2.850    0.649
       158  -8.7741    216.0568    195.6017   9.1344867188e+01   3.6091435903e+00    0.2052753     0.177632 -51.15 0.0007910061    1.777    0.437
       159  -8.9615    185.2679    194.9577   9.6879157449e+01   7.9883334141e+00    0.2238672    0.2173602 -55.99 0.0007346802    1.465    0.317
       160  -8.1214    133.0454    196.0260   1.0830239252e+02   1.5788563141e+01    0.2055565    0.1580172  62.86 0.0006968417    1.677    0.404
       161  -8.7355    224.4332    194.1850   8.9695489059e+01   2.7150576625e+00    0.2527615    0.1709419 -46.00  0.001017739    1.987    0.497
       162  -7.7461    209.4257    195.5233   9.2485177325e+01   4.5039853964e+00    0.1203332   0.09772247  -2.02 0.0002293385    1.023    0.022
       163  -8.8774    161.0183    194.5385   1.0177913755e+02   1.1705716833e+01    0.2737508    0.2055844  54.59 0.0009436224    1.744    0.426
       164  -9.4373    245.7089    193.2172   8.6184877249e+01   2.3146073655e-01    0.2635069    0.1822514 -29.70 0.0009171583    1.357    0.263
       165  -9.5365    244.0742    185.8533   8.5184055375e+01   1.3564561539e+00     0.358745    0.2786931 -19.47   0.00238791    1.147    0.128
       166  -8.8090    249.1661    185.6468   8.4396296962e+01   7.7081332965e-01    0.1969464    0.1451027 -22.87 0.0007011824    1.171    0.146
       167  -8.2198    230.9925    194.3119   8.8649717340e+01   1.8699208354e+00    0.1606343    0.1271727   2.74 0.0005523492    1.087    0.080
       168  -8.8056     76.9219    193.6711   1.2205499055e+02   2.4657647152e+01    0.2441721    0.1929012  82.90 0.0006276253    1.395    0.283
       169  -8.9968     43.7450    193.4065   1.3082376731e+02   2.8877133179e+01    0.4128269     0.188682  58.23   0.00179895    2.182    0.542
       170  -8.4524    240.5367    180.9805   8.4874582160e+01   2.4259908747e+00    0.2467055    0.1369785 -36.32  0.001088956    1.673    0.402
       171  -8.0824    205.2138    191.9844   9.2631361695e+01   5.5910949593e+00    0.1523246   0.08984912 -34.39 0.0004186285    1.637    0.389
       172  -8.0329    198.9466    191.9209   9.3762012268e+01   6.4814279793e+00    0.1623673    0.1550968  66.64 0.0006955987    1.609    0.378
       173  -8.2930    179.0418    191.8120   9.7577892274e+01   9.4133723826e+00    0.2019389    0.1671393 -53.52 0.0005888102    1.613    0.380
       174  -8.6178    172.3574    191.8360   9.8941643882e+01   1.0423060070e+01    0.2109231    0.1973165  87.81 0.0008314084    1.549    0.354
       175  -9.1971    139.4352    190.4934   1.0594295237e+02   1.5828450971e+01    0.3340448    0.2572699  76.22  0.001173891    1.972    0.493
       176 -10.4925     92.2695    188.7817   1.1741829829e+02   2.3536557702e+01     1.034777    0.2533512  43.16  0.003205895    3.681    0.728
       177  -7.8484     22.9617    192.0000   1.3620685054e+02   3.1355654466e+01    0.2076006   0.06553208  24.42  0.000804172    2.954    0.662
       178  -8.4645    148.5239    189.3223   1.0366816859e+02   1.4596029973e+01    0.2146541     0.194688  84.59 0.0007109453    1.476    0.323
       179  -8.9678    129.2966    188.8629   1.0808184841e+02   1.7763718619e+01    0.2992089    0.2243016  82.33  0.001039337    2.030    0.507
       180  -8.2400    237.0665    188.4947   8.6703631734e+01   1.8759593080e+00    0.1740774    0.1244393 -22.71  0.000643275    1.187    0.157
       181  -8.7467    216.5392    187.9908   8.9957211703e+01   4.6100895955e+00    0.2080793    0.1959627 -61.44 0.0007837203    1.696    0.410
       182  -9.3302    155.7833    187.4179   1.0172747589e+02   1.3782401660e+01     0.351032     0.250157 -64.00 0.0009737477    2.040    0.510
       183  -9.8552    120.9217    186.8851   1.0981776519e+02   1.9500235204e+01    0.5097534     0.310324 -77.57  0.002157819    2.832    0.647
       184  -8.7564     34.2562    188.1660   1.3296795248e+02   3.1109598084e+01    0.3211386    0.1410969  62.87  0.001202943    2.364    0.577
       185  -8.7910    191.5103    187.4113   9.4375273005e+01   8.2516486679e+00    0.2364214     0.203429 -81.85 0.0009440582    2.023    0.506
       186  -8.7799    165.0255    186.9105   9.9635878260e+01   1.2401943458e+01    0.2512119    0.2187997 -69.64 0.0008304741    1.616    0.381
       187  -9.3303    109.6650    186.4149   1.1257810233e+02   2.1383806947e+01    0.3832403    0.2564201  63.88  0.001152308    1.913    0.477
       188  -9.1261     54.8892    186.9597   1.2726511687e+02   2.9044576070e+01     0.469299    0.1888305  57.81  0.001697266    2.919    0.657
       189  -8.0379    230.5073    187.4752   8.7561207822e+01   2.8384913187e+00    0.1156033   0.09356198  -8.39 0.0008091875    1.068    0.064
       190  -8.9367    182.8502    184.7055   9.5583441018e+01   9.9916923746e+00    0.2886897    0.1799145 -47.18  0.001175315    1.872    0.466
       191  -8.8189    210.2290    184.3596   9.0411682038e+01   6.0052096009e+00    0.2084284    0.1750847 -27.84 0.0006236813    1.262    0.208
       192  -8.6956    202.8797    184.7971   9.1799403945e+01   6.9889578688e+00    0.1930644     0.163111 -63.20 0.0008178991    1.894    0.472
       193  -9.0180     66.6024    184.5354   1.2380651178e+02   2.8109672230e+01    0.3932945    0.2112898  57.04   0.00104256    1.952    0.488
       194  -8.4785    224.1699    183.7019   8.7930645434e+01   4.1838541086e+00    0.1944422    0.1382289 -33.79 0.0005534894    1.389    0.280
       195  -8.0462    197.0404    183.9485   9.2721890267e+01   7.9719564433e+00    0.1711045    0.1593226 -83.56 0.0005602172    1.680    0.405
       196  -8.8919    174.3136    183.6489   9.7120624162e+01   1.1495980218e+01    0.2398216    0.2112948  69.03 0.0009642574    1.637    0.389
       197  -8.2606      1.8209    183.7986   1.4136637921e+02   3.5036013472e+01    0.1848272    0.1114495  52.48 0.0007919892    1.344    0.256
       198  -8.9497     44.3267    182.3234   1.2975266938e+02   3.1376616148e+01    0.3773078    0.1929057  61.99  0.001019993    2.019    0.505
       199  -8.7124     19.7744    183.1923   1.3656358585e+02   3.3686380890e+01    0.2491254    0.0811327  56.06 0.0009601334    2.846    0.649
       200  -8.7563    234.0233    181.0451   8.5886653908e+01   3.2495978422e+00    0.2560574    0.1815142  46.46  0.001236989    1.981    0.495
       201  -8.7126    231.2325    176.6733   8.5550416969e+01   4.2120726361e+00    0.2718392    0.1344927 -36.01 0.0009897143    1.825    0.452
       202  -9.6729     25.5167    178.8126   1.3472227773e+02   3.4184089832e+01    0.7462764    0.2464681  70.24  0.002437514    4.227    0.763
       203  -9.1867    147.4766    180.5295   1.0241510803e+02   1.6409325059e+01     0.301214     0.247688  71.33  0.001078612    1.675    0.403
       204  -7.7104     90.6362    181.7155   1.1690175862e+02   2.5340629198e+01    0.1415234    0.1088989  -5.87 0.0007019537    1.687    0.407
       205  -8.6702    137.7202    179.5119   1.0452437659e+02   1.8229590462e+01     0.261546    0.2074064  76.95  0.001120237    1.790    0.441
       206  -9.4291    191.4830    178.3795   9.2768030873e+01   9.6887882532e+00     0.242638    0.2374988  61.13 0.0005851897    1.408    0.290
       207  -8.2267    169.2112    178.9088   9.7336830859e+01   1.3130098210e+01    0.1876842    0.1827717  59.56 0.0007380641    1.307    0.235
       208  -9.0716     36.0608    177.0244   1.3163023122e+02   3.3547600869e+01    0.5168534    0.1936741  67.75  0.001773427    3.661    0.727
       209  -9.4916    248.4408    176.6339   8.2947333369e+01   2.0059318754e+00    0.3672779    0.2094546 -45.89  0.002108225    2.283    0.562
       210  -8.4768    250.5271    172.8827   8.1990843493e+01   2.2314838672e+00    0.1619547    0.1120687 -22.94 0.0004773027    1.153    0.132
       211  -8.5185    217.7110    177.2841   8.7861740574e+01   5.9819819632e+00    0.2503496    0.1469694 -47.30  0.001226201    2.148    0.534
       212  -8.5295    205.1428    177.7142   9.0121551033e+01   7.7319728212e+00    0.2058149    0.1572507 -37.96 0.0006274274    1.392    0.282
       213  -8.8271    129.2211    177.4825   1.0624037019e+02   2.0058347213e+01    0.2870392    0.2083549  72.71 0.0009329227    2.022    0.505
       214  -8.7450     89.0624    177.0011   1.1667341623e+02   2.6643829658e+01    0.3162428    0.2145631  71.98 0.0009920571    1.826    0.452
       215  -9.2951    183.1143    176.3203   9.4020197719e+01   1.1336607236e+01    0.2552639    0.2067584 -37.44 0.0005027667    1.308    0.235
       216 -10.0372     57.1548    172.9901   1.2519297889e+02   3.2063949344e+01    0.8573788    0.3634619  70.55  0.002684346    4.301    0.767
       217  -9.1234     12.9079    176.3732   1.3807714547e+02   3.5895252987e+01    0.3605127    0.1553781  53.81  0.001295539    1.990    0.497
       218  -8.1660    211.6449    176.2378   8.8708085749e+01   7.0030502202e+00    0.1735911    0.1010345 -26.72 0.0008262074    1.623    0.384
       219  -9.4107    158.4694    174.8137   9.8915264825e+01   1.5644574851e+01    0.4751319     0.317545  71.91  0.001962066    3.180    0.685
       220 -10.8417    101.7540    175.7610   1.1304306233e+02   2.4944710685e+01    0.4993228    0.2678218  30.00  0.002169363    1.774    0.436
       221  -8.4906     79.2402    158.5407   1.1677485351e+02   3.2504255042e+01    0.4411032    0.1530367  24.77  0.001306057    3.832    0.739
       222 -10.6497     76.1316    171.2167   1.1950350345e+02   2.9909936014e+01     1.050557    0.4793044 -86.25   0.00329427    4.390    0.772
       223  -8.9196     74.3226    160.3283   1.1851260894e+02   3.2802466650e+01    0.2931555    0.2019056 -15.59  0.001127895    2.191    0.544
       224  -8.3570    224.4724    174.4621   8.6233675897e+01   5.4414911410e+00    0.1981411    0.1019414 -43.61 0.0008642595    2.143    0.533
       225  -9.4513    175.6620    172.1401   9.4750456147e+01   1.3257318169e+01    0.3485284    0.2209772 -45.76  0.001052749    1.715    0.417
       226  -8.3028    142.9789    172.9445   1.0212185835e+02   1.8635359715e+01    0.2141418    0.1707287  67.37 0.0005869121    1.655    0.396
       227  -8.7747    134.8472    171.9666   1.0390092192e+02   2.0227906263e+01    0.2423112    0.2033082  85.79 0.0008011305    1.577    0.366
       228  -9.6349    121.3846    170.5824   1.0703180293e+02   2.2825363416e+01    0.3824451    0.2855642 -79.12  0.001111818    1.804    0.446
       229  -9.6957     88.5445    170.6984   1.1590751330e+02   2.8175115366e+01     0.403739    0.2659394 -70.69 0.0008943878    1.737    0.424
       230  -9.1846     44.9466    170.8412   1.2852423474e+02   3.4064915131e+01    0.4212527    0.2235475  73.89   0.00126331    2.174    0.540
       231  -8.7818    205.8456    170.1543   8.8603185695e+01   8.7873744528e+00    0.3061002     0.166602 -47.99  0.001348313    2.249    0.555
       232  -8.5837    198.4235    170.0824   8.9931419523e+01   9.9414141428e+00    0.2438458    0.1848911 -51.56 0.0008662437    1.685    0.407
       233  -8.7962    244.3804    169.7872   8.2326130179e+01   3.4154614327e+00    0.2221211    0.1462736 -19.86 0.0008129249    1.275    0.216
       234  -8.3471    237.1737    169.8783   8.3412668871e+01   4.3504807286e+00    0.1962563     0.136491 -35.43 0.0006189319    1.383    0.277
       235  -8.9736    230.1902    170.1403   8.4535956377e+01   5.2615921543e+00    0.1866442    0.1356747 -10.57 0.0007460269    1.223    0.183
       236  -9.1942    167.0209    168.6894   9.5913552019e+01   1.5320255272e+01    0.2787173    0.2388712  84.05 0.0007842298    1.704    0.413
       237  -8.5671    149.7618    169.5869   9.9922726079e+01   1.8122451296e+01    0.2538474    0.2103377  87.15 0.0007978719    1.728    0.421
       238  -8.1774    211.6369    168.5843   8.7297593889e+01   8.1546047787e+00    0.2383941    0.1419402 -53.71 0.0007890925    2.590    0.614
       239  -8.3847    218.8231    168.2047   8.6012827376e+01   7.1503995614e+00    0.1748746    0.1524161 -25.37 0.0005569257    1.205    0.170
       240  -8.8389    111.6192    167.3218   1.0903067049e+02   2.5196713723e+01    0.3627113    0.2455158  72.52  0.001207839    2.129    0.530
       241  -7.9584     13.5066    167.9921   1.3746500191e+02   3.7863606075e+01    0.1986486   0.08007187  66.96 0.0008098285    2.493    0.599
       242  -8.8207    191.9129    166.6333   9.0495243930e+01   1.1534773715e+01    0.2382972    0.1791225 -43.20 0.0006434028    1.437    0.304
       243  -8.8610    184.9904    166.4628   9.1799742808e+01   1.2694008578e+01    0.2343606    0.1806558 -51.15 0.0006638429    1.565    0.361
       244 -10.0022    136.8851    164.3357   1.0200819307e+02   2.1433999522e+01    0.6470662    0.3782339  54.95  0.002740955    2.168    0.539
       245 -10.1238     95.1144    162.9498   1.1284767616e+02   2.8942289547e+01    0.9403609    0.5008152  70.01  0.003080114    3.774    0.735
       246  -8.9669     20.3923    166.0059   1.3534251394e+02   3.7762193579e+01     0.420265    0.1589695  55.69  0.001474512    2.513    0.602
       247  -8.9175    233.9922    164.8290   8.2974564903e+01   5.4809321752e+00    0.2090268     0.142458 -29.83 0.0006034179    1.263    0.208
       248  -8.8101    159.5071    164.3618   9.6725160850e+01   1.7422278855e+01    0.2724631    0.2270841  64.37 0.0007821863    1.543    0.352
       249  -9.3436     33.5384    163.4602   1.3123318069e+02   3.7134646426e+01     0.595503    0.1658918  48.78  0.002006654    3.357    0.702
       250  -9.3663    246.0735    163.1536   8.0886065281e+01   4.0797717707e+00    0.1997883    0.1358889 -25.54 0.0004940075    1.195    0.163
       251  -8.5810    212.9888    163.5894   8.6124923872e+01   8.7100381435e+00    0.2253407    0.1583644 -44.98 0.0006325665    1.594    0.372
       252  -8.5598     57.4823    163.8517   1.2404386299e+02   3.4257912900e+01     0.380718    0.1807289  11.02  0.001284714    3.612    0.723
       253  -8.6370    204.8263    163.0974   8.7447678800e+01   1.0047058852e+01    0.1835283    0.1655441 -30.85 0.0004919768    1.223    0.182
       254  -9.3591      3.3134    162.3766   1.4013076315e+02   4.0009241085e+01    0.4365921    0.1555674  48.08  0.001892769    2.314    0.568
       255  -9.2353    177.3467    160.9050   9.2250092911e+01   1.4947657856e+01    0.2890044    0.2650263 -55.35 0.0009721365    1.321    0.243
       256  -8.8068    151.6568    161.1220   9.7874896906e+01   1.9440020582e+01    0.2926381     0.238051 -85.52 0.0008467603    1.768    0.434
       257  -8.7477     60.6467    160.2846   1.2264237359e+02   3.4729803592e+01    0.3734899    0.2045554  64.10   0.00124441    2.160    0.537
       258  -8.2109    240.0230    164.3040   8.1973511002e+01   4.7300735508e+00    0.1587616    0.1298189 -10.16 0.0004806782    1.048    0.046
       259  -8.4746    227.3635    159.1509   8.2938512969e+01   7.2304053679e+00    0.2140955    0.1639336 -49.79 0.0008918798    1.656    0.396
       260  -9.7760    250.1878    157.8382   7.9340820788e+01   4.2476832260e+00    0.2964676     0.132864 -33.38 0.0008020772    1.836    0.455
       261  -8.3918    237.1412    159.0999   8.1439706955e+01   5.8440939592e+00    0.1566701    0.1269543 -37.61 0.0006540273    1.335    0.251
       262  -8.4744    128.2952    158.9104   1.0313716694e+02   2.4112984398e+01    0.2666946     0.220562  82.61  0.000847439    1.541    0.351
       263  -9.7168    105.4454    157.6371   1.0902744151e+02   2.8444813586e+01    0.5011448    0.3478429  85.31  0.001248182    2.066    0.516
       264  -8.3504    196.7964    158.0943   8.7925155086e+01   1.2144649015e+01     0.187971    0.1741591 -50.94 0.0007291192    1.333    0.250
       265  -8.5347    188.0438    157.7710   8.9509291110e+01   1.3662746215e+01    0.2363396    0.1639829 -50.33 0.0006617897    1.683    0.406
       266  -9.0463    167.6424    157.3531   9.3572229512e+01   1.7294489494e+01    0.2973922    0.2446615 -78.69  0.001018105    1.761    0.432
       267  -8.4909    217.9846    156.5708   8.3946395915e+01   9.0135073607e+00    0.2387258    0.1549558 -46.51 0.0009754964    1.736    0.424
       268  -9.0911    157.5680    155.8204   9.5476335328e+01   1.9403935123e+01    0.3605782    0.2295815 -52.20  0.001379706    1.784    0.439
       269  -9.4307    119.5410    155.3482   1.0474899776e+02   2.6472153966e+01    0.4317376    0.3022663 -88.05  0.001429857    2.189    0.543
       270  -9.3634     81.8602    154.9831   1.1543121163e+02   3.2970407605e+01    0.5095147    0.2810516  62.35  0.001376054    2.397    0.583
       271  -9.0634     49.4883    155.1759   1.2546613824e+02   3.7438150617e+01    0.3898369    0.2168269  62.26  0.001389789    1.955    0.489
       272  -8.1022     23.3072    156.0048   1.3374511223e+02   3.9998874182e+01    0.2219418   0.05870172 -55.02 0.0006388011    4.111    0.757
       273  -9.3187    242.8363    154.8648   7.9822439000e+01   5.6409482123e+00    0.2160339     0.171766 -75.16 0.0004867753    2.418    0.586
       274  -8.6921    237.4779    150.4809   7.9767491831e+01   7.0070185420e+00    0.1757372   0.09834343 -41.39 0.0006425601    1.714    0.417
       275  -7.5697    204.5715    155.4855   8.6011770055e+01   1.1296699348e+01    0.1280583    0.1133669 -15.98 0.0002249819    1.054    0.052
       276  -8.5235    144.7703    155.1314   9.8311153019e+01   2.1891369851e+01    0.2987447    0.1955091  50.87  0.001252691    1.665    0.399
       277  -9.6898    132.8488    153.0110   1.0082643590e+02   2.4542257706e+01    0.4672936    0.3533816  79.88  0.001195308    1.897    0.473
       278  -9.1134    133.5040    148.5030   9.9748201710e+01   2.5383631088e+01    0.3039977    0.2668601 -24.94  0.001090487    1.214    0.176
       279  -9.7221     67.8586    153.7458   1.1952678511e+02   3.5372243857e+01    0.4797972    0.2629764  63.27  0.001271147    2.272    0.560
       280  -9.1414     20.0266    152.6960   1.3451567074e+02   4.1127161108e+01    0.1906404    0.1590001  50.08 0.0005148817    1.106    0.096
       281  -8.3959    222.4409    151.5773   8.2259926709e+01   9.0819599228e+00    0.2235213    0.1616472 -59.02 0.0009414302    2.066    0.516
       282  -8.0874    182.4693    151.4723   8.9327944995e+01   1.5720561981e+01    0.2251605    0.1251252 -50.62 0.0005898886    2.124    0.529
       283  -8.8536     98.3059    150.6999   1.0981391952e+02   3.1302589607e+01    0.3557857     0.254645 -89.67  0.001132015    1.829    0.453
       284  -9.6909     29.5950    150.9593   1.3133808191e+02   4.0695215870e+01    0.4856725    0.2029847  60.83  0.001854281    2.677    0.626
       285  -9.6000    248.8524    149.6637   7.8014510697e+01   5.5244618778e+00    0.2925339    0.1523221 -34.44  0.000760651    1.583    0.368
       286  -9.6757    247.0525    143.9121   7.7176650627e+01   6.5585769286e+00    0.2854339    0.1523364 -28.25 0.0006212611    1.603    0.376
       287  -8.5406    246.8451    130.5326   7.4630664349e+01   8.4371479973e+00    0.2098443    0.1291909 -38.34 0.0006865273    1.386    0.279
       288  -9.6132    248.3800    135.3005   7.5354576514e+01   7.5535564071e+00    0.3508249     0.134842 -37.89  0.001450578    2.142    0.533
       289  -8.8372    250.7465    130.8284   7.4187901852e+01   7.8251581495e+00    0.3745639   0.09529468 -32.25  0.001376917    3.696    0.729
       290  -8.8997    189.3931    150.3263   8.7751648947e+01   1.4704251572e+01    0.2859436    0.2096833 -52.97 0.0008266645    1.627    0.385
       291  -8.3947    162.5966    150.8510   9.3343974124e+01   1.9436340026e+01    0.2584259    0.1759539 -58.50 0.0009362236    1.861    0.463
       292  -9.4700    242.5430    149.8193   7.8917355932e+01   6.3785855657e+00    0.2476097    0.2019085  37.40  0.001593103    1.466    0.318
       293  -8.0478    212.7730    149.9802   8.3516599579e+01   1.0842859608e+01    0.1769136    0.1451139 -25.04 0.0003686943    1.083    0.076
       294  -9.9263     39.5788    147.3270   1.2773710102e+02   4.0599479075e+01    0.7035477    0.3487664  69.07  0.002351326    2.435    0.589
       295  -8.7456    207.3620    147.7950   8.3993314031e+01   1.2069550352e+01    0.3556438    0.2026553 -56.48   0.00156581    2.821    0.645
       296  -8.4423    198.8283    149.1345   8.5763044073e+01   1.3281973786e+01    0.1904508    0.1730231 -46.96 0.0005081148    1.272    0.214
       297 -10.0516     89.2246    146.3179   1.1172351050e+02   3.3903685310e+01    0.7167097    0.4125495  79.48  0.002481894    3.210    0.688
       298  -8.9614    233.6027    147.5590   7.9774351024e+01   7.9894181187e+00    0.2419987    0.1244761 -36.07  0.001059376    1.673    0.402
       299 -10.2809    106.8036    144.2544   1.0612314341e+02   3.1322769459e+01    0.8242558    0.5449665  84.97  0.002337597    2.424    0.587
       300  -8.9086     78.0881    147.2049   1.1531333715e+02   3.5485175780e+01    0.2851325    0.1838564  76.55 0.0006925829    2.033    0.508
       301 -10.6881     54.7715    143.4664   1.2224554457e+02   3.9782336056e+01     1.064662    0.6212322  87.75  0.003202361    2.077    0.519
       302  -8.2762    223.3113    147.0005   8.1226504547e+01   9.6333652226e+00    0.1765998    0.1365885 -29.52 0.0004357753    1.133    0.118
       303  -9.8880    139.1544    145.0620   9.7612051957e+01   2.5037136834e+01    0.4572003    0.3150765 -76.94  0.001200593    2.302    0.566
       304  -9.0305    139.7285    137.5855   9.5857210632e+01   2.6503946882e+01    0.4170156    0.2666939   8.30  0.001584653    2.700    0.630
       305  -9.2338     13.3973    146.3779   1.3616754645e+02   4.3277091609e+01    0.3664184    0.1643967  51.67  0.001113804    2.060    0.514
       306  -8.8447    240.3848    145.2578   7.8353841781e+01   7.3237161040e+00    0.2104129     0.137789 -42.39 0.0006192671    1.516    0.340
       307 -10.7190    242.7476    143.0044   7.7592016123e+01   7.2980434135e+00    0.6330789    0.1762438 -36.98  0.002593833    2.972    0.664
       308  -8.0033    175.4174    146.1940   8.9651833640e+01   1.7939508021e+01    0.1925092    0.1294484 -51.06 0.0006758388    1.670    0.401
       309  -9.8312    124.9680    142.3799   1.0069907803e+02   2.8347307614e+01     0.652487    0.3807533 -66.60  0.001977807    2.439    0.590
       310 -10.9874     69.1553    139.9078   1.1695304471e+02   3.8696246954e+01     1.110369    0.6679305 -77.03  0.004762759    1.908    0.476
       311  -9.7939     73.3225    129.3004   1.1367038332e+02   4.0779474015e+01    0.5813702    0.3197452 -73.47  0.001752679    2.190    0.543
       312  -7.9175    194.1618    144.1407   8.5585294898e+01   1.4923621235e+01    0.1737022    0.1615438 -67.13 0.0005105279    1.337    0.252
       313  -8.9566    165.5024    144.0865   9.1290408155e+01   2.0183454711e+01    0.2556508    0.2050063  50.02 0.0006671668    1.341    0.254
       314  -9.4776      2.6261    141.5828   1.3934656159e+02   4.5245665985e+01    0.4583858    0.1859191  69.31  0.001905592    2.445    0.591
       315 -10.3280    149.1857    145.2673   9.5227533334e+01   2.3066125596e+01    0.5781018    0.4158281  87.49  0.001903847    2.395    0.582
       316  -8.4178    182.0251    141.8554   8.7409056352e+01   1.7506053785e+01     0.237308    0.1729656 -54.05  0.000683031    1.601    0.375
       317  -8.7900    134.4119    139.9889   9.7722367113e+01   2.7038720924e+01    0.2306334    0.1473907 -47.26  0.001027261    1.623    0.384
       318  -9.9846     23.4135    138.2232   1.3219627598e+02   4.4568663834e+01    0.6228528    0.2482224  59.81   0.00219962    2.848    0.649
       319  -7.9772    218.5869    138.7842   8.0322597655e+01   1.1636196701e+01    0.1745191    0.1072659 -42.91 0.0004141913    1.577    0.366
       320  -8.7560    172.1693    138.1680   8.8602270093e+01   2.0028546521e+01      0.28303    0.2178255 -62.53 0.0007356258    1.632    0.387
       321  -8.1965    207.6550    138.1428   8.1967276148e+01   1.3569052558e+01     0.200317    0.1489687 -48.69  0.000585334    1.463    0.317
       322  -8.6276    197.3533    137.6081   8.3636555740e+01   1.5459862522e+01    0.2512881    0.2029876 -65.38 0.0008973201    1.637    0.389
       323  -8.9434    150.2224    136.8818   9.3164292707e+01   2.4567218732e+01    0.4733765    0.2926415  10.12  0.001749349    2.952    0.661
       324 -10.3413     83.3125    132.6712   1.1101143090e+02   3.8287874480e+01    0.6133255    0.3694809 -75.74  0.001333902    2.099    0.524
       325  -9.3225     39.1205    136.4236   1.2660347233e+02   4.3497747439e+01    0.2930542    0.1927154  63.08 0.0008376103    1.551    0.355
       326  -8.1232    187.9655    135.9823   8.5007494698e+01   1.7445574876e+01    0.1714934    0.1465162 -29.71 0.0005272854    1.100    0.091
       327  -8.2506    162.6000    136.3545   9.0240752742e+01   2.2227664154e+01    0.2070954     0.173434 -84.17 0.0007186644    1.579    0.367
       328  -9.0851    112.9373    133.4102   1.0210222103e+02   3.2707454940e+01    0.4269583    0.2805268  70.31  0.001301885    2.227    0.551
       329  -8.1449    237.5574    133.7652   7.6510763666e+01   9.3780928397e+00    0.1710545   0.09708878 -42.56 0.0009349807    1.649    0.394
       330  -7.8944    231.4132    134.1783   7.7460746172e+01   1.0270993261e+01    0.1716832   0.09985291 -42.60  0.000448037    1.620    0.383
       331  -8.5441    179.3651    133.8684   8.6203544189e+01   1.9440628307e+01    0.2583023    0.2032783 -64.71 0.0008053361    1.614    0.380
       332 -10.1906    132.2952    131.1372   9.6302322452e+01   2.9377533503e+01    0.6394927    0.4446584 -82.10  0.001696317    2.280    0.561
       333 -10.4194     98.2164    130.2978   1.0580539823e+02   3.6236386259e+01    0.7143523    0.3588594 -57.91   0.00164926    2.136    0.532
       334  -8.7077     98.4664    121.0626   1.0367505538e+02   3.8429261568e+01    0.3864578    0.2304765 -23.02  0.001313447    3.124    0.680
       335  -9.1445    143.0181    131.6296   9.3709686770e+01   2.7096841991e+01     0.320565    0.2436537 -68.27 0.0008478939    1.641    0.391
       336 -10.0164     12.8143    128.8767   1.3505736790e+02   4.7857966616e+01    0.6588221    0.2845204  74.63  0.002461068    2.572    0.611
       337  -8.0381    204.5144    130.4988   8.0882793943e+01   1.5359510998e+01     0.131957    0.1194032 -31.61 0.0001711637    1.072    0.067
       338  -8.2487    192.6900    130.1243   8.2862166421e+01   1.7581460439e+01    0.2121032    0.1571161 -49.74 0.0005428838    1.433    0.302
       339  -9.0351    168.3512    129.5032   8.7469538811e+01   2.2401615613e+01    0.2826457    0.2343552 -73.38 0.0007748745    1.521    0.343
       340  -9.4787    152.8907    128.9511   9.0747920456e+01   2.5634644716e+01    0.5044811     0.264943 -53.21  0.001347465    2.208    0.547
       341  -8.2435    153.9966    123.4860   8.9216172072e+01   2.6503085390e+01     0.220862    0.1404474  34.71  0.000970044    1.701    0.412
       342  -8.0654      1.7961    130.5524   1.3901582753e+02   4.8122401952e+01    0.1898329    0.1048779  37.16 0.0009463933    1.729    0.422
       343  -8.0742    211.4441    129.2341   7.9476135151e+01   1.4339786305e+01    0.1854911    0.1106906 -45.88 0.0007206703    1.682    0.405
       344  -8.3290    186.4790    129.5182   8.3872253392e+01   1.8858122410e+01    0.1370135    0.1292425 -31.10 0.0008093064    1.060    0.057
       345 -10.6990     45.0497    123.7379   1.2272436915e+02   4.6181001221e+01     1.249364    0.5625247  69.19  0.003895277    3.886    0.743
       346 -10.3936     59.9109    125.1304   1.1756494369e+02   4.3875571103e+01    0.7592319    0.4193439  71.84  0.002418091    2.683    0.627
       347 -10.0501    118.0084    124.8546   9.8724168472e+01   3.3676134979e+01    0.6550217    0.5157363 -77.66  0.001636616    1.546    0.353
       348  -8.0757    240.3585    125.1722   7.4421390480e+01   1.0175213234e+01    0.1787896   0.09236968 -41.34 0.0008634714    1.706    0.414
       349  -8.0471    228.4981    125.4954   7.6115363061e+01   1.2024613576e+01    0.1256268    0.1066844 -29.12 0.0008105317    1.026    0.026
       350  -9.1480    178.9459    124.8505   8.4263492929e+01   2.1156001638e+01    0.2933602    0.2493657  56.74 0.0008183419    1.301    0.231
       351 -10.1711     28.3274    122.2738   1.2873346350e+02   4.8342164262e+01    0.9265332    0.3884106  69.21  0.003108865    3.476    0.712
       352  -8.3203     26.9979    113.7673   1.2816160572e+02   5.0733264075e+01    0.2593493    0.1851636  10.95  0.001313843    1.585    0.369
       353  -7.9459    188.7653    124.5363   8.2336854000e+01   1.9291829234e+01    0.1778547    0.1357066  62.64 0.0006766399    1.596    0.374
       354  -8.7788     85.1384    122.7446   1.0836662976e+02   4.0467134905e+01    0.5377048    0.3288562   5.75  0.001877555    3.036    0.671
       355  -8.0593    212.0000    123.0615   7.8070949593e+01   1.5223037597e+01    0.2247494   0.06720565 -37.18 0.0008082153    2.983    0.665
       356  -9.4247    158.7667    121.5814   8.7692541591e+01   2.5885198188e+01    0.3709062    0.2628776 -69.08  0.001077676    1.939    0.484
       357  -7.8937    195.2877    122.6210   8.0741916953e+01   1.8372351627e+01     0.138749    0.1034443 -64.33 0.0007016382    1.732    0.423
       358  -8.5200    172.0624    121.6460   8.4892446409e+01   2.3127765673e+01    0.2382625    0.1904234 -51.40 0.0004158492    1.302    0.232
       359  -9.4155     71.1859    120.0956   1.1259338856e+02   4.3488407718e+01    0.3727875    0.2577866  86.76 0.0009013707    1.818    0.450
       360 -10.1554    141.5798    117.8868   9.0807593946e+01   3.0271563859e+01    0.6830448    0.3455372 -49.92  0.001380612    2.094    0.522
       361 -10.0325    130.6796    118.4867   9.3732035438e+01   3.2467178962e+01    0.4937138    0.3323018 -65.79   0.00177749    1.893    0.472
       362 -10.3450    133.7043    109.7762   9.0749123212e+01   3.3686707278e+01    0.7623394    0.3445418 -47.19  0.002178067    2.268    0.559
       363  -9.6529      2.8861    117.2055   1.3777811825e+02   5.1531546044e+01    0.6471165    0.2191257  67.40  0.002241432    3.522    0.716
       364 -10.1619    109.2135    114.2261   9.8725125343e+01   3.7921837439e+01    0.5951802    0.3987863 -76.22  0.001563581    2.119    0.528
       365  -8.2443    192.9886    115.4755   7.9526558577e+01   2.0030886773e+01    0.2172063    0.1681696 -37.91 0.0005378764    1.198    0.165
       366  -8.3922    185.5216    116.0332   8.0987427824e+01   2.1416927966e+01    0.2138261    0.1301291 -41.12 0.0005507824    1.551    0.355
       367  -7.8841    203.3848    122.1893   7.9269838764e+01   1.6926832485e+01    0.1916577    0.1130309 -45.83 0.0003948409    1.672    0.402
       368  -8.7321     59.6970    115.1363   1.1576958260e+02   4.6527355888e+01      0.42026    0.2502069   4.28  0.001585926    2.658    0.624
       369  -8.1836    250.0502    115.4448   7.1261970669e+01   1.0041439973e+01    0.1504128    0.1187134  49.82  0.001020455    1.573    0.364
       370  -9.8600     78.8335    112.4126   1.0822166407e+02   4.4173843978e+01    0.5895776    0.3880937  84.07  0.001857628    2.225    0.551
       371  -8.6994     78.3782    105.4756   1.0673736463e+02   4.5998206856e+01     0.403524     0.266025  -0.29  0.001357354    2.580    0.612
       372  -8.0044    167.2448    114.2366   8.4115049780e+01   2.5514168919e+01    0.1968596    0.1698319 -74.80 0.0005395623    1.341    0.254
       373  -9.9438    122.1203    112.6890   9.4601863777e+01   3.5565423078e+01    0.3949911    0.3150864  85.00 0.0009610036    1.561    0.359
       374 -10.1729     92.7564    112.5394   1.0349777774e+02   4.1593635255e+01     0.604033    0.3873815 -74.84   0.00142373    2.098    0.523
       375  -8.8123     93.0219    104.9934   1.0151768423e+02   4.3370416232e+01    0.3497511    0.2242564  13.13  0.001205503    2.516    0.603
       376  -8.4695    174.8590    112.2436   8.2105419050e+01   2.4280999296e+01     0.250563    0.1863153 -51.52 0.0006172842    1.387    0.279
       377  -9.8123     14.1522    111.3395   1.3294146997e+02   5.2396738740e+01    0.4977222    0.2508332  57.67  0.001603944    2.116    0.527
       378  -7.5404    200.0000    111.9835   7.7545094441e+01   1.9248907689e+01    0.2194984   0.07138198 -37.47 0.0003840326    2.807    0.644
       379  -8.4371    159.1840    111.7640   8.5215117610e+01   2.7709209629e+01     0.252056    0.1926744 -53.05 0.0005165894    1.363    0.266
       380 -10.1592     66.3711    110.0721   1.1222215075e+02   4.6839334101e+01    0.6180442    0.3743012 -68.12   0.00220339    1.774    0.436
       381  -9.4460     43.2225    109.7087   1.2110689249e+02   5.0130102911e+01    0.3910412    0.1872241  10.79  0.001390686    3.020    0.669
       382 -10.3826    248.8020    107.1869   6.9758333908e+01   1.1372085179e+01    0.4655634    0.2087879 -31.22    0.0023479    1.922    0.480
       383  -7.7860    182.5904    109.4980   7.9984083319e+01   2.3163100722e+01    0.1411241    0.1304538 -45.79 0.0001209488    1.052    0.049
       384  -8.2530    189.0932    108.0570   7.8478284344e+01   2.2077753124e+01    0.2134851     0.160295 -63.74 0.0004707871    1.578    0.366
       385  -9.7180    118.5507    106.3345   9.3960975572e+01   3.7747426073e+01    0.3115165    0.2705756 -87.43  0.001125195    1.291    0.226
       386  -9.4289    140.0449    104.8594   8.7869986175e+01   3.3306606909e+01    0.4062807    0.3098194 -84.08  0.001008692    1.732    0.423
       387 -10.5888     45.6649    102.4889   1.1876831556e+02   5.1746501154e+01    0.8367504    0.4253019  65.91  0.002922302    3.102    0.678
       388 -10.6640     22.7204    102.6340   1.2838659112e+02   5.4070788141e+01       0.8462    0.3863891  65.77  0.002698542    2.950    0.661
       389  -9.5167    150.4914    103.2047   8.4966361578e+01   3.1294774790e+01    0.4105993    0.2582604 -57.07  0.001010319    1.842    0.457
       390  -8.7727    166.0720    103.5092   8.1697409340e+01   2.7772120698e+01    0.3335229    0.2484064 -60.27  0.001450177    1.500    0.333
       391 -10.2028    128.7146    101.7314   8.9928449828e+01   3.6502402460e+01    0.5147174    0.3596809 -48.74   0.00184618    1.463    0.316
       392  -9.6929      6.5496    102.3157   1.3511934853e+02   5.5247597769e+01    0.4467025    0.2081908 -82.37  0.001964036    1.989    0.497
       393  -7.9073    175.4773    102.2399   7.9537820303e+01   2.5954190747e+01    0.2039265    0.1286218 -50.88  0.000624534    1.643    0.391
       394 -10.6810    109.1282     98.9434   9.4737229126e+01   4.1445602721e+01    0.9548438    0.5003942  64.66  0.002210443    3.353    0.702
       395  -9.0763    107.6200     92.6966   9.3431306465e+01   4.3171123424e+01    0.6192297    0.3298004  29.39  0.002145141    2.676    0.626
       396  -8.4195    159.8433    101.0998   8.2369713612e+01   2.9603558476e+01    0.2278298    0.1958907 -69.97 0.0004791042    1.263    0.208
       397  -9.2805     81.9657     99.5461   1.0393816429e+02   4.6813851185e+01    0.5002699    0.3062742 -68.93  0.001552931    2.024    0.506
       398 -10.3052     63.9685     94.8370   1.0957276112e+02   5.1120258391e+01      1.11257    0.5318226 -57.07  0.003295267    2.069    0.517
       399  -9.2882     94.8521     97.0871   9.8786983652e+01   4.4882039802e+01     0.366119     0.289899 -82.35 0.0006903011    1.525    0.344
       400  -9.0273    221.3929     96.4038   7.0873715559e+01   1.7629734637e+01    0.2252736    0.1923622 -38.61 0.0005416782    1.012    0.012
       401  -8.6390    151.1522     96.0217   8.2912505555e+01   3.2541223246e+01    0.3331028    0.2326405   9.66  0.001361264    2.357    0.576
       402  -7.6975    188.5159     93.9984   7.5185706799e+01   2.4577896033e+01    0.2037971    0.1058735 -56.01 0.0006474409    2.419    0.587
       403  -8.3557    176.4799     93.4963   7.7149998277e+01   2.7276421800e+01    0.2567085    0.1212466 -48.08 0.0005956625    2.175    0.540
       404  -8.2004    164.6908     94.3504   7.9614867138e+01   2.9763633145e+01    0.2233876    0.1675415 -78.86 0.0005371025    1.691    0.409
       405  -9.4364    138.9861     92.1031   8.4659376327e+01   3.6124602249e+01    0.4597203    0.2908928 -57.83  0.001551223    1.831    0.454
       406 -10.2824    124.0626     91.3099   8.8265004460e+01   3.9754859710e+01    0.5903038    0.4520149  43.06  0.001078597    1.308    0.236
       407  -9.3297     45.9754     92.7543   1.1659165243e+02   5.4256533220e+01    0.4249111    0.2133389  12.01  0.001551087    2.822    0.646
       408  -9.5354      4.9230     92.1902   1.3481095435e+02   5.7989576165e+01    0.3840756    0.1899776  54.98  0.001240502    2.215    0.549
       409  -8.2341    157.8078     91.8194   8.0346013100e+01   3.1801588934e+01    0.2047507    0.1716673 -73.90 0.0003862817    1.308    0.236
       410  -9.6755     34.7694     89.8660   1.2094207153e+02   5.6321617239e+01    0.5228364    0.2929874  84.27  0.001730147    2.485    0.598
       411  -8.1449    150.8280     89.3364   8.1159519305e+01   3.3887607560e+01    0.2134668     0.182831 -53.62 0.0004935101    1.164    0.141
       412 -10.0876     86.3880     86.0709   9.8557799006e+01   4.9170936145e+01    0.6326947    0.4136837 -64.46  0.001532758    1.820    0.451
       413  -9.7491     48.3745     84.2399   1.1350603518e+02   5.6126166488e+01    0.5314072    0.3125388  65.16  0.001466797    2.511    0.602
       414  -9.8356    104.8694     82.8345   9.1335973196e+01   4.5936664487e+01    0.6302046    0.3368591 -53.02  0.001931799    2.063    0.515
       415  -8.3625    157.9576     84.0726   7.8199914446e+01   3.3179456270e+01    0.2203612    0.2119396 -62.06 0.0004060882    1.023    0.023
       416  -9.1361    140.9466     82.7017   8.1504161155e+01   3.7483182853e+01    0.4330455    0.2442424 -52.81 0.0009487055    1.959    0.490
       417  -9.7292      9.9523     81.1503   1.3112663561e+02   6.0609827580e+01    0.4082311    0.2028839  51.79  0.001783735    2.315    0.568
       418  -9.2096     22.6537     90.5836   1.2658738376e+02   5.7269053659e+01    0.3582242    0.2531133 -40.53  0.001155796    1.459    0.314
       419  -9.6084     24.5654     80.4425   1.2386000069e+02   5.9757992632e+01    0.4953349    0.2689567  81.67   0.00144513    2.539    0.606
       420  -8.5766    150.0391     80.5181   7.8846280042e+01   3.5705361819e+01    0.3002663    0.1954414 -54.73 0.0007903224    1.650    0.394
       421  -8.8825    119.4346     80.3428   8.6261364164e+01   4.3087277336e+01    0.3606818    0.2389819 -71.11 0.0008295435    2.134    0.531
       422  -8.6884     74.5456     80.5626   1.0135614191e+02   5.2764719503e+01    0.3175332    0.2410224 -84.80 0.0007696696    1.711    0.416
       423  -8.0805    166.7227     79.8784   7.5348612370e+01   3.1854190735e+01     0.202227    0.1787859 -49.51 0.0005204306    1.088    0.081
       424  -7.9300    184.3247     78.2031   7.1885025630e+01   2.8086945417e+01    0.2077993    0.1154769 -44.18 0.0006581587    1.675    0.403
       425  -9.9575     63.6595     74.4033   1.0393812306e+02   5.6176469696e+01    0.6833431    0.3250764 -66.04  0.002312906    3.115    0.679
       426  -8.1021    157.3508     76.7568   7.6271231315e+01   3.4617883162e+01    0.2000224    0.1403484 -30.34 0.0005705616    1.544    0.352
       427  -9.4120    128.2581     75.5206   8.2424129842e+01   4.1914578249e+01    0.4293284    0.2533243 -56.09  0.001047941    1.980    0.495
       428  -8.3604     49.6653     77.6630   1.1117076132e+02   5.7594534634e+01    0.1575109    0.1098509 -24.72 0.0007051897    1.745    0.427
       429  -8.8826    140.5837     75.7444   7.9530633828e+01   3.8866406376e+01    0.2944947    0.2145839 -69.11 0.0006608428    1.623    0.384
       430  -8.4973    163.7722     73.8855   7.4236983907e+01   3.3570043699e+01    0.4023972    0.2082344 -62.63  0.001430879    2.936    0.659
       431  -9.8103     82.2366     71.9783   9.5618358840e+01   5.3195773833e+01    0.6523776    0.3452496 -54.70  0.001394026    2.118    0.528
       432  -8.7144    115.5898     72.7049   8.4917797335e+01   4.5521126939e+01    0.2970806    0.1859931 -43.73 0.0007686251    1.644    0.392
       433  -8.5500     42.7549     72.1722   1.1292050060e+02   5.9891272280e+01    0.3583972    0.1986592 -72.43  0.001341587    2.210    0.548
       434  -7.5429    175.5160     72.5325   7.1815646919e+01   3.1017244466e+01    0.1427551    0.1336931 -64.76  0.000125051    1.013    0.013
       435  -8.9660    105.9578     71.5856   8.7383997077e+01   4.8026624190e+01    0.2880065    0.2158834 -64.41 0.0006659425    1.551    0.355
       436  -9.4526     95.1903     71.1659   9.0712263053e+01   5.0579312012e+01    0.4277092    0.2659212 -62.90 0.0009011795    2.114    0.527
       437  -9.4869     51.5531     69.8497   1.0798869317e+02   5.9217739672e+01    0.5215431    0.3067426 -77.68  0.001447321    2.632    0.620
       438  -8.8415     28.4672     70.9312   1.1981799049e+02   6.1828858579e+01    0.3380576    0.1862716 -23.44  0.001408356    2.376    0.579
       439  -7.3846    170.3298     71.6454   7.2448217703e+01   3.2380134047e+01    0.1578325    0.1053599 -68.11 0.0003494591    1.780    0.438
       440  -8.9541     16.6611     70.2014   1.2586979435e+02   6.3005089501e+01    0.2971098    0.2013458  72.61 0.0009501416    1.754    0.430
       441  -8.7825    147.0238     68.3758   7.5911070938e+01   3.8588771270e+01    0.3218688    0.1930156 -46.83 0.0007579293    1.675    0.403
       442  -8.9027    138.6276     66.3473   7.7092738881e+01   4.1028067045e+01    0.3366617    0.2063364 -56.17 0.0008935342    1.843    0.457
       443  -8.7336    121.7666     66.1011   8.1076403905e+01   4.5268451940e+01    0.3369068    0.2196421 -60.06 0.0007276471    1.829    0.453
       444  -9.4650    122.2775     60.5651   7.9094275636e+01   4.6135832902e+01    0.2972097    0.2679731 -61.94 0.0002920977    1.132    0.117
       445  -9.4745    118.9941     55.4830   7.8183658784e+01   4.7840688237e+01    0.5132917    0.2371414 -47.90  0.001332426    2.389    0.581
       446  -8.9304     64.4499     63.8878   1.0008669830e+02   5.8441630699e+01    0.6307234     0.379932 -10.46  0.002124615    3.597    0.722
       447  -8.5624     37.4668     64.4442   1.1336661977e+02   6.2442753564e+01    0.3062605    0.1958564  65.51 0.0009555861    2.276    0.561
       448  -9.0084    110.0712     63.7374   8.3492341560e+01   4.8571640687e+01    0.3040743    0.2400843 -67.96 0.0007199805    1.451    0.311
       449  -7.5874    187.5158     63.4590   6.7569979471e+01   2.9647618470e+01    0.1415745    0.1231336 -63.35 0.0002134395    1.058    0.055
       450  -8.2245    158.2814     61.9836   7.1821657971e+01   3.6859090075e+01    0.2054996    0.1789456 -51.68 0.0003565536    1.117    0.104
       451  -9.5533     97.7440     59.9938   8.5941567249e+01   5.2222119419e+01    0.4937803    0.3183031 -26.47   0.00162261    1.950    0.487
       452  -9.7657     73.2528     59.2304   9.4631143477e+01   5.7751317400e+01    0.5094506    0.2673453 -55.31  0.001279327    2.275    0.560
       453  -8.1496     88.8219     59.7767   8.8884919001e+01   5.4313490293e+01    0.2050529    0.1788443 -81.12  0.000489535    1.313    0.238
       454  -7.6958    146.6664     59.2247   7.3183715062e+01   4.0205078306e+01    0.2009095    0.1415844 -26.65 0.0004891542    1.622    0.384
       455  -9.9450     23.3415     56.3954   1.1886511194e+02   6.5894187149e+01    0.5384024    0.3123014  73.17  0.002224431    2.867    0.651
       456  -8.2866    130.8070     58.0669   7.6197247311e+01   4.4413772341e+01    0.2373882     0.194012 -71.49 0.0005149663    1.305    0.234
       457  -9.5543      7.4245     57.2454   1.2850086424e+02   6.6809365769e+01    0.3088994    0.2146865  72.13  0.001001653    1.702    0.412
       458  -9.5171     54.3396     55.7288   1.0181074615e+02   6.2004480720e+01    0.3804457    0.2594172 -66.98  0.001317545    1.861    0.463
       459  -8.3184    139.8989     56.1630   7.3588712346e+01   4.2414800999e+01    0.2349721    0.1921702 -73.37 0.0005792873    1.272    0.214
       460  -8.8425     44.0556     55.3118   1.0689717427e+02   6.3703096209e+01    0.3311947    0.2040285 -67.70  0.001120505    2.036    0.509
       461  -8.3256    105.7844     53.0016   8.0896395599e+01   5.1562666679e+01    0.2853947    0.1971385 -88.31 0.0009137225    2.060    0.514
       462  -9.4216     92.3336     50.5904   8.4172332983e+01   5.5230761296e+01    0.4284335    0.2544208 -51.04   0.00121546    1.922    0.480
       463  -8.6841     92.6089     43.1227   8.1089799492e+01   5.6451190356e+01     0.351158    0.2222939 -20.54  0.001506351    2.072    0.517
       464  -8.4075    144.4944     49.2486   7.0455435437e+01   4.2316702768e+01    0.2069638    0.1307636 -48.99 0.0004459477    1.601    0.375
       465  -8.3816    129.9570     49.2667   7.3425564733e+01   4.6057474968e+01    0.2149124    0.1899155  74.42 0.0005157058    1.065    0.061
       466  -7.7364    149.8035     48.6096   6.9278503153e+01   4.1052301622e+01    0.1958069    0.1344735  79.18 0.0002887926    1.504    0.335
       467  -8.9457    120.8433     47.6142   7.4940681681e+01   4.8661391421e+01    0.2316048     0.208108 -22.67 0.0005184241    1.256    0.204
       468  -7.9873    218.4935     47.4803   5.9995903562e+01   2.5077476805e+01    0.1294938    0.1057669 -56.04  0.000810194    1.026    0.025
       469  -8.4196    112.1594     46.7695   7.6813524652e+01   5.1011917631e+01    0.2632176    0.1932408 -52.64  0.000587183    1.467    0.318
       470  -8.8444     82.0019     46.5385   8.6175336436e+01   5.8338318298e+01    0.2659694    0.2061073 -60.61 0.0006089158    1.529    0.346
       471  -8.5231     44.9872     44.5989   1.0225391191e+02   6.5893283995e+01    0.2493812    0.1968989 -70.06 0.0006411729    1.600    0.375
       472  -9.2469     16.5663     44.3577   1.1952840644e+02   6.9318401088e+01    0.3354609    0.1978491 -77.89  0.001202357    2.061    0.515
       473  -8.8045    132.9125     43.6957   7.0889991023e+01   4.6136865380e+01    0.2893774    0.2051061 -50.88 0.0007801519    1.452    0.311
       474  -9.6045      5.2236     42.1069   1.2656453753e+02   7.0569371979e+01    0.3809891    0.2149781  79.85  0.001292333    2.493    0.599
       475  -9.2210     69.5410     41.6283   8.9011639122e+01   6.1937790528e+01    0.3882372    0.2494714 -57.04   0.00130171    2.001    0.500
       476  -8.5538    105.9504     41.4693   7.6455745747e+01   5.3419336061e+01    0.2842831    0.1967415 -54.58 0.0006366802    1.630    0.387
       477  -9.0146     58.2467     42.8961   9.4682556149e+01   6.3951866263e+01    0.3319258    0.2239879 -60.64  0.001048441    1.924    0.480
       478  -7.8060    123.3194     41.3511   7.2115208020e+01   4.8975735987e+01    0.1545643    0.1127008  29.12 0.0007047827    1.742    0.426
       479  -8.7223     36.8092     40.8900   1.0538871306e+02   6.7876173842e+01    0.2345857     0.192586 -78.66 0.0006540965    1.598    0.374
       480  -8.6713     95.4196     38.1706   7.8162844405e+01   5.6558756433e+01    0.2737174    0.2094385 -68.88 0.0007300937    1.591    0.372
       481  -8.0947     80.6470     36.8053   8.2495153715e+01   6.0306887321e+01      0.20184    0.1329635 -47.11 0.0004636988    1.695    0.410
       482  -9.4871     26.1325     35.3614   1.0983920532e+02   7.0397932733e+01    0.3242218    0.2378492 -72.10  0.001080396    1.739    0.425
       483  -7.7489    133.4913     36.4447   6.8272254165e+01   4.7012726091e+01    0.1479403    0.1339225  83.85 0.0001189205    1.008    0.008
       484  -8.0727    125.8093     35.8028   6.9573259689e+01   4.9114521562e+01    0.1987848    0.1621474 -72.01 0.0004267204    1.268    0.211
       485  -8.3571    112.0083     34.7994   7.2289234384e+01   5.2853022591e+01    0.2272207    0.1868656 -84.59 0.0005629585    1.291    0.225
       486  -7.8158     88.8333     34.7964   7.8795287822e+01   5.8684323100e+01    0.2009815    0.1714249 -82.03 0.0006297412    1.354    0.261
       487  -8.9989     48.5788     33.3590   9.5209808248e+01   6.7507944948e+01    0.2903636     0.233115 -48.68 0.0008347559    1.375    0.273
       488  -8.3621    119.1775     33.2123   7.0029557806e+01   5.1204911157e+01    0.2090542    0.1634789 -68.65 0.0006737324    1.375    0.273
       489  -8.7520     60.6060     32.5157   8.8746979377e+01   6.5375816597e+01    0.2727459    0.2340149 -71.17 0.0006510518    1.496    0.332
       490  -7.7699    139.5016     32.0094   6.5661992064e+01   4.6022834944e+01    0.2120364   0.09997203 -53.40 0.0008090007    2.423    0.587
       491  -8.6464     71.9807     31.1224   8.3170804114e+01   6.3178788486e+01    0.2731781    0.1978036 -60.20 0.0006361278    1.805    0.446
       492  -8.8728     12.9724     30.2486   1.1721078484e+02   7.2773853294e+01    0.2907991    0.1826928 -77.00  0.001359856    2.059    0.514
       493  -8.7770    101.6208     29.5581   7.2800255269e+01   5.6247855815e+01    0.2387096    0.1632604 -54.98 0.0007712785    1.682    0.405
       494  -7.9764     41.9960     29.9843   9.7252882701e+01   6.9249873585e+01    0.1642025    0.1483153   9.95 0.0003861179    1.015    0.015
       495  -8.7738     81.4438     27.5096   7.7959806392e+01   6.1530549433e+01     0.289602    0.2277006 -69.13 0.0008294107    1.595    0.373
       496  -8.9407      3.6047     27.4851   1.2359515461e+02   7.3990672432e+01    0.2766632    0.1875482 -84.73  0.001544359    1.808    0.447
       497  -7.7223    110.2593     27.6384   6.9872447020e+01   5.4270052216e+01    0.1488928    0.1053124 -64.28 0.0004019628    1.629    0.386
       498  -8.6923     91.7592     26.5419   7.4243542648e+01   5.9144506211e+01    0.2721994    0.2197368 -58.40 0.0007257188    1.405    0.288
       499  -8.2741    104.4674     22.9837   6.9324769200e+01   5.6358633706e+01    0.1979863    0.1437378 -31.82 0.0004407787    1.505    0.336
       500  -8.1168     34.6474     23.3221   9.8313594499e+01   7.1628230549e+01     0.195404     0.162381  70.04  0.001096593    1.768    0.434
       501  -9.0227     63.5648     21.0661   8.1557637467e+01   6.6535732222e+01    0.3444116    0.2241798 -50.42  0.001118524    1.931    0.482
       502  -8.9963     48.3252     21.7783   8.9290337095e+01   6.9543185635e+01    0.2430202    0.2274987  80.24 0.0006495686    1.356    0.262
       503  -7.7573    120.5574     21.0443   6.5118827424e+01   5.2360935611e+01    0.2088195   0.09843839 -51.86 0.0007268458    2.485    0.598
       504  -9.0758    175.8629    247.7013   1.0654187525e+02   1.6391875299e+00    0.2666734    0.1835821  50.12  0.001157687    2.261    0.558
       505  -8.1515     19.8095     21.6224   1.0805340551e+02   7.3914203484e+01    0.1729971    0.1104789  33.39 0.0004565592    1.621    0.383
       506  -8.3767     11.9736     20.5102   1.1386713207e+02   7.4908466935e+01     0.170661   0.09141706  43.20 0.0008079658    2.435    0.589
       507  -8.1107     87.7855     17.7500   7.1352112997e+01   6.1243465515e+01     0.189127    0.1599798 -75.00 0.0004679685    1.337    0.252
       508  -8.2899     38.5158     18.0764   9.2848371820e+01   7.1900624133e+01    0.1959244    0.1276121 -38.46  0.001033264    1.597    0.374
       509  -8.0014    112.7820     16.8338   6.4970680850e+01   5.4887078305e+01    0.1959119    0.1539744 -69.70  0.000402819    1.342    0.255
       510  -8.0743     30.2009     16.2586   9.7276551079e+01   7.3537702728e+01    0.1617109    0.1552844  55.59   0.00058118    1.349    0.259
       511  -8.1179      7.6379     15.8266   1.1542302222e+02   7.6209946885e+01    0.1609204    0.1149172 -68.41 0.0006073673    1.674    0.403
       512  -7.9314     17.1641     14.1792   1.0614118391e+02   7.5628368263e+01    0.1550741    0.1505872  42.50 0.0005189665    1.337    0.252
       513  -7.7015     83.6319     11.3068   6.9408396850e+01   6.3001035227e+01    0.1437272    0.1033613 -74.83 0.0007035697    1.754    0.430
       514  -7.4251     76.2883     10.2919   7.1087207415e+01   6.4918869119e+01    0.1406093    0.0946689  34.22 0.0003456797    1.543    0.352
       515  -8.3225    113.0864    248.6617   1.1937280434e+02   9.4029351371e+00      0.17799     0.155222  65.99 0.0007736193    1.436    0.304
       516  -9.2821    103.6534    246.8380   1.2121546557e+02   1.0895183223e+01    0.3734227    0.2361869  86.12  0.002026824    2.670    0.625
       517  -8.9662    242.9285    246.7573   9.4843564218e+01  -5.5955176281e+00    0.2672466    0.1201563 -32.34  0.001628796    2.152    0.535
       518  -8.2325    218.5555    248.0782   9.8955358312e+01  -3.2654370398e+00    0.1662107    0.1294057 -39.98 0.0009514881    2.003    0.501
       519  -8.5154    156.0298    248.0282   1.1043727427e+02   4.0376127349e+00     0.166656    0.1256851  46.98 0.0005954668    1.658    0.397
       520  -8.5179    132.2448    247.8217   1.1525215660e+02   7.0850918190e+00    0.2084542    0.1546964  49.82 0.0007399733    1.548    0.354
       521  -8.6577    232.6589    247.2338   9.6526586598e+01  -4.6314937219e+00    0.1400857    0.1103438 -10.69 0.0006831051    1.359    0.264
       522  -9.9584    223.9237    244.1944   9.7521197904e+01  -3.3987609813e+00    0.3722753    0.1945625 -40.08  0.002346528    2.412    0.585
       523  -9.0993    146.9871    246.1603   1.1202873598e+02   5.4462225883e+00    0.2338352    0.1950441  84.60   0.00132878    2.034    0.508
