#   1 NUMBER                 Running object number                                     
#   2 MAG_AUTO               Kron-like elliptical aperture magnitude                    [mag]
#   3 X_IMAGE                Object position along x                                    [pixel]
#   4 Y_IMAGE                Object position along y                                    [pixel]
#   5 X_WORLD                Barycenter position along world x axis                     [deg]
#   6 Y_WORLD                Barycenter position along world y axis                     [deg]
#   7 A_WORLD                Profile RMS along major axis (world units)                 [deg]
#   8 B_WORLD                Profile RMS along minor axis (world units)                 [deg]
#   9 THETA_WORLD            Position angle (CCW/world-x)                               [deg]
#  10 FWHM_WORLD             FWHM assuming a gaussian core                              [deg]
#  11 ELONGATION             A_IMAGE/B_IMAGE                                           
#  12 ELLIPTICITY            1 - B_IMAGE/A_IMAGE                                       
         1 -14.5135      6.6896    141.8943   1.5113602651e+02   4.5319878692e+01      4.18458    0.9079551 -86.86   0.01461489    4.507    0.778
         2 -13.8404    195.8464     24.8294   7.1965709943e+01   3.2275854631e+01     1.806146     1.520324  27.06  0.007516218    1.382    0.276
         3 -13.5089    211.0129      6.2224   6.5155865661e+01   3.0271388898e+01    0.9346107    0.8056872  74.38  0.004163651    1.194    0.163
         4 -11.8091      2.8524     18.2627   1.3889303038e+02   7.4658404204e+01    0.6160096    0.1811946 -78.62  0.002146275    4.361    0.771
         5 -11.6263      3.7919      8.9495   1.3500249928e+02   7.6663158067e+01     0.341786    0.2078675 -10.87  0.002026147    1.781    0.438
         6 -11.1242    237.6853    247.7086   1.1342964386e+02  -3.0965096487e+00    0.1904801    0.1121058  15.90  0.001183091    1.275    0.216
         7 -10.2986    249.5790    249.2989   1.1185541272e+02  -4.6269641424e+00    0.1540483   0.08403422 -25.65  0.001139873    2.113    0.527
         8 -12.1625    173.3778    249.3151   1.2414637612e+02   5.0612517847e+00    0.4383894      0.19088  36.84  0.002618585    1.609    0.379
         9 -12.9750    123.6822    249.5667   1.3305662632e+02   1.1776944814e+01    0.7684877    0.2728124  43.10  0.004117133    1.999    0.500
        10 -14.0325    142.2813    248.4370   1.2956623984e+02   9.4027511210e+00     1.744453     0.338259  41.84  0.006869484    3.652    0.726
        11 -11.0889     99.2343    249.2778   1.3752888338e+02   1.5025706368e+01    0.2575439    0.1366154  47.64  0.001694929    1.398    0.285
        12 -13.2411     49.2671    218.1314   1.4514790336e+02   2.5991746550e+01     1.493181    0.7460246  46.08  0.007617372    1.420    0.296
        13 -14.1032     39.2480    230.5487   1.4773556175e+02   2.5002385867e+01    0.7507273    0.4598438  46.34  0.002487338    1.148    0.129
        14  -9.7679     74.0102    250.2506   1.4223895090e+02   1.8017428258e+01    0.1452803   0.06502411  37.63  0.000833892    1.577    0.366
        15 -11.7781    184.7303    238.0938   1.2083998991e+02   4.7214032592e+00    0.4476665    0.3230707 -78.66  0.002407264    4.459    0.776
        16 -11.1225     95.6674    239.7715   1.3746702230e+02   1.6834802174e+01    0.2224956    0.1610499 -31.44  0.001504203    2.355    0.575
        17  -8.6697     26.5330    241.5472   1.5051737944e+02   2.4543955999e+01    0.1040304   0.06818782  52.25 9.346213e-05    1.007    0.007
        18 -10.0839     22.1405    238.7490   1.5122829708e+02   2.5413963405e+01    0.1909524    0.1217031  50.86 0.0005528702    1.045    0.043
        19 -13.1778    136.4148    231.9696   1.2895275720e+02   1.2342020569e+01     1.129438    0.2226947  34.60  0.003591351    5.111    0.804
        20 -13.1616    104.3685    230.4857   1.3500951380e+02   1.7047448526e+01     1.235135   0.08733296  39.94  0.003780527    5.431    0.816
        21  -9.1826      3.2711    227.5624   1.5440543932e+02   2.8953043607e+01    0.1954171   0.05902785  37.12  0.001133758    2.151    0.535
        22  -9.4285    172.5054    222.9684   1.2109954760e+02   8.2311592959e+00     0.147944   0.09027938  -6.57 0.0006389632    2.500    0.600
        23  -9.8908     27.2251    222.0489   1.4971506725e+02   2.7658805888e+01     0.249732    0.1611494  16.29  0.001631823    2.228    0.551
        24 -11.2899     57.0911    211.3314   1.4312662402e+02   2.6273769441e+01    0.3797178    0.1898815  59.80  0.001560608    1.750    0.429
        25 -12.1377     10.3675    206.8642   1.5256086431e+02   3.1907076049e+01    0.5453346    0.3044676  24.95  0.002883526    1.983    0.496
        26 -13.1608     34.6862    236.9086   1.4885734863e+02   2.4452612568e+01    0.2951415    0.2383074  82.18 0.0007764105    1.387    0.279
        27  -9.8831     20.6427    211.8924   1.5065080636e+02   3.0065658143e+01    0.3050056    0.1397571  26.71  0.001755757    2.284    0.562
        28 -11.8557     61.0425    201.8901   1.4163099461e+02   2.7498014001e+01    0.2264839     0.196954  50.78 0.0004983932    1.195    0.163
        29 -12.1577     67.4464    193.1416   1.3952013546e+02   2.8328269132e+01     0.236527    0.2060395  50.50 0.0004915193    1.164    0.141
        30 -13.3215     64.4386    177.9974   1.3888047374e+02   3.1676415540e+01    0.4491264    0.2774025 -45.56   0.00241587    2.328    0.570
        31 -10.8752     77.7644    179.6268   1.3584684906e+02   2.9572603318e+01    0.2164336    0.1882758  55.86 0.0003168144    1.088    0.081
        32  -8.8553    101.9415    178.6353   1.2999795001e+02   2.6206881782e+01    0.1952553   0.09398741  47.23  0.000916807    1.778    0.438
        33 -10.8636     30.1991    249.0917   1.5010406512e+02   2.3018553634e+01    0.2681703    0.1716289  28.65  0.002011803    1.673    0.402
        34 -10.6010     97.5109    154.0091   1.2766279937e+02   3.1843340470e+01      0.29824    0.2764277 -82.96 0.0008862797    1.165    0.141
        35 -10.4264    100.5309    150.4537   1.2632547146e+02   3.2092683802e+01    0.3223174    0.2560227 -67.15  0.001052892    1.376    0.273
        36 -11.9757     86.2337    153.1763   1.3048969810e+02   3.3804199459e+01    0.2606088    0.2426068 -37.07 0.0006556045    1.335    0.251
        37  -9.7395    134.0083    146.4519   1.1718245787e+02   2.6884338461e+01    0.5880081    0.1724039 -56.36  0.001516432    6.509    0.846
        38 -12.0765     67.9893    143.2751   1.3410478277e+02   3.8650253810e+01    0.5452726    0.3851555  65.45  0.001931168    1.359    0.264
        39 -11.0207     64.6933    141.6710   1.3482521517e+02   3.9462067970e+01     0.328052    0.2266491 -52.43 0.0009931941    1.659    0.397
        40 -10.1544    109.2014    138.3977   1.2196698155e+02   3.3142641337e+01    0.4324054    0.2894814 -17.69  0.001814186    2.724    0.633
        41 -10.6114     96.5583    135.7434   1.2492588281e+02   3.5936038140e+01    0.2462474     0.227755  32.85 0.0004358539    1.164    0.141
        42  -9.2159    115.7993    130.0604   1.1858759546e+02   3.3692144059e+01    0.2398296    0.1726007 -18.82  0.001084396    2.099    0.524
        43  -9.2772    106.5383    124.5305   1.1999598298e+02   3.6630372766e+01    0.1463261    0.1358446  55.71 0.0001401198    1.015    0.015
        44 -11.5272     14.0267    122.4140   1.4793430999e+02   4.9239884389e+01    0.4267993    0.1698697  49.61  0.002036665    2.233    0.552
        45  -9.9936    104.5755    154.1565   1.2586963541e+02   3.0642609465e+01    0.2546973    0.1885799  55.82 0.0005907788    1.264    0.209
        46 -10.5583    157.0628     75.9538   9.4212400614e+01   3.5192796843e+01     0.240608    0.2334965  35.90 0.0005425211    1.028    0.028
        47 -11.1939     12.2588     54.1327   1.4113937134e+02   6.5866529285e+01      0.26045    0.1727495  26.72  0.001515439    1.701    0.412
        48 -12.0025     85.2337    170.0955   1.3295851972e+02   3.0418366776e+01     0.619395    0.5647709 -18.85   0.00397123    1.467    0.318
        49 -11.0082     19.5551    247.7175   1.5194049132e+02   2.4268404413e+01    0.3641793    0.2187521  26.70   0.00266207    1.851    0.460
        50 -10.8368     81.6146    248.6380   1.4073913187e+02   1.7328717188e+01    0.2095026    0.1298345  62.47  0.001492386    1.537    0.349
        51  -9.0043      1.6475    249.1314   1.5506001723e+02   2.5682661146e+01    0.1122182   0.07505376 -85.08 0.0009412905    1.741    0.426
