#   1 NUMBER                 Running object number                                     
#   2 MAG_AUTO               Kron-like elliptical aperture magnitude                    [mag]
#   3 X_IMAGE                Object position along x                                    [pixel]
#   4 Y_IMAGE                Object position along y                                    [pixel]
#   5 X_WORLD                Barycenter position along world x axis                     [deg]
#   6 Y_WORLD                Barycenter position along world y axis                     [deg]
#   7 A_WORLD                Profile RMS along major axis (world units)                 [deg]
#   8 B_WORLD                Profile RMS along minor axis (world units)                 [deg]
#   9 THETA_WORLD            Position angle (CCW/world-x)                               [deg]
#  10 FWHM_WORLD             FWHM assuming a gaussian core                              [deg]
#  11 ELONGATION             A_IMAGE/B_IMAGE                                           
#  12 ELLIPTICITY            1 - B_IMAGE/A_IMAGE                                       
         1 -12.1856    186.7722     33.7389   6.3069560224e+01   3.4268585625e+01    0.8952418     0.829632  84.49  0.003205201    1.097    0.088
         2 -12.3719    193.7516     23.8679   5.9632527749e+01   3.3731190286e+01    0.7583135    0.6465796 -39.22  0.001236476    1.292    0.226
         3  -9.8440     78.1977    232.8277   1.3137927246e+02   1.6394667019e+01    0.3563679    0.2068177 -48.38  0.001597352    2.364    0.577
         4 -19.3839     16.4962    134.0197   1.3592270054e+02   4.6437727061e+01     19.39199      2.69374 -73.19    0.0469753    7.235    0.862
         5  -8.8041     81.7436    195.3664   1.2637558159e+02   2.3849832598e+01    0.3562517    0.2187209  10.67  0.001439861    3.150    0.683
         6  -8.9150    190.4970    189.4362   1.0030348215e+02   5.6968820316e+00    0.2650367    0.2101337 -33.88    0.0010984    1.292    0.226
         7  -9.1143     58.4357    188.6965   1.3116537687e+02   2.8703254347e+01    0.3346746    0.2270154 -51.92  0.001791527    1.698    0.411
         8  -9.4687    207.7654    183.5437   9.5663621608e+01   3.6176691412e+00    0.3152611     0.260014 -49.09  0.001288541    1.423    0.297
         9  -8.6403     74.4952    182.1150   1.2639823761e+02   2.8009974445e+01    0.2429503    0.1732731  63.19 0.0009387212    1.361    0.265
        10  -8.3007     99.6376    180.7619   1.1987417672e+02   2.4346702633e+01      0.19214    0.1750339  45.33 0.0006767377    1.105    0.095
        11 -10.4251     81.1200    178.6735   1.2424346660e+02   2.7830674164e+01    0.4254996    0.2570484 -42.32   0.00191901    2.128    0.530
        12 -10.6160     84.2053    173.8781   1.2273648309e+02   2.8497074860e+01    0.4396426    0.3128093 -60.23  0.001026033    1.411    0.291
        13  -8.2054     51.0900    174.6670   1.3135205802e+02   3.2972671777e+01    0.1792021    0.1605339  64.00  0.000490698    1.113    0.101
        14  -9.2351    196.5394    171.9464   9.5556660778e+01   7.7790998548e+00    0.3354606    0.2531404 -16.09  0.001389411    1.440    0.306
        15  -8.1713    145.5299    168.4737   1.0622166438e+02   1.8601885600e+01    0.1513676     0.144782  33.18  0.000111514    1.027    0.026
        16 -11.5364     69.6368    135.1877   1.2021856488e+02   4.0270991765e+01    0.6100931    0.4514209  55.94  0.003090003    1.438    0.304
        17 -10.5156     91.0939    164.6520   1.1943197082e+02   2.9613101584e+01    0.3805343    0.3609276  31.68 0.0006003383    1.167    0.143
        18 -12.0088     80.1128    159.9802   1.2160774071e+02   3.2518453295e+01     0.645135    0.5154749  71.05  0.001681783    1.266    0.210
        19 -12.2789     68.8087    144.5395   1.2216217820e+02   3.8048710020e+01      1.07084    0.6535659  84.32   0.00335047    2.222    0.550
        20 -10.5168     96.4423    157.3028   1.1668494943e+02   3.0496508001e+01    0.5921867    0.4137292 -30.02   0.00175478    1.949    0.487
        21  -8.8615    140.9892    157.7266   1.0511160123e+02   2.1902936300e+01    0.2445842    0.2185394 -56.65 0.0004266464    1.161    0.139
        22 -10.5420     57.2088    148.8510   1.2620739044e+02   3.8550141368e+01     0.430737    0.3270091 -64.79  0.001954947    1.221    0.181
        23  -9.7222    133.9310    145.2412   1.0417761316e+02   2.6199193191e+01    0.9101036    0.2283908 -52.88  0.002250271    4.925    0.797
        24 -10.0862    108.1176    141.2309   1.1023734202e+02   3.2293286992e+01    0.5419486       0.3144 -34.77  0.002095448    2.276    0.561
        25 -10.5921     96.2604    141.7077   1.1368868572e+02   3.4349311917e+01    0.3081729    0.2766391 -38.49 0.0005138008    1.203    0.169
        26 -11.1462     57.1594    127.1097   1.2253267335e+02   4.4001696216e+01    0.4539972    0.2398796 -58.90  0.002035015    1.700    0.412
        27 -10.3319     57.3145    121.3009   1.2137255090e+02   4.5428350969e+01    0.3432073    0.2502796 -45.22  0.001779824    1.365    0.267
        28  -9.0291    106.0058    131.4917   1.0866702811e+02   3.5047016166e+01    0.3499851    0.2735078  53.28   0.00144622    1.317    0.241
        29  -9.5137    103.0672    127.6078   1.0862004876e+02   3.6541315806e+01     0.314563    0.2830045  11.80 0.0008788658    1.253    0.202
        30 -10.0440    178.2790    219.2000   1.0819516041e+02   2.6345979667e+00    0.2840932    0.1702622  44.12  0.001435151    1.600    0.375
        31  -9.3546    136.7761    123.4511   9.8243499788e+01   3.0561606597e+01    0.2918534    0.2280167 -49.04 0.0005901504    1.291    0.226
        32 -10.2018    101.4622    170.3850   1.1768677605e+02   2.6475959826e+01    0.5652005    0.2148538  53.86  0.001713061    3.750    0.733
        33  -8.8067    110.2364    119.8338   1.0465133783e+02   3.6999388843e+01    0.2289253     0.208535  84.92 0.0004301032    1.174    0.148
        34  -7.8064     88.3081    230.2910   1.2899440451e+02   1.5418079939e+01    0.1138543    0.1008333   1.93 0.0004659313    1.580    0.367
        35  -8.3136    168.1649    112.9787   8.7948497666e+01   2.5614092192e+01    0.2690004    0.1814564 -69.80   0.00107864    2.064    0.515
        36  -7.9399    205.6741    110.2883   7.9793921420e+01   1.7492797010e+01    0.1489389    0.1136461 -74.97 0.0005398187    1.611    0.379
        37  -8.5031    115.3130    110.3301   1.0072589613e+02   3.8159973404e+01    0.1602767    0.1259021  -6.54 0.0003722526    1.674    0.403
        38  -9.0170    134.4958    103.4589   9.3546821860e+01   3.5464430749e+01     0.342202    0.1567521 -43.55     0.001222    2.203    0.546
        39 -10.6748    115.2747    131.3470   1.0600415020e+02   3.3268963556e+01    0.4407924    0.3341295 -18.86  0.001431457    1.749    0.428
        40  -8.2910    114.6597    199.3127   1.1910263615e+02   1.7611550013e+01      0.15021     0.101572  66.23 0.0002968129    1.698    0.411
        41 -10.1525    168.9763     68.6524   7.5652304817e+01   3.3685905905e+01    0.4795561      0.31212 -79.27  0.001415727    2.140    0.533
        42  -9.8795    194.0706    194.7197   1.0057872103e+02   4.1093506382e+00    0.4861865    0.2942676 -34.42  0.002375953    1.719    0.418
        43  -8.0651    114.2942     49.3225   8.1971327214e+01   5.0250566361e+01    0.1485675    0.1087092  19.63 0.0003439509    1.616    0.381
        44 -11.7312    175.7870     43.3533   6.7283200156e+01   3.5778927879e+01    0.6496794    0.4282679  37.95  0.002427018    1.898    0.473
        45  -8.7194    178.0032    237.6967   1.1119418488e+02  -3.0802845231e-01    0.1827035    0.1428455  29.73 0.0003724445    1.061    0.058
