#   1 NUMBER                 Running object number                                     
#   2 MAG_AUTO               Kron-like elliptical aperture magnitude                    [mag]
#   3 X_IMAGE                Object position along x                                    [pixel]
#   4 Y_IMAGE                Object position along y                                    [pixel]
#   5 X_WORLD                Barycenter position along world x axis                     [deg]
#   6 Y_WORLD                Barycenter position along world y axis                     [deg]
#   7 A_WORLD                Profile RMS along major axis (world units)                 [deg]
#   8 B_WORLD                Profile RMS along minor axis (world units)                 [deg]
#   9 THETA_WORLD            Position angle (CCW/world-x)                               [deg]
#  10 FWHM_WORLD             FWHM assuming a gaussian core                              [deg]
#  11 ELONGATION             A_IMAGE/B_IMAGE                                           
#  12 ELLIPTICITY            1 - B_IMAGE/A_IMAGE                                       
         1 -13.7949      2.6506     79.4068   1.2451957950e+02   5.8784813919e+01     2.429073    0.0952991 -75.92  0.005521057    8.828    0.887
         2 -13.5460      6.4445    112.2622   1.2607199814e+02   5.0778458258e+01    0.7641962    0.5554915  82.71  0.005064004    1.121    0.108
         3 -13.4225    206.4557     35.4635   5.3299832101e+01   2.8852461809e+01     1.288248     1.025064 -35.01  0.005263381    1.159    0.137
         4 -12.6256      3.7710     20.6826   1.1341522430e+02   7.2720306232e+01    0.5644351     0.280005 -59.56  0.003062854    1.514    0.340
         5 -12.7645      3.7691      4.8228   1.0725520500e+02   7.6198536278e+01    0.8169644    0.5783904 -20.24  0.005297445    1.437    0.304
         6 -13.9029    225.9748     16.7957   4.5951464067e+01   2.6174222624e+01     1.104749    0.8912517  20.89  0.001420325    1.419    0.295
         7 -10.8248    197.8762    245.6984   9.9433802073e+01   3.2696585727e+00    0.1759691   0.09603337  24.18  0.001065979    1.478    0.323
         8 -11.2120    161.5604    249.8328   1.0576446672e+02   7.4887642981e+00    0.2671098    0.1244981  31.72  0.001687628    1.662    0.398
         9 -10.8549    144.0303    250.0288   1.0868429595e+02   9.6991582618e+00    0.2644751    0.1658188  66.98  0.001678548    2.771    0.639
        10 -12.7847    136.3754    243.3973   1.0933399028e+02   1.1458707214e+01    0.6806889    0.5225068 -83.73  0.005269666    2.022    0.505
        11 -12.8959    131.7670    248.2056   1.1056861360e+02   1.1463897973e+01     1.078286    0.5458181  62.80  0.005499275    3.899    0.744
        12 -11.6102    117.1772    249.8444   1.1317459810e+02   1.3080333637e+01    0.4873639    0.2470736  38.58  0.001876075    1.410    0.291
        13 -11.6582    122.4655    248.9967   1.1220958589e+02   1.2531718675e+01    0.4073275    0.3188336  38.58  0.002690219    1.091    0.084
        14 -11.3383    110.2908    247.9550   1.1418640533e+02   1.4162073371e+01    0.3327903    0.2548591  71.05  0.002737632    1.525    0.344
        15 -12.6032    103.1836    230.0109   1.1393419130e+02   1.7464846393e+01    0.8112338    0.2667716  33.57  0.003929238    2.703    0.630
        16 -12.7218    102.8817    238.1384   1.1467054211e+02   1.6368886695e+01     0.463544    0.4094408  38.00  0.003364189    1.230    0.187
        17 -12.1735     86.3426    248.4098   1.1828856561e+02   1.6948081156e+01    0.6902755    0.2677929  40.31  0.003649781    1.783    0.439
        18 -12.3364     88.6986    238.6715   1.1720103784e+02   1.8010402955e+01    0.6252585     0.330317  66.94  0.003926422    2.305    0.566
        19 -11.1625     84.1635    230.2614   1.1738716453e+02   1.9760494361e+01    0.2104463    0.1864344 -31.28  0.001180422    1.663    0.399
        20 -11.4621     68.1193    245.1756   1.2118102025e+02   1.9445705223e+01    0.2709661    0.1595306  59.48  0.001745301    1.446    0.308
        21 -11.8438     58.4266    246.9310   1.2291478067e+02   2.0243129434e+01    0.4563516    0.3210679  61.92  0.003868857    1.196    0.164
        22 -13.0739      3.3084    191.3027   1.3053329086e+02   3.4532766178e+01     1.449687    0.4093579 -84.22  0.007270845    3.250    0.692
        23 -12.6691     35.3837    206.0221   1.2493590661e+02   2.9046383085e+01    0.6547589    0.4471685  45.88  0.004928574    1.201    0.167
        24 -14.8693     22.3839    219.7269   1.2794462898e+02   2.7981247154e+01     1.035156    0.8283066  45.04  0.008925935    1.280    0.219
        25 -14.9228     13.2895    241.9793   1.3019521815e+02   2.5334310179e+01     2.554416    0.8498077  38.65   0.01670564    2.025    0.506
        26 -10.6639     97.2643    239.5092   1.1576436904e+02   1.6867193324e+01     0.197115    0.1430789 -84.53 0.0009256442    1.752    0.429
        27 -11.4651     69.0087    237.4862   1.2056890159e+02   2.0448349419e+01     0.288521    0.2295819  14.20  0.001170536    1.768    0.434
        28 -11.7664     73.3722    236.9692   1.1977229979e+02   2.0032660250e+01    0.3101304    0.2458717 -66.30  0.001257721    1.639    0.390
        29 -13.3227      7.3201    213.4329   1.3043251167e+02   3.0343334600e+01     1.002841    0.7295663 -52.02  0.007906833    2.131    0.531
        30  -9.6294     53.8599    240.9322   1.2338101321e+02   2.1585290878e+01    0.1338256    0.1147023  46.71 0.0008039579    1.291    0.225
        31  -9.9133     53.4912    233.1449   1.2303864369e+02   2.2782023595e+01    0.4118762    0.1563754  71.85  0.002044817    3.746    0.733
        32  -8.3392     62.2902    233.3021   1.2149715278e+02   2.1810512816e+01   0.08403616   0.07526743  15.54 0.0006025111    1.566    0.362
        33  -9.2275    153.6323    230.2016   1.0496683735e+02   1.0790216619e+01    0.1234238   0.09738962 -19.30 0.0002616816    1.593    0.372
        34  -9.9503    123.1794    229.8579   1.1032171354e+02   1.4911764553e+01    0.1614296    0.1184797  49.82 0.0006638094    1.214    0.176
        35 -11.4919     99.7866    248.4350   1.1600887469e+02   1.5367501771e+01    0.4546532       0.2761  37.55  0.003389666    1.246    0.197
        36 -10.8695     56.5385    228.2190   1.2222480035e+02   2.3210290314e+01    0.1918676    0.1578488  50.97 0.0003066716    1.170    0.146
        37 -11.2665     78.3370    225.6068   1.1810215773e+02   2.1149462217e+01    0.2928169    0.2108972 -57.94  0.002211679    1.808    0.447
        38 -11.0420     99.5207    222.8933   1.1398141747e+02   1.8962743007e+01     0.335426    0.1828957 -63.05  0.002154544    2.300    0.565
        39 -13.0356    116.3356    239.0179   1.1238837957e+02   1.4570731824e+01    0.7552748     0.541966  12.06  0.005425907    1.845    0.458
        40  -8.8771     77.2893    221.2901   1.1797652320e+02   2.1938578275e+01    0.0905304     0.078895  13.15 0.0002050317    1.542    0.352
        41 -10.6493     71.6015    219.9343   1.1893637346e+02   2.2819011749e+01    0.4165427    0.1906617  45.44  0.002555339    1.631    0.387
        42  -9.4159     60.0819    220.2549   1.2109885638e+02   2.4075492449e+01    0.1448685    0.1168725  42.82 0.0004533605    1.211    0.174
        43  -9.9047    106.8063    216.6384   1.1204019280e+02   1.8957271956e+01    0.2717052     0.104612  47.56  0.001388567    2.225    0.551
        44 -10.0242     50.8713    218.6182   1.2270519820e+02   2.5339488715e+01    0.2263504    0.1044933  60.55  0.000944165    1.927    0.481
        45  -9.8460     46.4824    214.3102   1.2327769691e+02   2.6510177073e+01    0.2933202   0.06627536  45.75  0.001401236    2.823    0.646
        46  -9.6325     45.1713    218.7651   1.2376545862e+02   2.5913777621e+01    0.2228916   0.09091884  39.97 0.0009881152    1.817    0.450
        47 -12.2990     90.7791    223.4234   1.1564333487e+02   1.9978149900e+01    0.4671721    0.4016175 -72.46  0.003811908    1.438    0.305
        48 -10.0055     88.1472    212.8783   1.1524542742e+02   2.1941170412e+01    0.2046041    0.1382169  84.00 0.0009557834    1.743    0.426
        49  -9.5805     57.0405    211.8948   1.2113378372e+02   2.5777267477e+01     0.326179    0.0770514  48.86  0.001450232    3.192    0.687
        50  -8.8823    110.7762    211.5371   1.1077458175e+02   1.9203284772e+01    0.1565156   0.08268432  46.61 0.0003664134    1.563    0.360
        51  -9.6649     99.3214    209.9992   1.1282659452e+02   2.0965673958e+01    0.2502704   0.09996284  53.94  0.001180529    2.761    0.638
        52 -10.2115     63.0289    208.9052   1.1977877079e+02   2.5605735515e+01    0.2919643   0.08467019  47.01  0.001359524    2.583    0.613
        53  -9.8218     56.1605    208.1655   1.2105781700e+02   2.6501719647e+01    0.1917544    0.1380943  89.64  0.001015577    1.416    0.294
        54  -9.8815     65.6709    205.3638   1.1900416732e+02   2.5901154993e+01    0.3516299    0.1175922  45.41  0.001791632    2.248    0.555
        55  -9.3842    113.8877    204.5261   1.0942264035e+02   1.9864710823e+01    0.1810017    0.1396987  68.57 0.0006463854    1.431    0.301
        56  -9.6852    106.7741    203.5789   1.1071764066e+02   2.0992755629e+01    0.1751839    0.1526717 -75.73 0.0004530092    1.355    0.262
        57  -9.7851     73.8269    200.8410   1.1702357111e+02   2.5708152907e+01    0.1545106    0.1047828  60.60 0.0003777101    1.298    0.230
        58  -9.6734    250.6122    200.2306   8.4754428755e+01   6.7404297538e-01    0.1443593   0.08296896  -8.59 0.0006033643    1.589    0.371
        59 -10.9728     46.2823    198.5658   1.2237677942e+02   2.9240412390e+01    0.3271356    0.1518512  34.97  0.001671488    1.889    0.471
        60 -11.7125    180.3293    243.7894   1.0202591550e+02   5.7104785617e+00    0.2993343    0.1473217  26.31  0.001656082    1.776    0.437
        61  -9.6511    249.7730    194.1133   8.3868608945e+01   1.3599120682e+00    0.2273564    0.1091366  18.42  0.001258158    2.086    0.521
        62 -11.9850     49.5269    191.7650   1.2126654479e+02   3.0121521767e+01    0.2994657    0.2316435 -49.17 0.0007613216    1.776    0.437
        63  -9.0951     15.4905    189.9982   1.2808601622e+02   3.3762932183e+01    0.1522526     0.118212 -73.53   0.00118348    1.483    0.326
        64  -9.4565     21.7033    193.2910   1.2699061226e+02   3.2608836273e+01    0.2481083    0.1658551  20.04  0.001299322    1.954    0.488
        65 -12.0563     19.0045    189.0790   1.2734211111e+02   3.3624970779e+01    0.8228834     0.129216  47.30  0.003610885    3.428    0.708
        66 -10.6438     35.6516    191.7124   1.2410446340e+02   3.1572594594e+01    0.3369116    0.1406263  42.41  0.001372432    1.848    0.459
        67  -9.1247    191.5305    191.5028   9.2952596521e+01   1.0124896264e+01    0.1201288   0.09571794  20.74 5.900294e-05    1.003    0.003
        68  -9.5605    109.1360    191.1986   1.0885031531e+02   2.2702478139e+01    0.1662331      0.13947  36.30 0.0002819853    1.122    0.109
        69  -9.0108     71.1149    187.3323   1.1639715656e+02   2.8442736593e+01        0.167   0.08037036  45.53  0.000140659    1.701    0.412
        70 -12.2124     56.3466    184.2753   1.1927469262e+02   3.0756516192e+01    0.3156224     0.203926  42.30  0.001042002    1.334    0.250
        71 -11.6308     83.0323    240.5215   1.1832136361e+02   1.8415558448e+01    0.4405053    0.1828354  55.25  0.002569766    2.286    0.563
        72  -9.9824     37.3171    180.4074   1.2306375723e+02   3.3532837701e+01    0.2692479    0.1625439  70.05  0.001729985    1.456    0.313
        73  -8.7843    110.4285    178.4642   1.0698917608e+02   2.4723089118e+01    0.1216404    0.1059713  47.16 8.817922e-05    1.013    0.013
        74  -9.7925     60.1990    177.3601   1.1785398741e+02   3.1631936896e+01    0.2620231    0.1198552  44.20  0.000988082    1.809    0.447
        75  -8.9459     87.9829    175.4775   1.1151532157e+02   2.8468071703e+01    0.1747635     0.104583  40.27 0.0003376693    1.462    0.316
        76 -11.5133    248.4846    172.3938   8.0256448627e+01   3.7035150827e+00    0.3889145    0.2482092  -7.15  0.002498552    1.363    0.266
        77 -11.3869     12.2837    172.4087   1.2799939903e+02   3.7383708555e+01    0.3405551    0.1816866  62.02  0.002182353    1.497    0.332
        78 -10.8588     68.9023    172.4056   1.1544364419e+02   3.1546717202e+01      0.20921    0.1885261  67.66 0.0003822988    1.099    0.090
        79 -11.0346     27.0641    171.7911   1.2475156233e+02   3.6211320089e+01    0.2267783    0.2160706 -31.62 0.0004574944    1.494    0.331
        80 -11.6121      2.9681    172.0639   1.2997234701e+02   3.8187528468e+01    0.4424272    0.2042904  71.30  0.002024738    1.771    0.435
        81 -11.0138     53.5856    171.2963   1.1879417857e+02   3.3581368567e+01    0.2661652     0.223533  43.81  0.000963756    1.208    0.172
        82 -11.4019     19.5860    168.9797   1.2624124522e+02   3.7445015095e+01    0.3662803    0.1922339 -61.36   0.00218952    2.128    0.530
        83 -12.6308     10.0700    165.7142   1.2818242910e+02   3.8893256570e+01    0.6494293    0.4061077  36.39  0.004436318    1.555    0.357
        84 -12.5334     11.2175    155.0178   1.2741000734e+02   4.0991278595e+01    0.4785986    0.2902519 -74.40  0.003106742    1.551    0.355
        85 -10.7883     40.2636    167.9919   1.2154189554e+02   3.5681180474e+01    0.2812506    0.2276052  18.80  0.001113033    1.592    0.372
        86 -12.2534     77.0935    163.6351   1.1260497354e+02   3.2236756624e+01     0.703575    0.4813669 -79.61  0.004185985    1.542    0.351
        87  -8.8117     68.2715    166.6131   1.1498722775e+02   3.2772274047e+01     0.128716   0.07844896  68.79 0.0006992396    1.712    0.416
        88 -11.4781    245.2988    162.2722   7.8843443276e+01   5.2552334687e+00    0.2976015    0.1932483 -21.88  0.001871506    1.421    0.296
        89 -11.9512    247.8604    158.7189   7.7775162556e+01   5.2523691220e+00    0.5675437      0.49622  85.02  0.003637974    2.368    0.578
        90 -10.4570     23.7540    161.9975   1.2490195297e+02   3.8492035343e+01    0.1798526    0.1507399  45.86 0.0003414626    1.251    0.201
        91  -8.5462     49.3308    161.3111   1.1888839961e+02   3.6080620475e+01    0.1090845   0.09049144 -36.17 0.0007042803    1.671    0.402
        92  -8.4061     58.6894    159.3243   1.1647619363e+02   3.5423026466e+01    0.1298998   0.07733884  64.60 0.0002787151    1.655    0.396
        93 -11.6374     23.1826    150.3198   1.2428045460e+02   4.0989091612e+01     0.323739    0.2252333 -51.87  0.001715279    1.776    0.437
        94 -10.8759     21.8388    156.6949   1.2501790955e+02   3.9760093726e+01    0.2261611    0.1961865 -84.77  0.001114716    1.223    0.183
        95 -11.0392     26.2605    155.8243   1.2391641577e+02   3.9548343590e+01    0.2503337    0.1897862  58.19 0.0008291485    1.131    0.116
        96 -13.2652      6.0888    143.0591   1.2802897851e+02   4.3909368282e+01    0.9261784     0.502581 -72.72  0.002739068    1.677    0.404
        97 -11.1031     91.9618    149.8241   1.0721622737e+02   3.2968694603e+01    0.3016354    0.2658633  61.25 0.0009521848    1.038    0.036
        98 -10.5807     80.2633    148.5778   1.0992046256e+02   3.4905596033e+01    0.2197218     0.210499  77.12 0.0003503391    1.113    0.102
        99  -9.7250     38.8033    148.9617   1.2032933002e+02   3.9805577479e+01    0.1688365    0.1486625 -67.40 0.0004456629    1.286    0.222
       100 -11.7041     68.4572    143.6614   1.1223788423e+02   3.7540222392e+01    0.6391577    0.3296708  66.43  0.002191304    2.482    0.597
       101  -9.2480    235.8380    146.1150   7.7101279812e+01   8.6016676597e+00    0.1743878    0.1228066   6.69 0.0005055985    1.281    0.220
       102  -8.6084    133.6420    141.3226   9.5801185337e+01   2.7802989672e+01    0.1405354    0.1058636  74.09 0.0007044579    1.769    0.435
       103  -9.7430     44.9845    139.9388   1.1787878319e+02   4.1136165213e+01    0.1845081    0.1584851  82.36  0.000350307    1.034    0.033
       104 -10.9370    249.6521    150.9868   7.5991926035e+01   5.8244449379e+00    0.2970003    0.2098212 -22.16  0.001909037    1.326    0.246
       105 -12.5972    241.5018    120.4505   7.0742350554e+01   1.0734567961e+01    0.7477289    0.4216842  53.53  0.003829439    2.188    0.543
       106  -9.3612     95.7915    145.7541   1.0565320085e+02   3.3233857895e+01    0.1777602    0.1738749  63.78  0.000497435    1.102    0.092
       107  -9.9992    105.9827    135.5313   1.0137622480e+02   3.3739594331e+01    0.3756648    0.2551472  -2.03   0.00164902    2.698    0.629
       108 -12.3074     17.4729    132.5892   1.2447662318e+02   4.5347755038e+01    0.3352357    0.3009922  25.27  0.001405785    1.395    0.283
       109 -10.2911    239.9929    250.0000   9.3577960593e+01  -2.2354131420e+00    0.1620057   0.04039229  37.23  0.000811709    3.007    0.667
       110 -13.4022     15.1262    122.5982   1.2436031651e+02   4.7792267487e+01    0.8893532    0.3057119 -65.41  0.003420352    2.472    0.595
       111 -11.2346    172.1706    245.9962   1.0360995184e+02   6.5354276009e+00    0.2382889    0.1413543   8.67  0.001523861    2.227    0.551
       112  -9.5892     44.3801    130.1557   1.1695965922e+02   4.3400921077e+01    0.1762826    0.1055194 -88.17   0.00053727    1.638    0.390
       113 -12.9089    247.6350    113.3148   6.8263391933e+01   1.0510272664e+01    0.8749514    0.4867283 -31.36  0.004620801    1.626    0.385
       114  -8.5407     92.3375    133.2563   1.0446872497e+02   3.6407270354e+01    0.1265802    0.1062793  -5.51 0.0003805144    1.575    0.365
       115 -13.0236    248.1948    101.7568   6.5529089518e+01   1.1791802392e+01     0.959648    0.4752424 -21.50  0.004640688    1.790    0.441
       116 -12.0507    248.0334    142.3480   7.4482549140e+01   7.0488707121e+00    0.5556269    0.3835808  23.88  0.003457498    1.329    0.247
       117 -11.1572      2.9913    132.6489   1.2827452909e+02   4.6389855387e+01    0.3818351    0.2412158 -86.65  0.002276655    1.301    0.231
       118 -11.8997      9.1357     96.5863   1.2394865436e+02   5.4298579971e+01    0.2580617    0.1473725 -71.56  0.001274724    1.442    0.306
       119 -12.6800    248.4180    134.3200   7.2752114616e+01   7.9061539234e+00     1.029318     0.386873 -21.48  0.004402727    2.657    0.624
       120 -13.4640      4.1715    121.6906   1.2734285415e+02   4.8762307494e+01    0.8184263     0.515384  87.75  0.005165012    1.286    0.222
       121  -9.5532    162.0184     80.2436   7.4294198742e+01   3.3266065005e+01    0.1965879     0.128403  50.76 0.0005629202    1.567    0.362
       122 -11.4084    154.5452    246.9245   1.0662263394e+02   8.7079887500e+00    0.2562876    0.2018852 -40.78  0.002128049    1.733    0.423
       123 -11.7127    150.2749    246.8130   1.0732395130e+02   9.2696599038e+00    0.2501791    0.2388594  27.09  0.002283864    1.348    0.258
       124 -11.4933     73.9896    243.5035   1.2007828365e+02   1.9029113420e+01    0.2690758    0.2136257 -82.62  0.002324712    1.524    0.344
