#   1 NUMBER                 Running object number                                     
#   2 MAG_AUTO               Kron-like elliptical aperture magnitude                    [mag]
#   3 X_IMAGE                Object position along x                                    [pixel]
#   4 Y_IMAGE                Object position along y                                    [pixel]
#   5 X_WORLD                Barycenter position along world x axis                     [deg]
#   6 Y_WORLD                Barycenter position along world y axis                     [deg]
#   7 A_WORLD                Profile RMS along major axis (world units)                 [deg]
#   8 B_WORLD                Profile RMS along minor axis (world units)                 [deg]
#   9 THETA_WORLD            Position angle (CCW/world-x)                               [deg]
#  10 FWHM_WORLD             FWHM assuming a gaussian core                              [deg]
#  11 ELONGATION             A_IMAGE/B_IMAGE                                           
#  12 ELLIPTICITY            1 - B_IMAGE/A_IMAGE                                       
         1 -14.9066    198.8685     69.9613   1.5945208069e+01   2.6722961098e+01     2.153654    0.9371979  45.76  0.008701597    3.387    0.705
         2 -13.3185     80.6431     57.4057   3.7531310822e+01   5.6973144911e+01     1.790983     1.178402 -13.33  0.006657163    2.963    0.663
         3 -13.2541    135.9133     51.0992   2.0184209748e+01   4.4396757672e+01     1.470524     0.483364 -36.40  0.004964083    2.974    0.664
         4 -12.8977    120.3887     26.0840   1.4211498816e+01   5.2088729087e+01    0.7320369    0.5970641  61.70  0.003540986    1.234    0.190
         5 -14.7006    124.4995     35.8943   1.7108463718e+01   4.9672854382e+01     1.624536    0.6723837  50.08  0.005104641    2.687    0.628
         6 -14.9872      6.6086     71.3017   7.9781213738e+01   6.4480821020e+01     1.268695    0.8713908 -64.78  0.005372916    1.331    0.249
         7 -13.9043     65.0083     51.8653   4.1688553493e+01   6.1527959956e+01     1.527802    0.8259993 -34.94  0.006023135    2.338    0.572
         8 -15.3989    217.9500     17.3876   1.7124257853e+00   2.9686452541e+01     2.014372     0.863341 -34.84   0.01039126    1.902    0.474
         9 -13.1797    229.9572      2.6361   3.5786214848e+02   2.8877068590e+01    0.7672985    0.2563146  79.70  0.003740076    3.078    0.675
        10 -14.7237    190.1306     24.2045   5.2438308827e+00   3.4870645199e+01     1.522814    0.7730975 -51.95   0.00710702    1.617    0.382
        11 -13.2766    187.9072     11.9296   2.1760981748e+00   3.6767645308e+01    0.6251749    0.4933932 -38.60  0.003097564    1.287    0.223
        12 -14.1837     41.5121      5.1806   2.7378324707e+01   7.4370604524e+01     1.020817     0.699359  18.81  0.004747428    1.776    0.437
        13 -11.7290      2.9884      5.4949   6.2682886823e+01   8.0459733496e+01    0.2161827    0.1741339 -33.33 5.088772e-05    1.138    0.122
        14 -12.8145      7.7484      2.4344   5.4219114895e+01   8.0575251861e+01    0.5391367    0.4512975  29.80  0.003569747    1.237    0.192
        15 -15.9651     11.3257     22.9987   6.3316025188e+01   7.6110877900e+01     2.146997     1.211459 -34.58   0.01030938    1.831    0.454
        16 -14.1673     26.5970     12.9417   4.3422919435e+01   7.6101282568e+01    0.8085352    0.5794169  -3.10  0.004103144    1.731    0.422
        17 -13.8780    242.2310     35.7159   4.3324241874e+00   2.2939724540e+01    0.7418962    0.4202148 -73.60  0.003337777    1.795    0.443
        18 -14.5746    166.7135     29.1319   8.7899707163e+00   3.9786325093e+01     1.004278    0.8310152  89.68  0.003732265    1.142    0.124
        19 -13.6160     58.3193     26.6626   3.2690851764e+01   6.7658076867e+01     1.228232    0.3957653  47.51  0.003137778    2.884    0.653
        20 -14.6627    147.6599     29.4693   1.1186994964e+01   4.4518827545e+01     1.397172    0.7560292  74.36  0.004977127    1.759    0.431
        21 -15.5427     99.4205     11.6859   1.2148448105e+01   5.9348243751e+01     1.745308     1.003425  62.39  0.006714468    1.551    0.355
        22 -12.8350     85.4645     13.8053   1.6270139668e+01   6.2789401024e+01    0.4699548    0.4181567  41.42  0.002115797    1.219    0.179
        23 -11.9523     71.0106     16.5107   2.1958369266e+01   6.6134819485e+01     0.443873    0.2878499 -21.32  0.002156422    1.841    0.457
        24 -12.4821     74.4518     10.2768   1.7414734969e+01   6.6003956411e+01     0.494225    0.2957038 -23.00  0.002382225    1.929    0.482
        25 -12.4947     59.9649     15.3034   2.5409786222e+01   6.8947522872e+01    0.6087112    0.3391858  40.80  0.002624313    1.882    0.469
        26 -12.2683    245.4619     29.7827   2.9101173911e+00   2.3059159333e+01    0.3127013    0.1703424 -38.87   0.00193477    1.388    0.280
        27 -12.2145     46.7268     12.9101   3.0086344254e+01   7.2246301878e+01    0.3658723    0.2896304  68.94    0.0013377    1.391    0.281
        28 -11.8749    122.6893     10.3697   7.8183652017e+00   5.3278875570e+01    0.4436044    0.2217027 -60.11   0.00191228    2.070    0.517
        29 -11.8536    152.9448      8.4225   3.8230104112e+00   4.5587860206e+01    0.2478047     0.221062 -50.72 0.0007509329    1.198    0.165
        30 -11.2675     80.2225      6.9416   1.4036872012e+01   6.4870797567e+01    0.2203313    0.1760923 -69.79  0.001138858    1.307    0.235
        31 -10.6153     60.2206      6.1956   1.9641017286e+01   6.9966819285e+01    0.1828295    0.1499033  88.88 0.0006619893    1.309    0.236
        32 -12.4118    120.2628      3.0834   5.2980581921e+00   5.4619046905e+01    0.6633364    0.2551421 -80.61  0.002285639    3.294    0.696
        33 -11.3938     67.7559      2.7788   1.5032698873e+01   6.8446868948e+01    0.3050399      0.20828  42.22  0.001612254    1.484    0.326
        34 -12.5646     79.9504      1.7505   1.1303543861e+01   6.5420118861e+01    0.7445696    0.1374667  66.84  0.002253619    3.909    0.744
        35 -11.7313     61.2831      1.5427   1.6268789151e+01   7.0169706753e+01     0.480806    0.1408344  66.91  0.001664996    3.163    0.684
        36 -13.6181     84.7940    179.5028   6.4793654458e+01   2.6273205690e+01     1.097165    0.3761955  48.72  0.003617315    3.256    0.693
        37 -14.6947     95.1123    235.2251   6.8461519690e+01   1.3414755838e+01     1.292374    0.7685232  62.72  0.006856672    2.222    0.550
        38 -11.8298    109.5490    249.0380   6.6607580244e+01   9.3421504206e+00    0.4459297    0.2229362  35.04  0.002503297    1.543    0.352
        39 -12.4400    107.9687    243.9813   6.6457247603e+01   1.0352056878e+01    0.4902582    0.3259963  13.88  0.002987018    1.464    0.317
        40 -12.0571     41.1970    250.1485   8.1728058228e+01   1.6814969565e+01    0.3000175    0.1899401  64.45  0.001908703    1.541    0.351
        41 -14.0015     28.0785    246.5681   8.4496002143e+01   1.8787306781e+01     1.431786     0.598124  65.45  0.007310654    2.399    0.583
        42 -12.1686      2.9138    249.5490   9.0091104461e+01   2.0534517872e+01     0.350465    0.2061658  36.27  0.001846746    1.239    0.193
        43 -14.1428      9.3237    245.5741   8.8620399048e+01   2.0719787711e+01      1.13517    0.7582184  68.13  0.007710283    1.375    0.273
        44 -14.2231     26.7108    225.9879   8.3988252135e+01   2.2960946237e+01     1.365712    0.6740036  79.99  0.007079033    2.171    0.539
        45 -13.9918     20.8337    224.3765   8.5339651245e+01   2.3863175854e+01     0.800335    0.6143221  88.07  0.004278652    1.407    0.289
        46 -13.3469    197.4631    179.5130   3.9225443992e+01   9.1502203217e+00    0.5766296    0.3822964 -66.26  0.002778693    3.256    0.693
        47 -11.2788    121.9816    180.6113   5.5223297792e+01   2.0327467826e+01    0.4111609    0.2272122  70.68  0.001259008    5.188    0.807
        48 -13.0012    124.8193    167.9794   5.2425464301e+01   2.2536500490e+01    0.4576502    0.3169034 -65.40  0.002242765    1.725    0.420
        49 -12.2116     89.5378    169.9790   6.2135429289e+01   2.7798555530e+01    0.2913295    0.2065287  15.26  0.001384017    1.647    0.393
        50 -11.9459     27.8363    158.8391   7.9778111343e+01   3.8721208377e+01    0.3043479    0.1327756  48.39  0.001126305    2.007    0.502
        51 -12.9843     76.9022    156.8649   6.3885008060e+01   3.2960889705e+01     0.696877    0.5623686 -77.11  0.003589892    1.295    0.228
        52 -13.5343     74.0021    153.4794   6.4267466741e+01   3.4265179271e+01    0.8161496     0.769966  89.11  0.003144726    1.087    0.080
        53 -10.9664    155.6593    157.3363   4.3277411900e+01   1.9475120137e+01    0.1375836    0.1107675  82.08   0.00070508    1.759    0.432
        54 -12.4546    111.6479    155.6354   5.3640821529e+01   2.7526885415e+01    0.5670837     0.348948  73.87  0.002171356    2.744    0.636
        55 -12.8153    208.4878    154.1039   3.2780445281e+01   1.1557156862e+01    0.5585312    0.3927797  34.58   0.00343392    1.562    0.360
        56 -11.8723    122.2670    155.2969   5.0779808874e+01   2.5742756814e+01    0.3532267    0.2106612 -12.06  0.001152587    3.997    0.750
        57 -11.6231     55.5040    155.9791   7.0496597560e+01   3.6254770607e+01    0.3730511    0.2433437  -5.88  0.001557041    2.373    0.579
        58 -12.0895     85.8440    152.6509   6.0497402201e+01   3.2609533327e+01    0.5489517    0.3045292 -44.75  0.002243527    2.125    0.529
        59 -12.5499      7.5347    148.7462   8.5851156654e+01   4.3168258761e+01    0.6413885    0.3710018  63.45  0.003115923    1.537    0.349
        60 -11.7264     13.3631    151.7213   8.4056851531e+01   4.1925064213e+01    0.2994876    0.1525516  49.15 0.0007046803    1.704    0.413
        61 -10.9763     12.6665    148.6759   8.4111475456e+01   4.2795091709e+01    0.2166001    0.1934436 -74.65   0.00116784    1.201    0.167
        62 -11.8855    103.5559    149.6884   5.4786082101e+01   3.0336874089e+01     0.388725    0.2988859 -19.92  0.001493578    1.714    0.417
        63 -12.2065     62.9025    146.1564   6.6736882759e+01   3.7822626763e+01    0.2563191    0.1944437  60.83   0.00124883    1.276    0.217
        64 -10.4930     38.2009    145.7977   7.5083707152e+01   4.1112184931e+01    0.1941682    0.1718904 -38.77 0.0004647555    1.341    0.254
        65 -12.7592    246.5097    133.1726   2.3532093210e+01   9.2630471802e+00    0.4010154    0.2657241 -42.65  0.002664556    1.339    0.253
        66 -14.5804    232.5696    127.7262   2.4232744276e+01   1.1999905385e+01     1.184543    0.5667168 -44.36  0.006254926    1.859    0.462
        67 -12.6139     43.8501    132.7291   7.1468216379e+01   4.4024268726e+01    0.4736799    0.2729115 -70.44  0.002021253    1.700    0.412
        68 -10.5559     10.7799    133.8618   8.3851187834e+01   4.6960222620e+01    0.2007787     0.139194  56.01 0.0003807477    1.301    0.231
        69 -12.2982    136.6275    131.9974   4.2398232253e+01   2.8190505264e+01    0.6625331    0.3120001  40.01  0.002584868    2.187    0.543
        70 -10.9752      5.4330    128.8231   8.5533606078e+01   4.8710371188e+01    0.2794096     0.152166 -40.25  0.001216856    2.275    0.560
        71 -14.4259    104.6716    121.3091   4.8572788298e+01   3.6999993101e+01     1.911322     1.275006  36.89  0.008424153    1.538    0.350
        72 -14.8240    106.1535    104.9232   4.4087193411e+01   4.0626024054e+01     1.617778     1.314412  58.98   0.00783276    1.222    0.181
        73 -12.3158    180.9259    120.1687   3.0467285086e+01   2.1909515606e+01    0.2349024    0.2134124  25.37  0.001014736    1.224    0.183
        74 -12.8050      5.0665    118.6238   8.5054614725e+01   5.1543999244e+01    0.8376713    0.5218325 -34.15  0.003978081    1.951    0.487
        75 -12.0407     42.6217     90.2946   6.4522047083e+01   5.5917731245e+01    0.4205673    0.2917472 -75.58 0.0004577025    1.466    0.318
        76 -13.0844     21.0403     86.1521   7.4245707041e+01   5.9435020805e+01    0.8337076    0.4919009   9.20   0.00180179    1.954    0.488
        77 -14.2441     18.4284    110.7522   7.8814312809e+01   5.2798481696e+01    0.9532995    0.7929139 -50.40  0.003653563    1.282    0.220
        78 -14.6473     25.2513     93.8616   7.3441743335e+01   5.6921610505e+01     1.650067     1.021966   5.30  0.007346313    1.958    0.489
        79 -14.2106     10.7309    102.6830   8.1356771844e+01   5.5622347115e+01     0.925355    0.8447957  46.44  0.004587776    1.114    0.103
        80 -12.3413     78.8296    111.1399   5.4618439482e+01   4.4517762077e+01    0.3893603    0.3466996 -74.04  0.001967883    1.114    0.102
        81 -13.0436     84.9575    114.9071   5.3365794652e+01   4.2411299984e+01     1.031179    0.5657264  25.51  0.003480674    2.393    0.582
        82 -12.0604     88.3542    109.5049   5.0930946590e+01   4.3138791971e+01    0.6122796    0.3390466 -64.64  0.002354729    2.024    0.506
        83 -11.4900    186.0408    116.0143   2.8651694407e+01   2.1683265952e+01    0.2120274    0.1607282 -73.39 0.0006259361    1.671    0.401
        84 -12.2020    121.7408    111.9562   4.1470767704e+01   3.5680239948e+01     0.299728    0.2281497  54.27  0.000669749    1.318    0.241
        85 -11.8067     62.9983    110.2184   6.0281038406e+01   4.7490955307e+01     1.012356     0.414318 -72.68    0.0030999    3.340    0.701
        86 -11.1080     64.5243    101.5387   5.7721818736e+01   4.9563294199e+01     0.348081    0.3024608  17.45   0.00111761    1.313    0.238
        87 -12.1714     62.0401     98.3049   5.7942683713e+01   5.0838183377e+01    0.5838801    0.3765191  73.81   0.00234661    2.011    0.503
        88 -11.6986    176.9464    110.3336   2.8929367456e+01   2.4454263341e+01    0.3255787    0.2302873 -19.28  0.001602411    1.784    0.440
        89 -11.3536     45.9492    110.1635   6.7085072676e+01   5.0015524535e+01     0.360328    0.2541657 -73.79  0.001646486    1.395    0.283
        90 -12.8872    223.4886    128.2302   2.5535915300e+01   1.3290804807e+01    0.6817728    0.4063525 -60.94  0.003414254    2.578    0.612
        91 -13.7566      2.3342     96.9757   8.4710759435e+01   5.7683799343e+01        1.002    0.3617498 -80.22  0.003649826    2.489    0.598
        92 -12.5026    135.9573    102.8258   3.5521200329e+01   3.4586154075e+01    0.6226168    0.3219376  48.85  0.001864963    1.967    0.492
        93 -13.4620    119.9182    102.3228   3.9468670000e+01   3.8240331835e+01    0.7100294    0.3672083  45.47    0.0027747    1.949    0.487
        94 -11.7156     49.0086     93.1801   6.2275136388e+01   5.4246493829e+01    0.5169617    0.3407714  85.71  0.001332867    1.841    0.457
        95 -12.3790     51.2283     98.7987   6.2578516024e+01   5.2401111814e+01    0.7869831    0.4731086 -21.05   0.00280442    2.893    0.654
        96 -11.9390     46.3401     98.3071   6.4591160337e+01   5.3230561723e+01    0.2790606    0.2623573 -84.04   0.00127683    1.034    0.033
        97 -13.3625    248.4829     95.7624   1.6132708738e+01   1.4134012092e+01    0.7498446    0.2102695 -43.66   0.00322601    2.804    0.643
        98  -9.9678     75.2754    100.6796   5.3366402770e+01   4.7882990557e+01    0.1621393    0.1198637  76.83 0.0004472277    1.575    0.365
        99 -12.1341    163.4108     97.7740   2.8361609726e+01   2.9568879060e+01    0.3467474    0.2962084  82.59 0.0005941966    1.252    0.201
       100 -12.9393    137.3700     95.1456   3.3139957183e+01   3.5864757728e+01    0.5407663    0.4158732  81.68  0.001579109    1.487    0.328
       101 -13.4203     32.4112    112.0878   7.3043990961e+01   5.1102948508e+01     0.831135    0.3838333 -56.88  0.003278041    2.103    0.524
       102 -11.2711    129.3213     95.9145   3.5287335787e+01   3.7530970973e+01    0.2776515    0.2134413  67.54  0.001318138    1.371    0.270
       103 -12.9562     28.5870    121.9662   7.5917828539e+01   4.8730237909e+01     0.530774     0.425335 -55.32  0.002442507    1.319    0.242
       104 -12.4807     36.8137     92.8206   6.7772608264e+01   5.5964865519e+01    0.5020774     0.326766  11.69  0.001470104    1.834    0.455
       105 -14.1670    214.3854     76.9073   1.5758045213e+01   2.2620035899e+01    0.9607156    0.7548814 -71.76     0.005443    1.310    0.237
       106 -13.5206    188.7447     83.8536   2.0675618705e+01   2.6630909903e+01    0.6358232    0.5432355  45.55  0.002341144    1.400    0.286
       107 -11.8943    209.4920    249.2762   4.7658307163e+01  -1.6655007818e+00    0.1747715    0.1229433   4.93  0.001374225    1.044    0.042
       108 -13.8277    160.3696     80.8896   2.4504211769e+01   3.3336653516e+01    0.9002728    0.6004111  27.20  0.002848523    2.483    0.597
       109 -14.3507    169.3589     76.7693   2.1849408539e+01   3.2013726010e+01     0.828302    0.5962184  50.07  0.002924652    1.573    0.364
       110 -14.1776    164.4482     71.3698   2.1196789451e+01   3.4053609419e+01     1.378603    0.9625556  71.77  0.006932791    1.507    0.336
       111 -11.8873    132.5082     85.9661   3.1714835233e+01   3.8854591399e+01    0.2370973    0.1482564 -44.67 0.0006013419    1.571    0.364
       112 -13.2750    242.0034     83.5103   1.4304960670e+01   1.6826538742e+01    0.3826116    0.2194195  60.89  0.002294001    2.199    0.545
       113 -13.7266    237.7255     80.0030   1.3993546084e+01   1.8014645827e+01    0.4473082    0.3316185 -88.66  0.002510301    1.655    0.396
       114 -10.7483     59.3429    124.8672   6.4523394087e+01   4.4079149358e+01    0.2204834     0.132768 -55.79 0.0005850829    1.691    0.409
       115 -14.6507    170.1198    242.2693   5.3644869110e+01   3.3080564272e+00      1.04447     0.640324  16.08  0.006788224    1.372    0.271
       116 -14.6853    119.6308     54.2478   2.4705299302e+01   4.8026403399e+01     1.052623    0.7564322  53.82  0.002122888    1.406    0.289
       117 -13.3781    147.5244    238.8613   5.7605731872e+01   6.4074320699e+00    0.5198279     0.338807  61.96  0.002744916    3.039    0.671
       118 -14.3410    100.6928     49.5389   2.7874925528e+01   5.3653592147e+01     1.094832    0.9513463 -83.49  0.004248073    1.133    0.118
       119 -13.2237    237.4236    231.0745   4.0846673465e+01  -2.2328831121e+00    0.4702296    0.3458997 -35.13   0.00375266    1.703    0.413
       120 -13.9326     54.0833     66.9900   5.2522002478e+01   6.0191182035e+01     2.344038    0.8287092  35.55  0.007826575    2.848    0.649
       121 -13.7937     74.7857     73.4436   4.5596253828e+01   5.4716271617e+01      1.54672    0.8284487  23.29  0.004869358    3.623    0.724
       122 -13.9469     88.8685     62.5747   3.6533373204e+01   5.4019205275e+01     1.316181     0.806873 -23.10   0.00426867    2.776    0.640
       123 -13.7707    112.0806     39.8825   2.1207891817e+01   5.2331480099e+01    0.8386575    0.5612897  27.23  0.003562016    2.339    0.572
       124 -13.1306     57.2268    246.8273   7.7964887998e+01   1.5722230492e+01    0.6539527    0.3073695  22.26  0.003333247    1.963    0.490
       125 -13.7911     61.0920     75.8746   5.2156420867e+01   5.6777892373e+01    0.7680672    0.5262782 -49.08  0.001449586    1.494    0.331
       126 -11.9293    114.1660     79.9040   3.4591190921e+01   4.4433100588e+01    0.4752794    0.3482624 -58.23  0.001969069    1.384    0.277
       127 -12.8397    135.3696     79.2096   2.9084321080e+01   3.9514419462e+01    0.8020391    0.3869939  56.08  0.002844036    2.096    0.523
       128 -11.2919     41.5341     75.9670   6.1511987237e+01   5.9882388911e+01    0.3290988    0.2289556 -62.86   0.00075986    1.408    0.290
       129 -13.9514     66.5977    222.9781   7.4092536777e+01   1.9210166789e+01    0.8735332    0.6475904  30.89  0.005312645    1.150    0.130
       130 -14.2526      5.5879     63.2828   7.9203944824e+01   6.6663930209e+01    0.7290446    0.6816046  19.46  0.003766011    1.142    0.124
       131 -11.4359     27.4887     76.2382   6.8944426600e+01   6.1516209440e+01    0.3353004    0.2401383  68.60  0.001189645    1.550    0.355
       132 -11.6594     42.5188     79.4784   6.1951754390e+01   5.8825322791e+01    0.3753219    0.2825481 -80.15    0.0013484    1.401    0.286
       133 -12.8398    242.0452     71.1652   1.1758828065e+01   1.8487930253e+01    0.4270265    0.2208148 -61.85  0.002274275    2.200    0.545
       134 -13.1131    133.8996     65.9493   2.5370634478e+01   4.2360066488e+01    0.8180438    0.7139072  28.81  0.003108966    1.460    0.315
       135 -13.3938     59.3936    212.7777   7.5064994622e+01   2.2181218331e+01    0.6066019    0.3674108 -11.49  0.001149173    2.953    0.661
       136 -12.2747    100.4619     64.0424   3.3312596821e+01   5.0972397817e+01    0.4858598    0.4249391 -15.18  0.002435521    1.450    0.311
       137 -13.9657    177.9883     56.7097   1.5195242957e+01   3.3271102440e+01    0.9393648    0.5439191 -49.89   0.00299773    1.526    0.345
       138 -11.8470     38.7899     59.8002   5.8106937055e+01   6.4363215528e+01     0.387652     0.263502  68.52  0.001748835    1.927    0.481
       139 -11.2051     34.4426     60.5523   6.0845468975e+01   6.4771147738e+01     0.481435    0.2099056 -47.82  0.001861016    2.313    0.568
       140 -12.3808     36.3113     54.3426   5.7653626492e+01   6.6035749267e+01     0.411811    0.2561485 -33.67  0.001636287    1.917    0.478
       141 -11.9439     24.8035     59.3820   6.6282252836e+01   6.6200961156e+01    0.4481609    0.2755827 -50.63  0.001671003    1.562    0.360
       142 -13.3213    248.1989     52.1786   7.3576910302e+00   1.9899086176e+01    0.6549698     0.302625 -35.67  0.003667244    1.670    0.401
       143 -11.3049     17.6189     55.1160   6.9716022464e+01   6.7970027371e+01    0.3421069     0.225194 -82.28  0.001678471    1.653    0.395
       144 -12.1332    230.9341     54.8809   9.2417021596e+00   2.2594166601e+01     0.335362    0.1980035  77.98  0.001964516    1.993    0.498
       145 -10.5888     23.5409     49.9621   6.4232292445e+01   6.8681318478e+01    0.2010314    0.1320771 -61.67 0.0004307591    1.482    0.325
       146 -12.4869    154.6283     46.2117   1.5461683612e+01   4.0431903409e+01    0.4642085    0.3003275  60.07  0.002141068    1.592    0.372
       147 -13.1346    158.2549     43.0112   1.3967470696e+01   3.9999292538e+01    0.5860666    0.4918725 -52.94  0.002218481    1.118    0.105
       148 -11.7261     38.9144     46.0893   5.2890456058e+01   6.7566486817e+01     0.215425    0.2116345   2.47 0.0009591599    1.004    0.004
       149 -13.1931     57.6372    201.6432   7.4597864717e+01   2.4825556604e+01      1.38605    0.4989687 -71.34  0.005533673    3.101    0.678
       150 -13.7649     95.3739    218.3682   6.6699611150e+01   1.6515303953e+01    0.6495765    0.2671604  28.38  0.002855319    2.093    0.522
       151 -14.9541    212.8302     40.9231   7.5615142335e+00   2.7909221797e+01     1.973379    0.6458118  79.43  0.007471005    4.150    0.759
       152 -13.9417     64.2765    214.3841   7.3961224781e+01   2.1254735016e+01    0.5122058    0.4132352  38.85   0.00252021    1.034    0.033
       153 -10.5208      5.4942    219.4926   8.8890741358e+01   2.6272289087e+01    0.1262211   0.09416277  49.62 -3.251994e-05    1.001    0.001
       154 -13.2968      6.5461     42.8587   7.4461197589e+01   7.1830807242e+01     1.035133    0.4355614  14.01  0.004433299    2.443    0.591
       155 -12.3605     85.6212    215.6164   6.8769873272e+01   1.8323633996e+01    0.2687516    0.2010279  46.35  0.001348865    1.192    0.161
       156 -11.8918    181.5069    215.5023   4.7868777477e+01   5.7640779786e+00    0.1175715    0.0950079   3.40  0.000162968    1.005    0.005
       157 -11.7574    136.7177    210.9165   5.6273050920e+01   1.2336061093e+01    0.2059979    0.1823868 -85.96  0.001145978    1.540    0.351
       158 -11.0005     40.6019    211.1768   7.9758317582e+01   2.4669986418e+01     0.168578    0.1156929 -63.45 0.0009476712    1.724    0.420
       159 -13.1133     46.6442    208.8183   7.8042481987e+01   2.4518577515e+01    0.5440425    0.2232276  64.61  0.002180161    2.918    0.657
       160 -11.1642     25.8472     44.1217   6.0589338941e+01   6.9817048769e+01    0.2163978    0.1922148  62.78   0.00124642    1.255    0.203
       161 -13.2056     46.0200     33.1625   4.2586119536e+01   6.9036628879e+01    0.8992692    0.5405778  38.85   0.00424914    1.619    0.382
       162 -12.1039     40.2734     40.1796   4.9460468512e+01   6.8638326777e+01     0.619607    0.3610212  41.12  0.002874064    1.682    0.405
       163 -12.9803     32.9584     40.4416   5.4243675781e+01   6.9716308223e+01    0.5028128    0.3528306 -39.61 0.0005380468    1.472    0.320
       164 -13.2235     74.5151     36.7937   3.1044256336e+01   6.2274124552e+01     0.781177     0.379099  58.63  0.002185033    2.074    0.518
       165 -11.6828     80.6222    208.4366   6.9279511687e+01   2.0444265446e+01    0.3134447    0.1620918  52.02  0.001456232    1.951    0.487
       166 -13.1810     71.6311    206.6341   7.1392483451e+01   2.1986834244e+01    0.5194219    0.2262442  31.31  0.002301689    1.894    0.472
       167 -13.1253     55.0889     80.6605   5.6295141019e+01   5.6606754643e+01    0.6124766    0.5817432 -54.49  0.002331966    1.088    0.081
       168 -11.0147    151.7116    206.0006   5.2354843155e+01   1.1136546591e+01    0.2643307    0.1455451   7.64   0.00117501    2.640    0.621
       169 -13.2671     15.8566    198.1621   8.5578508242e+01   3.0087369692e+01    0.9474477    0.2813708 -62.33  0.003572134    3.817    0.738
       170 -11.9073     97.7882     26.5991   1.9175205592e+01   5.7991078019e+01    0.3709288     0.268952 -67.02    0.0018381    1.475    0.322
       171 -12.2853     30.8746     25.1366   4.7980902121e+01   7.3203378559e+01    0.4492153    0.2616917  21.93  0.001659579    2.040    0.510
       172 -11.6798     36.1275     22.9242   4.2979469904e+01   7.2736520277e+01    0.3510627    0.2412402 -23.20  0.001278169    1.757    0.431
       173 -12.0449      5.4362    209.6678   8.8659804042e+01   2.8398542869e+01    0.2592799    0.1639249 -27.46  0.001340669    2.582    0.613
       174 -10.4946     80.6768    201.3368   6.8516521785e+01   2.1946629582e+01    0.1473146   0.08906372  56.15 0.0007050854    1.715    0.417
       175 -12.7051     47.8906     19.8161   3.3924651603e+01   7.0984139430e+01    0.8423551    0.2408725  51.24  0.002804341    3.375    0.704
       176 -12.5274    104.8711     35.4658   2.1176957172e+01   5.4880291892e+01    0.7871978    0.5070685  -2.78  0.003135017    2.824    0.646
       177 -13.2647     39.1237    195.0168   7.9086972917e+01   2.8488695438e+01    0.7329261    0.3592842  44.75  0.003224712    1.650    0.394
       178 -14.4687     30.2619    168.9057   7.9782723884e+01   3.5853250582e+01     2.278983    0.9881603 -41.61  0.007974559    3.810    0.738
       179 -13.3337     21.2500    166.2161   8.2395580468e+01   3.7429227641e+01    0.6027018    0.4120231  10.46   0.00254824    1.713    0.416
       180 -13.9312     22.3125    180.9768   8.2952889297e+01   3.3599061455e+01    0.9683291    0.5378874 -52.30  0.004102407    2.232    0.552
       181 -10.9184    175.9603     13.7597   3.5220084960e+00   3.9357968818e+01    0.1826519    0.1396446 -69.29 0.0002026981    1.066    0.062
       182 -15.1231      8.6779    183.1168   8.6970270062e+01   3.4286496976e+01     1.260716     1.155166  52.19   0.00818302    1.162    0.139
       183 -15.2721     15.5571    174.9920   8.4621947117e+01   3.5708648244e+01     2.592719    0.8593988  50.61   0.01018577    2.458    0.593
       184 -11.2185    212.8078    199.9982   4.0030376341e+01   4.2047469041e+00    0.1938873    0.1077155 -14.90  0.001090256    1.980    0.495
       185 -13.1558    164.2015    194.0338   4.7936683044e+01   1.1435153964e+01    0.5456836     0.317061 -56.60  0.002735155    2.348    0.574
       186 -11.2136    180.0041    188.7409   4.3970527824e+01   1.0096534137e+01    0.1594015   0.09897328  31.32 0.0008063802    1.555    0.357
       187 -12.1688    201.1185    191.2247   4.0569177703e+01   6.8899810422e+00    0.2933197    0.2052777  -4.73  0.001394478    1.398    0.285
       188 -13.0127    140.4708     21.2566   9.4040818624e+00   4.7392324736e+01     0.745686    0.3407827  71.05  0.001357955    2.006    0.501
       189 -12.2819     48.6549    181.3649   7.5304546493e+01   3.0667514758e+01    0.5207811    0.3284641 -52.43  0.002545844    1.871    0.466
       190 -11.3211    109.3320    183.3291   5.8806086880e+01   2.1718749645e+01    0.1428864    0.1070852 -11.07 0.0007051802    1.718    0.418
