#   1 NUMBER                 Running object number                                     
#   2 MAG_AUTO               Kron-like elliptical aperture magnitude                    [mag]
#   3 X_IMAGE                Object position along x                                    [pixel]
#   4 Y_IMAGE                Object position along y                                    [pixel]
#   5 X_WORLD                Barycenter position along world x axis                     [deg]
#   6 Y_WORLD                Barycenter position along world y axis                     [deg]
#   7 A_WORLD                Profile RMS along major axis (world units)                 [deg]
#   8 B_WORLD                Profile RMS along minor axis (world units)                 [deg]
#   9 THETA_WORLD            Position angle (CCW/world-x)                               [deg]
#  10 FWHM_WORLD             FWHM assuming a gaussian core                              [deg]
#  11 ELONGATION             A_IMAGE/B_IMAGE                                           
#  12 ELLIPTICITY            1 - B_IMAGE/A_IMAGE                                       
         1 -11.4088    203.9235      4.3614   6.1512446159e+01   3.3019469198e+01    0.6897269    0.5505129  80.25  0.003536421    1.267    0.211
         2 -10.6016    197.8806     12.6869   6.4429330154e+01   3.3705084734e+01    0.4741299    0.3069978  17.60  0.001027229    2.011    0.503
         3 -12.1194    190.6802     21.0268   6.7656526799e+01   3.4628278455e+01     1.128932    0.7687094 -18.37  0.005804474    1.490    0.329
         4 -11.1569     40.8005      6.8027   1.0077451926e+02   7.1582027143e+01    0.6605921    0.1837317 -35.83  0.002329624    3.438    0.709
         5 -11.0526    134.4940    230.1673   1.2626154442e+02   1.2199251353e+01    0.3088831    0.2129432 -51.90  0.002095854    1.886    0.470
         6 -10.8543    163.6803    246.4869   1.2269110216e+02   6.3070239659e+00    0.2434518    0.2087277   3.48  0.001980447    1.263    0.209
         7 -10.7647    134.3709    247.7922   1.2816423038e+02   9.8235504612e+00     0.318613     0.208755 -61.88   0.00219798    2.300    0.565
         8 -11.5959    126.7331    246.9971   1.2949299961e+02   1.0874320949e+01    0.5005227    0.3330821 -58.68  0.003558786    2.096    0.523
         9 -11.4199    127.1328    231.4835   1.2783050323e+02   1.2970465068e+01    0.5755169    0.3093987 -59.66  0.003393198    2.619    0.618
        10  -9.7311    115.1562    249.8712   1.3189620294e+02   1.1900751916e+01    0.1460534       0.1309 -41.87 0.0008308818    1.482    0.325
        11 -10.7186    115.1105    240.8841   1.3108045624e+02   1.3149032858e+01    0.2404995     0.157976 -58.57  0.001670121    2.015    0.504
        12 -10.9273    108.6038    247.1740   1.3286952056e+02   1.3057717349e+01    0.3131048    0.2642944  50.48  0.002548507    1.222    0.182
        13 -10.6092     95.8453    244.5228   1.3502562022e+02   1.4946458710e+01    0.2493794    0.2077871  22.96  0.001987041    1.253    0.202
        14  -9.8276     94.4227    250.1331   1.3573077709e+02   1.4309522921e+01    0.2774268    0.1569535  29.18   0.00101992    1.492    0.330
        15 -11.3875    100.9979    247.4797   1.3430654071e+02   1.3918399616e+01    0.5340775    0.3247249 -42.66  0.003593555    2.321    0.569
        16 -11.4087     82.3835    245.2227   1.3758991983e+02   1.6390779784e+01    0.6051124    0.3157226 -59.74  0.003971376    2.425    0.588
        17 -18.3995      5.7916    130.0451   1.4688877174e+02   4.6253549170e+01      17.4667     2.171491 -80.73    0.0442375    7.812    0.872
        18  -8.5901    115.0000    211.0434   1.2799332989e+02   1.7709339277e+01    0.1658488    0.0691222 -56.30 0.0008002572    2.927    0.658
        19  -9.1086     73.7210    204.5645   1.3608094719e+02   2.4068160017e+01    0.2772242    0.1071291 -75.54  0.001218327    3.641    0.725
        20 -10.5320     76.1653    190.3556   1.3419768849e+02   2.6428771279e+01     0.406106    0.2696638 -31.37  0.002252955    2.239    0.553
        21 -10.1861     80.4274    183.7917   1.3252424069e+02   2.7174738972e+01     0.286803    0.2423215 -22.60 0.0007596155    1.506    0.336
        22  -8.2238     94.4364    179.2239   1.2869627337e+02   2.6226953237e+01    0.1601166    0.1200773 -87.29 0.0005600236    1.605    0.377
        23  -9.5245     87.8927    172.5194   1.2940517568e+02   2.8452680730e+01    0.2151425    0.2093325  67.37  0.000453277    1.089    0.082
        24 -11.6498     76.1957    169.3091   1.3187348599e+02   3.0645945743e+01    0.4750033    0.2889895 -38.02  0.001362569    2.219    0.549
        25  -8.8543    102.0000    171.9955   1.2592378870e+02   2.6589429959e+01    0.2028524    0.0747084 -57.73 0.0008099522    2.995    0.666
        26 -10.6273     93.9808    164.5900   1.2683388607e+02   2.9236017670e+01    0.5257508      0.33535 -33.10  0.001878701    2.102    0.524
        27 -11.7270     40.2523    162.9335   1.4019688584e+02   3.6064033586e+01    0.5745665    0.2516296 -79.65  0.002741477    2.349    0.574
        28 -10.2901     83.6802    162.9700   1.2919561973e+02   3.0998617517e+01    0.3981344     0.269795 -86.96  0.002111034    1.799    0.444
        29 -11.8847     73.6810    156.5163   1.3090861730e+02   3.3699788926e+01     1.467945    0.4797491 -72.29  0.004643758    4.875    0.795
        30 -11.4966     66.6608    142.7730   1.3094299554e+02   3.7660783606e+01    0.4716073    0.3997207  53.93  0.001681655    1.133    0.118
        31  -9.4441     51.7562    157.8579   1.3678183010e+02   3.5993182267e+01    0.2371214    0.1675659  50.12 0.0008263789    1.306    0.234
        32  -9.9969     49.2572    151.6245   1.3678282897e+02   3.7650356215e+01    0.2324349    0.1436242 -88.16 0.0007122087    1.688    0.407
        33 -11.7201     45.5759    147.1969   1.3730238077e+02   3.9037684423e+01    0.5593819    0.2140668 -57.50  0.002454975    2.516    0.602
        34 -10.4576     94.0055    147.6152   1.2422727332e+02   3.2835188751e+01    0.2727297    0.2438108 -10.22 0.0005924816    1.267    0.211
        35 -12.0903     59.1226    132.6452   1.3166419214e+02   4.0926203721e+01     1.071844    0.3164982 -67.75  0.003684487    3.537    0.717
        36  -9.1705    101.5983    131.6295   1.1928753184e+02   3.5169254590e+01    0.2792744    0.2174653 -26.34 0.0008001429    1.491    0.329
        37 -12.3005     40.7796    122.2275   1.3576655910e+02   4.5392039744e+01     1.795187    0.1758066 -69.66   0.00370832    9.796    0.898
        38  -8.5463    109.8894    122.4603   1.1507700637e+02   3.5792703530e+01    0.2221458    0.1847064 -48.90 0.0005164826    1.220    0.180
        39 -10.3067     70.5173    145.4721   1.3025505746e+02   3.6560943912e+01    0.2952352     0.249613 -54.38  0.001034013    1.237    0.191
        40  -9.8943     73.6689    230.4334   1.3817525742e+02   1.9652544836e+01    0.3965359   0.09113933 -65.26  0.001694291    4.920    0.797
        41  -8.4321    168.1096    113.0695   9.8265334959e+01   2.6332453365e+01    0.2231695    0.1857309 -71.93  0.001120188    1.690    0.408
        42  -8.8991    114.3972    134.3219   1.1634954901e+02   3.2446405779e+01     0.324325    0.1719534 -45.10  0.001403147    1.953    0.488
        43  -8.4698     74.0000     91.9773   1.1912759236e+02   4.8700101692e+01    0.2483246   0.07897203 -55.66  0.000809379    2.991    0.666
        44  -8.9079     58.5279     79.0081   1.2151762031e+02   5.3979678784e+01    0.2240073    0.1308091 -57.13  0.000856237    1.582    0.368
        45  -8.3136     67.2777    231.3268   1.3947935896e+02   2.0217694749e+01   0.09275309   0.08041532  -7.66   0.00060368    1.592    0.372
        46 -10.6336    163.0098    225.5650   1.2024019808e+02   9.0212802494e+00    0.3351186    0.2136281 -14.35  0.002044694    1.970    0.492
        47  -9.3804    176.1815    249.6175   1.2084030973e+02   4.3804813292e+00     0.160527   0.07590276  26.01 0.0009478285    1.695    0.410
        48 -10.2749    141.0256    249.6228   1.2713441980e+02   8.7624312354e+00    0.2847685    0.1435692  34.83  0.001789876    1.459    0.315
        49 -11.6017    183.7071     28.2887   7.0732967185e+01   3.5564388298e+01    0.6494423    0.4260252  43.68  0.002787416    1.633    0.387
        50  -9.7832    149.1155    247.7606   1.2546603201e+02   7.9853263076e+00    0.1941416     0.125397  -7.02  0.001246103    2.098    0.523
