#   1 NUMBER                 Running object number                                     
#   2 MAG_AUTO               Kron-like elliptical aperture magnitude                    [mag]
#   3 X_IMAGE                Object position along x                                    [pixel]
#   4 Y_IMAGE                Object position along y                                    [pixel]
#   5 X_WORLD                Barycenter position along world x axis                     [deg]
#   6 Y_WORLD                Barycenter position along world y axis                     [deg]
#   7 A_WORLD                Profile RMS along major axis (world units)                 [deg]
#   8 B_WORLD                Profile RMS along minor axis (world units)                 [deg]
#   9 THETA_WORLD            Position angle (CCW/world-x)                               [deg]
#  10 FWHM_WORLD             FWHM assuming a gaussian core                              [deg]
#  11 ELONGATION             A_IMAGE/B_IMAGE                                           
#  12 ELLIPTICITY            1 - B_IMAGE/A_IMAGE                                       
         1  -8.4842     17.1886     14.1899   1.0077889713e+02   7.3483802146e+01    0.1568146    0.1432687 -81.98 0.0004876167    1.370    0.270
         2  -8.5235     55.7711     10.1366   7.6538336808e+01   6.8745954310e+01    0.1975849    0.1727659 -42.41 0.0006549706    1.276    0.217
         3  -8.0098     47.4621     10.2160   8.0558512799e+01   7.0207932051e+01    0.1851815     0.115836 -45.35 0.0009397466    1.688    0.408
         4  -8.4215     90.9379      8.9878   6.3201324294e+01   6.1351514316e+01    0.2260214     0.166567 -57.01 0.0007176686    1.691    0.409
         5  -7.7562    101.3920      8.2481   6.0077076156e+01   5.8874566997e+01    0.1961156    0.1275404 -33.83  0.000328774    1.556    0.357
         6  -7.7601      5.3386      7.6884   1.0612966048e+02   7.5778074750e+01    0.1102592   0.09032656  74.20 0.0007045535    1.691    0.409
         7  -8.6716     33.4679      5.2486   8.5154305930e+01   7.3220098370e+01    0.2840143    0.1981753 -62.97  0.001332504    2.287    0.563
         8  -9.0116    137.9668      4.6639   5.1388029318e+01   4.9603569828e+01    0.2539983    0.1990021 -29.17   0.00023653    1.294    0.227
         9  -8.5262     79.2125      4.1260   6.4039363477e+01   6.4652326417e+01    0.3033308    0.1633506 -31.92 0.0008300943    1.818    0.450
        10  -7.8862     44.5071      3.0260   7.7495276397e+01   7.1816528519e+01    0.1777758    0.1034608 -51.78 0.0008093782    2.467    0.595
        11  -8.3886     62.3660      1.6242   6.8470854132e+01   6.8612951737e+01    0.2091957     0.165634  67.00 0.0005446448    1.577    0.366
        12  -7.5178     39.4874      1.4889   7.9143671429e+01   7.2886061221e+01     0.129628    0.1108918 -12.01 6.907086e-06    1.012    0.011
        13  -8.9367    120.2834    245.4414   1.1174242730e+02   1.3197635466e+01    0.2700319    0.1603561  64.76  0.001629707    2.245    0.555
        14  -8.0940    191.7854    249.8080   1.0023958179e+02   3.3212522805e+00     0.134072   0.09852196  39.44 0.0006928936    1.373    0.272
        15  -8.0173    182.7952    250.6143   1.0177234369e+02   4.4071092433e+00    0.1512359   0.07135408  41.55 0.0009552028    1.698    0.411
        16  -8.4347     93.8995    249.3070   1.1662128266e+02   1.6010399447e+01     0.198347    0.1218992  73.27  0.001296116    2.012    0.503
        17  -7.6647     86.2724    250.6548   1.1802630208e+02   1.6747649680e+01    0.1021753   0.05679737  57.72 0.0004003216    1.620    0.383
        18  -8.7329     67.8801    245.6396   1.2087633451e+02   1.9583710073e+01    0.2427763    0.1145926  68.64   0.00148533    2.459    0.593
        19  -8.2788    191.3183    245.9265   9.9854162367e+01   3.7575135449e+00    0.1393186    0.1047873  22.63 0.0003529997    1.095    0.087
        20  -9.6672     10.2786    245.0017   1.3059423301e+02   2.5536760406e+01    0.3348771   0.09591105  66.52  0.001887046    2.994    0.666
        21  -8.8228    139.4603    244.4792   1.0833919950e+02   1.0801630938e+01    0.1393326    0.1026967 -76.48 0.0006312472    2.196    0.545
        22  -8.3596     58.7746    245.1781   1.2242381889e+02   2.0669286658e+01     0.179032   0.06129057  58.08 0.0009484658    2.804    0.643
        23  -9.6701    248.5873    242.3875   9.0661206454e+01  -3.1094564469e+00    0.2392154     0.155125 -17.65  0.001477806    1.651    0.394
        24  -9.1905    247.8143    235.0605   8.9763414685e+01  -2.4428254718e+00    0.2079709     0.184367 -20.21  0.001703748    1.907    0.476
        25  -9.3792    246.5806    229.6228   8.9173602341e+01  -1.8510771045e+00    0.2727172    0.1646792 -28.76   0.00146539    2.019    0.505
        26  -8.7940    202.0549    242.8736   9.7767164951e+01   2.6496876707e+00    0.2366229    0.1370141 -30.79  0.001175209    2.149    0.535
        27  -8.8471    168.9956    242.8695   1.0315582865e+02   7.0350739756e+00    0.1652293    0.1590907 -80.88  0.000745901    1.599    0.375
        28  -8.8419     77.9815    243.5530   1.1898666277e+02   1.8709497254e+01    0.2433464   0.08447013  53.88  0.001277919    2.659    0.624
        29  -8.4397     34.4135    244.2033   1.2654573140e+02   2.3373336061e+01    0.1295196   0.06925611  72.73 0.0009442135    1.714    0.417
        30  -9.6980    160.4269    240.6146   1.0434618117e+02   8.4414990960e+00    0.2858313    0.2120283  84.83  0.001502425    2.731    0.634
        31  -8.3709     88.2984    242.3678   1.1709210088e+02   1.7638848332e+01    0.1566643    0.1186656  88.82 0.0006575045    1.582    0.368
        32  -9.2854    183.1943    239.9017   1.0045097147e+02   5.4433390620e+00    0.2967485    0.2531238  60.49  0.001736881    1.788    0.441
        33  -8.1025    153.3246    241.8326   1.0568947374e+02   9.2605871747e+00     0.157656    0.1004007 -59.66 0.0008199994    2.550    0.608
        34  -8.2068    214.4967    241.0184   9.5578232185e+01   1.2120935392e+00    0.1325715   0.09179109 -15.69 0.0005778974    1.595    0.373
        35  -9.0081    240.8687    239.1519   9.1342784815e+01  -1.9293301045e+00    0.2451111    0.1085986 -12.80  0.001456498    2.771    0.639
        36  -8.4738    194.1046    239.8861   9.8667634886e+01   3.9860946520e+00    0.1493791    0.1132636  35.36 0.0004833618    1.272    0.214
        37  -8.2848    146.4032    239.8950   1.0667250088e+02   1.0423822229e+01    0.1204958   0.08693593  77.66 0.0004683061    2.363    0.577
        38  -8.4737    135.7932    239.0486   1.0843112706e+02   1.1958254063e+01    0.1657521    0.1136035  51.68  0.001196327    1.404    0.288
        39  -8.3158    129.0050    238.9612   1.0961380205e+02   1.2878487669e+01    0.1685628    0.1028871  55.26 0.0007909352    1.700    0.412
        40  -8.9126    231.0003    236.7174   9.2479946412e+01  -5.0652205665e-01    0.2460173    0.1796854 -10.32  0.001445736    1.429    0.300
        41  -8.0619    208.9350    238.3232   9.6098959414e+01   2.1809231198e+00    0.1473364   0.09942222  28.11 0.0006425399    1.087    0.080
        42  -8.0779    189.6418    237.2049   9.9060012472e+01   4.8546770379e+00    0.1737805   0.09927519 -30.66  0.001104956    2.186    0.543
        43  -9.1756    186.4740    230.9623   9.8794676098e+01   5.9428242382e+00    0.2518215    0.2055753  80.42  0.001378309    2.487    0.598
        44  -8.2555     25.6423    236.8320   1.2776464121e+02   2.5344925845e+01    0.2140624   0.06956682  67.01  0.001150251    3.014    0.668
        45  -8.5839    217.3169    235.7131   9.4441168894e+01   1.3307048639e+00    0.1909679    0.1278214  32.83 0.0007727171    1.257    0.205
        46  -9.3090    214.0078    232.1486   9.4480034530e+01   2.0957917042e+00    0.2226107    0.1885232  57.59  0.001489548    2.097    0.523
        47  -8.8417    203.2150    234.9093   9.6564433922e+01   3.2638969893e+00     0.207247    0.1615214 -48.20  0.001285809    2.201    0.546
        48  -7.8447    204.1751    230.6569   9.5847836226e+01   3.5548246826e+00    0.1576302   0.07282291  30.90 0.0005930462    1.683    0.406
        49  -9.7022    175.7574    233.4339   1.0090564502e+02   7.1525127341e+00    0.3242283    0.2046252 -54.63  0.002104147    2.715    0.632
        50  -8.2017    170.0214    235.7064   1.0215164382e+02   7.6883893223e+00    0.1504545    0.1390135 -68.25 0.0006750433    1.679    0.404
        51  -8.1544     58.5372    237.0000   1.2201248949e+02   2.1897717289e+01    0.2231575   0.04418229  34.75 0.0009277458    3.878    0.742
        52  -8.0602    152.9548    235.4745   1.0505697260e+02   1.0062322833e+01    0.1510042   0.07145976  51.34 0.0007667909    2.417    0.586
        53  -8.4534    123.0968    234.2686   1.1020576150e+02   1.4282455151e+01     0.183585    0.1185162  67.22 0.0007601256    2.051    0.512
        54  -9.2493    108.7018    234.5058   1.1281637827e+02   1.6156857546e+01    0.3138698    0.1543066  52.26  0.001201998    1.852    0.460
        55  -8.5280     99.6613    234.4469   1.1444402706e+02   1.7333806103e+01    0.2074454    0.1251094  62.57  0.001176574    1.760    0.432
        56  -9.0289     78.6417    234.4756   1.1824841728e+02   1.9941900732e+01    0.2109093    0.1310608  74.25 0.0009819854    1.782    0.439
        57  -9.5050     68.4394    232.4113   1.1995542551e+02   2.1459749147e+01    0.4202518    0.1473919  59.60  0.002000656    3.369    0.703
        58  -8.4545    194.3415    232.9157   9.7744614306e+01   4.6594725100e+00    0.1724361    0.1229668  42.11  0.000674391    1.446    0.308
        59  -8.8311    140.1183    230.2315   1.0674128942e+02   1.2488669192e+01     0.271252    0.1297889  52.27   0.00125836    2.307    0.566
        60  -8.3256    132.4797    232.4923   1.0834740362e+02   1.3246511639e+01    0.1457441    0.1059141 -77.86 0.0007560553    2.110    0.526
        61  -8.3870     92.4133    231.9946   1.1555905740e+02   1.8607186313e+01    0.2267254    0.1298745  74.45  0.001132648    2.329    0.571
        62  -8.9148    236.0074    230.8638   9.0916533642e+01  -6.3529585327e-01     0.163095    0.1190136   1.77 0.0004694807    1.225    0.184
        63  -8.8852      1.7426    230.9422   1.3168313636e+02   2.8426817271e+01     0.174171   0.08389629  64.54 0.0006636273    1.515    0.340
        64  -9.2532    151.4916    228.9977   1.0457920955e+02   1.1058347555e+01    0.2391339    0.1780038  75.90  0.001421573    2.198    0.545
        65  -9.4730    148.8227    224.7019   1.0455609685e+02   1.1979114321e+01      0.28017    0.1915128  61.94  0.001135328    1.956    0.489
        66  -7.9239    229.9701    229.0207   9.1570662015e+01   2.9704257800e-01    0.1343779    0.1175833  31.07 0.0007025458    1.630    0.386
        67  -7.7343    196.3419    229.2948   9.6942408886e+01   4.7601660302e+00    0.1119123   0.06559874  17.29 0.0007030658    1.660    0.397
        68  -8.7398    162.3644    227.9755   1.0254483968e+02   9.6535465174e+00    0.3157156    0.1970245  50.23  0.001469469    1.688    0.408
        69  -8.4820    163.0130    222.5189   1.0175941495e+02   1.0225600785e+01    0.2622305    0.1465947  53.23  0.001453751    2.190    0.543
        70  -8.6006    159.0458    220.7714   1.0224715592e+02   1.1015021910e+01    0.1763843    0.1550224  73.40 0.0007460861    1.592    0.372
        71  -8.8130    128.0274    227.4837   1.0863068019e+02   1.4525581954e+01    0.2494622    0.1426473  54.99  0.001246099    1.840    0.457
        72  -8.1220    120.0029    227.9525   1.1014435366e+02   1.5560060182e+01    0.1723965    0.1067793  57.87 0.0006851613    1.704    0.413
        73  -8.8102      8.3188    228.6447   1.3049840019e+02   2.8221896288e+01    0.1092981    0.0431991  57.46 0.0007045951    1.752    0.429
        74  -8.6845    206.0635    226.1022   9.4924823489e+01   3.7543889875e+00    0.2215611     0.145771 -27.48  0.000989667    1.789    0.441
        75  -8.2849     49.0240    226.9522   1.2316616532e+02   2.4493789797e+01    0.1723922   0.08512334  59.07 0.0008214088    1.666    0.400
        76  -7.6943    215.3660    226.7262   9.3520686267e+01   2.4324447171e+00    0.1128275   0.07914605  20.77 0.0005710163    1.037    0.035
        77  -8.8727    216.3776    223.2739   9.2874553710e+01   2.6306503601e+00    0.1856557     0.167073  24.33 0.0009874627    1.493    0.330
        78  -8.3444    200.3012    225.4167   9.5770685258e+01   4.6170356722e+00    0.2354962    0.1270594 -25.05   0.00148819    2.219    0.549
        79  -7.7109     78.4910    225.9790   1.1765732279e+02   2.1240023765e+01    0.1431976   0.07373898  71.37 0.0008092782    2.449    0.592
        80  -8.6605    180.2847    224.3360   9.8983823039e+01   7.5419726301e+00    0.1812487    0.1527584  40.71 0.0004145922    1.332    0.250
        81  -9.0142    104.7772    223.6907   1.1255174388e+02   1.8221215469e+01    0.2679878    0.1698424  74.45  0.001692019    2.080    0.519
        82  -8.9454     94.1623    224.2619   1.1459078641e+02   1.9529056165e+01    0.3138411    0.1382841  57.64  0.001635933    2.535    0.605
        83  -7.4530     72.6563    225.7013   1.1872324248e+02   2.1989841053e+01   0.09453443   0.07892127  13.33 0.0007035565    1.673    0.402
        84  -8.2824     38.4612    224.5511   1.2497430277e+02   2.5996888574e+01    0.1679967   0.07793105  80.79 0.0008772253    2.300    0.565
        85  -8.7151    173.1046    223.2003   1.0007520325e+02   8.6964942452e+00    0.1844692    0.1595214 -39.80 0.0007721671    1.566    0.361
        86  -8.0153    113.9604    223.9546   1.1086316325e+02   1.6946901188e+01    0.1743241    0.1082598  58.82 0.0008343263    1.681    0.405
        87  -9.0240    239.4723    221.8933   8.9105382763e+01  -2.9627501592e-01    0.2304598    0.1980279  33.55  0.001036978    1.678    0.404
        88  -9.1369    225.7518    222.0591   9.1226530874e+01   1.4871272041e+00    0.2397273    0.1567954  38.33  0.001264017    1.500    0.333
        89  -9.3267    192.4326    221.4112   9.6530690366e+01   6.1457413803e+00    0.2387304    0.2035801  67.22  0.001109757    1.974    0.493
        90  -8.3203    140.4854    222.9883   1.0586726747e+02   1.3387781633e+01    0.1337123     0.113895 -56.79  0.001016253    1.568    0.362
        91  -8.0237     59.3560    223.6799   1.2106560947e+02   2.3864395293e+01     0.117024   0.05603887  57.01 0.0007045735    1.757    0.431
        92  -9.3049    120.6100    219.4409   1.0915798626e+02   1.6682299198e+01    0.3981966    0.2042648  62.16  0.001834245    2.946    0.661
        93  -8.7000     82.4719    220.3040   1.1646655556e+02   2.1627982691e+01    0.2457343    0.1327626  68.63  0.001148667    2.181    0.541
        94  -7.9542     73.3839    221.1345   1.1825499146e+02   2.2618677983e+01    0.1410202   0.08821122  80.92 0.0009366067    1.796    0.443
        95  -8.1479     27.5329    220.7649   1.2680403773e+02   2.7713346599e+01    0.1672814   0.08611059 -75.79  0.001135566    2.098    0.523
        96  -8.1572    202.6680    220.1618   9.4653040382e+01   4.8366954848e+00    0.1399771    0.1300861   9.48 0.0006808832    1.432    0.301
        97  -9.1619    179.9391    218.2139   9.8229855266e+01   8.2992221158e+00    0.3308813    0.2335635 -74.00  0.001800221    3.714    0.731
        98  -9.1628    248.9780    218.4854   8.7187455242e+01  -1.2147596858e+00    0.2701328    0.1688776  47.65  0.001761411    2.412    0.585
        99  -8.2862    210.2242    219.2625   9.3289812787e+01   3.8750175381e+00    0.1312194    0.1137276  26.24  0.000700926    1.364    0.267
       100  -8.8322    169.5227    216.4624   9.9824365893e+01   1.0028480364e+01    0.2392573     0.185761  88.41  0.001155694    2.509    0.601
       101  -9.2499    133.0114    216.1361   1.0646338688e+02   1.5397532605e+01    0.4106784    0.2405402  68.04  0.002110768    3.012    0.668
       102  -8.3366     62.0255    217.4525   1.2015392958e+02   2.4562211248e+01    0.2476587    0.1096348  61.65  0.001368989    2.265    0.559
       103  -8.9573     51.4599    217.4067   1.2216432435e+02   2.5770797136e+01    0.2271384    0.1393344  73.56  0.001237315    1.543    0.352
       104  -8.1554    111.7976    217.5643   1.1062959029e+02   1.8179893421e+01    0.1659149   0.07981099  46.36 0.0007743364    1.670    0.401
       105  -8.9620    231.9339    215.0726   8.9236929405e+01   1.3168362907e+00    0.2628328    0.1595687  16.71  0.001760577    1.354    0.262
       106  -8.4938    185.8088    214.5434   9.6708541039e+01   7.8742734397e+00    0.1687271    0.1533218 -69.69 0.0007651849    1.797    0.444
       107  -8.3389    154.3099    215.0583   1.0238470067e+02   1.2442725046e+01    0.1476501    0.1325671  38.56 0.0006893766    1.200    0.166
       108  -9.0134     93.3434    214.1514   1.1384633214e+02   2.1197768746e+01    0.4079407    0.1436674  53.05   0.00173066    3.027    0.670
       109  -9.5322    214.1483    212.4548   9.1657043776e+01   4.0254338309e+00    0.3133402    0.2172605  51.50  0.001677116    2.071    0.517
       110  -7.5898    196.6978    214.6611   9.4866739724e+01   6.2801542683e+00    0.1151704   0.07132477  12.78 0.0007037832    1.669    0.401
       111  -9.3642     73.1238    211.8315   1.1759292183e+02   2.4157948536e+01    0.5856073    0.1846453  55.41  0.002447899    3.641    0.725
       112  -8.3220    224.8534    212.6720   8.9978356891e+01   2.5108698827e+00    0.1554244    0.1307598 -21.16  0.000858475    1.540    0.351
       113  -8.5364    161.5906    212.3809   1.0070937818e+02   1.1716818265e+01    0.2073435    0.1612625  68.03 0.0007936565    1.876    0.467
       114  -8.0211    106.5664    212.8352   1.1115290080e+02   1.9619434044e+01    0.1393395    0.1027748  85.98 0.0006800981    1.688    0.408
       115  -8.9902    204.3331    211.0564   9.3061897032e+01   5.5747316970e+00    0.2029793    0.1883056 -55.78 0.0009174115    1.803    0.445
       116  -9.4080    175.5371    210.1908   9.7900571065e+01   9.9153389628e+00    0.3011941    0.2210831  67.18  0.001673119    2.318    0.569
       117  -8.8393    148.1670    210.6320   1.0295642073e+02   1.3948507801e+01    0.2649054    0.1758969  61.65  0.001189693    2.013    0.503
       118  -9.2836      5.9806    208.2872   1.3034379891e+02   3.1796531636e+01    0.3180189   0.09474022  71.08  0.001594157    3.126    0.680
       119  -8.4242    192.2424    210.7494   9.5060363732e+01   7.3708446905e+00    0.1614639    0.1484283 -20.97 0.0008480465    1.431    0.301
       120  -8.8352    116.1866    210.4222   1.0903119203e+02   1.8644961590e+01    0.2492385    0.1613485  66.35 0.0009451117    1.891    0.471
       121  -8.5886     32.7267    210.7330   1.2537516731e+02   2.8882109325e+01    0.2737215   0.08901635  56.17  0.001423355    2.481    0.597
       122  -8.5715     85.3125    209.4369   1.1499147689e+02   2.3010513393e+01    0.2479503    0.1466823  79.15  0.001025598    2.147    0.534
       123  -8.5427    139.3022    208.2479   1.0432706448e+02   1.5602808845e+01    0.2183442    0.1437333  63.42 0.0007072001    2.015    0.504
       124  -8.6850    142.9037    216.4509   1.0465645956e+02   1.3923506943e+01    0.2329124    0.1703589  80.78  0.001468613    2.209    0.547
       125  -9.4167    246.3597    207.3263   8.5855549612e+01   1.1032906167e-01    0.2108603    0.1558667  -7.66 0.0005962432    1.277    0.217
       126  -7.8695    156.5101    208.0078   1.0106054283e+02   1.3057477579e+01    0.1319867    0.1010828  85.48 0.0005334252    2.244    0.554
       127  -9.1874     99.3814    206.3113   1.1190047238e+02   2.1641498450e+01    0.2886875    0.1782111  67.38   0.00150151    1.883    0.469
       128  -8.5338     56.2741    205.3837   1.2044547214e+02   2.7262942030e+01    0.2491976      0.10897  64.70  0.001080189    2.449    0.592
       129  -9.1623    194.9893    203.7601   9.3552050874e+01   7.7752995138e+00    0.2884448    0.2644322  60.65  0.001820028    1.633    0.388
       130  -9.3396    192.3859    197.3869   9.3024840516e+01   8.9338649432e+00    0.3535979    0.2737381 -23.68   0.00167738    1.441    0.306
       131  -8.9136    183.7888    204.0890   9.5557854263e+01   9.4270050114e+00    0.2488945    0.1795619  58.06 0.0008049464    1.974    0.493
       132  -8.6198    131.3750    204.0148   1.0532683541e+02   1.7406015694e+01    0.2411221    0.1641511  67.01  0.001009826    1.929    0.482
       133  -8.2626    108.9519    205.1952   1.0987969816e+02   2.0486622740e+01    0.1786218    0.1304034  57.97 0.0005675445    1.299    0.230
       134  -9.0626    236.6550    208.5851   8.7517511678e+01   1.2927571845e+00    0.2167758    0.1932397  43.25  0.001212521    1.807    0.447
       135  -9.5730    163.8147    203.0282   9.9022175965e+01   1.2617715495e+01    0.3671325    0.2181005  53.07 0.0008868516    1.964    0.491
       136  -9.3943    250.0858    202.0402   8.4460257703e+01   9.8749940947e-02    0.2698711    0.1386692 -22.41  0.001190973    1.894    0.472
       137  -8.4514    211.4107    202.4276   9.0572951786e+01   5.4866108293e+00    0.1957915    0.1700702  76.45 0.0008161486    2.234    0.552
       138  -7.5232     66.6593    203.3525   1.1820754415e+02   2.6386644676e+01    0.1244808   0.06455687  60.19 0.0007042458    1.805    0.446
       139  -8.4043     48.6735    202.5836   1.2177866091e+02   2.8612805586e+01    0.1928871    0.1039907  70.90  0.001174894    1.799    0.444
       140  -7.7892     41.3847    203.1953   1.2327551925e+02   2.9297068869e+01    0.1506618   0.08296714  79.56 0.0009432797    1.784    0.439
       141  -9.1395    243.1293    201.0910   8.5344137626e+01   1.1237213837e+00     0.214959    0.1640103 -28.79  0.000781525    1.702    0.413
       142  -8.1920    222.1573    201.8546   8.8731239360e+01   3.9863138524e+00    0.1567895    0.1343286  20.47  0.000700048    1.296    0.228
       143  -8.9336    140.3864    201.1230   1.0320529150e+02   1.6479234993e+01    0.2598364    0.1908717  68.72   0.00102883    1.811    0.448
       144  -8.4934     80.0949    201.4368   1.1531672314e+02   2.5031812705e+01    0.2507925    0.1309829  62.35  0.001379376    2.033    0.508
       145  -9.3671    237.0253    198.8154   8.5904651502e+01   2.1861549488e+00    0.2392813    0.1708343 -29.52  0.001027806    1.698    0.411
       146  -9.4378    149.5286    198.6565   1.0110654743e+02   1.5434892772e+01    0.3109825     0.229381  80.12 0.0009195699    2.231    0.552
       147  -9.0267    123.9873    199.2819   1.0619705941e+02   1.9236637603e+01    0.2490804    0.1812437  88.61  0.001123865    1.945    0.486
       148  -9.4121    112.8511    198.5906   1.0835166026e+02   2.0990650751e+01    0.3777349    0.2115425  63.35  0.001572619    2.333    0.571
       149  -9.2060     88.5879    198.5110   1.1329875747e+02   2.4412903010e+01    0.3278356    0.1973258  78.15  0.001569184    2.123    0.529
       150  -8.4643    176.9529    199.1424   9.6047253055e+01   1.1101300474e+01    0.1705478    0.1420837  41.37 0.0005087359    1.251    0.201
       151  -8.3173    202.3860    197.9739   9.1388115727e+01   7.3355564664e+00    0.1873811    0.1499588  47.72  0.001197801    1.558    0.358
       152  -9.1199     61.4304    197.0858   1.1878085932e+02   2.8121926694e+01    0.3394966    0.1609206  63.98  0.001499423    2.212    0.548
       153  -8.6471     12.7922    197.5212   1.2867584367e+02   3.3103676478e+01    0.2200508   0.07584143  61.04  0.001183626    2.332    0.571
       154  -8.7828    216.0034    195.6874   8.8740333648e+01   5.5480373985e+00    0.2070375    0.1566219 -42.48 0.0009025194    1.933    0.483
       155  -8.2922     53.7690    197.1666   1.2036888920e+02   2.9004559161e+01    0.2031799   0.07697576  60.31 0.0009456018    2.799    0.643
       156  -7.8949     29.3503    197.6620   1.2538094134e+02   3.1525110120e+01    0.1221023   0.05510991  58.62 0.0007045511    1.791    0.442
       157  -8.3318    133.0231    196.0374   1.0398184324e+02   1.8376200532e+01    0.1768596    0.1312352  65.19 0.0005079436    1.603    0.376
       158  -8.7082    224.3085    193.9572   8.7107023628e+01   4.5073237391e+00    0.1996688    0.1394529 -32.75 0.0009832596    1.733    0.423
       159  -7.7161    209.2827    195.6522   8.9850777344e+01   6.5594634946e+00   0.09749972   0.09224455  57.29 0.0007015769    1.647    0.393
       160  -8.9774    185.3089    194.8790   9.3887699657e+01   1.0345888987e+01     0.205396    0.1712699  40.26  0.000663832    1.272    0.214
       161  -8.7989    160.9951    194.5162   9.8322497233e+01   1.4230678099e+01    0.2529235    0.1785066  57.92 0.0009005311    1.753    0.430
       162  -8.8741     77.1097    193.9528   1.1524182124e+02   2.6729317942e+01    0.2429452    0.1575867  72.80 0.0006983798    1.616    0.381
       163  -8.9247     43.9455    193.3105   1.2213580914e+02   3.0804757438e+01    0.3966599    0.1566147  66.44  0.001901925    2.832    0.647
       164  -9.1035    245.5507    193.4814   8.3729034908e+01   1.5202618450e+00    0.2039457    0.1859602  19.89 0.0009329824    1.562    0.360
       165  -8.3917    230.8133    194.1453   8.6104205939e+01   3.5401388476e+00     0.161212    0.1332991  11.95 0.0005895456    1.187    0.157
       166  -7.7063    205.2339    191.9534   8.9934005713e+01   7.6048344401e+00    0.1338212   0.09301528 -25.88 0.0007224506    1.558    0.358
       167  -8.1499    198.8855    191.8825   9.1014376150e+01   8.5966577420e+00    0.1828508     0.151028 -22.91 0.0005794219    1.373    0.272
       168  -7.9859    179.0339    191.6932   9.4525710404e+01   1.1750864299e+01    0.1680245    0.1305016  30.47 0.0004683764    1.056    0.053
       169  -8.5153    172.4328    191.7775   9.5757632117e+01   1.2792140658e+01    0.2178513    0.1706418  54.68 0.0008707492    1.526    0.345
       170  -9.2677    139.6091    190.6639   1.0193587052e+02   1.8186814545e+01    0.3059929      0.21624  70.63   0.00113221    2.007    0.502
       171 -10.4519     92.1197    188.7940   1.1154109836e+02   2.5627554565e+01    0.8506495    0.2041838  46.85  0.003093542    3.733    0.732
       172  -8.1571    148.6402    189.5233   9.9978996687e+01   1.6927309780e+01    0.1792802    0.1477274  87.65 0.0008391981    1.722    0.419
       173  -8.9596    129.3721    188.8197   1.0374989446e+02   2.0085813464e+01    0.2724934    0.1932606  74.59  0.001003513    1.956    0.489
       174  -8.4891    237.1986    188.4724   8.4155323818e+01   3.2021520139e+00    0.1911288    0.1343408 -16.15 0.0006996149    1.365    0.267
       175  -8.9345    216.8337    188.0377   8.7335873750e+01   6.2775091764e+00    0.2205757    0.2127245  -9.37 0.0009473042    1.510    0.338
       176  -7.5319    210.2919    189.6615   8.8698908237e+01   7.0938946953e+00   0.09939729   0.09421755  60.78   0.00053576    1.646    0.392
       177  -8.9598    191.6016    187.5792   9.1592381926e+01   1.0280743553e+01    0.2751418    0.2026621 -59.62  0.001315452    2.376    0.579
       178  -9.2925    156.0265    187.5537   9.8236549111e+01   1.6033823302e+01    0.2774671    0.1983133 -55.37 0.0008580651    1.850    0.460
       179  -9.8694    120.8391    186.7069   1.0522625036e+02   2.1757794435e+01    0.4511881    0.2662077 -78.70  0.002181949    2.968    0.663
       180  -8.7722     34.1756    188.0572   1.2385050124e+02   3.2814027168e+01    0.2705247    0.1103613  65.05  0.001107864    2.390    0.582
       181  -8.0088    242.6069    188.2243   8.3285092803e+01   2.4514721643e+00    0.1525989   0.08940019  -9.92 0.0009421828    1.631    0.387
       182  -9.1863     54.8962    187.1874   1.1937390531e+02   3.0710389032e+01    0.3655353     0.150869  59.49  0.001622404    2.453    0.592
       183  -8.4701    230.3286    187.5735   8.5075797572e+01   4.3004630966e+00    0.1947842   0.09718043  41.35 0.0008732899    1.882    0.469
       184  -8.8280    164.9448    186.8813   9.6409501672e+01   1.4684364528e+01    0.2158187    0.1926344  82.69 0.0008160943    1.563    0.360
       185  -9.2399    109.5233    186.1634   1.0753304550e+02   2.3570029911e+01    0.3192858    0.1964219  64.64 0.0009425108    1.954    0.488
       186  -8.4899    249.2099    185.6650   8.1855219851e+01   1.7710733914e+00    0.1914682    0.1560647 -32.34 0.0009165281    1.742    0.426
       187  -8.8838    210.3288    184.4550   8.7814185729e+01   7.6983262342e+00    0.2021719    0.1580458  -2.21 0.0004541157    1.190    0.160
       188  -8.7844    202.8161    184.7234   8.9145134470e+01   8.8511693957e+00    0.2033584    0.1627873 -40.97 0.0007608794    1.657    0.397
       189  -8.8242    182.9588    184.7551   9.2690421974e+01   1.2044192518e+01    0.2055188    0.1756936 -35.28 0.0007480684    1.419    0.295
       190  -9.1017     66.6500    184.5060   1.1659915432e+02   2.9794214636e+01    0.3074971     0.171297  62.28  0.001155693    1.742    0.426
       191  -8.4613     20.3845    183.7250   1.2652656025e+02   3.4978931546e+01    0.4145637    0.1033216  63.41  0.001523181    4.791    0.791
       192  -8.3465    224.1250    183.7005   8.5402133728e+01   5.6525809576e+00    0.1773223     0.142655 -19.94 0.0005524284    1.360    0.265
       193  -7.8662    197.1534    184.0971   9.0028057637e+01   9.8331323452e+00    0.1501263    0.1401065  34.23  0.000782196    1.347    0.258
       194  -8.9459    174.3237    183.6352   9.4110995989e+01   1.3610402621e+01    0.2259996    0.1918302  70.12 0.0007507082    1.674    0.402
       195  -8.3436      2.1584    183.9711   1.3033638801e+02   3.6502636349e+01    0.1835546    0.1201888  47.74  0.001108097    1.260    0.207
       196  -8.7607    241.3950    181.5929   8.2321213601e+01   3.3008040438e+00    0.3301937      0.22692 -57.12  0.001623172    4.223    0.763
       197  -8.9852     44.3636    182.3913   1.2128846717e+02   3.2814178941e+01    0.3048274    0.1483332  64.93 0.0008964405    1.975    0.494
       198  -9.2538    147.6069    180.6964   9.8856558371e+01   1.8457815711e+01    0.2961589    0.2215147  72.88  0.001241634    1.908    0.476
       199  -9.7652     25.4402    178.7401   1.2517775239e+02   3.5465227239e+01    0.5975578    0.1900503  71.31  0.002367298    4.123    0.757
       200  -7.8348    235.2738    181.6477   8.3274172348e+01   4.1973507165e+00   0.09718825   0.09029591 -29.95 0.0003817809    1.638    0.390
       201  -8.8001    137.4806    179.1928   1.0069832065e+02   2.0362217075e+01    0.2602201    0.1933646  80.36 0.0009177501    1.954    0.488
       202  -8.8985    205.0029    177.6960   8.7552791399e+01   9.3682383109e+00    0.2605066    0.1621451 -32.75 0.0009515534    1.752    0.429
       203  -9.4248    191.3868    178.2585   9.0058953347e+01   1.1526955272e+01     0.237668      0.22539  58.76 0.0005715288    1.443    0.307
       204  -8.3879    169.4519    178.6109   9.4210724944e+01   1.5136129910e+01    0.2150269    0.1721842  89.02  0.001096814    2.097    0.523
       205  -9.0210     35.9913    176.7938   1.2273618154e+02   3.4795811499e+01    0.5044327    0.1665094  70.58  0.001809555    4.852    0.794
       206  -9.4849    248.4668    176.6019   8.0371851461e+01   2.7827042238e+00      0.35195    0.1944646 -38.44  0.002009406    2.397    0.583
       207  -8.6810    250.5305    172.8550   7.9391107928e+01   2.8642607442e+00    0.1970635    0.1339773 -18.60 0.0005162972    1.361    0.265
       208  -8.5008    217.6084    177.1556   8.5320601891e+01   7.4127357777e+00    0.2241268    0.1338042 -37.75  0.001027387    1.996    0.499
       209  -8.6204    129.0046    177.2781   1.0218710930e+02   2.2061517078e+01    0.2174947    0.1685566  76.92 0.0007673005    1.635    0.388
       210  -9.0710     89.0799    176.8770   1.1084215205e+02   2.8237349951e+01    0.2838502    0.1866256  88.81  0.001022361    1.844    0.458
       211  -8.4036    231.1746    176.8610   8.3069537141e+01   5.3340334827e+00    0.1873284    0.1404395 -25.81 0.0006375409    1.454    0.312
       212  -9.0962    183.0863    176.1566   9.1215839620e+01   1.3195140368e+01     0.238219    0.2001712 -47.92 0.0006358546    1.557    0.358
       213  -7.9631     97.7223    177.5886   1.0900980387e+02   2.6856126911e+01    0.1762743   0.09904551  45.94 0.0009432698    1.518    0.341
       214  -9.9729     57.2520    173.3056   1.1766464357e+02   3.3110521797e+01    0.7328362    0.3015851  74.03  0.002771322    4.215    0.763
       215  -8.8791     12.7556    176.7166   1.2782524667e+02   3.7013890878e+01    0.2356617   0.09504349  59.87  0.001256102    2.018    0.504
       216  -7.8794    211.3495    176.6821   8.6286196501e+01   8.4678236116e+00    0.1069597    0.0976796  69.19  0.000704799    1.734    0.423
       217  -9.2986    158.8550    175.1218   9.5705827854e+01   1.7446080400e+01    0.3252174    0.2394406  72.11  0.001468261    2.092    0.522
       218  -9.4240    104.2428    174.5411   1.0717276899e+02   2.6443377082e+01    0.4669975    0.2747432  68.73  0.001995357    2.317    0.568
       219 -10.7289     75.9706    170.3241   1.1305874375e+02   3.1314996483e+01       1.0527    0.4289659 -80.52  0.003926122    4.321    0.769
       220  -8.3840    224.4900    174.4932   8.3714280922e+01   6.6367871129e+00    0.2121926    0.1081193 -29.62 0.0006230267    1.998    0.499
       221  -9.5061    175.6181    172.1488   9.1926023134e+01   1.5031088230e+01    0.3152009    0.2195064 -34.82  0.001183816    1.598    0.374
       222  -8.3724    143.0526    173.0081   9.8578681395e+01   2.0456229045e+01    0.1956543    0.1479149  67.75  0.000685496    1.680    0.405
       223  -8.2855    134.9300    171.9416   1.0011673600e+02   2.1996697163e+01    0.2000855    0.1467247  67.38  0.001117148    1.697    0.411
       224  -9.6853    121.3470    170.4353   1.0281611180e+02   2.4498109180e+01    0.3567206    0.2579148 -89.32  0.001138581    1.913    0.477
       225  -9.0600     45.0430    171.0451   1.2026409377e+02   3.4970105073e+01    0.3381636    0.1675453  73.44  0.001239588    2.166    0.538
       226  -8.4691    205.8900    170.5505   8.6117764040e+01   1.0121847865e+01    0.2134943    0.1579129 -47.64 0.0009192729    1.913    0.477
       227  -8.0613    237.3033    169.8425   8.0835058485e+01   5.1658193081e+00    0.1643999    0.1341561 -27.95  0.000598009    1.481    0.325
       228  -8.6473    230.1833    170.1560   8.2008869141e+01   6.2376013862e+00    0.1839298    0.1337824   7.87 0.0006207405    1.174    0.148
       229  -8.3492    198.3584    170.0631   8.7352924195e+01   1.1446152372e+01    0.1694566    0.1470691  -6.54 0.0007349955    1.163    0.140
       230  -9.0043    167.0590    168.6268   9.2970050898e+01   1.7033584546e+01    0.2654325    0.2127601  79.85 0.0008409733    1.922    0.480
       231  -8.5138    149.6877    169.5696   9.6639205666e+01   1.9891707862e+01    0.2311613    0.1879231  82.21 0.0007280863    1.707    0.414
       232  -7.9226    244.5755    169.3121   7.9628306859e+01   4.1159469893e+00    0.1496229    0.1363041 -34.18 0.0006086791    1.650    0.394
       233  -8.4952    218.9525    168.4165   8.3509343010e+01   8.2365978729e+00    0.1964139    0.1623949 -32.58 0.0006065525    1.478    0.324
       234  -8.4513     88.8041    168.7815   1.0991445682e+02   2.9824407124e+01    0.2336208    0.1452514  76.19 0.0009233003    2.015    0.504
       235  -7.9092    211.3829    168.1479   8.4731336523e+01   9.5129601060e+00    0.1586231    0.1095282 -39.06 0.0006860876    1.751    0.429
       236  -8.9550    111.6599    167.3419   1.0450742314e+02   2.6621405646e+01      0.31831    0.2053576  74.51  0.001164719    2.180    0.541
       237  -8.8812    191.8773    166.5939   8.7886435535e+01   1.3019216105e+01    0.2470739    0.1782181 -41.63 0.0009215274    1.662    0.398
       238  -8.9066    184.9061    166.3159   8.9124184843e+01   1.4265688743e+01    0.1962548    0.1709229 -36.28 0.0005571125    1.357    0.263
       239 -10.0275     95.0608    162.5693   1.0763801112e+02   3.0113546742e+01    0.7733276    0.4671723  85.97  0.003232759    2.430    0.588
       240  -9.3788     20.6052    166.2862   1.2554435010e+02   3.8397173011e+01    0.3448888    0.1257516  59.09  0.001166655    2.443    0.591
       241  -8.2879    250.5994    165.2990   7.7988763752e+01   3.6350565839e+00    0.1994251   0.09626549 -28.53 0.0008555389    1.968    0.492
       242  -9.9709    136.7320    164.4536   9.8518231084e+01   2.2981597419e+01    0.5791628    0.2646793  54.69   0.00222149    2.841    0.648
       243  -8.2846    233.8683    165.0438   8.0475245050e+01   6.2366311933e+00    0.1673232    0.1452424 -12.84 0.0005448613    1.289    0.224
       244  -8.7147    159.4924    164.2990   9.3719537449e+01   1.9035368925e+01    0.2466528    0.1982753  82.95 0.0008619308    1.849    0.459
       245  -9.5095     33.6429    163.5087   1.2232987198e+02   3.7714289444e+01    0.5509691    0.1504058  52.08  0.002263571    3.259    0.693
       246  -9.5531    246.0836    163.2954   7.8279554299e+01   4.5301891544e+00    0.2831378    0.1511577 -27.59 0.0008802464    1.784    0.440
       247  -8.2004    240.0448    164.0659   7.9335927422e+01   5.3774668374e+00    0.1584524    0.1455183 -40.40 0.0006604174    1.656    0.396
       248  -8.5483    212.9070    163.8575   8.3668651054e+01   9.7964742837e+00    0.2044195    0.1583413 -29.09 0.0007234032    1.405    0.288
       249  -8.5317    204.8719    162.9209   8.4875369534e+01   1.1278624192e+01    0.2061259    0.1619369 -29.68 0.0006124475    1.386    0.279
       250  -9.4642      3.1620    162.3094   1.2933110601e+02   4.0666049698e+01    0.3850002    0.1375038  55.85  0.002032851    2.205    0.546
       251  -9.0408    177.5727    160.7227   8.9481058124e+01   1.6374938191e+01    0.2681096    0.2213888 -60.37  0.001068212    1.680    0.405
       252  -8.7783    151.6431    161.0207   9.4754235551e+01   2.0960200613e+01    0.2563097    0.2067902  80.57  0.001024053    1.722    0.419
       253  -8.9080     60.4653    160.1419   1.1560434767e+02   3.5388025411e+01    0.2935018    0.1640753  73.33  0.001415829    2.007    0.502
       254  -9.6926    250.2277    157.8879   7.6638356903e+01   4.4762729690e+00    0.2831725    0.1436635 -26.51 0.0008129364    1.817    0.450
       255  -8.5070    227.2639    158.9447   8.0357623589e+01   8.0106135675e+00    0.2285833    0.1490102 -36.35  0.000948686    1.751    0.429
       256  -9.7747    105.6688    157.7242   1.0444036882e+02   2.9410994875e+01    0.4426679    0.3110995  84.16  0.001483275    1.828    0.453
       257  -8.4381    237.2627    159.0191   7.8800031788e+01   6.3809003410e+00    0.1737051    0.1352292  -6.64 0.0006802027    1.121    0.108
       258  -8.6872    127.8459    158.9916   9.9555936277e+01   2.5482123290e+01    0.3614285    0.1620147  54.62  0.001417319    2.851    0.649
       259  -8.2821    196.7726    158.0482   8.5381622286e+01   1.3343437235e+01    0.1754016    0.1718427  40.11 0.0006107056    1.331    0.249
       260  -8.3816    188.0587    157.7526   8.6925034320e+01   1.4935434939e+01     0.201947    0.1754208 -39.03 0.0005277598    1.368    0.269
       261  -9.1435    167.5440    157.3953   9.0828771445e+01   1.8692487038e+01    0.2801907    0.2379825  80.08  0.001156175    1.645    0.392
       262  -8.0008    139.9523    159.0000   9.6888869656e+01   2.3374381074e+01    0.2254128   0.06848076  41.43 0.0008017633    2.938    0.660
       263  -8.2543     79.2493    158.5863   1.1087119612e+02   3.3220206960e+01    0.1700215    0.1170989  28.76 0.0007973505    1.597    0.374
       264  -8.3865    217.5467    157.0134   8.1571338726e+01   9.8727404275e+00    0.2605194    0.1973743  25.09  0.001596187    1.156    0.135
       265  -9.1037    157.5338    155.8806   9.2587292428e+01   2.0755844968e+01    0.3671747    0.2122654 -48.38  0.001429925    2.021    0.505
       266  -9.4300    119.5395    155.3939   1.0083834608e+02   2.7569632308e+01    0.3664834    0.2504804  85.06  0.001576028    2.198    0.545
       267  -9.5262     82.0070    155.1543   1.0974866851e+02   3.3532976846e+01      0.46744    0.2529437  66.60  0.001456213    2.373    0.579
       268  -9.4414     49.7059    155.1996   1.1772871215e+02   3.7715885926e+01    0.4452622    0.2082844  66.63  0.001765346    2.455    0.593
       269  -8.7536    144.5965    155.2385   9.5210682394e+01   2.3205853365e+01    0.2646656    0.2070921  74.34 0.0009239897    1.686    0.407
       270  -8.3956    242.9387    155.0028   7.7157721612e+01   5.9297096061e+00    0.1482455    0.1351371  -6.56 0.0003902515    1.335    0.251
       271  -8.5530    239.7315    153.3273   7.7313303628e+01   6.6324095317e+00    0.1732357    0.1592584  -9.09 0.0003050558    1.342    0.255
       272  -7.7825    204.5683    155.4991   8.3495336650e+01   1.2315543468e+01     0.127022    0.1103999  12.38 0.0001198707    1.054    0.051
       273  -9.7570    132.8789    152.9360   9.7377148947e+01   2.5711545280e+01    0.4252073    0.2977777  77.31  0.001289564    2.139    0.532
       274  -8.9294    133.5187    148.0183   9.6336186767e+01   2.6503046649e+01    0.3070689    0.1924133 -43.17  0.001260404    1.761    0.432
       275  -9.6162     68.0206    153.7069   1.1301482773e+02   3.5765063740e+01    0.4456816    0.2338852  71.67  0.001332126    2.476    0.596
       276  -8.1063    232.9416    153.9850   7.8489277863e+01   7.6631326904e+00    0.1667634    0.1498025 -47.76 0.0004778483    1.651    0.394
       277  -8.5271    151.6133    152.8181   9.3257132550e+01   2.2351101926e+01     0.175345    0.1286509 -56.54 0.0006863194    1.672    0.402
       278  -8.7822     98.3434    150.7140   1.0510709295e+02   3.1973729251e+01    0.3098411     0.211332 -89.62  0.001167866    1.867    0.464
       279  -9.5274     29.3171    150.5948   1.2239631524e+02   4.0863863146e+01    0.4652828    0.1726512  65.40  0.001956751    3.115    0.679
       280  -8.8682      2.8633    150.5340   1.2889682771e+02   4.3123286384e+01    0.2743634    0.1026289  85.45  0.001205946    2.411    0.585
       281  -8.1086    250.4909    140.9991   7.3255118854e+01   6.2856645884e+00    0.1746264    0.1358422  -7.44 0.0005243496    1.073    0.068
       282  -9.6441    248.8525    149.5432   7.5209536469e+01   5.5984489314e+00    0.3036384    0.1664734 -23.25  0.000763109    1.643    0.391
       283  -9.1199    246.9829    143.9870   7.4367965134e+01   6.5184395765e+00     0.258677     0.150311 -16.98 0.0004907576    1.566    0.361
       284  -9.1562    243.3505    150.3554   7.6180943038e+01   6.3863706904e+00    0.1962631    0.1677346  -7.96 0.0007809952    1.192    0.161
       285  -8.8868    189.4863    150.3593   8.5203989621e+01   1.5749341229e+01    0.2570822    0.2227847 -48.02 0.0007683769    1.450    0.310
       286  -7.9673    182.4035    151.1572   8.6703138744e+01   1.6934953926e+01    0.1713744    0.1232441 -47.92 0.0004456055    1.712    0.416
       287  -8.2735    162.8517    150.9298   9.0543335598e+01   2.0595393109e+01     0.199655    0.1649842  80.64 0.0009239101    1.697    0.411
       288  -8.2977    212.9116    150.0764   8.0973435533e+01   1.1564312181e+01    0.1762079     0.168683  13.07 0.0004970187    1.284    0.221
       289 -10.3788    148.9616    145.4947   9.2418386857e+01   2.4114217092e+01    0.5254967    0.4061435 -64.42  0.001999197    1.654    0.395
       290  -8.4648    198.8272    149.0997   8.3237870445e+01   1.4221179896e+01    0.1795666    0.1735874 -13.13 0.0004557682    1.261    0.207
       291 -10.1769     89.1068    145.4470   1.0657954164e+02   3.4499960785e+01    0.7848087      0.42301 -76.22  0.003493825    2.467    0.595
       292  -9.8609     39.6992    147.7414   1.1952469962e+02   4.0427856006e+01    0.5369722     0.207011  60.75  0.002123556    2.963    0.662
       293  -9.3928    233.2958    147.7192   7.7183233970e+01   8.3465496283e+00    0.2504353    0.1478721 -17.56 0.0009071982    1.617    0.381
       294  -8.9613     78.1385    146.9250   1.0957793502e+02   3.5810738689e+01    0.3049847    0.1805196  83.49   0.00104729    2.239    0.553
       295 -10.9586     54.8724    143.1700   1.1510731933e+02   3.9702513672e+01    0.9558653    0.5402832 -88.06  0.003034106    1.917    0.478
       296  -8.3715    223.1829    146.8551   7.8613939651e+01   1.0179721727e+01    0.1767409    0.1602556  -4.17 0.0004316737    1.198    0.165
       297  -9.6604    139.1272    145.0670   9.4510416536e+01   2.6021938581e+01    0.3914506    0.2845401 -78.47   0.00139097    2.040    0.510
       298  -9.1634    140.0205    137.6510   9.2838704934e+01   2.7222987164e+01     0.432544    0.2506723  21.93  0.001750197    2.599    0.615
       299 -10.1630    106.5505    144.5134   1.0208166201e+02   3.1895848225e+01     0.660997    0.4504468  75.01   0.00228153    1.910    0.476
       300  -8.9548    105.6382    138.7049   1.0128724131e+02   3.3237429960e+01    0.5389926    0.2383259  26.51  0.001796858    3.952    0.747
       301  -9.4891     13.2804    146.1689   1.2610641294e+02   4.3245976303e+01    0.3750069    0.1366009  56.24   0.00132271    2.425    0.588
       302  -8.0843    206.6442    146.3899   8.1300453771e+01   1.3175998097e+01    0.1680151    0.1560862 -74.98 0.0005566442    1.571    0.363
       303  -8.1858    175.6304    146.3540   8.7054810131e+01   1.8938075291e+01    0.1870489    0.1615308  84.62 0.0008311318    1.634    0.388
       304  -9.4640      2.6401    141.7310   1.2853784784e+02   4.5014669602e+01    0.4007757    0.1547507  73.41   0.00170542    2.385    0.581
       305 -10.4739    241.1926    143.9133   7.5207026801e+01   7.4766266154e+00     0.457078    0.2729814  13.89  0.002479053    1.788    0.441
       306  -8.3849    240.9678    138.0172   7.4026026052e+01   8.2030836004e+00    0.1605704    0.1415712 -26.89 0.0004415543    1.345    0.257
       307  -9.8948    125.0934    142.2924   9.7213536457e+01   2.9109080674e+01     0.621381    0.3727161 -61.37  0.002088521    2.049    0.512
       308  -7.7590    194.3964    144.1633   8.3029725384e+01   1.5741961508e+01    0.1717701    0.1210796 -42.70 0.0004400521    1.643    0.391
       309  -8.7277    165.5520    144.1391   8.8634875771e+01   2.1206719716e+01    0.2346749    0.1822096  42.85 0.0005587384    1.216    0.178
       310 -11.0101     68.3065    139.5828   1.1110023363e+02   3.8767491095e+01    0.8503932    0.5447406 -74.82  0.004084837    1.582    0.368
       311  -7.5700    230.4788    142.5219   7.6560413513e+01   9.4542547454e+00    0.1281639    0.1048998   5.06 0.0001293289    1.016    0.016
       312  -8.3766    181.9418    141.6489   8.4849881303e+01   1.8472804846e+01     0.247807      0.17232 -51.85 0.0006324588    1.863    0.463
       313  -7.7940    134.2812    140.3374   9.4692320153e+01   2.7799418575e+01    0.1359594    0.1077081  -1.78 0.0003763565    1.621    0.383
       314  -9.9830     23.4115    138.2333   1.2293631024e+02   4.4116367281e+01     0.503039    0.2024272  64.14  0.002149879    2.616    0.618
       315  -8.0906    218.6120    138.7529   7.7677540871e+01   1.2027418830e+01    0.1721908    0.1130253 -35.06 0.0004479215    1.591    0.371
       316  -8.5553    172.0906    138.4073   8.6110473210e+01   2.0887646948e+01    0.2423973    0.1892403 -55.87 0.0006797331    1.620    0.383
       317  -8.1434    207.6456    138.1487   7.9400258489e+01   1.4121121416e+01    0.1925153    0.1578612 -42.80 0.0006308865    1.473    0.321
       318  -8.5934    197.4517    137.5661   8.1079641279e+01   1.6122550641e+01    0.2342076    0.2063016 -42.63 0.0007605787    1.358    0.264
       319  -8.8688     84.1241    123.0983   1.0413403420e+02   4.0119338653e+01    0.4921324    0.3130085  16.08   0.00219568    2.439    0.590
       320  -8.8810     80.5083    137.5364   1.0756778741e+02   3.7486230770e+01    0.2128797    0.1994209  69.03 0.0008546503    1.065    0.061
       321 -10.3551     83.3422    132.7961   1.0604732127e+02   3.8095556116e+01    0.5742925    0.3125209 -72.96  0.001469712    2.188    0.543
       322  -9.3883     39.0735    136.3033   1.1855584073e+02   4.3021706576e+01    0.2750902    0.1607417  72.82 0.0008281443    1.710    0.415
       323  -8.4941    246.8548    130.1504   7.1515730414e+01   8.1253614854e+00    0.2308308    0.1481925 -35.00 0.0006742881    1.619    0.382
       324  -8.9997    248.2946    135.3682   7.2407906030e+01   7.2823119730e+00    0.2712909    0.1695293 -23.40 0.0007918781    1.421    0.296
       325  -8.8606    250.6986    130.5235   7.1052742044e+01   7.4351086658e+00    0.3863115    0.1093573 -25.83  0.001467273    3.336    0.700
       326  -8.9417    151.0273    136.2855   9.0095105518e+01   2.5355045490e+01    0.4932371    0.2575819  25.49  0.001871243    2.898    0.655
       327  -8.0714    187.6876    135.8634   8.2518303624e+01   1.8253000459e+01    0.1848275    0.1184965 -41.89 0.0003736432    1.717    0.418
       328  -8.3519    162.6820    136.2563   8.7587772227e+01   2.3083845362e+01    0.2013216    0.1774686 -66.01 0.0006676817    1.403    0.287
       329  -8.6331    179.5028    134.0461   8.3697747622e+01   2.0136728835e+01    0.2611866    0.2175213 -62.28 0.0009187998    1.595    0.373
       330  -7.7238    237.5730    133.7730   7.3640117484e+01   9.2898798110e+00    0.1688859    0.1060374 -34.26 0.0009122465    1.627    0.385
       331  -7.8917    231.5056    134.4303   7.4702438325e+01   1.0271747844e+01    0.1260217    0.1092271  -0.07 0.0001054947    1.078    0.073
       332  -9.4952    112.9122    132.9757   9.8390918902e+01   3.3151539013e+01    0.4004588    0.2982824 -57.89  0.001334415    1.423    0.297
       333  -9.3016    143.0005    131.6403   9.0905672085e+01   2.7766160568e+01    0.3533368    0.2537427 -63.94  0.001098359    1.787    0.440
       334 -10.1583    130.8394    118.5667   9.0880531381e+01   3.2678038121e+01    0.4228393    0.3053959 -86.39  0.001136071    2.091    0.522
       335 -10.0004    132.3033    131.3006   9.3319641726e+01   2.9898812204e+01     0.513776    0.3761642 -85.02  0.001196703    2.003    0.501
       336 -10.4701     98.2950    130.2872   1.0163147713e+02   3.6245119698e+01    0.5988545    0.3360008 -60.47  0.001781232    1.896    0.473
       337  -8.9182     99.7734    120.4448   9.9313001724e+01   3.8113122349e+01    0.5029867     0.313593  11.94  0.001959139    3.115    0.679
       338  -9.6300    152.9473    129.0440   8.8113956322e+01   2.6273646904e+01    0.4168601     0.256077 -56.11 0.0007214673    2.089    0.521
       339  -9.9838     12.9347    129.5146   1.2509837685e+02   4.6942858378e+01     0.425488     0.193433  62.19  0.001568988    2.065    0.516
       340  -8.1549      1.9300    130.7257   1.2815604306e+02   4.7469252568e+01    0.2036043   0.08712427  55.12  0.001073364    2.034    0.508
       341  -7.7319    220.6109    129.8054   7.5423437864e+01   1.2834442762e+01    0.1748317     0.113419 -35.05 0.0007583687    1.574    0.365
       342  -8.4675    211.5338    129.4899   7.6853180170e+01   1.4581620289e+01    0.2248829    0.1129767 -40.92  0.001013216    2.205    0.547
       343  -7.9249    204.5494    130.5203   7.8280522765e+01   1.5774188839e+01    0.1334249    0.1203599   4.38 0.0001435522    1.052    0.049
       344  -8.1927    192.7136    130.1843   8.0331464586e+01   1.8128729606e+01    0.2028012    0.1664691 -49.34 0.0006140925    1.485    0.327
       345  -9.3716    168.4110    129.5312   8.4929217469e+01   2.3083383197e+01    0.2751092    0.2352138 -75.91  0.000698774    1.563    0.360
       346 -10.0615     72.9550    128.5034   1.0817557430e+02   4.0582932395e+01    0.5126936    0.2745466 -66.46  0.001819764    1.885    0.470
       347 -10.4613     59.8723    125.0515   1.1132634345e+02   4.3147345295e+01    0.7375826    0.3776636  71.41  0.002544147    2.799    0.643
       348  -9.0174     59.4852    115.2587   1.0990301612e+02   4.5461838433e+01    0.4061459    0.2704404 -11.46  0.001849149    2.749    0.636
       349 -10.7319     44.8438    123.5092   1.1544747472e+02   4.5313481828e+01     1.119443    0.4799496  72.38  0.003965745    3.974    0.748
       350  -9.9927    118.0221    125.1680   9.5522681334e+01   3.3820515647e+01    0.5820693    0.4180039 -88.87   0.00179108    1.972    0.493
       351 -10.1658     28.5904    122.5965   1.2006804170e+02   4.7189270792e+01    0.7363592    0.2783424  66.55   0.00270905    3.681    0.728
       352  -8.9176    179.3355    124.8111   8.1662501299e+01   2.1646224778e+01    0.2477742    0.2193528  84.92 0.0007079106    1.487    0.327
       353  -7.8994    188.4624    124.2122   7.9771919719e+01   1.9886515297e+01    0.1810065    0.1287374 -43.83 0.0005614739    1.565    0.361
       354  -7.6932    203.1082    122.1464   7.6642975464e+01   1.7254666819e+01    0.1749805    0.1619986 -50.94 0.0004561532    1.332    0.249
       355  -7.8664    195.1757    122.2319   7.8075080566e+01   1.8831067595e+01    0.1791501    0.1626481 -56.00 0.0005355185    1.367    0.269
       356  -8.5205    172.0686    121.6342   8.2377694902e+01   2.3659505223e+01    0.2248907     0.192532 -46.11 0.0004771587    1.292    0.226
       357  -9.3269    158.5490    121.4346   8.5165485736e+01   2.6491984270e+01    0.3363424    0.2663096 -75.26  0.001089362    1.757    0.431
       358  -9.7860     70.9880    119.7138   1.0726223480e+02   4.2857193878e+01    0.4055957    0.2523346 -79.75  0.000962113    1.798    0.444
       359  -9.7084      3.1318    117.4596   1.2703630682e+02   5.0374006017e+01    0.4807162    0.1679159  64.83  0.002087071    2.941    0.660
       360 -10.3317    109.3306    113.6002   9.5260051302e+01   3.7861030823e+01    0.7664493    0.3788488 -57.88  0.002640587    2.298    0.565
       361  -7.8834    219.4832    116.4846   7.2605408613e+01   1.4819868123e+01    0.1345085    0.1185461  -2.41 0.0008101395    1.024    0.023
       362  -8.4171    193.1170    115.5763   7.6885652562e+01   2.0256952341e+01    0.2324008    0.1803015 -37.52 0.0006176127    1.336    0.251
       363  -7.8948    185.5550    116.0940   7.8416000401e+01   2.1750639897e+01    0.2052409     0.134535 -33.31 0.0004514897    1.518    0.341
       364 -10.1799    141.7098    118.0596   8.8163692736e+01   3.0580445049e+01    0.6573152    0.3301843 -48.48  0.001730164    2.157    0.536
       365 -10.1882     92.7636    112.5153   9.9599924556e+01   4.1063717085e+01    0.5333706    0.3325034 -74.10  0.001357005    2.027    0.507
       366  -9.0426     93.2202    105.1950   9.7850304218e+01   4.2615189981e+01    0.4157342    0.2848656 -10.92  0.001397457    2.634    0.620
       367  -9.9910     78.6429    112.2751   1.0364286664e+02   4.3419203780e+01    0.5778591    0.3587016  82.19  0.001950435    2.327    0.570
       368  -8.7005     78.7420    105.0241   1.0212580031e+02   4.5066346249e+01    0.3157243     0.202482 -34.74  0.001272983    2.053    0.513
       369  -8.0572    167.4012    114.3083   8.1589670412e+01   2.5877086752e+01    0.1931626    0.1347585 -45.96 0.0004396643    1.552    0.356
       370  -8.5037     26.8699    113.7224   1.1962511190e+02   4.9415620487e+01    0.1715586    0.1567505 -23.27  0.000692144    1.412    0.292
       371 -10.8224    133.5806    109.8292   8.8133943904e+01   3.3847028223e+01    0.6923178    0.3403375 -44.78  0.002436738    2.086    0.521
       372 -10.0318    121.9346    112.5106   9.1700634473e+01   3.5665012043e+01    0.4103457    0.2883876 -62.41  0.001232093    1.644    0.392
       373 -10.1548    120.5265    106.2202   9.0546341999e+01   3.7238565931e+01    0.5167512    0.3191046  47.81  0.002349409    1.606    0.377
       374 -10.7611    108.6192     98.6324   9.1853641943e+01   4.1194225437e+01    0.8865009    0.4855185  65.85 0.0009538642    3.171    0.685
       375  -9.2574    107.9353     92.7583   9.0504204288e+01   4.2582434927e+01     0.622969    0.3124133  27.60  0.002102934    3.348    0.701
       376  -9.8447     14.0692    111.2502   1.2329524483e+02   5.1049556333e+01    0.4054635    0.1899731  67.86   0.00135578    2.193    0.544
       377 -11.2927    248.5605    108.1146   6.6448541612e+01   1.0414374717e+01    0.8030447    0.2951153 -29.46  0.003492742    2.322    0.569
       378 -10.2094     66.3442    110.7369   1.0703826391e+02   4.5588848272e+01    0.4738986    0.3018973  77.69  0.001532107    1.963    0.491
       379  -7.5134    149.6921    110.3137   8.4452743108e+01   3.0365238171e+01    0.1445633    0.1178508 -85.55 0.0002701343    1.626    0.385
       380  -8.2435    189.1965    108.3680   7.5851323763e+01   2.2189362617e+01    0.2306049    0.1580744 -35.73 0.0007278417    1.449    0.310
       381  -7.8277    182.6535    109.2540   7.7300883301e+01   2.3451097995e+01    0.1992593    0.1308693 -23.70 0.0009112249    1.591    0.372
       382  -8.9221     43.6726    109.2391   1.1382099630e+02   4.8789295498e+01    0.2850912    0.1939393   6.07  0.001477193    2.161    0.537
       383  -9.3169    139.9143    104.7010   8.5312773988e+01   3.3511965471e+01    0.3680079     0.267017 -71.47 0.0007915794    1.911    0.477
       384 -10.5818     45.7517    102.4208   1.1208132231e+02   5.0178511056e+01    0.8054247    0.3781534  66.95  0.003054522    3.324    0.699
       385 -10.6609     22.9423    102.8410   1.1960869602e+02   5.2333636634e+01    0.7511222    0.3312275  69.12  0.002588776    2.832    0.647
       386  -9.5131    150.6413    103.2852   8.2451114760e+01   3.1456057091e+01    0.4108593    0.2940745 -73.73  0.001397262    2.107    0.525
       387  -8.8246    215.4201    104.0383   7.0299587910e+01   1.7321974822e+01     0.222387    0.1957796  46.44 0.0004006643    1.247    0.198
       388  -8.6370    166.5132    104.0509   7.9204425882e+01   2.7829470363e+01    0.2194841    0.1425316 -36.81 0.0005372692    1.544    0.352
       389 -10.2362    128.6347    102.2516   8.7457270220e+01   3.6381455191e+01    0.3631037    0.2873106 -85.98  0.001123026    1.644    0.392
       390  -8.7725      6.6873    102.9490   1.2487538518e+02   5.3508282592e+01    0.2483785    0.1415558  69.12  0.001392813    1.646    0.392
       391  -8.0499    175.5440    102.0988   7.6869764314e+01   2.6163030047e+01    0.2167474    0.1400517 -34.90 0.0007022486    1.533    0.348
       392  -8.3410    159.8523    101.1239   7.9851899394e+01   2.9813443874e+01    0.2213846    0.1990083 -65.03 0.0005423843    1.272    0.214
       393  -9.3423     82.0798     99.8924   9.9971265707e+01   4.5705930941e+01     0.414031    0.2745551 -85.31  0.001202698    2.018    0.504
       394 -10.2029     63.9289     96.0147   1.0489571027e+02   4.9384390787e+01    0.6027957    0.3568113  88.33  0.001705673    2.481    0.597
       395  -8.9500     64.9495     88.1363   1.0279798113e+02   5.1094968793e+01    0.7001494    0.3727137   9.80  0.002191429    5.119    0.805
       396  -7.9981    220.5134     99.9920   6.8524585118e+01   1.6830168351e+01    0.1940938    0.1110074  -1.04 0.0005745479    2.416    0.586
       397  -9.6155     95.0592     96.7088   9.5277190493e+01   4.4175348213e+01    0.4842957    0.2728536 -57.03 0.0007729274    1.827    0.453
       398  -8.6820    151.0185     95.9351   8.0411936618e+01   3.2718394746e+01    0.3591822    0.2309361   8.64  0.001372691    2.672    0.626
       399  -8.4158    174.8038    112.0620   7.9530904244e+01   2.4676509943e+01    0.2132587     0.192698 -58.42 0.0005761012    1.292    0.226
       400  -7.9840    164.8383     94.7219   7.7085469933e+01   2.9806857838e+01    0.1991184    0.1736751 -67.25  0.000605253    1.350    0.259
       401  -7.8676    227.0046     95.0000   6.6345341957e+01   1.6168617335e+01      0.20853   0.07705057  54.95 0.0006595872    2.951    0.661
       402  -9.2567    139.0783     92.5085   8.2255402132e+01   3.6028997740e+01    0.3905052     0.274902 -73.77 0.0009142449    2.112    0.527
       403 -10.3890    123.8444     91.4208   8.5788385485e+01   3.9572595765e+01    0.6306976    0.4590254  31.32  0.001200413    1.534    0.348
       404  -8.7847    126.9825     84.4559   8.2976688462e+01   4.0275743910e+01    0.5437652    0.2957255  21.58  0.001612516    4.341    0.770
       405  -8.2210    176.4815     93.1097   7.4310230496e+01   2.7424724231e+01    0.2219393     0.140865 -35.06 0.0006181199    1.543    0.352
       406  -9.1415     46.1716     92.6148   1.1021006702e+02   5.2480704350e+01    0.3603587    0.2189332   8.68  0.001666331    2.547    0.607
       407  -9.4418      5.4482     92.1599   1.2431730126e+02   5.6135311451e+01    0.3742262    0.1556017  57.93  0.001302959    2.564    0.610
       408  -8.1426    157.8249     91.6049   7.7717688128e+01   3.1949825514e+01    0.2431871    0.1759283 -41.35 0.0005163624    1.395    0.283
       409  -9.6459     34.7592     89.9277   1.1373094447e+02   5.4358646332e+01     0.458481      0.24822  77.11  0.001581134    2.380    0.580
       410  -9.2514     22.8778     90.4720   1.1803141390e+02   5.5306694408e+01    0.2991572    0.2508822 -15.15  0.001780904    1.530    0.346
       411  -8.5581    159.3173    111.8353   8.2697031506e+01   2.8032849182e+01    0.2555466    0.2139543 -66.69 0.0006423405    1.468    0.319
       412  -8.1741    150.8699     89.1050   7.8550341297e+01   3.3991164647e+01    0.2316485    0.2011231 -61.74 0.0005853137    1.288    0.223
       413 -10.2804     86.6821     85.5431   9.4953093306e+01   4.8175187279e+01    0.7810563    0.4739669 -46.10  0.001174202    1.624    0.384
       414  -7.4816    188.4500     87.4565   7.0558034596e+01   2.5583060152e+01    0.1443611    0.1374707 -20.23 0.0001615317    1.052    0.049
       415 -10.1090    104.5614     83.9968   8.9038579473e+01   4.5120823146e+01    0.6022899    0.3429031 -47.91  0.002593922    1.732    0.423
       416  -8.8238    105.6714     77.0181   8.6634983876e+01   4.6360818462e+01    0.3335522    0.2064731  36.44  0.001060397    1.782    0.439
       417  -9.9338     48.5920     84.2953   1.0768634192e+02   5.4191401664e+01    0.5624247     0.324589  76.68   0.00187319    2.557    0.609
       418  -8.2774    157.8280     84.1094   7.5592889211e+01   3.3258234412e+01    0.2233699    0.2013221 -56.89 0.0004041827    1.198    0.166
       419  -9.1969    140.8192     83.0588   7.9126352855e+01   3.7411502147e+01     0.338853    0.2219699 -53.54 0.0006406197    1.739    0.425
       420  -7.5534    185.2881     82.6287   6.9794872816e+01   2.7050903141e+01    0.1526755    0.1110228 -59.08 0.0007021201    1.714    0.417
       421  -9.6312     24.6385     80.6619   1.1589326427e+02   5.7532226191e+01     0.445466    0.2359574  81.20  0.001263129    2.293    0.564
       422  -9.2964     10.0271     81.2406   1.2148951413e+02   5.8467455815e+01    0.3502122    0.1603802  53.87   0.00138965    2.409    0.585
       423  -8.5270    150.1703     80.2813   7.6143883639e+01   3.5731688546e+01    0.3612185    0.1786862 -45.87  0.001222618    2.156    0.536
       424  -9.0608    119.4980     80.4993   8.3782376650e+01   4.2706031863e+01     0.323013      0.23609 -68.43 0.0007424023    1.740    0.425
       425  -8.8710     74.4296     80.4221   9.7611490827e+01   5.1426562682e+01    0.3275092    0.2319252 -74.51  0.001079852    1.626    0.385
       426  -8.1417    166.6984     79.9296   7.2541669745e+01   3.1865931207e+01    0.2139189    0.1821461 -29.92 0.0004539842    1.153    0.132
       427  -7.8657    184.3984     78.5096   6.8797318929e+01   2.7888318449e+01    0.1468231    0.1376239 -27.52 8.836026e-05    1.050    0.048
       428  -9.9983     63.4895     74.0898   9.9757816227e+01   5.4594518959e+01    0.6542788    0.3140194 -70.35  0.002376049    3.030    0.670
       429  -9.5168    128.1830     75.0486   7.9810286005e+01   4.1824523667e+01    0.5645354    0.2640772 -43.55   0.00185075    2.135    0.532
       430  -8.0121    157.3665     76.2684   7.3376512668e+01   3.4711970656e+01    0.2166577    0.1354067 -43.38  0.000683063    1.628    0.386
       431  -8.6209    140.4818     75.4729   7.6910772190e+01   3.8881462032e+01    0.2743554    0.1345886 -47.33 0.0008391175    2.219    0.549
       432  -8.3440    163.4482     73.6719   7.1339093450e+01   3.3675455726e+01    0.2761031    0.1395398 -37.98 0.0007938873    1.921    0.480
       433  -9.7513     82.1742     72.3649   9.2652932748e+01   5.1914566877e+01    0.4687726    0.2929244 -64.38 0.0009854737    1.876    0.467
       434  -8.2225     82.5199     65.9841   9.0522065391e+01   5.3244430894e+01    0.2398452    0.1750367 -19.24 0.0008404712    1.778    0.438
       435  -9.0412    115.6809     72.2548   8.2265698353e+01   4.5182672350e+01    0.4372518    0.1901779 -43.34  0.001215405    2.263    0.558
       436  -9.4515     95.1763     71.0132   8.7964279126e+01   4.9748407993e+01    0.4473278    0.2578439 -58.56 0.0009179316    2.037    0.509
       437  -9.7180     97.1344     61.1543   8.4047833910e+01   5.1383772544e+01      0.78189    0.4022596 -26.02  0.002552074    3.025    0.669
       438  -8.5297     42.6084     72.7630   1.0735936972e+02   5.7659519620e+01    0.2389281    0.1569643 -74.16 0.0005979437    1.500    0.333
       439  -7.7072    175.4886     72.5637   6.8688101504e+01   3.0931519692e+01    0.1483622    0.1431158  -2.07 0.0001383458    1.011    0.011
       440  -9.0746    105.8393     71.7404   8.4928599153e+01   4.7412772104e+01    0.2863238    0.2105388 -52.98  0.000615563    1.397    0.284
       441  -9.6066     51.5126     69.8676   1.0314834972e+02   5.7256090822e+01    0.4970802    0.2591048 -75.58  0.001481427    2.609    0.617
       442  -8.8782     28.5822     70.7937   1.1253595209e+02   5.9573716682e+01    0.2528393    0.1775855 -39.43 0.0008969909    1.540    0.351
       443  -8.8374     16.7269     70.1425   1.1725694696e+02   6.0695207397e+01    0.2786941    0.1632233  82.71 0.0008625328    1.854    0.461
       444  -7.7718    156.7919     69.9458   7.1561799248e+01   3.5911533729e+01    0.2017076    0.1211913 -31.60 0.0003586682    1.655    0.396
       445  -8.7137    147.0295     68.1704   7.3106538372e+01   3.8596934963e+01    0.3124575    0.2098552 -40.77 0.0004890801    1.479    0.324
       446 -10.2138    119.0722     65.8850   7.9239892224e+01   4.5652194497e+01    0.5124512    0.2937081  54.49  0.002131769    1.841    0.457
       447  -8.9306     64.6441     63.6696   9.6273180741e+01   5.6801943004e+01    0.5841365    0.3245933 -22.64  0.002037098    3.713    0.731
       448  -8.3306    130.5750     64.3107   7.5718235294e+01   4.3251536914e+01    0.2957209    0.1414969 -41.24 0.0009409703    2.060    0.515
       449  -8.7695     37.3777     64.4984   1.0748250637e+02   6.0210714217e+01    0.2852692    0.1867959  68.92  0.001107773    1.983    0.496
       450  -9.1097    110.0558     63.5885   8.0984197618e+01   4.8123791729e+01    0.3319968    0.2305106 -52.22 0.0006154389    1.528    0.346
       451  -7.2438    187.3453     63.6726   6.4000150597e+01   2.9369654933e+01    0.1566239    0.1106973 -62.00 0.0004877963    1.748    0.428
       452  -8.1153    158.2703     62.0051   6.8748179783e+01   3.6834188668e+01    0.2176762    0.1869192 -33.41 0.0004114052    1.143    0.125
       453  -7.3566    170.3399     71.6721   6.9387633332e+01   3.2321255269e+01    0.1576484    0.1165933 -66.74 0.0007051613    1.735    0.424
       454  -9.8829     73.2543     58.7638   9.1416357116e+01   5.6461673033e+01    0.7053366    0.2440714 -51.94  0.002266626    2.912    0.657
       455  -7.9870    164.4805     60.4404   6.7033976251e+01   3.5521254651e+01     0.150242    0.1463031   2.48 0.0001482835    1.019    0.018
       456  -8.3664     89.0365     59.7730   8.6199194482e+01   5.3309162681e+01    0.2662554     0.181236 -57.92 0.0006434651    1.626    0.385
       457  -8.6977    138.6293     66.1923   7.4390819173e+01   4.0981035371e+01    0.3391232    0.1700462 -45.30  0.001289428    2.089    0.521
       458  -9.8417     23.5286     56.6595   1.1162679883e+02   6.3405267717e+01    0.4960724    0.2688825  82.80  0.002171557    2.711    0.631
       459  -8.4500    130.8071     58.1216   7.3545428979e+01   4.4287719029e+01    0.2328788    0.2042179 -61.37 0.0005151127    1.239    0.193
       460  -9.4299      7.5072     57.1989   1.1903483616e+02   6.4396690658e+01    0.3009885    0.1791202  79.01 0.0009582078    1.835    0.455
       461  -9.5471    119.0461     55.5729   7.5653802227e+01   4.7558412820e+01    0.4570278    0.2233093 -43.44  0.001300826    2.061    0.515
       462  -9.5460     54.3820     55.5856   9.7771632226e+01   6.0156505355e+01    0.3705161    0.2345974 -67.89  0.001215796    1.793    0.442
       463  -8.1100    214.1980     55.8441   5.7870035866e+01   2.4005303727e+01    0.1900554    0.1596431  14.83 0.0005107218    1.281    0.219
       464  -8.5736    139.8577     56.1526   7.0727591461e+01   4.2389883117e+01    0.2365655    0.2043997 -58.06 0.0004689247    1.246    0.197
       465  -8.8874     44.2815     55.7191   1.0211033683e+02   6.1471247396e+01     0.231326    0.1945805 -80.72 0.0007023137    1.270    0.213
       466  -8.4261    105.6546     53.1990   7.8553559377e+01   5.1079215497e+01    0.2428622    0.2087173  73.92 0.0005950218    1.335    0.251
       467  -9.4703     92.3480     50.6564   8.1745666787e+01   5.4450318570e+01    0.4362934    0.2428779 -50.16  0.001123699    1.919    0.479
       468  -8.3973    144.5535     49.0293   6.7211780263e+01   4.2340069511e+01    0.2371326    0.1467373 -33.14 0.0005441627    1.580    0.367
       469  -8.3252    129.6753     49.1500   7.0613292353e+01   4.6077699818e+01    0.2448231    0.1825229 -47.06 0.0005614939    1.394    0.283
       470  -8.8464    120.8313     47.4973   7.2199246050e+01   4.8527878875e+01    0.2651338    0.2080594 -31.76 0.0005668143    1.259    0.206
       471  -8.6583    112.1725     46.7253   7.4219068703e+01   5.0736174795e+01    0.3160892    0.2198702 -59.32 0.0007356625    1.776    0.437
       472  -8.9013     82.0727     46.4727   8.3628425831e+01   5.7352502111e+01     0.314128    0.2140619 -56.73 0.0006592908    1.673    0.402
       473  -8.5361     45.0109     44.8444   9.8187035389e+01   6.3832739862e+01    0.2321275    0.1780452 -55.45 0.0004639674    1.195    0.163
       474  -9.0645     16.6432     44.3143   1.1188853495e+02   6.6861427103e+01    0.3507803    0.1610412 -76.68  0.001242065    2.357    0.576
       475  -8.7737    132.9569     43.5158   6.7756944363e+01   4.6147152632e+01    0.2954941    0.2010709 -48.63 0.0007134067    1.580    0.367
       476  -8.5194     92.7445     43.0572   7.8600154485e+01   5.5787317939e+01    0.2835788    0.2055516 -16.75  0.001112169    1.594    0.373
       477  -9.2725     58.1293     42.5977   9.1480215251e+01   6.2413307120e+01    0.3466136    0.2154681 -66.55  0.001031049    2.197    0.545
       478  -9.3015     69.7231     41.7884   8.6364396990e+01   6.0609653663e+01    0.3672906    0.2666774 -69.06  0.001028502    1.862    0.463
       479  -9.4680      5.2901     42.0560   1.1721385190e+02   6.8105781598e+01    0.3478117    0.1806594  84.82  0.001399904    2.364    0.577
       480  -8.9274    105.9924     41.2670   7.3800163519e+01   5.3118749500e+01    0.3229002    0.1945057 -43.50 0.0006884472    1.686    0.407
       481  -7.5070    140.4397     41.5196   6.5375386185e+01   4.4528649925e+01    0.1507783    0.1477858 -38.98 1.727451e-05    1.029    0.028
       482  -8.5641     36.8760     41.0899   1.0071018232e+02   6.5672855296e+01    0.1985676    0.1701882 -78.02 0.0006709564    1.297    0.229
       483  -8.7508     95.4829     38.1709   7.5681170849e+01   5.6048312052e+01    0.2713798    0.2259821 -69.32 0.0009314091    1.467    0.318
       484  -8.5265     80.8185     37.0344   8.0138074162e+01   5.9381035445e+01    0.2200729    0.1895542 -57.62 0.0005585542    1.293    0.226
       485  -8.1373    133.3926     36.2174   6.4887175345e+01   4.7121094485e+01    0.2234592    0.1328041 -40.18 0.0009166556    1.687    0.407
       486  -8.1275    125.7029     35.8963   6.6497230417e+01   4.9140441140e+01    0.2137216    0.1857895 -27.88 0.0004534329    1.142    0.124
       487  -9.0619    112.0288     34.9187   6.9509203066e+01   5.2700754540e+01    0.3056913    0.2088611 -41.05 0.0008707785    1.478    0.323
       488  -9.3073     26.1491     35.3408   1.0416689917e+02   6.8102909130e+01    0.2986355    0.2115018 -73.11 0.0009522007    1.520    0.342
       489  -8.2350     88.5973     34.2824   7.6224898037e+01   5.8229694692e+01    0.2065182    0.1368038 -25.67 0.0009517695    1.563    0.360
       490  -8.9504     48.4073     33.1530   9.1948960899e+01   6.5845013895e+01    0.2942824    0.2064272 -51.24 0.0009005413    1.355    0.262
       491  -8.7552    119.0617     32.6390   6.6769045284e+01   5.1298576043e+01    0.3563613    0.1723781 -36.43  0.001051974    2.009    0.502
       492  -8.8577     60.6221     32.6575   8.6167328765e+01   6.3994065240e+01    0.2657438    0.1984567 -57.10 0.0006264108    1.510    0.338
       493  -7.5237    139.6552     32.3027   6.2076718670e+01   4.6030909263e+01    0.1593261    0.1145591 -65.12 0.0004666032    1.685    0.406
       494  -8.9650     71.8869     30.5431   8.0550078893e+01   6.2322053623e+01    0.3865681    0.1805399 -41.41  0.001311332    2.036    0.509
       495  -8.8848     12.9533     30.2410   1.0983382283e+02   7.0361347221e+01    0.2972451    0.1623799 -77.11  0.001159157    2.037    0.509
       496  -8.9418    101.2040     29.3679   7.0112516937e+01   5.6155538796e+01    0.2403298    0.1713036 -37.62 0.0008375203    1.392    0.282
       497  -8.0930     42.0185     29.9802   9.3695021163e+01   6.7397061566e+01    0.1644687     0.138588 -39.67 0.0004310979    1.044    0.042
       498  -8.8911     81.5202     27.5399   7.5550669720e+01   6.0875849350e+01    0.2886471    0.2412421 -64.35 0.0008218073    1.475    0.322
       499  -8.8771      3.7200     27.6480   1.1456438275e+02   7.1516303466e+01    0.2733572    0.1500574 -79.44 0.0009225428    1.841    0.457
       500  -8.9740     91.7931     26.3813   7.1581511167e+01   5.8797634814e+01    0.3087286    0.2091695 -49.46 0.0008865998    1.674    0.403
       501  -8.3317    104.4928     23.0138   6.6324782905e+01   5.6283360192e+01    0.2154363    0.1417875 -29.14 0.0004699608    1.494    0.331
       502  -8.0457     34.7828     23.5497   9.4577838871e+01   6.9651192098e+01    0.1716726    0.1216939  45.55 0.0009492416    1.745    0.427
       503  -9.1413     63.5021     21.1176   7.9291900115e+01   6.5552771651e+01    0.3452747    0.2265358 -48.81  0.001095617    1.690    0.408
       504  -8.9605     48.3968     21.7427   8.6536355366e+01   6.8062657863e+01     0.246374    0.2101717 -72.88 0.0006920566    1.569    0.363
       505  -7.6975    120.7149     21.3158   6.1608765735e+01   5.2413421819e+01    0.1513168    0.1118544 -58.66 0.0004719114    1.583    0.368
       506  -8.9045     74.1714     19.7173   7.4323897028e+01   6.3663302533e+01    0.3088557    0.1980817 -50.32 0.0007564751    1.868    0.465
       507  -7.7235     19.7005     21.7038   1.0258620106e+02   7.1684563505e+01    0.1295576   0.08096005 -32.59 0.0003790179    1.573    0.364
       508  -8.4048     11.7813     20.5571   1.0712880385e+02   7.2590197176e+01    0.1516089    0.1125239  37.12 0.0005417821    1.647    0.393
       509  -8.0874     87.6347     17.7456   6.8692763933e+01   6.1007487864e+01    0.1986222    0.1257602 -37.05  0.000364411    1.576    0.366
       510  -8.0217     38.8651     18.3791   8.9738618669e+01   7.0113851921e+01    0.1848368    0.1511503 -44.52 0.0008726952    1.183    0.154
       511  -7.8787    112.8465     16.8497   6.1423350766e+01   5.4987831053e+01    0.1982631    0.1704714 -60.72 0.0003399383    1.306    0.234
       512  -8.1966     30.0474     16.0429   9.3556544323e+01   7.1723823664e+01    0.1864167     0.156494 -81.55 0.0006326686    1.681    0.405
       513  -7.8691      7.4987     15.5215   1.0799504660e+02   7.3979482260e+01    0.1207689    0.1010063 -52.69 0.0002707046    1.070    0.065
       514  -8.4898    156.3577    248.2958   1.0586279890e+02   8.1208720242e+00    0.2039802    0.1142477  54.44 0.0008513395    2.259    0.557
       515  -8.8362    132.4540    248.0631   1.0988638902e+02   1.1290544129e+01    0.2366799    0.1351016  57.58 0.0005932634    2.087    0.521
       516  -8.3217    113.2430    248.6509   1.1323654560e+02   1.3690704377e+01    0.1574448    0.1167466  81.81 0.0009917695    1.791    0.442
       517  -9.3007    103.9454    247.0939   1.1471644605e+02   1.5064011361e+01    0.3105636    0.1881654  86.14  0.001738432    2.569    0.611
       518  -8.8026    242.9148    246.7241   9.2060615931e+01  -2.7735311981e+00    0.2355485    0.1223246 -23.62  0.001508132    2.125    0.529
       519  -7.7838    119.9865     11.2805   5.7369111546e+01   5.3769228038e+01    0.1839415    0.1277983  64.61 0.0008710573    1.420    0.296
       520  -8.5268    232.6754    247.3602   9.3644152347e+01  -1.5979742210e+00    0.1387173    0.1111566 -14.46 0.0006527602    1.595    0.373
       521  -8.5341    218.7185    246.8345   9.5674680194e+01   1.6382514693e-01    0.2627252    0.1077223 -25.48  0.001590968    3.012    0.668
       522  -9.2877    210.9908    246.6614   9.6840634300e+01   1.1522650220e+00    0.1632643    0.1423133 -38.22 0.0008267139    1.927    0.481
       523  -9.0858    175.5585    247.6408   1.0261044316e+02   5.6552768796e+00    0.2244497    0.1465151  51.36  0.001231207    1.848    0.459
       524  -9.9750    223.9278    244.2085   9.4545370300e+01  -2.6134034564e-01    0.3260279    0.1839942 -35.14  0.002321966    2.437    0.590
       525  -9.0238    147.2767    246.3774   1.0719531939e+02   9.5406808664e+00    0.2243508     0.150625  66.17  0.001356534    2.295    0.564
