#   1 NUMBER                 Running object number                                     
#   2 MAG_AUTO               Kron-like elliptical aperture magnitude                    [mag]
#   3 X_IMAGE                Object position along x                                    [pixel]
#   4 Y_IMAGE                Object position along y                                    [pixel]
#   5 X_WORLD                Barycenter position along world x axis                     [deg]
#   6 Y_WORLD                Barycenter position along world y axis                     [deg]
#   7 A_WORLD                Profile RMS along major axis (world units)                 [deg]
#   8 B_WORLD                Profile RMS along minor axis (world units)                 [deg]
#   9 THETA_WORLD            Position angle (CCW/world-x)                               [deg]
#  10 FWHM_WORLD             FWHM assuming a gaussian core                              [deg]
#  11 ELONGATION             A_IMAGE/B_IMAGE                                           
#  12 ELLIPTICITY            1 - B_IMAGE/A_IMAGE                                       
         1  -9.2258     39.8038      7.4780   8.6748563282e+01   6.9876424459e+01    0.3717287    0.2561354  17.90  0.001736851    1.523    0.343
         2 -10.7596     39.6454     29.8222   9.6994473549e+01   6.6044595628e+01    0.9092594    0.3420812 -51.42  0.003777333    2.425    0.588
         3 -11.8641     44.3097     21.4100   9.1401761927e+01   6.7010091340e+01     1.133545    0.9167933 -78.38    0.0067239    2.057    0.514
         4 -12.5613    129.6950     15.7097   6.1263709656e+01   5.1005438179e+01     2.572254     1.588508  58.06   0.01209565    1.546    0.353
         5 -11.7296    131.3463      3.5377   5.6034162974e+01   5.1837336025e+01      2.39757    0.4334746  65.05  0.006362327    5.043    0.802
         6 -11.6734    109.4762      4.5857   6.1082420363e+01   5.7105113051e+01     1.928069    0.7943327  56.60  0.007948839    2.208    0.547
         7 -10.4630    121.1080      3.9680   5.8234371508e+01   5.4360326975e+01    0.6089543    0.4616399  51.87  0.002394734    1.221    0.181
         8 -13.3414    168.9841     16.6949   5.4582591920e+01   4.0652244073e+01     2.702556     1.552673  69.48  0.009992587    1.719    0.418
         9 -12.7816    169.5324      4.9995   5.0535045996e+01   4.1674538373e+01     2.947585    0.7728571  71.89  0.008665376    4.007    0.750
        10  -9.9139    116.4825     16.5629   6.4601956478e+01   5.4134893707e+01    0.8981146    0.3666853 -37.80   0.00346627    2.550    0.608
        11 -10.1449     70.7398      5.5038   7.2830826189e+01   6.5226329720e+01    0.5343952    0.3313071  39.69  0.002895385    1.576    0.366
        12 -11.1530     77.9213     14.2678   7.4694031563e+01   6.2743918299e+01    0.9881279    0.4955447 -26.72  0.004596856    1.920    0.479
        13  -9.4445     93.9196     17.5289   7.1093674693e+01   5.9095595248e+01    0.4338012    0.3525105 -71.58   0.00180737    1.768    0.434
        14 -10.5221    248.9039     15.2443   4.5259297125e+01   2.0457806826e+01     0.530965    0.2946042 -16.10  0.002543895    2.003    0.501
        15 -11.9282    156.3529     20.6878   5.8022874113e+01   4.3564474114e+01     1.306636    0.5870605  54.79  0.004050676    2.024    0.506
        16  -8.5716     20.0870     14.1309   9.9910605379e+01   7.0914888635e+01    0.4959184    0.1977126 -36.33  0.002402656    2.302    0.566
        17  -8.2254      9.3740     15.9088   1.0630764508e+02   7.1411852958e+01    0.4160555    0.1494188 -24.27  0.001395728    6.147    0.837
        18 -11.2982     84.1921      3.9946   6.7613618393e+01   6.2766180443e+01     1.012575    0.6504311  42.31  0.005016969    1.469    0.319
        19 -10.1212    200.0064      8.0400   4.7858105410e+01   3.3293417027e+01    0.3238429    0.2488324  64.94  0.001591197    1.259    0.205
        20  -8.5203     49.2764      6.6448   8.1963183042e+01   6.8673949356e+01     0.267856    0.1730702   3.95   0.00147713    1.758    0.431
        21  -8.7298     60.9104     10.2156   7.8961432814e+01   6.6335081462e+01    0.3026003    0.2260577  55.82  0.001752091    1.812    0.448
        22  -8.4382     55.1960      7.9511   8.0116410762e+01   6.7579501335e+01    0.2674557    0.2196024 -76.40  0.001541698    2.219    0.549
        23  -9.8706     60.2519      2.6988   7.5260894832e+01   6.7445379775e+01    0.5644802    0.4191245  15.45  0.003441318    1.273    0.215
        24  -8.2514     52.2522      2.2326   7.8275652957e+01   6.8822872687e+01    0.2930026    0.2082691  36.90  0.001794651    1.476    0.322
        25 -10.1750    249.6159      5.4815   4.2792861129e+01   2.1282666624e+01    0.5490018    0.2750022 -22.07  0.002621474    2.007    0.502
        26  -9.8227    245.3280      2.4959   4.2365557511e+01   2.2562999637e+01    0.2787502    0.2134747  42.92  0.001621928    1.558    0.358
        27  -9.0252     26.6703      3.2412   9.1130906345e+01   7.2118187278e+01    0.3150355    0.1838735 -45.99  0.001471187    1.689    0.408
        28  -9.2341    230.0840      6.3664   4.4537109342e+01   2.5824948237e+01    0.2240131    0.1885281  -8.95  0.000838918    1.332    0.249
        29  -9.5660    212.8754      4.8567   4.5647296368e+01   3.0272610240e+01     0.248923    0.1783604  62.24 0.0007125528    1.380    0.275
        30  -8.4360     40.0407      1.8147   8.3563342187e+01   7.0682232576e+01    0.2069546     0.153183  18.04  0.001192341    1.341    0.254
        31  -8.8318     16.5712      1.8470   9.5992830484e+01   7.3358935321e+01    0.2036434    0.1575187   7.28 0.0009988949    1.363    0.266
        32  -9.7154    203.4637      3.3451   4.6117012191e+01   3.2838854806e+01     0.392274    0.2236509 -53.23  0.001809227    1.813    0.448
        33  -9.3087     48.2769     61.6454   1.0398489741e+02   5.8582086491e+01    0.3839817    0.2937497  35.88  0.002325355    1.509    0.337
        34 -10.1148     24.9201     65.3315   1.1344930695e+02   6.0036034470e+01     0.632279    0.2189984 -56.00  0.002917657    2.156    0.536
        35  -8.7900     69.2214     60.1021   9.6044219311e+01   5.6147716371e+01    0.3078503    0.2102518 -81.64  0.001421709    2.396    0.583
        36  -8.3989     76.3089     60.0706   9.3605847512e+01   5.5059389597e+01    0.2015417    0.1716139 -47.23  0.001162686    1.095    0.087
        37  -8.5037     92.6548     57.1107   8.7271900208e+01   5.2813565890e+01    0.2824331    0.2146928  31.81  0.001473776    1.419    0.295
        38  -9.3807    199.0450     55.4103   6.2126413444e+01   2.7842922368e+01    0.3013414    0.2582912  40.69   0.00059144    1.201    0.167
        39  -8.9149     66.4463     53.9969   9.5052621556e+01   5.7810345864e+01    0.3997052     0.124307 -51.89  0.001389338    3.200    0.688
        40  -7.6268     23.4729     52.4241   1.1102812425e+02   6.2967204548e+01    0.1206704   0.09787888 -54.67 0.0008050888    1.010    0.010
        41  -9.4963     86.3971     48.7974   8.6349601055e+01   5.5544125873e+01    0.4012332    0.2358411 -35.30  0.001388384    1.637    0.389
        42  -9.9089     83.5020     46.9629   8.6638802377e+01   5.6406261745e+01    0.5694458    0.4121625  17.22  0.002796977    1.657    0.396
        43  -8.2223     97.6055     43.2377   8.0692788479e+01   5.4397092781e+01    0.2103686    0.1298769 -25.91 0.0009553955    1.710    0.415
        44  -8.7681    111.2880     45.1734   7.7396155285e+01   5.1194080177e+01     0.455526    0.2126629 -22.16   0.00156289    3.089    0.676
        45  -8.8342     92.8388     45.1886   8.2924710061e+01   5.4995160277e+01    0.1963949    0.1624806   2.04 0.0006883013    1.298    0.230
        46 -10.3691      3.6141     40.0747   1.1631767144e+02   6.6872487412e+01    0.4677244    0.4109145 -40.69  0.003089871    1.200    0.167
        47  -9.2591     12.2348     34.0830   1.1090948099e+02   6.7626799184e+01    0.4312213     0.205927 -51.60  0.001688573    1.561    0.360
        48  -9.3021     81.5594     39.3098   8.4376552213e+01   5.8140270223e+01    0.4098493    0.3185075 -64.92  0.002164213    1.735    0.424
        49 -10.6691    184.2072    246.6913   1.0459803777e+02   2.6298825129e+00    0.4272098     0.176019  47.48  0.002316992    2.085    0.520
        50 -10.5139     50.7282     36.0833   9.4704524288e+01   6.3509524111e+01    0.6964653    0.5967144 -73.03   0.00435078    1.521    0.342
        51  -9.1712    199.5070    239.9800   1.0125018238e+02   1.0560624067e+00    0.1352572    0.1081141 -25.22 0.0007032921    1.580    0.367
        52 -10.8907    169.8463    242.4762   1.0646119947e+02   5.2723363196e+00    0.3167601    0.1851072  45.03  0.002073362    1.320    0.242
        53  -9.2834    195.9373     35.0810   5.6525868114e+01   3.1356141334e+01    0.4181027    0.2238863  -3.45  0.001526052    2.859    0.650
        54  -8.7390     97.3952     36.8154   7.8247960096e+01   5.5518887275e+01     0.204566    0.1290886 -22.09 0.0009437255    1.693    0.409
        55  -8.6591     27.5012     35.3196   1.0438586928e+02   6.6201952842e+01    0.2458018    0.1963631   2.80  0.001219724    1.426    0.299
        56  -9.6042     86.4767     31.3691   7.9490023328e+01   5.8567524952e+01    0.2973468    0.2533829   6.25  0.001716629    1.154    0.134
        57  -8.5999     90.8357     28.9116   7.7040626592e+01   5.8100508997e+01    0.3182069    0.2286745 -28.90  0.001679059    1.319    0.242
        58 -10.4000    225.1569     28.7824   5.1049830162e+01   2.4652904205e+01    0.5154578    0.3987757  52.33  0.001488126    1.363    0.266
        59  -9.3809     66.7925     29.7326   8.5775092134e+01   6.2322090962e+01    0.3464694    0.2165046 -35.98  0.001583732    1.443    0.307
        60  -8.9513     68.3308     36.4852   8.7977739326e+01   6.0888076979e+01    0.3043872    0.2727291 -81.68  0.001465736    1.508    0.337
        61 -10.8740    204.1691    225.5142   9.8491348996e+01   1.9198506017e+00    0.4262959    0.1778143  37.19  0.002238145    1.899    0.473
        62  -8.7448    239.3790    202.5494   8.9077554293e+01  -1.1137926265e+00    0.2023557    0.0934194 -42.85 0.0009593248    3.405    0.706
        63 -10.8325     10.4669    141.2009   1.2738488240e+02   4.4380009099e+01    0.3579297    0.3082502  -9.93  0.002715031    1.784    0.439
        64  -8.7727     38.3381    141.6791   1.2093932934e+02   4.1759144292e+01    0.1278483   0.07385194  68.85 0.0003826076    1.713    0.416
        65 -12.5892    241.2014    132.6136   7.5103635427e+01   7.1075244782e+00      1.48948     1.026719  42.17  0.005241849    1.443    0.307
        66 -10.8671     11.5458    129.0596   1.2616987742e+02   4.6880752415e+01    0.4262213    0.2136014  88.61  0.002430224    1.755    0.430
        67  -9.9542     74.3413     26.6364   8.1643245006e+01   6.1562552404e+01    0.5414167    0.4273248  76.74   0.00290046    2.038    0.509
        68  -8.9304    104.3342     26.0575   7.1783830385e+01   5.5685421581e+01    0.4116175    0.2635534  58.93  0.001963025    1.739    0.425
        69  -8.2603      9.4658     26.4681   1.0992180788e+02   6.9345350436e+01    0.1162962   0.08879493 -47.94 0.0004524849    1.001    0.001
        70  -7.5840     45.6903    130.6927   1.1785770917e+02   4.3378275297e+01    0.1164151   0.08790749 -45.02 0.0005057008    1.616    0.381
        71  -8.9124    111.2033     16.3862   6.5830548380e+01   5.5398733432e+01    0.3245697    0.2437912  54.82  0.001709004    1.333    0.250
        72  -8.6403     20.6786     22.8474   1.0315068462e+02   6.9240388363e+01    0.3285711     0.168097  26.51  0.001855115    2.293    0.564
        73  -8.2154      9.4010     21.6313   1.0836089972e+02   7.0306550115e+01    0.2201621     0.100085 -72.62 0.0009537732    3.420    0.708
        74  -8.0417     22.7483    125.4234   1.2305473387e+02   4.6769431461e+01    0.1346163     0.115964   5.86 0.0009507956    1.643    0.391
        75  -8.4734     73.5740    119.7103   1.0890457687e+02   4.2358970564e+01    0.2613733    0.1138487 -56.82  0.001143773    2.107    0.525
        76 -10.4019     13.8518    119.3484   1.2471415359e+02   4.8816061576e+01     0.449254    0.1784294  60.29  0.002119723    2.897    0.655
        77  -7.7312    192.2425    116.3753   7.9932240309e+01   1.9842381488e+01    0.2053083    0.1390259  59.49 0.0009428636    1.659    0.397
        78  -9.1170     14.5345    113.9924   1.2399967401e+02   4.9942613081e+01     0.179084   0.09218697 -75.95 0.0006716855    1.555    0.357
        79  -9.1657     64.2188     16.1952   8.0628013728e+01   6.4917917286e+01    0.2583891    0.2106172  48.77  0.001476181    1.501    0.334
        80  -9.8836     17.6150    104.3888   1.2208546374e+02   5.1844567607e+01    0.3712881    0.3077311  72.20  0.002165593    1.203    0.169
        81  -8.2397     70.4785    102.5187   1.0647898872e+02   4.6659614393e+01    0.2560418    0.1025265 -49.07  0.001033665    2.431    0.589
        82 -10.1106     47.3139    100.1390   1.1282814415e+02   5.0077531782e+01    0.4635769    0.2104482 -65.23  0.002192728    1.918    0.479
        83  -8.9113    225.4844     13.5009   4.6853097925e+01   2.6239975045e+01    0.1347347    0.1276912 -63.75 0.0008103101    1.029    0.029
        84  -8.5520    125.5170     28.6570   6.7337274733e+01   5.0422480885e+01    0.3057142    0.2431632   5.39  0.001565135    1.346    0.257
        85  -9.4800     29.4577    101.9664   1.1837269437e+02   5.1422596505e+01    0.3095097    0.1966563 -41.34  0.001786581    1.857    0.462
        86  -9.5534     64.1920     98.6899   1.0753684488e+02   4.8375474578e+01    0.2397979    0.2169937  71.60  0.001508289    1.145    0.127
        87 -12.0469     43.1512     82.7111   1.1080152303e+02   5.4475094985e+01     1.017385    0.8993705 -56.27  0.006777725    1.090    0.082
        88  -9.6949     20.1853     87.4656   1.1903557322e+02   5.5449531853e+01     0.449021     0.173332 -57.02  0.002205552    2.068    0.517
        89  -8.1996    101.0000     84.0000   9.3064534025e+01   4.5794411435e+01    0.2447572   0.07902712 -47.58 0.0008048576    2.959    0.662
        90  -9.1743    227.8933     78.9695   6.4209947764e+01   1.7465361275e+01    0.4418024     0.297075   7.08  0.002017475    1.922    0.480
        91  -8.7509    221.1420     80.8999   6.5739241536e+01   1.8755230219e+01    0.2294066    0.1968925 -57.15  0.001230819    1.292    0.226
        92 -10.8872      3.7527     76.0127   1.2267262208e+02   5.9063537611e+01    0.7085499    0.4984199  61.55    0.0044854    1.593    0.372
        93 -11.3308     14.3352     71.7762   1.1844389174e+02   5.9372245547e+01    0.8094364    0.6098518  72.07  0.005412743    1.478    0.323
        94  -9.0861      2.4302     88.8279   1.2469061218e+02   5.6301036952e+01     0.315878    0.1751918 -86.90  0.001891987    1.554    0.357
        95  -8.3863     97.9791     27.7725   7.4354020786e+01   5.6805673021e+01    0.3434276    0.1898804 -12.87  0.001399192    2.413    0.586
        96  -8.8481    138.2551     78.1366   8.1341081989e+01   3.9200006777e+01    0.3706589    0.3054299  84.44  0.001570303    1.492    0.330
        97 -10.0162     74.5633     68.6977   9.6847713696e+01   5.3535902428e+01    0.4581458    0.4035971 -28.93  0.002724132    1.146    0.127
        98  -8.5402     33.9235     68.6631   1.1093138923e+02   5.8526188288e+01    0.2506185    0.1820239 -47.50  0.001548907    1.244    0.196
