#   1 NUMBER                 Running object number                                     
#   2 MAG_AUTO               Kron-like elliptical aperture magnitude                    [mag]
#   3 X_IMAGE                Object position along x                                    [pixel]
#   4 Y_IMAGE                Object position along y                                    [pixel]
#   5 X_WORLD                Barycenter position along world x axis                     [deg]
#   6 Y_WORLD                Barycenter position along world y axis                     [deg]
#   7 A_WORLD                Profile RMS along major axis (world units)                 [deg]
#   8 B_WORLD                Profile RMS along minor axis (world units)                 [deg]
#   9 THETA_WORLD            Position angle (CCW/world-x)                               [deg]
#  10 FWHM_WORLD             FWHM assuming a gaussian core                              [deg]
#  11 ELONGATION             A_IMAGE/B_IMAGE                                           
#  12 ELLIPTICITY            1 - B_IMAGE/A_IMAGE                                       
         1 -13.0708    215.6618    126.5930   7.4075048986e+01   1.2704637767e+01     2.443626     1.159504 -21.78  0.009113581    2.677    0.626
         2 -11.7601     71.7832     32.4228   8.0006552481e+01   6.1911174244e+01    0.6202203    0.3887627 -39.22 0.0006754459    1.490    0.329
         3 -12.7635     63.1341     36.2293   8.5053295705e+01   6.2687338301e+01     1.374269    0.8150901   5.88  0.004256955    2.848    0.649
         4 -10.0297    238.7245     22.4477   4.3799303683e+01   2.2580185254e+01     0.303611    0.2653306 -51.43  0.001145018    1.006    0.006
         5  -9.7504    180.9982     14.0255   4.7313595769e+01   3.8046016035e+01    0.3009394    0.2474682  12.96 0.0007522802    1.407    0.289
         6 -10.0718    187.2278     10.7219   4.5530604378e+01   3.6739180767e+01    0.5896605    0.2097385  61.71  0.002211614    2.520    0.603
         7  -9.9239    123.1864     11.1351   5.5451250540e+01   5.3515302190e+01    0.2909499    0.2482777  24.08  0.000670555    1.147    0.128
         8  -9.0232    209.9636      9.0571   4.2733220956e+01   3.1033726694e+01    0.2013656    0.1574495  33.32 0.0003307428    1.545    0.353
         9  -9.2177     10.9794      7.2040   9.7189721409e+01   7.4148455280e+01    0.2320073    0.1422785  11.36  0.001265005    1.833    0.454
        10  -8.7415    175.0137      4.7017   4.4986709465e+01   4.0547897309e+01    0.1871552     0.172643  84.76 0.0005427793    1.027    0.026
        11 -11.2961      7.9865    157.0089   1.2707955368e+02   4.0922493304e+01    0.3118509    0.2350742 -29.75 0.0007276219    2.169    0.539
        12 -10.1394    102.8759    248.5997   1.1577895664e+02   1.2477562954e+01    0.3494747     0.229718  47.07  0.002486234    1.149    0.130
        13 -10.8134      2.4576    153.9853   1.2811037797e+02   4.2009666633e+01    0.3526804    0.2037526 -59.44  0.002139857    1.867    0.465
        14 -10.5809      1.5186    157.4703   1.2851688306e+02   4.1326504035e+01    0.3102707    0.1512224  62.56  0.001434426    1.751    0.429
        15 -10.1628     10.9596    148.5902   1.2583854286e+02   4.2535992329e+01    0.2641674   0.09666935 -62.04  0.001288714    2.480    0.597
        16 -10.6888      5.6513    140.8205   1.2652327269e+02   4.4681904757e+01    0.3063226    0.1722599 -51.59  0.001009516    2.108    0.526
        17  -9.9622      8.4704    138.5539   1.2568019537e+02   4.4983307213e+01    0.2347868    0.1434315  54.34  0.001307619    1.564    0.361
        18  -9.6159     21.6099    142.0730   1.2278135997e+02   4.3110090959e+01    0.1849715    0.1374153  65.51  0.001219009    1.232    0.188
        19  -9.5921     15.7883    141.4414   1.2414078552e+02   4.3750869329e+01    0.1963797    0.1166725 -75.93 0.0009827882    1.363    0.266
        20  -8.2459    146.7259    231.6747   1.0632298371e+02   8.5559139743e+00     0.107499   0.08365527  13.97 0.0003622618    1.582    0.368
        21 -12.1661    232.7637    110.0390   6.7195849310e+01   1.1747702622e+01     1.260891    0.9054425 -87.16  0.005833039    2.378    0.580
        22  -8.6692     29.9332    138.4708   1.2036580243e+02   4.3176619696e+01    0.1826966   0.07209618  53.94 0.0008087205    2.649    0.623
        23 -10.6152      3.2867    134.3707   1.2662812236e+02   4.6304971182e+01    0.3067333    0.1750046 -49.23  0.001315205    2.124    0.529
        24  -8.9638     36.4843    131.4992   1.1788829900e+02   4.4165817834e+01    0.2203033    0.1049873 -84.85  0.001013469    2.104    0.525
        25  -9.8575     12.3839    128.2813   1.2384616585e+02   4.7040726707e+01    0.1848753    0.1509649  76.21 0.0008174517    1.144    0.126
        26  -9.1337     37.6456    127.2460   1.1704622771e+02   4.5055333784e+01    0.1992648    0.1311167  89.22 0.0008180973    1.391    0.281
        27  -8.4914     52.7940    126.0689   1.1274914480e+02   4.3670401334e+01    0.1750617   0.09357879 -69.50 0.0005703443    1.648    0.393
        28  -9.9945     23.9106    125.9311   1.2058222719e+02   4.6656316606e+01    0.2296629    0.1582888  48.51 0.0003550103    1.521    0.343
        29  -9.2990     27.8694    124.8703   1.1939750899e+02   4.6556514045e+01    0.1903386    0.1702413  83.20 0.0004297998    1.157    0.136
        30  -8.2818     37.6490    123.3149   1.1652913642e+02   4.5991209117e+01    0.1364527   0.08340863  70.37 0.0007046637    1.730    0.422
        31  -8.2263     93.6255    121.6638   1.0068291532e+02   3.8875573257e+01    0.1480517    0.1132526 -20.34 0.0002521503    1.859    0.462
        32  -8.9173     45.1628    119.4029   1.1386855113e+02   4.6139652172e+01    0.2169179    0.1329912 -74.53 0.0006265689    1.422    0.297
        33  -9.3487     75.6419    118.7328   1.0508730770e+02   4.2401941445e+01    0.2800151     0.193023 -81.41  0.001396188    1.546    0.353
        34  -8.8088     69.4308    118.2349   1.0675480172e+02   4.3409643161e+01    0.2056255      0.12236 -76.64 0.0009442611    1.794    0.443
        35  -9.5587     57.8728    117.5400   1.0993636393e+02   4.5102327015e+01    0.2509647     0.171996 -75.37 0.0003656894    1.331    0.249
        36  -9.1007     26.6901    116.6652   1.1872632011e+02   4.8610624549e+01    0.2434013    0.1412272 -52.79 0.0008768534    1.717    0.418
        37  -8.9986     23.7068    116.3175   1.1952600851e+02   4.8949170823e+01    0.1717739    0.1222236  40.31 0.0002959774    1.588    0.370
        38 -11.6537     11.6790    114.7251   1.2272107876e+02   5.0256390783e+01    0.2279492    0.1897421 -87.14 0.0003803343    1.091    0.084
        39 -10.7248     14.6705    110.2025   1.2138051547e+02   5.1108772497e+01    0.4044038    0.2640598  55.85  0.002467419    1.611    0.379
        40 -10.3013     38.6900    114.2036   1.1494510939e+02   4.8071662285e+01    0.3892309    0.2620435  -4.26  0.002023204    2.451    0.592
        41  -9.6280      1.5446    112.4918   1.2531707795e+02   5.1440982528e+01    0.3295142    0.1194014 -89.58 0.0004920042    2.638    0.621
        42  -8.5910    124.2742    113.1348   9.0518721724e+01   3.5125455740e+01      0.20027    0.1704292  82.10 0.0007024397    1.321    0.243
        43  -9.5080     49.9191    112.2235   1.1133739188e+02   4.7339323167e+01    0.2448594    0.1689769 -63.26 0.0005404312    1.250    0.200
        44  -8.7716     98.9885    117.5146   9.8317061962e+01   3.8925862805e+01    0.1988884    0.1343697   9.98 0.0008104705    2.586    0.613
        45  -9.8153     71.8875    109.3066   1.0427121178e+02   4.5208029588e+01    0.5174813    0.1619526 -63.87  0.001435684    3.615    0.723
        46  -9.7247     21.5458    109.2541   1.1926695719e+02   5.0809557874e+01    0.2171808    0.1946071 -76.49 0.0008252581    1.163    0.140
        47  -8.6623     29.1522    109.1763   1.1701358654e+02   5.0186243629e+01    0.1696146    0.1272222  77.75 0.0003746707    1.297    0.229
        48 -10.2228      6.7816    108.4099   1.2345296548e+02   5.2069688965e+01    0.2801107    0.1631213 -74.00 0.0002819057    1.315    0.239
        49 -10.6097      8.0990    100.9234   1.2225296312e+02   5.3748381426e+01    0.4262556    0.1656686 -79.33            0    2.137    0.532
        50  -8.9875    122.9623    106.5976   8.9190009728e+01   3.6839433519e+01    0.2320763     0.194314 -49.35 8.444574e-05    1.157    0.135
        51  -8.5781     43.4438    107.4663   1.1246442069e+02   4.9206057499e+01    0.1332277    0.1107325 -72.85 0.0008069456    1.018    0.018
        52 -10.4839     80.7286    103.7244   1.0040694367e+02   4.5215086571e+01     0.318456    0.2812058   0.43 0.0007529885    1.412    0.292
        53  -9.8789     27.4784    103.0086   1.1662511376e+02   5.1814353543e+01    0.3061519    0.1886974 -77.76 0.0008272385    1.375    0.272
        54  -9.8828     16.4107    104.5855   1.2019696461e+02   5.2315260215e+01    0.2291834    0.1798358 -57.26 0.0009031061    1.271    0.213
        55  -9.2001    114.0545    102.0480   9.0386163325e+01   3.9654381192e+01    0.2465389     0.187111  88.87  0.001125996    1.728    0.421
        56  -9.7237     62.0308    100.4885   1.0540496938e+02   4.8687786629e+01    0.1939133    0.1394222  34.71 0.0006895278    1.586    0.370
        57 -10.0334     53.3326     98.5650   1.0774086091e+02   5.0244289625e+01    0.2753925    0.2381564  78.14 0.0009373432    1.207    0.171
        58  -8.3018     39.3199     99.6317   1.1238535111e+02   5.1527306402e+01    0.1388129   0.08990186  76.89 0.0001390203    1.791    0.442
        59  -8.6804    106.8106    103.8130   9.2856716854e+01   4.0663370693e+01    0.2036824    0.1733379 -86.31 0.0004284227    1.295    0.228
        60 -10.0891     69.1103     96.7507   1.0235118886e+02   4.8615580599e+01    0.3418382    0.1920575  39.72  0.001458857    1.952    0.488
        61  -8.3702     47.3177     97.2865   1.0940265892e+02   5.1247505051e+01    0.1323362   0.09309237 -39.11 0.0002565244    1.590    0.371
        62  -9.6368    147.1336     95.4806   8.0025176235e+01   3.3910218939e+01    0.2491955    0.2125585 -69.05 0.0006872659    1.313    0.239
        63  -9.9376     35.9074     94.5447   1.1256917847e+02   5.3089607827e+01    0.3868704    0.1864664 -63.25  0.001875646    1.669    0.401
        64  -9.4107     32.3638     91.2416   1.1313442371e+02   5.4214530389e+01    0.2398016    0.1868311  -2.77  0.001442798    1.731    0.422
        65  -9.4258     78.9232     94.4738   9.8724001582e+01   4.7688368260e+01    0.2363344     0.180927 -57.97 0.0007345883    1.186    0.157
        66  -9.5309      9.1353     93.4276   1.2102414807e+02   5.5454874857e+01    0.2213503    0.1488106  80.74 0.0008869335    1.436    0.304
        67  -8.4782    132.6442     93.7234   8.3117714283e+01   3.7552663733e+01    0.1572185    0.1237648   9.23 0.0007007844    1.652    0.395
        68  -9.7184     90.1977     92.6545   9.4774522636e+01   4.6250832631e+01      0.22443    0.1856619  69.37 0.0004984463    1.383    0.277
        69 -10.1104     51.8447     92.0269   1.0684750224e+02   5.1995899074e+01    0.2213774    0.1868253  75.31 0.0007263673    1.287    0.223
        70 -10.8510    127.0324     89.8818   8.3459605718e+01   3.9597818974e+01    0.4038849    0.3271619 -36.34 0.0009813514    1.222    0.181
        71 -12.7534    136.2491     83.8111   7.9242890083e+01   3.8783306688e+01     1.215567    0.5667434  40.66   0.00435147    2.422    0.587
        72 -10.9469    119.4836     85.4904   8.4184249233e+01   4.2160035469e+01    0.5681182    0.2536122 -39.09  0.001982439    2.267    0.559
        73 -10.7452    121.4788     88.4730   8.4532434468e+01   4.1098390572e+01    0.3799347     0.258629 -39.10  0.001075194    1.443    0.307
        74 -10.4959    124.2686     85.6347   8.2925970336e+01   4.1096421035e+01     0.371163    0.3088308 -48.84  0.001168633    1.171    0.146
        75 -10.6466     57.6168     90.4277   1.0458842773e+02   5.1673043591e+01    0.3374172    0.2433021  47.56  0.001727548    1.568    0.362
        76  -9.8658     44.1473     91.1589   1.0920838684e+02   5.3070604171e+01    0.2555651     0.182296  36.06  0.001036115    1.623    0.384
        77  -9.3626    108.4899     90.5148   8.8761554254e+01   4.3332794270e+01    0.1521791    0.1437803 -41.56 -2.275867e-05    1.038    0.036
        78  -9.1198     85.2985     87.2237   9.4810023347e+01   4.8340094838e+01    0.2491581    0.1821331 -63.01  0.001020335    1.377    0.274
        79 -10.3746     66.7980     86.2996   1.0054612611e+02   5.1423311869e+01    0.5062794    0.2388666  47.92  0.002088486    2.578    0.612
        80 -10.7360    108.2419     85.4751   8.7356543924e+01   4.4491194556e+01    0.3458973    0.2249245 -21.36  0.001404583    2.192    0.544
        81  -9.0749    173.7657     85.0468   7.1057499890e+01   2.9544221879e+01    0.2083869    0.1275354 -36.32  0.000487668    1.573    0.364
        82 -10.1597     27.7604     84.6542   1.1348059160e+02   5.6194155591e+01    0.2923357    0.2305897  36.40  0.001041012    1.518    0.341
        83 -10.4301     76.8158     82.9671   9.6350192649e+01   5.0703512131e+01    0.4782576    0.3183522  42.92  0.001606409    1.663    0.399
        84 -10.2425     99.9455     83.0538   8.9084736567e+01   4.6646782702e+01    0.2283878    0.2159457 -35.97 0.0005014174    1.047    0.045
        85  -8.9831      1.5666     83.7071   1.2224464039e+02   5.8168661016e+01    0.1682949   0.09219059 -84.78 0.0009400179    1.551    0.355
        86 -11.2776     52.0843     81.5543   1.0435466252e+02   5.4464371274e+01    0.4496642    0.3071431  26.38  0.002412647    1.761    0.432
        87 -11.3331      6.6619     80.2296   1.2004075344e+02   5.8712457618e+01    0.4006835    0.2656828  84.86 0.0005601776    1.481    0.325
        88 -11.8325    104.7612     79.3308   8.6503146717e+01   4.6519493312e+01    0.5270169     0.367732 -42.12  0.001370859    1.356    0.262
        89 -10.8121    109.6644     72.6386   8.2910509222e+01   4.6930834974e+01    0.4380686    0.3162758  10.86   0.00107292    1.947    0.486
        90  -9.4680    150.4699     81.4161   7.5051533247e+01   3.5902002665e+01    0.2658478    0.1530774 -36.87 0.0006845499    1.695    0.410
        91  -9.5955     21.8483     81.0470   1.1487532454e+02   5.7524153294e+01    0.1906901    0.1817825  58.71  0.001092583    1.268    0.211
        92  -9.6914    127.8266     79.8530   8.0188955190e+01   4.1502738124e+01    0.2898448    0.2008406  44.22 0.0005823302    1.502    0.334
        93  -9.6942     37.7125     79.4834   1.0893677159e+02   5.6520464947e+01    0.3845586    0.2249078  87.23  0.001755361    2.434    0.589
        94  -9.3234     15.5600     79.7638   1.1686247610e+02   5.8276179665e+01    0.3068693    0.1417656  79.01  0.001221762    3.527    0.716
        95 -11.2129     98.6293     76.5323   8.7477879989e+01   4.8323395505e+01    0.5249397    0.3780384 -10.62  0.002349373    1.949    0.487
        96 -10.9476     97.2599     69.7648   8.5706747558e+01   5.0029393457e+01    0.3161106    0.2969556 -28.75 0.0002560959    1.032    0.031
        97  -9.5102     28.2377     78.3407   1.1208558971e+02   5.7655595930e+01    0.2049772    0.1601528 -45.95 0.0004163995    1.245    0.197
        98  -9.2053     72.2120     77.6202   9.6368051770e+01   5.2643919119e+01    0.2204024    0.1740824   2.23 0.0004380847    1.622    0.384
        99 -10.6041     76.7679     75.5867   9.4230403847e+01   5.2393124782e+01    0.3901466    0.2546462  32.85  0.001420848    1.750    0.428
       100 -11.7200     43.9361     73.1269   1.0517132450e+02   5.7373669346e+01    0.8330273    0.3871057  50.98   0.00344169    3.165    0.684
       101 -11.0451     47.8340     70.2271   1.0296654728e+02   5.7610013152e+01    0.3995235    0.3003846 -74.24  0.002242652    1.400    0.286
       102 -10.8042    157.5862     75.1121   7.1476629873e+01   3.5344301483e+01    0.3630179    0.2557262  -2.73 0.0008336625    1.960    0.490
       103  -9.3732    129.2246     75.9532   7.8577839210e+01   4.1970217523e+01    0.2097569    0.1249372 -40.60 0.0003626409    1.616    0.381
       104 -11.1786     20.4376     75.1983   1.1429038800e+02   5.9012052659e+01    0.3792133    0.2720746 -51.11  0.001621124    1.242    0.195
       105 -11.9089    151.4656     73.0735   7.2203020901e+01   3.7227801506e+01    0.6440446    0.4721503 -61.25  0.001910911    1.618    0.382
       106 -11.2884    143.3384     69.7288   7.3013517646e+01   3.9832575194e+01     0.486594    0.3342279  68.98  0.002068847    1.779    0.438
       107 -10.2876    132.5934     73.5959   7.6940013702e+01   4.1657182251e+01    0.3162477    0.1503317 -33.16  0.001134682    2.227    0.551
       108  -9.9743     86.5116     72.5357   9.0050375664e+01   5.1428075973e+01    0.3107387    0.2455251  78.95  0.001543813    1.701    0.412
       109 -10.6244     57.5005     72.3187   1.0000129246e+02   5.5940182278e+01    0.4456411    0.2507775 -31.89  0.001970618    2.232    0.552
       110 -10.7937     63.0033     70.7564   9.7569033255e+01   5.5551950128e+01    0.3585685    0.3353425 -58.44  0.001514796    1.090    0.083
       111 -10.2754    138.2266     72.8305   7.5271167218e+01   4.0478918020e+01    0.2318825    0.2163932 -69.76 0.0007404742    1.144    0.126
       112 -10.7175    119.7579     71.6815   7.9725625668e+01   4.4952641490e+01    0.3421939    0.2794581  87.16  0.001638643    1.566    0.361
       113 -11.6338     94.2671     74.3634   8.8145518690e+01   4.9619820972e+01    0.4887456    0.4296974 -32.86  0.001543943    1.104    0.094
       114 -10.8216    104.7181     66.9384   8.2461698745e+01   4.9122596916e+01    0.3857702    0.3006596  -9.72  0.001693785    1.542    0.351
       115  -8.5247    124.6592     70.2830   7.7925613938e+01   4.4129852612e+01    0.1548508    0.1234892 -81.08 0.0004441664    1.632    0.387
       116  -9.5350     27.5470     69.9746   1.1055307813e+02   5.9681865915e+01    0.1986969    0.1043701 -63.73 0.0004347629    1.539    0.350
       117  -9.3377    196.6836     68.4743   6.1916022733e+01   2.6655918170e+01     0.272196    0.1353148 -31.21 0.0009973182    1.916    0.478
       118 -11.3419     52.4049     70.1650   1.0125493903e+02   5.7079839544e+01    0.6051541    0.2139928 -49.15  0.002381175    2.367    0.577
       119  -9.3090      3.9223     69.5208   1.1938098697e+02   6.1357501263e+01     0.146438    0.1217796   8.81  0.001027188    1.576    0.365
       120  -8.9514     86.6246     82.1635   9.2951249601e+01   4.9268061323e+01     0.225331    0.1723973 -66.17 0.0006357143    1.392    0.282
       121 -10.3919     70.9601     67.3029   9.3669969649e+01   5.5152077922e+01    0.3429948    0.2601411  26.96  0.001045287    1.513    0.339
       122  -9.4078    165.6430     67.2917   6.7292141743e+01   3.4708227886e+01    0.1627741    0.1218575 -72.10 0.0005055417    1.688    0.408
       123 -11.3096    151.6705     65.4617   6.9683832589e+01   3.8548018019e+01    0.5040745    0.3683954 -79.35  0.001466159    1.884    0.469
       124  -9.5232    147.3307     63.6512   7.0062070883e+01   3.9948725795e+01    0.2466481    0.1826305 -64.74  0.000988206    1.660    0.398
       125 -10.2778     88.3077     65.6157   8.7180329819e+01   5.2587270989e+01    0.2882526    0.2562713  31.04 0.0009224796    1.215    0.177
       126  -9.5887    126.9064     64.5793   7.5391200807e+01   4.4707188892e+01    0.2789536    0.2025811 -27.83 0.0007124585    1.408    0.290
       127 -10.8533     32.5212     64.0459   1.0720017807e+02   6.0619750254e+01    0.4438989    0.2624103 -33.78 0.0008445587    1.856    0.461
       128 -11.2927     42.9980     63.5793   1.0296374396e+02   5.9673956100e+01    0.7398766    0.4168953  87.90  0.002596992    4.512    0.778
       129  -9.6682     36.9652     62.0000   1.0489615222e+02   6.0662055561e+01    0.3058959     0.188081  15.16  0.001276893    2.104    0.525
       130  -9.5822      4.2211     65.5748   1.1861070951e+02   6.2255310282e+01    0.1459388     0.104607 -26.47 0.0009405712    1.644    0.392
       131 -10.2210    133.0055     63.9895   7.3618476155e+01   4.3380427995e+01    0.2364876    0.2246871 -36.80 0.0003203466    1.033    0.032
       132  -9.3129    112.1299     55.8778   7.6339029177e+01   4.9683446762e+01    0.2839573    0.2209209 -17.28  0.000482488    1.377    0.274
       133 -11.3228    111.3811     63.2576   7.9214225694e+01   4.8448437875e+01    0.6761693    0.2962405  38.92  0.002396174    2.690    0.628
       134 -11.4325     66.9659     60.4304   9.2853145898e+01   5.7256836175e+01    0.5511537    0.3447246 -35.03   0.00164709    1.591    0.372
       135  -9.2024    219.1403     62.3086   5.6734957798e+01   2.2073349215e+01    0.3183683    0.1812493 -79.79  0.001168409    3.036    0.671
       136 -11.8112    160.1325     57.4601   6.5221280210e+01   3.7760276319e+01    0.7450541    0.4217497 -13.91  0.002732337    2.459    0.593
       137 -10.7293     89.0650     60.5126   8.5152983778e+01   5.3502384579e+01    0.4656219    0.2787495  45.07  0.002117607    1.822    0.451
       138 -11.3153     50.0975     60.0196   9.9128942688e+01   5.9651616491e+01    0.6625779    0.2951951  19.23  0.002534297    3.685    0.729
       139 -11.1159     76.1882     43.9511   8.3313402395e+01   5.9075872847e+01    0.6537433    0.3290399  54.15  0.001999353    2.847    0.649
       140 -12.0361     60.5187    211.7514   1.2034309356e+02   2.4235559524e+01    0.9415822    0.5471271  73.07  0.005820199    1.589    0.371
       141 -12.7901     76.7733    219.1448   1.1790818196e+02   2.0802700334e+01     0.892283    0.5620236  36.15   0.00285363    1.638    0.390
       142 -10.6830     54.9989     50.9007   9.4131360638e+01   6.0989995992e+01    0.3031361    0.1932619 -40.91 0.0003155191    1.368    0.269
       143 -11.9545     59.0461     47.8929   9.1408849525e+01   6.1047226969e+01    0.3925318    0.2778326 -33.34  0.002131123    1.297    0.229
       144 -12.0331     67.1428     45.9453   8.7492880980e+01   6.0209615123e+01    0.4439533    0.3964142  82.52 0.0003156646    1.510    0.338
       145  -8.9687    103.4427     60.1001   8.0444320863e+01   5.0746354047e+01    0.2381136    0.1405827 -35.88  0.000423467    1.636    0.389
       146 -10.7737     24.6752     59.3625   1.0915637835e+02   6.2365255095e+01    0.4029251    0.1776361 -52.04  0.001975718    1.755    0.430
       147 -11.0089     32.8975     58.0533   1.0544051170e+02   6.1948151767e+01    0.3525631     0.285304   9.16  0.002113198    1.486    0.327
       148  -9.6034     35.6741     54.3108   1.0320196792e+02   6.2516003721e+01    0.2054877    0.1692226 -64.13 0.0009948434    1.193    0.162
       149 -10.0720     32.3703     52.0071   1.0389805948e+02   6.3345270689e+01    0.2797948    0.1846341  17.32  0.001471081    1.852    0.460
       150 -11.0842    199.8853     56.6491   5.7921054792e+01   2.7660442140e+01    0.5409769    0.2566313  42.86  0.001340934    2.539    0.606
       151  -9.8817     94.4492     57.8598   8.2440381033e+01   5.3002361867e+01     0.340555    0.2202999  32.90    0.0015603    1.751    0.429
       152  -9.3833     98.2326     54.0189   7.9812667257e+01   5.2987228103e+01    0.3464548    0.2350791  29.12  0.001605426    1.705    0.414
       153  -9.3671     20.4680     57.0363   1.1030929347e+02   6.3217323286e+01    0.3533005   0.09756055 -62.88  0.001375342    2.797    0.642
       154 -10.4565    149.9753     56.1782   6.6935009140e+01   4.0563758747e+01    0.3522916    0.2875149 -82.01  0.001681241    1.476    0.322
       155  -9.8404    146.3133     55.6690   6.7570245828e+01   4.1573586098e+01    0.3096015    0.2551175  70.55  0.001043409    1.330    0.248
       156  -9.1731    109.6945     59.6459   7.8418013052e+01   4.9509079926e+01    0.2846201    0.1833798 -25.73 0.0009528014    1.701    0.412
       157 -10.8976     80.2157     55.0339   8.6174000999e+01   5.6215016176e+01    0.7574875    0.4240994 -15.82  0.002632356    3.553    0.719
       158 -10.2509     85.7454     51.9876   8.3121309852e+01   5.5814775282e+01    0.4152405    0.2317916 -46.62  0.001473169    1.746    0.427
       159 -10.2976     84.0000     47.9576   8.2154123901e+01   5.6909825889e+01    0.3405253    0.1825977 -41.72   0.00115584    1.730    0.422
       160  -9.6273    222.8170     55.8294   5.4453230095e+01   2.2115216464e+01    0.2066007    0.1611823 -57.53  0.001066273    1.305    0.234
       161 -11.2306    174.7694     52.8410   6.0903878879e+01   3.4699207470e+01    0.6160198    0.2663884 -27.25  0.002181777    2.398    0.583
       162 -11.3947    206.2584     51.6361   5.5510993369e+01   2.6778065102e+01    0.5579234     0.381018   1.76   0.00246894    1.963    0.491
       163 -10.6200     43.7983     54.3513   9.9852416083e+01   6.1641873857e+01    0.4086754    0.1840704 -28.36  0.001438776    3.936    0.746
       164  -9.0104    195.3353     63.3096   6.0616390621e+01   2.7802932035e+01    0.1578791    0.1167857  22.31 0.0005453672    1.678    0.404
       165 -11.1342    134.6811     51.7875   6.8897924834e+01   4.5117646971e+01    0.4721489    0.2764209 -40.95  0.001165122    1.691    0.408
       166  -9.6194    124.4822     47.5455   6.9864270164e+01   4.8295483621e+01     0.501827    0.2888125  37.68  0.002063074    1.947    0.486
       167  -9.6120    127.9025     53.1644   7.1077527243e+01   4.6528972290e+01    0.3669782    0.1569687  53.66  0.001317613    2.400    0.583
       168 -10.4566    233.8733     50.6419   5.1692052346e+01   2.0210522190e+01    0.3538873    0.2104196 -46.64            0    1.575    0.365
       169 -10.5591    184.0085     52.3154   5.9138540439e+01   3.2376363785e+01    0.4528249    0.1694451  53.34  0.001562668    2.610    0.617
       170 -10.0924    150.9250     51.9386   6.5267483898e+01   4.1013322456e+01    0.2517921    0.1869047 -67.97 0.0009419803    1.674    0.403
       171  -9.6290    115.9559     50.8655   7.3390681661e+01   4.9723581478e+01    0.2483979    0.2258237  75.00 0.0002811383    1.260    0.207
       172 -10.0351     18.8083     51.0436   1.0947475325e+02   6.4686325359e+01    0.2185669    0.1738557  -5.53 0.0005564413    1.497    0.332
       173 -12.2533     58.8335     53.1748   9.3424403602e+01   5.9984508331e+01    0.9061091    0.4042882 -52.41  0.002208217    2.088    0.521
       174 -10.4484     38.3880     46.8471   9.9641956005e+01   6.3857545705e+01    0.3010764    0.1877862 -47.53 0.0009734348    1.309    0.236
       175 -11.2960    167.4935     44.1949   5.9367200183e+01   3.7887093557e+01    0.4774196    0.4179097 -82.46  0.001320435    1.231    0.187
       176 -11.3887    143.5125     43.3703   6.3816226924e+01   4.4241331828e+01    0.5437819    0.3894173 -12.81  0.002490365    1.565    0.361
       177 -10.3256     32.4336     44.5597   1.0148594526e+02   6.4953656370e+01    0.3055421    0.2028447 -79.80  0.001573792    2.185    0.542
       178  -9.5073     92.8976     44.5695   7.7823601475e+01   5.5804445247e+01    0.3353263    0.1441606  49.19  0.001286174    2.526    0.604
       179  -9.6979    204.8488     42.1674   5.2930667189e+01   2.8439264999e+01    0.2004111    0.1749535  23.80 0.0005787897    1.306    0.234
       180  -9.1133    174.3184     41.9751   5.7443391943e+01   3.6406519421e+01    0.2402753    0.1249931   1.00 0.0006467582    4.106    0.756
       181 -11.1626    149.8602     41.2438   6.1715155045e+01   4.2924022531e+01    0.4169323    0.3568462 -69.97  0.002115837    1.304    0.233
       182 -10.1560    196.9593     41.3528   5.3766852881e+01   3.0570730528e+01    0.2107747     0.196827  66.62 0.0009834345    1.105    0.095
       183  -9.1288    104.1751     41.1183   7.2928873229e+01   5.4020190208e+01    0.1944541    0.1744219 -60.82 0.0003880002    1.299    0.230
       184 -13.0947    233.1722    130.8790   7.2095520915e+01   8.4933932893e+00     1.953132     1.247009   6.30  0.009092145    2.008    0.502
       185 -10.6700    161.7104     37.7915   5.8226300354e+01   4.0312477424e+01    0.3645858    0.2400509 -31.08 0.0003999842    1.493    0.330
       186 -10.0088    114.6482     38.9107   6.9079922753e+01   5.2004827877e+01    0.2743327     0.198541  37.06  0.001323749    1.422    0.297
       187 -10.0975    128.0900     36.8517   6.4858874288e+01   4.9087535216e+01    0.3197918    0.2418282 -43.92  0.000667422    1.382    0.276
       188 -10.1779    101.8824     37.6487   7.2176674161e+01   5.5086796264e+01    0.2413109    0.1881355 -17.19 0.0005268736    1.275    0.216
       189 -11.0074     81.5277     37.5514   7.8724450746e+01   5.9254231849e+01    0.3263288    0.2548199   1.45   0.00138131    1.384    0.277
       190  -9.6384     46.1213     35.5670   9.1960977807e+01   6.5249876684e+01    0.3259631    0.1240643  37.94  0.001375833    3.030    0.670
       191 -10.0646     37.2939     37.7010   9.6803942357e+01   6.5876013194e+01    0.2858474    0.1825135  -2.52  0.001505787    2.046    0.511
       192 -10.2538     40.6832     33.7326   9.3656839601e+01   6.6276451163e+01    0.3327061    0.2704221 -27.53  0.002105812    1.069    0.065
       193 -10.9906    174.9588     35.2108   5.5108474947e+01   3.7155101500e+01    0.4998627    0.2981006   0.01  0.001949698    2.442    0.591
       194 -10.0322    189.0980     35.8203   5.3175723063e+01   3.3347654584e+01    0.2324985    0.1919102 -63.88 0.0005500875    1.242    0.195
       195  -9.1673    110.5570     35.9956   6.9004577878e+01   5.3401497015e+01    0.2259275    0.1391641 -31.51  0.000540757    1.570    0.363
       196  -9.6043     94.9315     35.4758   7.3380824631e+01   5.6924310462e+01    0.2627772    0.1880341 -46.23 0.0007857205    1.521    0.343
       197  -9.7912    150.1232     34.4711   5.9216582791e+01   4.3808153753e+01    0.2530392    0.2096862 -25.79 0.0003778346    1.210    0.174
       198  -8.1713    114.6933     33.7097   6.6948457427e+01   5.2781657095e+01    0.1512333    0.1092833  20.06 0.0002982177    1.576    0.365
       199  -9.3465    236.0085     31.9060   4.6509503172e+01   2.2102359020e+01    0.3706425    0.1393927  55.12  0.001452982    2.849    0.649
       200  -8.3362    203.7661     31.9779   5.0059479135e+01   3.0030295563e+01    0.1875625    0.1175398 -27.35 0.0003543275    1.556    0.358
       201  -9.6332    179.7149     29.4004   5.2478409581e+01   3.6635275432e+01    0.2656561    0.1225408  54.54 0.0007190328    2.103    0.525
       202 -10.2375    182.9451     26.4611   5.1069793425e+01   3.6137227359e+01     0.379065    0.2519853  77.91  0.001767665    1.578    0.366
       203  -9.6406    120.0861     27.2040   6.2896940038e+01   5.2398305153e+01    0.3981852    0.2029173  40.41  0.000875651    2.079    0.519
       204  -9.6282     23.0970     29.0148   1.0025715073e+02   6.9026085980e+01    0.2406732    0.1944896 -62.30  0.001579685    1.375    0.273
       205 -10.1336    195.9142     25.5970   4.9108932163e+01   3.2832868805e+01    0.2645032    0.2450351  10.94 0.0007849214    1.203    0.169
       206 -10.4894    151.8094     24.9465   5.5424590053e+01   4.4585753613e+01     0.836315    0.2283838  64.66  0.002496558    3.635    0.725
       207 -10.6382    163.7714     22.5113   5.2560542979e+01   4.1700901321e+01     0.591813    0.2413388  50.15  0.001495515    2.408    0.585
       208 -10.6985    130.7607    206.4931   1.0615505125e+02   1.5031460859e+01    0.5784144    0.2546201  44.95  0.002788315    1.912    0.477
       209  -9.5928    223.4860     20.7504   4.4727705980e+01   2.6412187276e+01    0.3366692    0.2143481 -79.93 0.0009462805    1.715    0.417
       210  -9.4619    207.0590     21.0140   4.6459764109e+01   3.0488571778e+01    0.2066996    0.1908389 -55.78  0.001198612    1.017    0.017
       211  -8.6153    197.3433     21.2969   4.7631084581e+01   3.2958502081e+01    0.1483385    0.1049464  36.44 0.0002627262    1.668    0.400
       212  -8.9763    109.9999     19.9837   6.2306039987e+01   5.5742561633e+01    0.2220699    0.1671082 -54.73 0.0005759007    1.634    0.388
       213 -10.0821    149.6156     17.7187   5.3136665682e+01   4.5996749973e+01     0.362722    0.2713208 -27.66  0.001448332    1.356    0.263
       214  -9.6057     76.4105     17.6290   7.1246737291e+01   6.3327265424e+01    0.2933338    0.2699714  -4.31  0.001820765    1.106    0.096
       215  -9.4034     87.1646     17.6756   6.7692946382e+01   6.1144856711e+01    0.2402522     0.182977 -11.08 0.0005972373    1.256    0.204
       216  -9.2374    141.5113     22.0141   5.6216530809e+01   4.7632996399e+01    0.2075516    0.1935868  49.91 0.0003399692    1.042    0.040
       217  -9.8307    155.2542     16.6219   5.1808300159e+01   4.4623514535e+01    0.3095444    0.2236962  26.47 0.0006984913    1.565    0.361
       218  -8.7357     99.4626     16.4400   6.3482091131e+01   5.8612986890e+01    0.1377654    0.1298133   5.55 4.046735e-05    1.066    0.062
       219 -10.9877     69.0445    218.5252   1.1929021922e+02   2.1923650570e+01    0.3744059    0.2570176  75.30  0.001454504    1.286    0.223
       220  -9.4106    185.6986     13.6830   4.6638690978e+01   3.6838692249e+01    0.2451107    0.1927667  58.66 0.0006282203    1.268    0.211
       221 -10.1922      1.7941    185.8403   1.2988205146e+02   3.5420345900e+01    0.2959692    0.0991969 -69.69   0.00155868    2.648    0.622
       222  -8.7183    144.1581     14.8999   5.3009111475e+01   4.7735397924e+01    0.1996748    0.1612651  27.75 0.0004534811    1.294    0.227
       223  -9.0974     78.0453     13.2681   6.8468466881e+01   6.3577647559e+01    0.1788289    0.1576043  23.60  0.001082549    1.105    0.095
       224 -11.8527      4.4536    168.3406   1.2849737134e+02   3.8783876747e+01    0.5477944    0.2605597  71.48  0.003210702    1.750    0.428
       225  -8.4865     93.2684     10.5914   6.2415923215e+01   6.0678078001e+01    0.1392069   0.09999342 -49.91 0.0001052786    1.758    0.431
       226  -8.3112     25.4896    163.5487   1.2368664100e+02   3.7952342122e+01    0.1186952   0.09187567  82.03 0.0001301719    1.017    0.016
       227 -10.1323     19.0912    159.8176   1.2481907212e+02   3.9363350060e+01    0.1848391    0.1687028 -33.67  0.001364772    1.624    0.384
