#   1 NUMBER                 Running object number                                     
#   2 MAG_AUTO               Kron-like elliptical aperture magnitude                    [mag]
#   3 X_IMAGE                Object position along x                                    [pixel]
#   4 Y_IMAGE                Object position along y                                    [pixel]
#   5 X_WORLD                Barycenter position along world x axis                     [deg]
#   6 Y_WORLD                Barycenter position along world y axis                     [deg]
#   7 A_WORLD                Profile RMS along major axis (world units)                 [deg]
#   8 B_WORLD                Profile RMS along minor axis (world units)                 [deg]
#   9 THETA_WORLD            Position angle (CCW/world-x)                               [deg]
#  10 FWHM_WORLD             FWHM assuming a gaussian core                              [deg]
#  11 ELONGATION             A_IMAGE/B_IMAGE                                           
#  12 ELLIPTICITY            1 - B_IMAGE/A_IMAGE                                       
         1 -14.8846    163.9716     42.2443   7.8164714865e+01   3.8951190451e+01       1.3301     1.109356 -10.02  0.003816815    1.346    0.257
         2 -14.5649    178.1646      9.4003   6.5659038690e+01   3.8967937021e+01     1.110696    0.9865435  69.35  0.003830681    1.038    0.037
         3 -13.7684    194.0429      4.9049   6.2493370658e+01   3.5224169897e+01     1.148371    0.5132034 -87.47  0.004339449    2.843    0.648
         4 -11.3274    133.8276    246.3120   1.2985393623e+02   7.9044535419e+00    0.1501612    0.1137282  43.28 0.0003030709    1.076    0.071
         5 -19.9253     73.0611    170.5663   1.3330370417e+02   3.1552252739e+01     17.31639     7.011721 -67.51   0.07427444    2.517    0.603
         6 -11.0510      8.0000    238.9004   1.5129130693e+02   2.5690601120e+01    0.1274056   0.04548087 -81.72 0.0007364379    2.504    0.601
         7 -11.3431     16.4354    250.1529   1.5042689011e+02   2.2962192430e+01    0.1307797   0.08232216  88.53  0.001025502    1.387    0.279
         8 -12.6643    200.8445    163.2265   1.0295355391e+02   9.1509629429e+00     3.007714     1.030196 -51.89  0.006289052    9.913    0.899
         9 -13.8786    206.4863    178.2661   1.0492063256e+02   5.5655108504e+00    0.8385554    0.6533813 -47.25  0.004612447    1.574    0.365
        10 -12.0770    203.3444    170.7192   1.0401503024e+02   7.3987148966e+00    0.5370325    0.2605713  35.24  0.002244141    2.051    0.512
        11 -12.6700    153.7722    185.7406   1.1726401469e+02   1.4584050061e+01    0.5671331    0.3090551 -66.28  0.002212695    3.223    0.690
        12 -11.2560    153.7712    195.1712   1.1886649034e+02   1.2870946728e+01    0.2971255    0.2301849  62.76  0.001367031    1.402    0.287
        13 -12.4041    116.9521    180.3346   1.2455366557e+02   2.2466876054e+01    0.8089067    0.3778934  65.37  0.002501889    4.626    0.784
        14 -10.5852     25.6330    230.2123   1.4799719397e+02   2.5414764003e+01    0.1582734   0.08238254 -84.67   0.00103814    1.732    0.423
        15 -12.2701    199.5351    179.4878   1.0653441737e+02   6.7207949122e+00    0.3965134    0.2868499 -68.87  0.001680196    2.413    0.586
        16 -13.4499    195.6830    169.5340   1.0530929113e+02   9.1341228473e+00    0.5545416    0.4689827 -43.85 0.0008323658    1.352    0.260
        17 -12.3750    193.6000    164.7551   1.0474431747e+02   1.0376240429e+01    0.3948615    0.3291431  36.73  0.001443288    1.106    0.096
        18 -13.3796    177.0607    169.9519   1.0927294530e+02   1.2851914419e+01    0.5473245    0.4579026 -59.47  0.002952551    1.454    0.312
        19 -14.1881    145.1978    169.9825   1.1631889574e+02   1.9276389421e+01     1.009276    0.6353371  72.11   0.00414624    2.515    0.602
        20 -11.5185    141.4867    174.5054   1.1799161074e+02   1.9103176430e+01    0.2426022    0.2397859 -43.03 0.0007414648    1.131    0.116
        21 -12.8976    137.9044    170.9057   1.1815691539e+02   2.0514362539e+01    0.5868931    0.4661725  57.18  0.002039834    1.222    0.182
        22 -10.2933     11.3309    174.1355   1.4735166383e+02   3.7693802126e+01    0.1621712    0.1030351 -73.61 0.0007896016    1.398    0.285
        23 -11.8621    165.3925    172.1795   1.1223227919e+02   1.4814488859e+01     0.274089    0.2232027  87.83  0.001408751    1.641    0.391
        24 -11.4092    125.8127    171.8497   1.2111682077e+02   2.2610792004e+01    0.3088626    0.2459949 -67.34  0.001133864    1.372    0.271
        25 -10.9455     25.3772    224.9258   1.4775685486e+02   2.6392149349e+01    0.1596321    0.1000832 -78.99 0.0007445049    1.524    0.344
        26 -11.8212    230.1882    166.6958   9.8078696017e+01   2.8039283399e+00    0.3183323    0.1734314 -46.90      0.00141    2.404    0.584
        27 -10.5528    123.0048    165.9309   1.2073678413e+02   2.4367336457e+01    0.2653184    0.1770622  60.48  0.000663778    1.601    0.376
        28 -10.7543     25.8001    164.8357   1.4353492550e+02   3.8365120897e+01    0.2298516    0.1766627 -19.14  0.001458005    2.146    0.534
        29 -10.1950      4.2303    163.3400   1.4812572881e+02   4.0534059619e+01    0.1047504   0.06788125 -63.96 0.0006872335    1.541    0.351
        30 -11.5220    130.0710    161.2220   1.1819509645e+02   2.4021827576e+01    0.2413964    0.2061647  83.60 0.0004797123    1.275    0.215
        31 -10.6166    192.0769    157.9702   1.0361763203e+02   1.1878244254e+01     0.248891    0.1740395  11.96  0.001139403    1.792    0.442
        32 -13.1153    162.0333    153.7418   1.0922578598e+02   1.9045825247e+01     0.537715     0.426513 -85.47  0.001924728    1.708    0.415
        33 -11.7385    139.7725    120.6055   1.0693434114e+02   3.0698851139e+01    0.3367699     0.265585  56.55 0.0009647103    1.304    0.233
        34 -12.2140    134.7047    110.0322   1.0553555636e+02   3.4055820146e+01     1.169764    0.1888921 -45.46  0.002536106    6.395    0.844
        35 -14.0119    135.7912    128.8378   1.0993660958e+02   2.9796653429e+01     2.175647     0.408606 -49.83  0.004753125    6.693    0.851
        36 -14.2428    133.9021    145.6321   1.1415466347e+02   2.6577108149e+01     1.652072    0.4836323 -55.31   0.00436006    5.070    0.803
        37 -12.7159    128.0191    143.1344   1.1508825802e+02   2.8297313773e+01    0.4286761    0.2595345  49.57  0.001713494    1.622    0.383
        38 -11.7123     22.8686    154.8484   1.4331540751e+02   4.0817351276e+01    0.3941742    0.2079469 -75.81  0.002247648    1.583    0.368
        39 -10.0468     22.4157    221.3843   1.4807954764e+02   2.7347895894e+01   0.09919079   0.08098858  76.48 0.0007848692    1.218    0.179
        40 -14.1151    144.0482    145.3497   1.1162420274e+02   2.4547330720e+01     1.169015    0.5349845 -60.70   0.00375099    3.588    0.721
        41 -11.6678    174.2921    148.5587   1.0535353487e+02   1.7416547001e+01    0.3672332    0.2835799 -64.93  0.001114727    1.659    0.397
        42 -11.3089    125.0466    243.8014   1.3119929882e+02   9.6765897997e+00    0.1604609    0.1422411 -83.17 0.0007517422    1.362    0.266
        43 -12.1596      5.3329    138.0039   1.4599670213e+02   4.5919895304e+01    0.3909378    0.2366121  60.49  0.001714383    1.616    0.381
        44 -11.6181    111.6347    213.7177   1.3033430707e+02   1.6892560163e+01    0.1888461    0.1545718  69.79  0.000315137    1.155    0.134
        45 -10.8191    172.0448    138.5009   1.0356299761e+02   1.9849852977e+01    0.2360779    0.1463249  46.64  0.000518057    1.543    0.352
        46 -12.5209    160.5621    127.8823   1.0365965946e+02   2.4541333197e+01    0.4488191    0.3618842 -61.03  0.001804281    1.421    0.296
        47 -12.5484    109.0915    209.2548   1.3030570848e+02   1.8127765915e+01    0.4482781    0.3066036  84.78  0.001999263    1.729    0.422
        48 -11.0727     21.7073    241.0444   1.4918902054e+02   2.3941098561e+01    0.1323062   0.08958701  85.24  0.001032103    1.262    0.207
        49 -11.5830    116.4403    212.2413   1.2917050167e+02   1.6375347563e+01    0.2663554    0.1980415 -80.86  0.001322263    1.559    0.359
        50 -10.9834    167.3785    112.5393   9.8199199648e+01   2.6009574040e+01     0.347225    0.2569589  89.79  0.001464172    1.984    0.496
        51 -13.2353     11.8457    205.8328   1.4912783350e+02   3.1306612956e+01    0.3966843    0.2845952  24.02  0.002691723    2.032    0.508
        52 -12.4463    163.6258    202.9139   1.1808319188e+02   9.6983353793e+00    0.4059811    0.2724288  62.55   0.00123125    1.849    0.459
        53 -10.8082    205.3169    110.2517   8.9696262671e+01   1.7383303697e+01    0.3215811    0.2059532  45.36 0.0009229687    1.558    0.358
        54 -13.1279    160.8815    198.1514   1.1786748846e+02   1.1018814496e+01    0.4683591     0.330047 -68.30  0.002409695    2.026    0.506
        55 -11.0024     10.4970    101.8310   1.4082206304e+02   5.3668862393e+01    0.2203759     0.158344  71.25 0.0009380857    1.492    0.330
        56 -12.1442    156.6871    199.6098   1.1898131571e+02   1.1546262512e+01    0.5572641    0.3722107  78.94  0.002543128    2.577    0.612
        57 -10.6893    139.6294    200.5089   1.2270520096e+02   1.4506117470e+01    0.3146969    0.2017875  44.96 0.0007764059    1.328    0.247
        58  -9.8967    138.9997    249.9847   1.2931790722e+02   6.5425164239e+00    0.1618807    0.1240031  24.09 0.0006054245    1.501    0.334
        59 -14.4501    152.6619     56.8421   8.5208878092e+01   3.9759862456e+01     1.457862      1.15896  43.64  0.003442322    1.218    0.179
        60  -9.9340    160.2932    246.8239   1.2503508543e+02   3.5609104963e+00    0.1397674    0.1074829 -30.45  0.000725879    1.745    0.427
        61 -13.0782    168.0190     34.0682   7.4822387029e+01   3.8947630570e+01    0.4586297    0.4193791  34.31 0.0008912166    1.138    0.121
        62 -11.1241     13.5258     59.9665   1.3260432191e+02   6.2708474525e+01    0.1762608    0.1605562  56.95 0.0004223828    1.397    0.284
        63 -10.4842    142.2941     33.0393   7.9441235482e+01   4.5821176023e+01     0.244134    0.1982812 -87.72 0.0006840715    1.460    0.315
        64 -11.0930     99.8949    200.1725   1.3109869609e+02   2.1340216580e+01    0.2265872    0.1369465  59.91 0.0004689927    1.591    0.372
