#   1 NUMBER                 Running object number                                     
#   2 MAG_AUTO               Kron-like elliptical aperture magnitude                    [mag]
#   3 X_IMAGE                Object position along x                                    [pixel]
#   4 Y_IMAGE                Object position along y                                    [pixel]
#   5 X_WORLD                Barycenter position along world x axis                     [deg]
#   6 Y_WORLD                Barycenter position along world y axis                     [deg]
#   7 A_WORLD                Profile RMS along major axis (world units)                 [deg]
#   8 B_WORLD                Profile RMS along minor axis (world units)                 [deg]
#   9 THETA_WORLD            Position angle (CCW/world-x)                               [deg]
#  10 FWHM_WORLD             FWHM assuming a gaussian core                              [deg]
#  11 ELONGATION             A_IMAGE/B_IMAGE                                           
#  12 ELLIPTICITY            1 - B_IMAGE/A_IMAGE                                       
         1 -13.6065      3.5664     49.8221   1.4005817569e+02   6.7852799642e+01     1.507627    0.6427463 -85.05   0.00124659    2.295    0.564
         2 -15.1112      5.1844    135.9895   1.4635710834e+02   4.5751516606e+01     8.029113     1.618369 -88.51   0.02391303    5.074    0.803
         3 -13.3990    199.3958     29.0076   6.3860273833e+01   3.1081816505e+01     1.410698     1.341027 -27.82  0.006891351    1.166    0.142
         4 -13.3311    215.9414     10.9377   5.7552458490e+01   2.9086951267e+01    0.9601452    0.8930459  37.91   0.00529586    1.351    0.260
         5  -9.0485    171.6836    222.6798   1.1305720318e+02   5.9885225018e+00    0.1252565      0.07989   7.03 0.0007040895    1.659    0.397
         6 -12.0169    247.2903    248.7855   1.0332009998e+02  -6.3474490730e+00    0.5201308    0.2628191  19.03  0.003606016    1.458    0.314
         7 -10.4608     65.2217    248.7724   1.3776879743e+02   1.6191937670e+01    0.2483881    0.1633711  52.79 0.0006996696    1.237    0.192
         8 -12.4313     35.8266    245.2541   1.4348291641e+02   1.9980813429e+01    0.5236058    0.4638492  11.30   0.00418044    1.568    0.362
         9 -12.1388      5.8864    228.7422   1.4895652900e+02   2.5698908635e+01    0.6202344    0.4352669 -54.96  0.004387554    2.121    0.528
        10 -12.6277      6.5383    247.4776   1.4918681528e+02   2.2389274531e+01      1.02849    0.4108662  38.41   0.00648445    1.648    0.393
        11 -12.2794     11.1164    239.2091   1.4814885100e+02   2.3388411168e+01    0.5635352    0.1750598  38.79  0.003075612    1.975    0.494
        12 -11.3727     97.6019    247.0339   1.3104615537e+02   1.2533006158e+01    0.3367442    0.2392731  69.73  0.002280953    1.708    0.414
        13  -9.5705     88.5169    249.4893   1.3309334867e+02   1.3291166300e+01      0.11775   0.08381998  39.90 -5.773696e-05    1.009    0.009
        14 -10.3417     81.8426    249.1326   1.3442433414e+02   1.4164665260e+01    0.1893229    0.1163068  48.31   0.00124104    1.294    0.227
        15 -10.8450     46.0768    248.3186   1.4157902312e+02   1.8396486745e+01    0.2928946    0.1678413  65.59  0.001561676    1.623    0.384
        16 -11.2642    180.7951    246.2734   1.1444701268e+02   1.7273731410e+00    0.2596306     0.157616 -13.68  0.001631392    1.947    0.486
        17  -9.8117    105.0000    245.9341   1.2943467236e+02   1.1754317935e+01    0.1504229    0.0688448 -61.58 0.0008088277    2.987    0.665
        18 -10.8226    125.8537    249.8825   1.2556552739e+02   8.4580825947e+00    0.3349361   0.09050822  34.07  0.001442473    2.601    0.615
        19 -11.1039    215.1255    249.1368   1.0865998118e+02  -2.8107453309e+00    0.2663181    0.1306089  38.41  0.001597476    2.142    0.533
        20 -10.1950     53.1086    238.0697   1.3964560036e+02   1.9357313009e+01    0.1823598    0.1263591  47.11  0.000570243    1.046    0.044
        21 -11.3548    138.6058    248.9368   1.2292181058e+02   6.9127642278e+00    0.3118892    0.2040874 -36.35  0.002055455    2.028    0.507
        22 -11.4770    199.0632    247.3921   1.1124619710e+02  -6.9796405410e-01    0.2702258    0.2212673 -30.64  0.002094136    1.730    0.422
        23  -9.8714      6.7176    215.0351   1.4849177903e+02   2.8178991458e+01    0.1529651    0.1365828  64.41 0.0004566845    1.279    0.218
        24 -12.3966      9.8394    206.9702   1.4761842394e+02   2.9486351451e+01    0.7567093    0.5038267  19.71  0.002918145    1.726    0.421
        25  -8.6832    152.5093    213.0128   1.1565628901e+02   1.0211531966e+01    0.1537338    0.1261688 -34.56  0.000348895    1.461    0.316
        26 -11.8036     92.7333    227.7006   1.3041911167e+02   1.6315166299e+01    0.5439469    0.1226026  39.33  0.002119752    2.916    0.657
        27 -10.5449     54.4059    204.3608   1.3727651081e+02   2.5519587046e+01    0.4529599    0.1483608  49.23   0.00194055    2.501    0.600
        28  -9.3476     34.8801    202.6470   1.4176967120e+02   2.8010622261e+01    0.1716911    0.1210233  45.71 0.0004307433    1.122    0.109
        29 -11.5982     57.2324    197.4115   1.3608100914e+02   2.6611387824e+01    0.2736937     0.247394 -86.99 0.0005453355    1.258    0.205
        30  -9.1171    192.4638    193.9508   1.0445395389e+02   6.9925254083e+00    0.1556357     0.115251 -62.90  0.000809337    2.665    0.625
        31 -11.7975     63.8683    189.0540   1.3372600773e+02   2.7564947562e+01    0.2539905     0.242708  47.19  0.000419962    1.197    0.165
        32 -12.3049     14.0318    122.3971   1.4274140811e+02   4.8620139024e+01    0.6994064    0.3091168  45.32   0.00283671    2.102    0.524
        33  -8.1435    221.3567    213.6874   1.0236609617e+02   3.2472394340e-01     0.100705    0.0878022  35.88 0.0007043933    1.739    0.425
        34 -13.1420     61.2224    174.1531   1.3300513410e+02   3.1197287623e+01      0.51676    0.2981667 -45.59  0.002002275    2.288    0.563
        35 -10.6608     74.7250    176.3783   1.2960548402e+02   2.8917190763e+01    0.2443473    0.2091226  53.80 0.0003092922    1.024    0.023
        36  -9.4020     93.7386    171.0298   1.2381746277e+02   2.7334918396e+01    0.2500146    0.1671015  54.29 0.0004708534    1.471    0.320
        37 -11.7494     82.5046    167.2767   1.2637382779e+02   2.9871521734e+01    0.6257247    0.6087209 -25.94  0.003201674    1.212    0.175
        38 -13.8792     34.4213    223.8750   1.4289091217e+02   2.3912642256e+01    0.8129027    0.5402488  46.37  0.002434525    1.105    0.095
        39  -9.9324     95.5916    151.9647   1.2040087005e+02   3.1386117975e+01    0.3018917    0.2942064  51.97 0.0007796895    1.078    0.072
        40  -8.9843     98.9073    147.8224   1.1873586716e+02   3.1803562186e+01    0.2138646    0.1977275   1.83 0.0004990457    1.214    0.176
        41 -11.8600     84.2728    150.7207   1.2350459082e+02   3.3487832430e+01    0.3013653    0.2643915 -42.83 0.0005007625    1.303    0.233
        42 -12.0943     67.2164    143.4453   1.2759890516e+02   3.7766626363e+01     0.783816    0.4108528  53.02  0.003324943    1.959    0.489
        43  -9.4482    108.4716    136.9557   1.1389796975e+02   3.2663992384e+01    0.4143869    0.2722025 -16.94  0.001616014    2.538    0.606
        44 -13.6183     44.4028    212.9203   1.4014048853e+02   2.4946854782e+01     2.055065    0.9344618  38.88   0.01108528    1.634    0.388
        45 -10.3904     95.2850    134.2268   1.1731685278e+02   3.5678743675e+01    0.2616782    0.2475453   7.49 0.0003888348    1.156    0.135
        46 -10.7507     26.3783    128.7786   1.3910544770e+02   4.6061857593e+01    0.2755827    0.2022734  54.45 0.0006542586    1.269    0.212
        47  -8.9087    105.9321    123.6978   1.1185005994e+02   3.6285103641e+01    0.2114933    0.1844041  43.38 0.0003023367    1.094    0.086
        48  -9.8034    167.5690    112.5910   9.2677457320e+01   2.5570196092e+01    0.2956814    0.2598616 -77.06 0.0008434167    1.397    0.284
        49 -12.7539     29.1675    230.6754   1.4427423479e+02   2.3195829011e+01     0.274427    0.2518489  54.96 0.0007306247    1.318    0.241
        50 -10.6646    242.8128     92.8469   7.4983491338e+01   1.3154340814e+01    0.3188528    0.1305287  39.26  0.001281901    3.413    0.707
        51  -9.8362     62.0238     79.4036   1.1680565610e+02   5.5049169035e+01    0.4185602    0.2089009  46.28  0.001498934    2.228    0.551
        52  -9.7346    159.0215     77.5138   8.4801588129e+01   3.4156187141e+01    0.2391271    0.1542677  54.98 0.0005640907    1.552    0.356
        53  -8.2697     54.6773     74.2672   1.1865445239e+02   5.7408311186e+01    0.1473486    0.1119167  63.36 0.0003473865    1.564    0.361
        54 -12.8344    114.6191    231.3428   1.2602799033e+02   1.2758189817e+01     1.242667     0.109142  36.78  0.003568772    5.358    0.813
        55  -9.4979    228.5052    228.0172   1.0335956897e+02  -2.1829913911e+00    0.1210072   0.09677763 -46.94 0.0008101396    2.518    0.603
        56 -11.4938    163.0143    249.1165   1.1816746411e+02   3.6821082645e+00    0.3311754    0.1485455  34.03   0.00186318    1.632    0.387
        57 -11.4602    150.5891    248.5391   1.2051253334e+02   5.3851733308e+00    0.2880371     0.204054   7.83  0.001720151    1.442    0.306
