#   1 NUMBER                 Running object number                                     
#   2 MAG_AUTO               Kron-like elliptical aperture magnitude                    [mag]
#   3 X_IMAGE                Object position along x                                    [pixel]
#   4 Y_IMAGE                Object position along y                                    [pixel]
#   5 X_WORLD                Barycenter position along world x axis                     [deg]
#   6 Y_WORLD                Barycenter position along world y axis                     [deg]
#   7 A_WORLD                Profile RMS along major axis (world units)                 [deg]
#   8 B_WORLD                Profile RMS along minor axis (world units)                 [deg]
#   9 THETA_WORLD            Position angle (CCW/world-x)                               [deg]
#  10 FWHM_WORLD             FWHM assuming a gaussian core                              [deg]
#  11 ELONGATION             A_IMAGE/B_IMAGE                                           
#  12 ELLIPTICITY            1 - B_IMAGE/A_IMAGE                                       
         1 -12.3812     60.5013     45.4501   9.9408232634e+01   5.9625456577e+01    0.9681646    0.4331713 -46.01  0.004420296    1.929    0.482
         2 -12.4900    129.7057     13.1281   6.6168241435e+01   5.0971953584e+01     1.652429    0.8723973  75.54  0.006438667    2.692    0.628
         3 -12.2920    119.3330     58.3694   8.5734157998e+01   4.6917231861e+01     1.420129     1.231564 -75.59  0.007628974    1.447    0.309
         4 -12.4739    124.3144     26.8232   7.2893257044e+01   5.0642412702e+01     1.315405    0.7859322 -19.35  0.004279542    1.707    0.414
         5 -12.9752    120.1939     38.8658   7.8570257241e+01   4.9894259527e+01    0.8742409    0.5876184 -60.98  0.002504228    2.211    0.548
         6 -11.7198    198.8182     27.7997   5.9615059015e+01   3.1379298891e+01    0.6496823    0.4384435   3.16  0.001396865    1.694    0.410
         7 -10.6769    186.5132     15.1198   5.7250404899e+01   3.5941228765e+01    0.3710362    0.2575363  43.53 0.0007113004    1.409    0.290
         8 -11.6153    182.4741     25.2129   6.1145280666e+01   3.5986057732e+01     0.855785    0.3443259  44.81  0.002726099    2.510    0.602
         9 -11.6605    186.8376      9.6575   5.5423091015e+01   3.6364523160e+01    0.6652885    0.3479766 -63.18  0.002146886    2.728    0.633
        10 -11.8532    192.3589      7.3499   5.3994708340e+01   3.5093532160e+01    0.8264494    0.4845124  32.20  0.003648281    1.901    0.474
        11 -11.5875    178.2714     21.3169   6.0486701609e+01   3.7519267246e+01    0.7971113    0.4208671  26.57   0.00240167    2.410    0.585
        12 -11.8067    154.4075     24.2605   6.5539859287e+01   4.3487472653e+01    0.9566346    0.6545293  25.65  0.004457551    1.564    0.361
        13 -11.0634    139.1493     32.1801   7.1552876708e+01   4.6372210120e+01    0.7190577     0.669377  26.48  0.003772476    1.031    0.030
        14 -10.4697    145.4480     16.3883   6.4295346066e+01   4.6667248931e+01    0.4331506    0.2995983  62.18  0.002094177    1.446    0.308
        15 -11.3867    140.3115     20.4837   6.6874758752e+01   4.7520687976e+01     1.128988    0.3257752  47.42  0.003632787    3.147    0.682
        16 -12.3127    104.9078     12.8855   7.1926895331e+01   5.6796382412e+01    0.5763858    0.4043205 -24.07  0.002025204    1.373    0.272
        17 -12.6581    113.5000     24.7382   7.4741751686e+01   5.3399216231e+01    0.9680991    0.4164333  57.48   0.00194735    2.543    0.607
        18 -11.9179     26.5182     27.6933   1.0650536777e+02   6.6855103843e+01    0.5079874     0.427042  33.01  0.003643948    1.504    0.335
        19 -11.7105     22.8417     11.0591   1.0162144174e+02   7.0233133484e+01    0.4892455    0.3363999 -11.85  0.002313995    1.529    0.346
        20 -12.4374     18.8028     22.7066   1.0814436867e+02   6.8456696609e+01    0.7177455    0.5206928  31.12   0.00376618    1.739    0.425
        21 -12.7690     15.6786     13.7783   1.0624087267e+02   7.0364785399e+01    0.7923433     0.458941 -36.79  0.002878049    1.406    0.289
        22  -9.7096     87.2119      7.4445   7.4385008296e+01   6.1165526522e+01    0.5955271    0.3601197  45.31  0.002630624    1.631    0.387
        23 -11.4573     90.8892     20.2915   7.9187564859e+01   5.8777776998e+01    0.5929198    0.4121647 -19.31  0.002783191    1.353    0.261
        24 -10.7081     42.0066      3.8557   8.9187109677e+01   6.9232803081e+01    0.5117901    0.2263007 -23.23  0.002271537    2.675    0.626
        25 -10.5696     35.2616      9.0548   9.4845250039e+01   6.9268554215e+01    0.3705081    0.1734462  44.65  0.001816659    3.131    0.681
        26 -10.7778     47.0927     18.7880   9.4205663839e+01   6.6209889646e+01    0.3609318    0.2412031 -35.71  0.001258318    1.249    0.199
        27 -10.0530     38.6342     21.4551   9.8904992137e+01   6.6776110411e+01    0.4655934    0.1603952 -44.01  0.002058629    2.352    0.575
        28 -11.7371     35.8650     17.8674   9.8590894417e+01   6.7716941966e+01     0.610426    0.2096003 -39.22  0.002194334    2.506    0.601
        29 -12.4119     47.4375     13.0069   9.1413398604e+01   6.7107841805e+01    0.7674899    0.3840203  35.62  0.004015681    2.241    0.554
        30 -12.2309     69.6489     18.3683   8.5326921795e+01   6.2930902420e+01    0.6393702    0.4218834  48.92  0.002985518    1.822    0.451
        31 -12.1791    237.4424     15.7680   5.1687980906e+01   2.2707694343e+01    0.6349944    0.4766231  29.48  0.003426889    1.474    0.322
        32 -11.0643    244.5747     16.2929   5.1170677360e+01   2.0932643116e+01    0.3802093    0.2321277 -17.21  0.001733821    1.624    0.384
        33 -10.2097    206.5943     18.1049   5.5637259718e+01   3.0327325502e+01    0.4532467     0.199579 -40.92  0.001769837    2.327    0.570
        34 -11.1359    165.2800     17.3295   6.1154319832e+01   4.1387648397e+01    0.5020615    0.2730076  36.11  0.001357768    1.958    0.489
        35  -9.9058    225.6211     16.1949   5.2968712686e+01   2.5607588469e+01    0.3385207    0.2046449 -21.69   0.00161421    1.620    0.383
        36 -10.2417    223.2015     11.9432   5.2007078604e+01   2.6615226415e+01     0.573714    0.1798392  66.97  0.002021353    2.962    0.662
        37 -10.9521     66.1890     10.2979   8.2752285218e+01   6.4677659968e+01    0.5023076    0.2252839  40.13  0.002344066    2.337    0.572
        38 -10.3437     62.9047      6.4471   8.2035967894e+01   6.5749829749e+01    0.2879373    0.2160018   2.28  0.001220526    1.248    0.199
        39 -11.7111    211.6811     10.0319   5.2639811982e+01   2.9753452920e+01    0.5061539    0.3218203  14.71  0.001229614    1.892    0.471
        40  -9.9966    157.3079      9.9682   5.9799995109e+01   4.4220995556e+01     0.458834    0.1429267 -29.22  0.001566593    2.968    0.663
        41 -10.3204    152.4789      6.7125   5.9382488916e+01   4.5792360902e+01     0.419169    0.3219139  45.72   0.00217337    1.203    0.169
        42 -11.4927     86.0814     14.2036   7.7918016310e+01   6.0544574673e+01    0.6330236    0.3637509 -18.29  0.002065198    1.730    0.422
        43  -9.9754     31.9703     12.0836   9.7778921090e+01   6.9137108559e+01    0.1739955    0.1444551 -32.57 0.0004798167    1.124    0.111
        44 -11.2929      3.1708      1.8104   1.0770385747e+02   7.3412489091e+01    0.3564367    0.1815443   6.47  0.002127944    2.537    0.606
        45 -10.2565      4.6693     10.3026   1.1038016019e+02   7.1781904180e+01    0.3061952    0.1649998 -33.79  0.001858285    1.634    0.388
        46  -9.5792      5.2041      5.6957   1.0826433706e+02   7.2587175909e+01    0.2469728    0.1119771 -51.49  0.001139166    1.654    0.395
        47 -10.8114    169.4222      9.7371   5.7840245985e+01   4.1022866327e+01    0.4037043    0.2251451  42.16  0.001748175    1.760    0.432
        48 -11.7204    246.4013      7.7309   4.8763073287e+01   2.1273735425e+01    0.8054973    0.3883902  64.71   0.00372608    2.050    0.512
        49 -11.1483    238.1238      6.7762   4.9199906324e+01   2.3354339570e+01    0.5156173     0.270335  87.16  0.002292346    2.227    0.551
        50 -10.4740    241.2851      3.9086   4.8173934073e+01   2.2833901056e+01     0.360872     0.200329  74.36  0.001154399    1.844    0.458
        51  -9.3305    162.6102     10.2304   5.9048640385e+01   4.2792475181e+01    0.2195281    0.1591507  33.42 0.0006035278    1.367    0.269
        52  -9.8892    162.9562      5.8649   5.7425582226e+01   4.3096077826e+01    0.2722977    0.2096394   1.57 0.0005721803    1.356    0.263
        53 -10.0395      1.3037      7.2497   1.1096022686e+02   7.2547493386e+01    0.1798309    0.0731559 -53.87 0.0002680853    1.788    0.441
        54  -9.5415     82.1908      1.2903   7.2876005981e+01   6.2866312679e+01    0.2184396    0.1179406  58.91 0.0004148145    2.236    0.553
        55 -11.3478     77.0249      5.4433   7.6595500613e+01   6.3383750775e+01    0.5260404    0.4769675   2.72   0.00339998    1.133    0.118
        56  -9.7280    202.3666      5.7033   5.2336891778e+01   3.2577556067e+01    0.3088906    0.1832732 -43.68   0.00113453    1.755    0.430
        57 -11.1772    204.9848      2.3574   5.1040509840e+01   3.2169345199e+01    0.5311869    0.3012254  81.47  0.001326301    1.876    0.467
        58 -10.7522    174.7697      4.8325   5.5390024141e+01   4.0025211444e+01    0.6453055    0.3162567  82.44  0.002467706    2.511    0.602
        59  -9.4983     50.7297      6.6615   8.6917821055e+01   6.7610936362e+01    0.1460614    0.1138199  41.17 0.0005197779    1.572    0.364
        60 -11.2045    218.8714      2.7520   4.9798095956e+01   2.8525960706e+01     0.327317    0.3153361 -46.65  0.001084924    1.034    0.033
        61 -11.2735    223.9833      1.7214   4.9040825500e+01   2.7308167364e+01    0.8034738    0.3836457 -80.10  0.003115297    2.858    0.650
        62 -10.6713    141.9631      3.5570   5.9957664301e+01   4.8808810264e+01    0.3681796    0.3432133 -80.89  0.002110165    1.231    0.187
        63  -9.5840    122.8978      1.3087   6.2650022214e+01   5.3797587477e+01    0.3834079    0.1246623  62.62  0.001246337    2.968    0.663
        64 -10.0912    117.7485      2.4073   6.4212882154e+01   5.4942102240e+01    0.3458963    0.1999733  45.34  0.000902714    1.573    0.364
        65 -10.8356    111.6718      2.1525   6.5458462788e+01   5.6400891298e+01    0.5614628    0.1862542  54.64  0.002119314    2.614    0.617
        66 -11.3343    105.4180      1.7207   6.6741572843e+01   5.7880001796e+01    0.5417773    0.3686386  75.72  0.001913674    1.962    0.490
        67 -10.0348     29.6326      3.0162   9.4479341741e+01   7.0873405831e+01     0.288248    0.1596188 -54.66   0.00146506    2.647    0.622
        68 -10.9886    158.2086      2.5591   5.6936229676e+01   4.4641131177e+01    0.5309392     0.302385  55.52   0.00240867    1.578    0.366
        69 -12.0430    133.7968      2.6204   6.1062954473e+01   5.0974167620e+01    0.4135982    0.2760674  55.20 0.0005598078    1.389    0.280
        70  -9.2556     55.4819      4.4726   8.3867015048e+01   6.7205765064e+01    0.1247274     0.104507 -15.50 1.539517e-05    1.095    0.086
        71  -9.6057    183.2885      2.2854   5.3444560187e+01   3.7951840557e+01    0.3034416    0.1783043 -56.78  0.001312685    2.050    0.512
        72 -10.0162     13.6662      2.2309   1.0220240473e+02   7.2560619233e+01    0.2630662    0.1601919 -20.37  0.001674272    1.624    0.384
        73 -10.6701    229.7637     27.4463   5.5694401661e+01   2.3463689741e+01    0.4045425    0.2294271 -32.22  0.001478074    1.657    0.397
        74 -11.7145    104.6109    121.4256   1.0616538551e+02   3.7546690760e+01    0.4260282    0.3880244 -79.20  0.001446035    1.078    0.072
        75  -9.2536     84.5047    123.4827   1.1141441987e+02   4.0269852321e+01    0.1244332    0.1147865 -87.21 0.0008103242    1.022    0.021
        76  -9.2484    203.3493    121.3248   8.4992643005e+01   1.7688995285e+01    0.1538799    0.1011381  19.07 0.0007049025    1.752    0.429
        77  -9.6261    221.4888    120.5157   8.1604350204e+01   1.3899991968e+01    0.1400567     0.125238  14.95 -2.444825e-06    1.036    0.035
        78  -9.6353    148.1892    119.8360   9.5758533970e+01   2.9719960694e+01    0.1943784     0.165445   8.03 0.0005061883    1.336    0.251
        79  -9.5937     72.8617    119.8132   1.1364303188e+02   4.2647312511e+01    0.1751559    0.1629985 -41.22 0.0005367701    1.261    0.207
        80 -10.8078     34.3125    119.0276   1.2309042035e+02   4.7186168868e+01    0.1837804    0.1516789 -41.19 0.0008305711    1.524    0.344
        81  -8.7916     81.3348    117.3246   1.1109331584e+02   4.1987409133e+01    0.1241159   0.09828997 -24.66  0.000705111    1.713    0.416
        82  -9.7641    113.8244    115.9523   1.0281990358e+02   3.7041689718e+01    0.1953053    0.1816636 -10.85 0.0003788454    1.227    0.185
        83 -10.5874     67.1471    112.0839   1.1376006487e+02   4.5002580666e+01    0.4464618      0.23746 -66.66   0.00228371    1.826    0.452
        84 -10.4093     35.5550     93.1148   1.1908624265e+02   5.2521088541e+01     1.424949    0.6988717 -79.15  0.006885501    2.213    0.548
        85 -12.3897     40.0580     85.6701   1.1648005765e+02   5.3677333121e+01     1.817173    0.3891922  28.44  0.006156061    6.002    0.833
        86 -12.0720      9.6816     96.8721   1.2677395673e+02   5.3783379699e+01    0.9891845    0.5636861  73.12  0.006118085    1.857    0.462
        87 -12.0821      7.3885     88.9025   1.2646032028e+02   5.5598433102e+01    0.4402632    0.3662993  76.64  0.001057997    1.220    0.180
        88 -11.9482     18.8132    106.1609   1.2544750832e+02   5.1188068029e+01    0.2975119    0.1726795 -58.55 0.0002366124    1.552    0.356
        89 -11.3454     21.5083    114.2073   1.2568494731e+02   4.9304752157e+01    0.3292265    0.2484789  -1.76  0.002047392    2.049    0.512
        90 -11.5658     28.4832    113.0193   1.2380338610e+02   4.8962325268e+01    0.3622984    0.2761078  13.91  0.001235153    1.841    0.457
        91 -12.7796     25.7395    107.3344   1.2379835932e+02   5.0384141974e+01    0.9080644    0.6171212 -34.86  0.004893637    2.002    0.500
        92 -12.8150     17.9079     90.3464   1.2367738532e+02   5.4576984384e+01    0.3277239    0.2425714 -66.52 0.0005075323    1.119    0.106
        93 -11.7439     18.9794     95.9708   1.2413765395e+02   5.3310671303e+01    0.4042902    0.2558993  75.70 0.0008055992    1.660    0.398
        94 -11.3842     23.3494     94.8082   1.2277293906e+02   5.3216108888e+01    0.3843476    0.2383311 -81.85  0.001612915    1.438    0.305
        95 -10.5067    107.9184    112.4591   1.0350594420e+02   3.8768371470e+01    0.4598384    0.2929184 -88.22  0.001735992    2.754    0.637
        96 -11.1400    102.6964    108.1118   1.0386072863e+02   4.0532801652e+01    0.5397827    0.4435227 -20.85   0.00132262    1.509    0.337
        97 -11.4382      2.4041    112.2145   1.3016900619e+02   5.1099164963e+01     0.290028    0.2086972  82.69 0.0007526938    1.159    0.138
        98 -11.9478      4.0429    105.4934   1.2914965448e+02   5.2366332619e+01    0.4974252     0.302606  88.54  0.001658813    1.389    0.280
        99 -11.1763    170.7711    110.1417   8.8618852508e+01   2.6586035631e+01    0.5200197    0.3781625  36.88  0.001992794    1.339    0.253
       100  -9.6661     87.5414    114.1929   1.0894530996e+02   4.1718871339e+01    0.2749089     0.153759  56.10  0.001322153    2.066    0.516
       101 -11.1903     87.2469    104.6031   1.0707762542e+02   4.3737902556e+01    0.6726218       0.3894  25.30   0.00222414    2.446    0.591
       102 -10.2521     82.5185    111.5176   1.0970245791e+02   4.3014350519e+01    0.2294357    0.2109745  83.09 0.0008190846    1.055    0.052
       103 -10.9237     78.5374    108.2092   1.1008792103e+02   4.4273084705e+01     0.433621    0.3121676  34.26  0.001954917    1.557    0.358
       104  -9.8143     48.9085    112.1641   1.1847773544e+02   4.7143071448e+01    0.1864703    0.1448798  78.61  0.001212793    1.263    0.208
       105 -10.0039    130.0218    108.5034   9.7261544669e+01   3.5449479051e+01    0.2346446    0.1897513 -44.71  0.001275174    1.259    0.205
       106  -9.9951    120.0080    109.0294   9.9783426798e+01   3.7267061589e+01    0.2132085    0.1712248  -3.58 0.0006818661    1.641    0.391
       107 -10.6200    157.7863    105.8072   9.0287395387e+01   3.0170494926e+01    0.3612605    0.2702549  -4.38   0.00138113    1.680    0.405
       108 -10.4628    143.4928    106.2072   9.3572220968e+01   3.3148215662e+01    0.2875649    0.2529827  53.10  0.001074713    1.140    0.123
       109 -11.7675    145.5123    100.4613   9.1659519810e+01   3.3763859784e+01    0.5818687    0.4285763 -19.32  0.002501736    1.598    0.374
       110 -10.3839    180.2785    102.6515   8.4791336177e+01   2.5668857867e+01     0.625539    0.4152302 -89.73  0.002382013    3.106    0.678
       111 -11.5687     47.9510    103.4017   1.1734715573e+02   4.9094278702e+01    0.3704556    0.2431386 -31.18 0.0001257729    2.178    0.541
       112 -10.0765     52.5263     96.4952   1.1489052869e+02   5.0057092055e+01    0.3393232    0.1371876 -57.26  0.001448164    2.093    0.522
       113 -10.1873    246.0050    103.7468   7.3683854096e+01   1.0822056185e+01    0.1779746    0.1138648  49.87 0.0008940496    1.592    0.372
       114  -9.2636     82.0660    102.7062   1.0804575159e+02   4.4908006904e+01    0.1711882    0.1646572  83.55 0.0004893205    1.068    0.064
       115 -10.4881     57.5079    102.0260   1.1452433545e+02   4.8308688990e+01    0.2560352    0.1581991 -75.58 0.0008497175    1.653    0.395
       116 -10.3124     57.3335     97.6971   1.1377502519e+02   4.9246632188e+01    0.2822238    0.1923027 -82.57  0.001073093    1.579    0.367
       117  -9.4259    194.6071    101.7978   8.1800693179e+01   2.2518292506e+01     0.206357    0.1331358 -40.15 0.0008560621    1.660    0.397
       118 -11.4976     67.8774     96.9070   1.1069603120e+02   4.8098701996e+01     0.525424    0.3044175 -50.62 0.0008619422    1.607    0.378
       119 -11.3959     89.7623     89.5491   1.0296860867e+02   4.6444500534e+01    0.6091295    0.3497258 -33.76   0.00277611    2.177    0.541
       120 -10.0356     66.7896     73.7642   1.0570652257e+02   5.3098422231e+01    0.4354534    0.2200181 -61.31  0.002012514    2.076    0.518
       121 -10.3000     78.0379     96.9959   1.0791649588e+02   4.6683882777e+01    0.3698668    0.1915141 -60.28   0.00144705    1.897    0.473
       122 -11.1862     81.2428     92.7777   1.0609385807e+02   4.7094617934e+01    0.6174634     0.477677  55.85  0.002800299    1.415    0.293
       123 -11.1248     66.7194     81.9116   1.0773600616e+02   5.1408581817e+01    0.3806995    0.3075042  29.10  0.002343861    1.430    0.301
       124 -11.2691     73.3788     77.6510   1.0470032146e+02   5.1380182876e+01    0.5284293    0.3994411 -27.62  0.003004115    1.517    0.341
       125 -10.0490    210.0680     97.6723   7.7943795194e+01   1.9559055816e+01     0.298985    0.2343965   4.66  0.001544284    1.309    0.236
       126  -9.4062    190.5108     96.0636   8.1075864822e+01   2.4332451014e+01    0.2280026    0.1444078 -29.32  0.001035979    1.599    0.375
       127  -9.2020    183.9862     96.0403   8.2326630317e+01   2.5856592300e+01    0.1811643     0.168716  -0.57 0.0006629859    1.048    0.046
       128  -9.5972    140.7250     96.4403   9.1718111282e+01   3.5510919474e+01    0.2112487    0.1761899   3.09   0.00109902    1.382    0.277
       129 -10.0870    138.1305     93.4103   9.1523854295e+01   3.6614077645e+01     0.359517    0.2410094  26.82  0.001198651    1.814    0.449
       130 -10.0644     42.9665     95.1546   1.1733406077e+02   5.1366041596e+01    0.3003905    0.2315758  30.29  0.001985624    1.554    0.357
       131 -10.7669    117.3098     93.0778   9.6548366911e+01   4.0880022979e+01    0.4768117    0.3231624  28.66  0.001844437    1.758    0.431
       132 -11.0377    122.4045     94.1712   9.5549261851e+01   3.9681063893e+01    0.5170626    0.2820705 -52.26  0.002242086    1.998    0.499
       133 -10.6007    126.3375     93.1360   9.4301971482e+01   3.9097594099e+01    0.3564591    0.3152395  60.50 0.0009349344    1.196    0.164
       134  -9.6113    160.5835     93.6995   8.6515052436e+01   3.1630893942e+01    0.2552351    0.1872406  72.55  0.001180599    1.778    0.438
       135 -11.2570    102.3832     90.5401   9.9786629211e+01   4.4122671495e+01    0.5306974     0.466322 -39.33  0.001733584    1.126    0.112
       136 -10.8446    236.3880     92.1044   7.2248102988e+01   1.4331942429e+01    0.3558437     0.300633 -84.06   0.00132955    1.640    0.390
       137 -10.3680     51.8841     87.8623   1.1341812518e+02   5.1965429433e+01    0.1837769    0.1458083 -50.67 0.0005139111    1.192    0.161
       138 -11.4850    120.1392     85.1661   9.3705570537e+01   4.1849912348e+01    0.6767872     0.489629 -64.12  0.003305759    1.708    0.414
       139 -10.4747    184.1842     86.7401   7.9763305462e+01   2.7249602730e+01    0.4976399     0.262948 -43.47   0.00201543    2.099    0.524
       140 -10.1779    104.6276     76.3602   9.5334510163e+01   4.6518628566e+01    0.3580963    0.3021483 -35.23  0.001905511    1.149    0.130
       141 -10.9926    113.3912     83.5111   9.4997215790e+01   4.3484183151e+01    0.6526534    0.3125843 -35.50  0.002429088    2.325    0.570
       142  -9.3425     67.5005     87.9935   1.0890200449e+02   5.0027198220e+01    0.2002527    0.1120755 -53.76  0.001022518    1.590    0.371
       143 -10.6548    153.0407     91.8136   8.7660711877e+01   3.3653347940e+01     0.484726    0.3220904  37.15  0.002252539    1.548    0.354
       144  -9.8318    212.2087     87.1379   7.4810967997e+01   2.0523687906e+01    0.2333825    0.1870022  14.72 0.0005697287    1.256    0.204
       145 -10.5883    165.4245     83.1585   8.2545638265e+01   3.2271273171e+01    0.4110364    0.3436458 -49.15  0.001662109    1.321    0.243
       146 -11.4555    143.2532     84.0627   8.7733472691e+01   3.7191563659e+01    0.3874826    0.3369043  -2.46  0.002066137    1.227    0.185
       147 -10.6028    127.3224     83.3404   9.1377980430e+01   4.0736634184e+01    0.2858216    0.2657012  -9.54  0.001615774    1.093    0.085
       148 -11.1050     79.5431     82.6969   1.0416118509e+02   4.9437450964e+01    0.6093614    0.4777003 -82.04  0.003123135    1.513    0.339
       149 -11.8703     52.8798     75.7149   1.1050259868e+02   5.4427224063e+01    0.7531847    0.2724868 -58.86  0.003217749    2.450    0.592
       150 -11.6486    242.4809     77.1360   6.7536847098e+01   1.4806940634e+01    0.6076428    0.3697531  76.41  0.002673475    2.433    0.589
       151 -10.9136     58.7580     78.3024   1.0928869248e+02   5.3182822674e+01    0.2651415    0.2325014  38.66 0.0009316728    1.297    0.229
       152  -9.2733    170.5755     77.7918   7.9924880068e+01   3.1907605737e+01    0.2083897    0.1390587 -41.91 0.0005786154    1.581    0.367
       153 -10.8993     94.0133     76.5541   9.8364318877e+01   4.8367715290e+01    0.5307382    0.3743297  34.50  0.001574212    1.556    0.357
       154 -11.8081     85.6874     73.6313   9.9960413491e+01   5.0333084555e+01    0.6405589    0.5891353  67.41  0.003949162    1.221    0.181
       155 -11.7121     78.7122     67.3828   1.0028147293e+02   5.2683304960e+01     1.267025    0.6708376 -58.49  0.005719046    2.120    0.528
       156 -11.6223     91.5379     62.3694   9.4870028782e+01   5.1565941231e+01    0.9768963    0.3717058  46.15  0.003764395    2.911    0.656
       157 -10.6847     91.3276     57.8372   9.3475124126e+01   5.2461545977e+01    0.4766959    0.2959071  54.87   0.00227583    2.012    0.503
       158 -10.6204     87.5752     57.2055   9.4410151580e+01   5.3230919885e+01     1.414809    0.6853551 -62.72  0.004272955    5.205    0.808
       159 -11.8848     74.5698     52.8018   9.7084532847e+01   5.6180540804e+01    0.5978136    0.3570568 -44.51  0.002354807    1.501    0.334
       160 -10.9350     72.8605     47.4004   9.5822349264e+01   5.7466626752e+01    0.8724774     0.602568  70.80  0.003975652    2.593    0.614
       161 -10.3265     20.8321     71.7235   1.1985050436e+02   5.8307068312e+01    0.1804304    0.1587833 -60.42 0.0007782964    1.127    0.113
       162 -11.9665     13.8066     74.6331   1.2256528714e+02   5.8188972725e+01    0.4482002    0.3589931 -47.07  0.003316189    1.291    0.225
       163 -11.7277      1.9851     71.4083   1.2577692207e+02   5.9582800244e+01    0.4866072    0.1482739 -71.16  0.002326725    2.468    0.595
       164 -12.0865      6.2278     62.4272   1.2302043951e+02   6.1230967646e+01     0.637656    0.2905564 -51.83  0.003703511    1.803    0.445
       165 -11.8625     12.7095     62.2110   1.2079321477e+02   6.0881652692e+01    0.2133667    0.1878199 -35.34 0.0002700289    1.293    0.227
       166  -9.3916      5.1598     78.2541   1.2574350179e+02   5.7967864768e+01    0.1428854    0.1067308  83.13 0.0005130538    1.298    0.229
       167 -10.8759     14.3685     66.6110   1.2103566534e+02   5.9845996482e+01    0.2777038    0.2152742 -80.76  0.001001423    1.188    0.158
       168  -9.3262    134.2424     77.3930   8.7944816123e+01   4.0354230254e+01    0.1984793    0.1409777  59.56 0.0005100387    1.584    0.369
       169  -9.7928    126.8571     76.8374   8.9610690635e+01   4.2032400546e+01    0.2153064    0.1939564   2.67 0.0003914662    1.158    0.136
       170  -9.0159     46.9885     77.2109   1.1267204710e+02   5.4766189648e+01    0.1438678    0.1001901  32.05 0.0008611285    1.685    0.406
       171 -12.4834    185.9321     69.4094   7.4468389873e+01   2.9414017220e+01     1.102411    0.6446583 -39.06  0.003649756    1.765    0.433
       172 -11.2996    109.2933     80.4566   9.5232733190e+01   4.4853998465e+01    0.3336116    0.3167269 -27.92  0.001036311    1.030    0.029
       173 -10.2537    230.4564     73.4797   6.8288463325e+01   1.8016942808e+01    0.3177143    0.2004981 -60.08   0.00135955    2.359    0.576
       174  -9.1314    197.4902     74.5085   7.3862852911e+01   2.5827833406e+01    0.1529979    0.1388367  16.79 0.0008100359    1.051    0.048
       175 -11.6350     40.4091     71.3198   1.1346485654e+02   5.6693113284e+01    0.5565155    0.2991296 -54.96  0.003076552    1.528    0.346
       176 -11.3011     33.6838     71.9877   1.1577314311e+02   5.7189721465e+01     0.477254    0.2343104  32.86  0.002593382    2.370    0.578
       177  -9.2930    151.2266     73.6079   8.2828846837e+01   3.7180375963e+01    0.2167667    0.1340003  41.12 0.0005182388    1.632    0.387
       178  -9.4916     60.9425     72.9376   1.0731340944e+02   5.4034509159e+01    0.1863871    0.1464706  79.49 0.0005020711    1.599    0.375
       179 -11.0523    162.2969     70.6065   7.9504533089e+01   3.5041086609e+01    0.4311292    0.3723128 -75.36  0.001881011    1.430    0.301
       180 -12.2095    122.7814     68.6809   8.8169048646e+01   4.4368338662e+01     0.595619    0.4640203  48.97  0.001680978    1.328    0.247
       181 -10.3825    200.0086     69.6587   7.2039312548e+01   2.5882790331e+01    0.3081752     0.190555  66.04  0.001329742    1.859    0.462
       182 -12.0310    219.3651     66.3182   6.7984602933e+01   2.1565733135e+01    0.7901868     0.353442  56.57  0.002403283    2.204    0.546
       183 -10.6446    208.9496     67.8610   7.0042226688e+01   2.3915961109e+01    0.4923969    0.2057032  46.59  0.001707079    2.335    0.572
       184 -10.7829    171.9971     67.7815   7.6654531518e+01   3.3110007115e+01    0.4382575    0.3303065 -35.32  0.001711732    1.346    0.257
       185 -10.5378    192.6429     65.8634   7.2211158951e+01   2.8242891562e+01    0.4054061     0.294747 -68.41  0.001647701    1.910    0.477
       186  -9.0093     69.7224     66.7127   1.0289341170e+02   5.4142385293e+01    0.1266065    0.0945126 -25.02 0.0001874489    1.516    0.340
       187  -9.8360     21.4462     65.0904   1.1839759329e+02   5.9663855213e+01    0.2145196    0.1538246  84.81  0.001152633    1.581    0.368
       188  -8.9678     25.7847     65.2539   1.1697669610e+02   5.9290825225e+01    0.2014539    0.1325626 -41.85  0.000852316    1.500    0.333
       189 -10.7915     58.2537     61.6742   1.0519349607e+02   5.6700153724e+01    0.4728063    0.3068324 -59.87  0.002103137    1.487    0.327
       190 -10.2863    142.9370    249.5137   1.1644603166e+02   1.1161571378e+01    0.1668135   0.07376255  44.04  0.001038571    1.608    0.378
       191 -11.1312     60.8650     36.4582   9.6062614168e+01   6.1255894494e+01    0.3421746    0.1878995 -42.18 0.0009102796    1.580    0.367
       192  -9.6274    198.3814     63.1431   7.0422756885e+01   2.7176481471e+01    0.3110534    0.1649265 -40.04  0.001265216    1.968    0.492
       193  -9.4754    205.5091     62.6307   6.9099413675e+01   2.5459151954e+01    0.3267833     0.193408  17.24  0.001293316    2.284    0.562
       194 -11.0175    159.2545     61.6650   7.7367065502e+01   3.7178161609e+01    0.5158241     0.339121  38.22  0.002074835    1.554    0.357
       195 -11.9752    157.2224     53.2898   7.5081386016e+01   3.8940951601e+01     1.027712     0.648062 -54.85  0.004301179    2.089    0.521
       196 -10.9240    105.2896     62.0559   9.0779028398e+01   4.9102759514e+01    0.3928316    0.3340706  80.73  0.002137541    1.514    0.340
       197  -9.9032     51.9184     47.8382   1.0325840773e+02   6.0263619805e+01     0.246052     0.193942 -39.19 0.0009711097    1.097    0.088
       198 -11.3491     33.9771     43.0356   1.0845475913e+02   6.3164111393e+01    0.4909135    0.3690707 -31.61  0.002336503    1.290    0.225
       199 -10.6900     26.6835     47.6787   1.1254313246e+02   6.2877379164e+01    0.3440672    0.2050021 -18.04  0.001015679    2.331    0.571
       200 -10.9491     21.1226     47.3865   1.1456780564e+02   6.3381466989e+01     0.336208    0.2159649 -53.40  0.001064196    1.214    0.176
       201 -12.4610     49.3811     60.2365   1.0777902246e+02   5.8057684392e+01    0.6486651    0.4855441  73.65  0.001657306    1.852    0.460
       202 -11.7248     40.3554     55.9615   1.0975861669e+02   5.9909197878e+01    0.5807111    0.4532503  20.05  0.003809797    1.547    0.354
       203 -11.4237     46.2333     48.9895   1.0567082552e+02   6.0698546379e+01    0.4183039    0.3157168 -10.82  0.001492822    1.581    0.367
       204 -11.7734     42.1763     45.2311   1.0601464249e+02   6.1893980198e+01    0.3832073    0.2950168   5.72 0.0008726898    1.561    0.359
       205  -9.7170    175.2064    246.5909   1.1115633221e+02   6.7809092905e+00     0.157463   0.07269358  38.04 0.0007233318    1.659    0.397
       206  -9.5447    157.3156    246.6777   1.1393656045e+02   9.4067826942e+00    0.1015349   0.06600236  60.74 0.0007041736    1.662    0.398
       207 -10.1179    199.0284    244.6962   1.0726981869e+02   3.4162620358e+00    0.1608811    0.1010884  38.77  0.001161897    1.120    0.108
       208 -11.6871     93.7861     41.3917   8.6929349780e+01   5.4954125668e+01     1.703158    0.4674305  52.46  0.004803395    5.526    0.819
       209 -11.1167    113.3480     49.7995   8.4383403989e+01   4.9639929272e+01    0.6714225    0.4082819  21.33  0.002812853    2.305    0.566
       210 -12.7560    116.6306     42.4946   8.0853750181e+01   5.0124063241e+01    0.9713724     0.681765  80.91  0.004259501    2.316    0.568
       211 -10.6964    127.4827    241.5215   1.1809189404e+02   1.4299556160e+01    0.1406559    0.1023494 -61.76 0.0009372649    1.822    0.451
       212  -8.4477     25.7842     59.9049   1.1583089489e+02   6.0416018511e+01    0.9145101    0.4269622  55.93  0.004077693    3.775    0.735
       213 -10.6333     29.4603     52.4882   1.1276073791e+02   6.1651824495e+01    0.2928611    0.2004002  37.16 0.0006817441    1.780    0.438
       214  -9.6997    147.4644     60.6323   7.9610727797e+01   4.0186598458e+01    0.3634127    0.1492188  58.26  0.001248698    2.767    0.639
       215  -9.0625    248.4900     59.4984   6.2168430801e+01   1.5504851171e+01    0.1389548    0.1267093  -6.33 -3.435327e-05    1.004    0.004
       216  -9.3020    235.4521     59.4706   6.3828149151e+01   1.8537395079e+01    0.2478225    0.1442233  79.48  0.001031593    2.457    0.593
       217 -11.3351    219.1004     57.0682   6.5431190420e+01   2.2785400834e+01    0.5093568    0.3600196  85.28  0.001706554    1.855    0.461
       218  -9.7835    215.5540     51.1324   6.4248159983e+01   2.4390352512e+01    0.4840971    0.1301652 -26.29  0.001492792    3.429    0.708
       219 -10.2823    139.6002     43.6959   7.5644421511e+01   4.4662938344e+01    0.4798045    0.2218191  47.87   0.00187648    2.085    0.520
       220 -11.3287    136.4633     55.6708   8.0524860682e+01   4.3563697812e+01    0.7806634    0.5238295 -34.46  0.003483397    1.468    0.319
       221 -11.8198    145.7708     47.9100   7.5732555290e+01   4.2550625747e+01      1.08464    0.4574489 -24.81  0.003849162    2.610    0.617
       222 -10.3008    100.9514     55.9676   9.0005748704e+01   5.1044449177e+01    0.2141944    0.1732109 -75.88 0.0005592606    1.690    0.408
       223 -10.4235     66.8118     54.9139   1.0033161738e+02   5.6914366823e+01    0.2571458    0.2260093 -67.73 0.0008035889    1.277    0.217
       224  -9.5439      1.8300     56.2019   1.2346733719e+02   6.2771378510e+01    0.1459435    0.1005477 -48.73 0.0004468167    1.320    0.242
       225  -9.4393    187.3179     55.3813   6.9988902659e+01   3.1028015146e+01    0.2977952    0.1343374  54.56  0.001127741    2.103    0.524
       226 -10.8933    208.1280     53.0829   6.5909288381e+01   2.6022329398e+01    0.7009429    0.2355224  59.98  0.002370317    2.905    0.656
       227 -11.2991    202.1434     47.3593   6.5121361030e+01   2.8256283291e+01    0.5883526    0.5031409 -36.96  0.003111603    1.200    0.166
       228 -10.3046    194.5182     46.3967   6.6019536373e+01   3.0341617755e+01    0.6562305    0.3699601  78.75  0.002542224    2.451    0.592
       229 -11.1428     25.5398     55.1960   1.1484024564e+02   6.1419466308e+01    0.3528496    0.2448278 -26.58  0.001478098    1.669    0.401
       230 -10.3727    249.1779     52.4728   6.0251024096e+01   1.6133574446e+01    0.3229763    0.2268859 -65.54   0.00118741    1.842    0.457
       231  -9.9194    244.8116     50.8146   6.0331509380e+01   1.7326929327e+01    0.2554563    0.2270759 -43.40 0.0009561178    1.170    0.145
       232 -11.0506    240.1035     50.1308   6.0717812526e+01   1.8509345056e+01    0.4123817    0.3539774 -21.20  0.001212219    1.096    0.088
       233 -11.5155    173.8684     47.8487   7.0024457318e+01   3.5493690931e+01    0.6901423    0.4494441  63.44  0.002425967    1.615    0.381
       234 -10.5946    176.9434     43.7782   6.8147663081e+01   3.5235446830e+01    0.3787754    0.3462157 -78.85  0.001509238    1.249    0.199
       235  -9.3383     91.0630     48.4737   9.0356798358e+01   5.4225224829e+01    0.2311306    0.1759794 -59.23   0.00121483    1.603    0.376
       236  -9.8586      2.6197     48.7363   1.2181715123e+02   6.4280922826e+01    0.2144549    0.1742628  60.23  0.001622269    1.525    0.344
       237  -9.7342     13.9535     46.2049   1.1700574200e+02   6.4134779288e+01    0.2351254   0.09451015 -46.48  0.001220764    2.071    0.517
       238  -9.6541    232.6021     45.4393   6.0365156728e+01   2.0835881040e+01    0.2678363    0.1069369  50.98  0.001027857    2.428    0.588
       239  -9.3397    132.2612     45.5431   7.8020908964e+01   4.6125854075e+01    0.2073978    0.1330038  40.21 0.0005868184    1.570    0.363
       240 -10.7074    162.6469     43.8655   7.0836021758e+01   3.8907755745e+01    0.3248719    0.2530207  66.93  0.001486076    1.391    0.281
       241 -11.7293    156.0969     41.8530   7.1451673676e+01   4.0845194832e+01    0.4252779    0.3839587  24.38 0.0008420064    1.063    0.059
       242 -10.9778    153.2238     36.2082   7.0059643701e+01   4.2325426287e+01    0.3364658    0.2903574 -37.82 0.0003837941    1.224    0.183
       243  -9.8216     26.1050     43.5357   1.1164009910e+02   6.3769423476e+01    0.2004838    0.1267375 -48.87  0.000344008    1.258    0.205
       244 -10.9617     22.5596     36.7986   1.1111124970e+02   6.5414011722e+01    0.3938159    0.2803364  68.00   0.00180327    2.177    0.541
       245  -9.8113      3.8869     44.1851   1.2041377033e+02   6.5152911706e+01    0.2809815     0.158493 -20.78  0.001058811    2.309    0.567
       246 -10.9212    189.0380     42.0676   6.5552179398e+01   3.2302000639e+01    0.3752695    0.2102504 -24.78 0.0007570279    1.773    0.436
       247 -10.6498     69.4129     32.6978   9.1536621472e+01   6.0650246418e+01    0.5025697    0.2775142  41.13  0.002222257    2.012    0.503
       248 -10.9724     81.3935     39.6195   9.0165286005e+01   5.7487071135e+01    0.5618227    0.3726004  44.18  0.002384457    1.667    0.400
       249 -11.0193     77.4589     34.4678   8.9470654119e+01   5.9039833206e+01    0.3904439    0.2579795  36.72  0.001268339    1.627    0.385
       250 -11.3282     82.3800     31.2900   8.6560212652e+01   5.8715416984e+01    0.4949733    0.3599948  53.17  0.002248717    1.679    0.404
       251 -10.3800    231.4751     39.5151   5.8863263485e+01   2.1766470460e+01    0.2785115    0.2410456 -67.89 0.0001938076    1.288    0.224
       252  -9.9865    226.6549     36.7494   5.8671365333e+01   2.3259121718e+01    0.3561917    0.2144972  78.22   0.00152276    1.975    0.494
       253  -8.7297     29.3361     40.2778   1.0943445551e+02   6.4144775739e+01     0.120173    0.0759903 -31.60 0.0003924907    1.611    0.379
       254  -9.5853    217.9440     39.1731   6.0463537175e+01   2.5180356416e+01    0.2230071    0.1964107 -63.15  0.001030638    1.249    0.200
       255 -10.9546    205.5471     37.2277   6.1568461615e+01   2.8577574939e+01    0.5284256     0.336389  63.56  0.002200285    1.583    0.368
       256 -10.4651    198.4649     35.2121   6.1963924955e+01   3.0650971081e+01    0.3870504    0.3652433  -8.07  0.001544606    1.049    0.046
       257 -10.2003    150.3987    237.8022   1.1408413666e+02   1.1436157035e+01    0.1192225     0.100646 -21.72 0.0009527798    1.700    0.412
       258 -11.2250    176.6719     37.0447   6.5989598386e+01   3.6153760938e+01    0.4512773    0.3582487   1.43  0.001241606    1.323    0.244
       259 -11.2385    171.3700     33.4309   6.5697804568e+01   3.7982307139e+01    0.9467932    0.3160889  42.58  0.002915882    3.367    0.703
       260  -9.3459     15.1794    233.8324   1.3475302970e+02   2.8621940054e+01    0.1080902   0.08918034  74.14  0.001073158    1.365    0.267
       261 -10.4654    242.7422    232.0096   9.8948208988e+01  -2.0043794748e+00    0.2004728    0.1247733  57.26  0.001192326    2.679    0.627
       262 -10.6475    197.2119    231.9865   1.0594103934e+02   4.9316332694e+00    0.1712427   0.09217037  30.78  0.001052951    1.635    0.389
       263  -9.3404     23.4835    231.5289   1.3344802854e+02   2.8175635941e+01   0.09250207   0.06080268  65.16 0.0008096048    1.026    0.026
       264  -9.0336      9.3367    227.3067   1.3535682045e+02   3.0105121763e+01    0.0711475    0.0647252 -82.77 0.0002594133    1.675    0.403
       265 -10.2844    180.9888     16.2863   5.8402502927e+01   3.7304700261e+01    0.2588922    0.2134407  70.95 0.0004164879    1.227    0.185
       266 -10.2620    133.4845     37.2101   7.4701436770e+01   4.7059178983e+01    0.4012024    0.3189559 -65.60  0.001987293    1.645    0.392
       267  -9.8102    234.5232    222.5332   9.8799233528e+01   3.7891165703e-02    0.1130413    0.0801466  27.86 4.693343e-05    1.008    0.008
       268  -9.1957    152.7525    207.9855   1.1017169592e+02   1.4829191872e+01    0.1242655    0.1004203 -47.61  0.000880392    1.571    0.363
       269 -10.4592    133.4571     24.0991   6.9725556027e+01   4.8794392154e+01    0.4309792    0.3336648 -61.99  0.002133999    1.676    0.403
       270 -10.2126      4.4116    204.9067   1.3524502079e+02   3.3976801774e+01    0.1648996   0.08666582 -71.91  0.001266839    1.919    0.479
       271 -10.8194    144.0144     24.8917   6.7797181740e+01   4.6073027956e+01    0.5517049    0.3537653  70.00  0.002476019    1.791    0.442
       272  -9.6620    238.6671    203.6771   9.5208515349e+01   1.1102834683e+00    0.1236616   0.06914034  20.61 0.0007050303    1.704    0.413
       273 -11.5146      4.1638     35.9095   1.1842460305e+02   6.6826699495e+01    0.2407631    0.1914051 -57.44 0.0004112577    1.060    0.057
       274  -9.7843      6.5017     30.7347   1.1610835912e+02   6.7735204124e+01     0.246169     0.158059 -11.43  0.001624082    1.931    0.482
       275  -9.8830     18.5743     41.3256   1.1398619493e+02   6.4809527417e+01     0.229089    0.2044587 -28.39   0.00173911    1.224    0.183
       276  -9.7540    245.5647    200.8029   9.3660949849e+01   2.6909585530e-01    0.1339898    0.1037658 -23.87 0.0004624496    1.580    0.367
       277 -11.8395    105.7519     32.9130   8.0135180638e+01   5.3922855217e+01    0.7866121    0.4518249   4.59  0.002800735    2.921    0.658
       278  -9.9684    233.9183    197.1827   9.4879384972e+01   2.5177504047e+00    0.1954353     0.156331  -1.47  0.001083762    1.263    0.208
       279 -11.8601    105.9831     20.0908   7.4777976878e+01   5.5669645827e+01    0.3313543    0.2300598 -18.82 0.0004161096    1.384    0.278
       280  -9.6243    248.5562     33.1954   5.5253233686e+01   1.8332724313e+01    0.2736662    0.1134591 -28.51  0.001133239    2.120    0.528
       281 -11.7155    159.9226     30.1368   6.6617685844e+01   4.1366857970e+01     0.625168    0.3530042 -37.64 0.0004669618    1.836    0.455
       282 -11.2802    164.0258     27.4641   6.4935071108e+01   4.0612257924e+01    0.4320902    0.3049634 -25.63 0.0004520434    1.423    0.297
       283 -10.6330    240.1522     31.6068   5.5709712157e+01   2.0492891248e+01    0.4627547    0.3537525  11.74  0.002475748    1.428    0.300
       284 -10.7729    189.3712     29.2152   6.1411434618e+01   3.3718625078e+01     0.619938    0.3653007 -21.84  0.002729876    1.707    0.414
       285 -10.3618    182.4198     32.2183   6.3453894565e+01   3.5216290292e+01    0.3275245    0.2455794  66.63  0.001302484    1.368    0.269
       286  -9.9848    211.2235     30.6568   5.8835075684e+01   2.7835738419e+01    0.3798071    0.2088653 -33.38  0.001401692    1.757    0.431
       287 -10.3210    147.6440     31.7213   6.9582818550e+01   4.4315428976e+01    0.2479641    0.2419778  33.93 0.0005379441    1.081    0.075
       288  -9.8773     59.8673     24.3374   9.1570741619e+01   6.3516988945e+01    0.5147703    0.2055799 -50.63  0.001956756    3.428    0.708
       289 -11.2100     56.1978     30.9659   9.5684801803e+01   6.2892336180e+01     0.301372    0.2277142  14.02 0.0002576283    1.480    0.324
       290 -12.0032     48.4722     30.4818   9.8481009702e+01   6.3986636204e+01    0.6311902    0.3270661  27.96  0.002855359    2.319    0.569
       291  -8.9480    216.6918     31.7299   5.8457856916e+01   2.6315379549e+01    0.1478747    0.1031272  32.58 0.0001896028    1.541    0.351
       292 -10.2209     17.0701    192.3507   1.3259932797e+02   3.4928357344e+01    0.1663253    0.1056925  82.44 0.0003690629    1.236    0.191
       293 -12.2929      4.8244    184.6964   1.3430274490e+02   3.7279946008e+01     0.520938    0.2980101  65.42  0.004076591    1.322    0.244
       294  -9.9435    169.0445    191.5586   1.0497907417e+02   1.4334468865e+01    0.1883405   0.09927252  44.38 0.0005272439    1.549    0.355
       295  -9.0974     57.4597    175.0116   1.2402632858e+02   3.3806312663e+01    0.1483019   0.09457146 -76.03 0.0004871273    1.493    0.330
       296  -9.2885    221.6208     29.7455   5.7281228370e+01   2.5271158633e+01      0.21174    0.1208491 -33.38 0.0009488922    1.674    0.403
       297 -10.0915    191.5507     16.6577   5.7075582461e+01   3.4447651425e+01    0.3166433    0.2422143  28.36  0.001597596    1.362    0.266
       298 -10.1281     98.7235     28.9286   8.0531505934e+01   5.5967663424e+01    0.4896001    0.2601313 -52.35   0.00180147    2.903    0.656
       299  -9.8664    250.5358     25.2850   5.2983251073e+01   1.8661142254e+01    0.2697708    0.1263078 -20.49 0.0009084526    2.043    0.511
       300 -11.2219    214.3926     23.7853   5.6405727686e+01   2.7734279885e+01    0.4697464    0.3506986   5.03   0.00169648    1.465    0.318
       301 -10.1702     39.5191    173.0706   1.2730140731e+02   3.6128039420e+01    0.1804779    0.1174654 -74.90 0.0009396524    1.432    0.302
       302 -10.0606     80.8181     19.2835   8.1920387402e+01   6.0839064414e+01    0.3226144    0.2133282  39.83  0.001311986    1.560    0.359
       303 -10.7574     35.9614    169.9859   1.2773840754e+02   3.7051721336e+01    0.2538157    0.1309712 -86.05  0.001594007    1.801    0.445
       304  -9.3081    169.7549     23.4215   6.2550829975e+01   3.9557297442e+01    0.2261075    0.1246244  50.75 0.0009532629    1.690    0.408
       305  -9.6891     51.6712    173.3138   1.2498940814e+02   3.4774627060e+01    0.1152056   0.06474804  67.51 0.0003793113    1.673    0.402
       306 -10.5397      8.8224    156.0827   1.3201649262e+02   4.2066295966e+01    0.2078597    0.1465674 -89.24     0.001648    1.124    0.110
       307 -12.2369     10.0625    165.7386   1.3236742812e+02   4.0189551303e+01    0.4756157     0.306789 -71.64  0.003195374    1.488    0.328
       308 -11.3907     13.7300    157.4819   1.3114639343e+02   4.1406618740e+01    0.3151017    0.1569179 -85.97 0.0009828429    1.684    0.406
       309  -9.0232    197.9863    167.9906   9.5786159297e+01   1.2272337787e+01    0.1555121    0.1328312  26.10 0.0005558113    1.033    0.032
       310 -10.3974     18.8938    165.2704   1.3066685323e+02   3.9524201875e+01    0.1932665    0.1810177  54.59  0.001312639    1.430    0.300
       311  -9.7931    246.0122     22.0349   5.2557448052e+01   2.0044088116e+01    0.2096552    0.1942077 -28.79 0.0008234281    1.022    0.021
       312 -10.2287    223.2786     22.0012   5.4869761645e+01   2.5639475357e+01    0.3038973     0.209178  88.98  0.001024282    1.671    0.402
       313  -9.6000    220.9987     19.0620   5.4276027365e+01   2.6506883011e+01    0.2008706    0.1907503 -45.14 -0.001877172    1.057    0.054
       314 -10.2795     66.3119     21.7299   8.8041472728e+01   6.2955348078e+01    0.1951333    0.1748815  25.53  0.001257814    1.243    0.196
       315  -9.8540    188.8091    164.2376   9.6752232886e+01   1.4519995544e+01     0.235124    0.1580591   3.03  0.001006321    1.987    0.497
       316 -10.2082     28.2676    163.1296   1.2870033794e+02   3.9064870320e+01    0.2150737    0.1302542 -75.28  0.001507912    1.464    0.317
       317  -9.6440    204.9810    163.0595   9.3608160199e+01   1.1594634071e+01    0.2037134    0.1646126  27.60 0.0006113258    1.051    0.048
       318 -10.6216    104.8886    154.4663   1.1184450214e+02   3.1142032576e+01    0.3771166    0.1827934 -60.90  0.001840957    2.276    0.561
       319  -9.0585      1.4547     20.5540   1.1544935006e+02   7.0021316724e+01    0.1115752   0.08146913 -50.10 0.0002030475    1.011    0.011
       320 -10.8572     31.3057    154.1190   1.2736365237e+02   4.0473199262e+01     0.323422    0.1916516  69.89  0.001494921    1.525    0.344
       321 -10.7207     30.6159    149.2942   1.2708751737e+02   4.1465646144e+01    0.2325289    0.1405823  68.89 0.0007671565    1.502    0.334
       322  -9.8421     48.1154    151.9102   1.2364895635e+02   3.9179630371e+01    0.1901993    0.1423102 -54.95 0.0009362448    1.558    0.358
       323  -9.7660    115.8212     16.9369   7.0912224732e+01   5.3855284249e+01    0.2298917     0.182083  15.23 0.0008555541    1.224    0.183
       324 -10.6064     44.1074    150.4942   1.2435385304e+02   3.9883890943e+01    0.2834553    0.1887926 -86.67 0.0002948313    1.327    0.247
       325 -10.8949     46.8851    146.1751   1.2330724857e+02   4.0430369598e+01    0.4090848    0.2117891 -78.75  0.001986157    1.842    0.457
       326 -12.1150     23.1582    149.0979   1.2862660398e+02   4.2186265522e+01    0.3464282    0.2589227 -34.95  0.002461432    2.122    0.529
       327 -11.1775     16.2875    148.1247   1.2997102019e+02   4.2963564944e+01    0.3221888    0.1478759  44.36  0.001531451    2.026    0.507
       328 -10.2277      3.3427    152.4563   1.3286813858e+02   4.3165998867e+01    0.2273247    0.1227264  71.82  0.001578685    1.546    0.353
       329 -11.8404      4.6001    147.3484   1.3230181775e+02   4.4033737504e+01    0.3384409    0.2942527  32.84  0.001963148    1.546    0.353
       330 -11.5799      3.9396    141.6223   1.3206363780e+02   4.5175384889e+01     0.316626     0.260979  53.30  0.001349727    1.334    0.251
       331 -11.8610      3.9101    136.6086   1.3172805230e+02   4.6146092886e+01    0.2008001    0.1535452  86.21 0.0003664175    1.029    0.028
       332  -9.9365    214.8518    152.0506   8.9686358612e+01   1.1114234318e+01    0.1978895    0.1513369 -57.09  0.001026236    2.003    0.501
       333 -11.3593     62.2561    149.9843   1.2040780747e+02   3.7927333011e+01    0.3749171     0.287724  64.62  0.001523503    1.171    0.146
       334  -9.5193     85.3158    149.6948   1.1535977067e+02   3.4958912930e+01    0.1247213    0.0831695  72.25 0.0003501723    1.624    0.384
       335 -10.0900     71.1614    151.5640   1.1867890883e+02   3.6509196633e+01    0.2247241   0.09889641  43.20  0.001151469    2.118    0.528
       336 -10.7150    249.5410    143.9513   8.2266150831e+01   5.4170774959e+00     0.510485    0.1894181 -33.29  0.002174843    2.778    0.640
       337  -9.3967    239.7960    146.6266   8.4373256495e+01   6.9523031627e+00    0.1722202    0.1174493  51.66 0.0008813154    1.621    0.383
       338  -9.7733    108.4017    146.0802   1.0975680417e+02   3.2146995757e+01    0.2040627    0.1644807  39.32  0.001252162    1.268    0.211
       339 -10.7764     33.0975    144.2967   1.2610151279e+02   4.2202459661e+01    0.2384259    0.1746962  69.89 0.0007995711    1.190    0.160
       340 -11.8526     11.3812    138.1924   1.3024840391e+02   4.5280459796e+01    0.3864462    0.1625954  86.40  0.002100093    2.352    0.575
       341  -9.8826    133.6493    140.5464   1.0326985859e+02   2.8805200026e+01    0.2650774     0.205623 -14.84  0.001438967    1.767    0.434
       342 -12.4915     22.8200    135.5408   1.2753102587e+02   4.4867424182e+01     0.777529     0.283134  45.58  0.004206462    2.566    0.610
       343 -11.8670     29.8948    132.9284   1.2569058449e+02   4.4760416811e+01    0.4829559    0.2766528 -89.94 0.0004776755    1.613    0.380
       344 -10.5820     82.0419    135.1295   1.1393121819e+02   3.8274192478e+01    0.3195407    0.2033033  23.87  0.001575517    2.224    0.550
       345 -10.4856     46.8546    134.5635   1.2199601170e+02   4.2745612910e+01    0.3267489    0.2602111  85.86  0.002323699    1.075    0.070
       346  -8.7862    216.6968    135.3011   8.5800146346e+01   1.2936570284e+01     0.123369    0.1109879 -77.20  0.000248601    1.590    0.371
       347 -10.7691     71.1062    134.0141   1.1630351678e+02   3.9980203758e+01     0.499643    0.2894487  21.68  0.002475171    2.755    0.637
       348  -9.5487     62.6092    131.4297   1.1792169377e+02   4.1575920329e+01    0.2968838   0.08986277 -58.32  0.001256091    2.928    0.658
       349 -10.9201     92.5761    129.1807   1.1048008130e+02   3.7919189120e+01    0.3210099    0.2370447 -85.27  0.001533656    1.500    0.333
       350 -10.7944     10.5082    127.4102   1.2957410194e+02   4.7476353574e+01    0.3725903    0.1286467 -62.00  0.001931408    2.455    0.593
       351  -9.4645     78.5314    129.0483   1.1378957925e+02   3.9986852885e+01    0.1829149    0.1131815 -61.83 0.0005926514    1.543    0.352
       352 -10.4475    242.7862    127.8001   7.9796080936e+01   8.5885061542e+00    0.2597981    0.1957534  23.70 0.0009113628    1.189    0.159
       353 -11.2145    240.8862    122.6861   7.8932903283e+01   9.5860336458e+00    0.5595994    0.3603093 -23.69  0.002116487    1.503    0.335
       354 -10.2891     18.5046    124.8638   1.2750955218e+02   4.7368519361e+01    0.3058132    0.1238675 -62.44  0.001377006    2.098    0.523
       355 -11.1090     55.1428    123.1987   1.1854104536e+02   4.4148098757e+01    0.4745433    0.3064417  28.49  0.002247293    1.912    0.477
       356 -10.4958     45.9369    120.6210   1.2043827323e+02   4.5696428963e+01    0.3378685    0.1878587  66.38  0.001254077    2.091    0.522
       357  -9.4624    224.0159    126.0745   8.2465228810e+01   1.2635955657e+01    0.2051641    0.1712471 -62.12  0.001123015    1.731    0.422
       358  -9.5343      2.0437    125.7958   1.3135220096e+02   4.8398072553e+01    0.2045479    0.1020832  85.31  0.001273654    1.739    0.425
       359  -9.7417     80.5333    125.2687   1.1268520519e+02   4.0474938204e+01    0.2805659    0.1328008  51.90  0.001309672    2.289    0.563
