#   1 NUMBER                 Running object number                                     
#   2 MAG_AUTO               Kron-like elliptical aperture magnitude                    [mag]
#   3 X_IMAGE                Object position along x                                    [pixel]
#   4 Y_IMAGE                Object position along y                                    [pixel]
#   5 X_WORLD                Barycenter position along world x axis                     [deg]
#   6 Y_WORLD                Barycenter position along world y axis                     [deg]
#   7 A_WORLD                Profile RMS along major axis (world units)                 [deg]
#   8 B_WORLD                Profile RMS along minor axis (world units)                 [deg]
#   9 THETA_WORLD            Position angle (CCW/world-x)                               [deg]
#  10 FWHM_WORLD             FWHM assuming a gaussian core                              [deg]
#  11 ELONGATION             A_IMAGE/B_IMAGE                                           
#  12 ELLIPTICITY            1 - B_IMAGE/A_IMAGE                                       
         1 -12.5715    206.9622      3.5682   5.8808385831e+01   3.2177155016e+01      1.11215    0.7673855  62.55  0.002984809    1.428    0.300
         2 -13.1148    185.2869     27.1198   6.9041908784e+01   3.5473385025e+01     1.839391     1.089799  -0.25   0.00563703    2.056    0.514
         3 -13.0775    192.5716     20.6062   6.5861607309e+01   3.4281054773e+01     1.964311     1.019132 -21.88  0.007122344    1.886    0.470
         4 -12.0361    199.6142     12.3112   6.2317944865e+01   3.3278271612e+01    0.6573426    0.5557107   4.56  0.001134088    1.226    0.185
         5  -9.2074     59.5077      3.0017   9.0092506853e+01   6.7579379965e+01    0.1816099   0.09863983 -47.30 0.0008106156    2.610    0.617
         6 -10.2517    109.1457    246.3576   1.3013689326e+02   1.4806537912e+01    0.1634152    0.1313386  76.50 0.0006224366    1.350    0.259
         7  -9.7650    245.1726    250.3277   1.0924625980e+02  -4.1204162798e+00     0.215879   0.05916869  35.47  0.001094943    2.608    0.617
         8 -11.4195    177.6060    249.8117   1.1954385103e+02   5.1473621375e+00     0.973071    0.1862474  35.51  0.002628582    9.005    0.889
         9 -11.0428    139.7908    249.2219   1.2549389951e+02   1.0417234847e+01    0.2152916    0.1879228 -79.32  0.001887516    1.542    0.352
        10 -11.3663    101.5961    248.8343   1.3152766055e+02   1.5437746210e+01    0.2743328    0.2315422  54.66  0.002461076    1.195    0.163
        11 -10.6272    103.4850    242.9807   1.3077354114e+02   1.5969534331e+01     0.209767    0.1121328  61.25 0.0009428117    1.860    0.462
        12 -10.4035     94.5543    250.1318   1.3272756341e+02   1.6136027496e+01     0.181088    0.1410284  35.53  0.001535611    1.408    0.290
        13 -11.3902     81.2891    249.0797   1.3471990314e+02   1.7859887085e+01    0.3287634    0.2126468  73.91  0.002648895    1.522    0.343
        14 -14.2029     52.5094    222.6304   1.3767553001e+02   2.4939640330e+01     2.564876     1.103422 -52.85  0.005554667    3.767    0.735
        15 -15.2956     60.0805    210.7241   1.3562547582e+02   2.5999950838e+01     7.471849     2.353742  54.86   0.02969773    2.909    0.656
        16  -8.9415    169.6264    215.8203   1.1674391253e+02   1.0202570840e+01    0.1312501    0.1092376 -61.07 0.0005797638    1.696    0.410
        17  -9.1591    226.3724    201.2654   1.0490604978e+02   3.0142791402e+00    0.1688295     0.166335   2.91 0.0005174659    1.599    0.374
        18 -10.1857    193.0131    194.4720   1.0950898283e+02   9.1811436856e+00    0.6070521    0.3548977 -63.59   0.00228712    5.947    0.832
        19 -10.3549     66.6290    195.7695   1.3330936906e+02   2.7755385283e+01     0.314579    0.1572659  56.49  0.001899574    1.752    0.429
        20 -11.1765     74.7199    190.7181   1.3134155542e+02   2.7659482302e+01    0.3322692    0.2495636 -42.30  0.002099603    1.937    0.484
        21 -11.0586     78.9297    184.2245   1.2989982198e+02   2.8284657197e+01    0.2401302    0.2092842 -56.72 0.0007937542    1.419    0.295
        22 -11.1754     44.6726    171.6614   1.3558058390e+02   3.4583167722e+01    0.4029134    0.3098246 -49.76  0.002884572    1.730    0.422
        23 -12.0652     56.1008    144.3420   1.3047282123e+02   3.8795840318e+01    0.5647482    0.3685589  19.65  0.003263414    2.157    0.536
        24 -12.0089     92.5048    165.1228   1.2493334977e+02   3.0007098190e+01     1.952047    0.6318287  51.14  0.001216199    3.470    0.712
        25 -12.1261     79.0507    159.3910   1.2711589655e+02   3.2943361003e+01     2.332762     0.699558  56.07   0.00620794    7.882    0.873
        26 -13.3231     67.6891    144.3386   1.2778758578e+02   3.7432146624e+01     2.094412    0.7291391  56.06  0.007547865    4.262    0.765
        27 -10.8026     87.0290    173.1433   1.2706690105e+02   2.9250583921e+01    0.2784697    0.2050734  71.20 0.0004922794    1.307    0.235
        28 -10.1260    126.3916    173.6944   1.1902908749e+02   2.3342012290e+01      0.33802    0.1344189  42.93  0.001526402    2.202    0.546
        29 -12.6118     74.8539    169.7972   1.2921589054e+02   3.1469169652e+01    0.3840718      0.24875 -46.09  0.001670156    2.025    0.506
        30 -12.8748     58.8245    132.3384   1.2834221826e+02   4.1021007468e+01     2.489146    0.7944533 -77.18  0.006994279    6.707    0.851
        31 -11.0438     49.1334    152.8587   1.3295694814e+02   3.7810116932e+01      0.40444     0.141531 -69.81  0.001908319    2.614    0.617
        32  -8.8315    106.4773    144.5227   1.1880704157e+02   3.1949997956e+01    0.2951516    0.1745131 -40.96  0.001458174    2.061    0.515
        33 -11.5282     93.1466    147.8502   1.2239376805e+02   3.3297973606e+01    0.2373122     0.233862 -23.79 0.0004701435    1.215    0.177
        34  -9.3959    104.0562    148.3242   1.1997710684e+02   3.1572380879e+01    0.2841518     0.223867 -53.89  0.000927007    1.335    0.251
        35  -9.4944    134.0000    143.9774   1.1246921213e+02   2.7439194377e+01    0.5546712    0.1531571 -54.02  0.001639755    5.154    0.806
        36 -11.0720     70.0526    135.0467   1.2597395992e+02   3.9088171200e+01    0.5197762    0.2368544  44.37  0.002537279    2.144    0.534
        37 -10.0631    101.2235    131.6342   1.1782694791e+02   3.5394528748e+01    0.2595435    0.2187988 -26.05 0.0005101147    1.462    0.316
        38  -9.5313    160.9462    128.1596   1.0326193316e+02   2.5238659800e+01     0.261611    0.1871063 -55.04  0.001293868    1.684    0.406
        39  -9.2409    118.4164    127.8138   1.1294008103e+02   3.3332579367e+01    0.1912588     0.124905 -38.89 0.0005403109    1.708    0.415
        40  -9.4718    113.6497    134.6412   1.1539579347e+02   3.2767523911e+01    0.2716431    0.2142045 -12.79 0.0009179825    1.749    0.428
        41  -9.0790    109.5191    122.3418   1.1401450204e+02   3.5975205841e+01    0.2137956    0.1955413  60.56 0.0003740863    1.088    0.081
        42 -11.2774     45.4014    115.8073   1.2953509172e+02   4.6082701308e+01    0.4927672    0.1490212 -71.88  0.001852463    3.427    0.708
        43 -16.6046      1.7832    139.6656   1.4230137792e+02   4.4598048138e+01     15.48823    0.3603108 -77.38   0.03602833   12.097    0.917
        44  -9.9841    168.3409    113.0813   9.8108986631e+01   2.6379944731e+01    0.3344041    0.2930946 -68.92 0.0008980402    1.426    0.299
        45 -10.7843     33.0650    107.8958   1.3179874355e+02   4.9006453656e+01    0.4730694    0.1628853 -74.83  0.001998949    2.773    0.639
        46 -10.0814    131.8543     55.3084   8.9722314660e+01   4.4878321702e+01    0.3792746    0.3011462  80.45  0.001249572    1.718    0.418
        47 -10.4965    126.4868     52.0027   8.9945952802e+01   4.6660326375e+01    0.4790578    0.3459465  83.68  0.001581937    2.233    0.552
        48 -10.1590    115.9905     46.3656   9.0730842127e+01   4.9942718219e+01    0.3504292    0.2841755  83.24  0.001054445    1.741    0.426
        49 -10.3797    148.9832    248.2713   1.2393318426e+02   9.2777819224e+00    0.2352575    0.1593983 -50.67   0.00180616    2.046    0.511
        50 -10.6529    162.3569    248.7408   1.2184626983e+02   7.3809808064e+00    0.2634634    0.2042343  14.81  0.002110841    1.473    0.321
        51 -15.5400     12.7162    242.7034   1.4471346366e+02   2.5823150810e+01     6.008754    0.8335324 -71.15   0.02894008    5.981    0.833
        52 -12.3677     68.4903    234.5816   1.3580853682e+02   2.1367702827e+01    0.4985869     0.279413  59.47  0.002392546    1.424    0.298
        53 -11.1685    163.1580    225.3834   1.1906791430e+02   9.9860294855e+00    0.3189033    0.1888779  37.00  0.002074468    1.321    0.243
        54  -9.7657    178.9678    218.9642   1.1555204744e+02   8.3862576888e+00    0.1692039    0.1279036  60.96  0.001140728    1.718    0.418
        55 -10.0367     41.4970     16.9714   1.0538382762e+02   6.7910309164e+01    0.2004163     0.104647 -42.67  0.001019223    1.586    0.369
