#   1 NUMBER                 Running object number                                     
#   2 MAG_AUTO               Kron-like elliptical aperture magnitude                    [mag]
#   3 X_IMAGE                Object position along x                                    [pixel]
#   4 Y_IMAGE                Object position along y                                    [pixel]
#   5 X_WORLD                Barycenter position along world x axis                     [deg]
#   6 Y_WORLD                Barycenter position along world y axis                     [deg]
#   7 A_WORLD                Profile RMS along major axis (world units)                 [deg]
#   8 B_WORLD                Profile RMS along minor axis (world units)                 [deg]
#   9 THETA_WORLD            Position angle (CCW/world-x)                               [deg]
#  10 FWHM_WORLD             FWHM assuming a gaussian core                              [deg]
#  11 ELONGATION             A_IMAGE/B_IMAGE                                           
#  12 ELLIPTICITY            1 - B_IMAGE/A_IMAGE                                       
         1 -12.3784     62.0333     49.6607   5.6452460828e+01   5.9659900483e+01    0.3270025    0.2422463 -35.89  0.000367619    1.479    0.324
         2 -11.0337     32.6376     20.3007   5.7160067371e+01   6.9078147363e+01    0.3220751    0.2060638   0.31  0.001222203    1.874    0.466
         3 -10.9012     14.4669     16.8761   6.5749723932e+01   7.2224402778e+01     0.313228    0.1989123 -43.73   0.00107146    1.947    0.486
         4 -11.3612    125.3295     16.9977   2.9332485853e+01   4.9939366266e+01    0.2310017    0.1658431  81.37 0.0002297453    1.218    0.179
         5 -11.0126     25.9502     13.1715   5.7155827356e+01   7.1043247960e+01    0.2455428    0.2089824   7.16  0.001017017    1.146    0.127
         6 -11.7606     35.3395     11.9563   5.1810490878e+01   6.9611205626e+01    0.3222126    0.2469287  44.11 0.0009028824    1.252    0.201
         7 -10.4344     90.7115     10.7887   3.3541879869e+01   5.8335480318e+01    0.3412101    0.2035596  28.06  0.001335262    2.219    0.549
         8 -10.1927    226.3966     12.1720   1.8823977225e+01   2.9865566069e+01    0.1560611   0.06440212 -50.03 0.0009530913    1.823    0.451
         9 -10.5222    203.3734     11.8434   2.0196467581e+01   3.4063357668e+01    0.1650306    0.1562687 -16.74 0.0001493532    1.647    0.393
        10  -9.8634    185.1801     12.1872   2.1599734908e+01   3.7558624371e+01    0.1601057    0.1015687 -69.43 0.0005128458    1.322    0.244
        11 -11.2079    126.0176     10.9696   2.7526959232e+01   5.0352868653e+01    0.1949014    0.1708567 -52.77 0.0003170181    1.281    0.219
        12 -10.7481    123.8026      6.3805   2.6533317838e+01   5.1255184951e+01    0.3329701    0.1796783 -13.99  0.001736176    2.834    0.647
        13 -11.3964     52.5540     11.4928   4.4467231282e+01   6.6423715518e+01    0.3110348    0.2029472  61.26  0.001796403    1.582    0.368
        14 -12.4568     55.8319      9.4544   4.2408152198e+01   6.5959774077e+01    0.2846817    0.2291734 -32.75 0.0003146787    1.526    0.345
        15 -11.0750      2.7739      6.4788   6.8251061676e+01   7.5077103001e+01     0.337564    0.2442988  27.79  0.001273106    1.377    0.274
        16 -10.4644     11.5912     11.8156   6.5012192612e+01   7.3289358954e+01    0.2363928    0.1926334  36.53  0.001052791    1.511    0.338
        17 -10.4978      8.0136      8.7003   6.5747779858e+01   7.4156741284e+01    0.1938142    0.1649186 -48.67 0.0005395097    1.841    0.457
        18  -9.9481    164.8670     11.0463   2.3103356741e+01   4.1843854994e+01    0.1776297    0.1204842 -72.37 0.0004623617    1.284    0.221
        19 -10.3485    133.2422     10.6981   2.6487195124e+01   4.8758849071e+01     0.206732    0.1245883  76.29 0.0007007849    1.394    0.283
        20 -10.2028    101.9431     10.4375   3.1210493842e+01   5.5840141263e+01    0.3010944    0.1883809 -69.07  0.001256123    1.988    0.497
        21 -10.4062     78.9957     10.9879   3.6300571531e+01   6.0913644248e+01    0.1906188    0.1472266  53.74 0.0004967486    1.062    0.059
        22  -9.1080     65.0000     10.9570   4.0116790180e+01   6.3925658706e+01    0.1777008   0.07137274 -26.06 0.0008119574    3.009    0.668
        23 -10.8555     43.0276     10.2572   4.7590387882e+01   6.8390130393e+01    0.2939232    0.2047264  56.00  0.001795285    1.475    0.322
        24  -9.9456     96.5975     10.1120   3.2112927121e+01   5.7073888716e+01    0.2132938    0.1470208  78.06 0.0009793513    1.355    0.262
        25 -11.8310     29.2491      6.6880   5.2089595575e+01   7.1231011052e+01    0.3402831    0.2632851 -35.53  0.002152632    1.669    0.401
        26  -9.7443    116.2512      8.2387   2.8149241062e+01   5.2796397544e+01     0.164602      0.12284 -77.79  0.001045428    1.343    0.255
        27 -10.1909    247.0750      5.9679   1.6736374754e+01   2.7065113536e+01    0.1454657   0.09608651 -66.36 0.0003340424    1.039    0.037
        28 -10.8461    222.0387      6.4813   1.8073511729e+01   3.1212336511e+01    0.1454997   0.08227009  87.27 0.0005148631    1.545    0.353
        29 -11.1397    148.5043      2.3610   2.2620706012e+01   4.6141263361e+01    0.2143965    0.1626724 -84.83 0.0004523187    1.077    0.071
        30 -10.1226    112.1658      5.8987   2.8065724737e+01   5.3916975576e+01    0.2547151     0.129159  58.64  0.001382792    1.633    0.388
        31 -10.2935     70.5390      5.1476   3.6183029729e+01   6.3249230399e+01    0.2264791    0.1443675  40.97 0.0006879534    1.438    0.305
        32 -10.4264    244.8592      2.1416   1.6226250637e+01   2.7806472769e+01    0.2136075    0.1518605 -22.50  0.001285266    2.392    0.582
        33 -11.5643    104.6271      4.3081   2.8768847390e+01   5.5748019905e+01    0.2158737    0.1713261  78.65 0.0003009742    1.084    0.078
        34 -10.2846     48.5294      3.7722   4.2378633244e+01   6.7932966019e+01    0.2986966    0.2429918  24.92  0.001588794    1.187    0.157
        35 -10.0481     44.0527      4.2095   4.4268622099e+01   6.8770492436e+01    0.2580926    0.1312219  50.65  0.001410894    1.580    0.367
        36  -9.8497     34.2478      3.5763   4.8080323759e+01   7.0662956656e+01    0.2017918    0.1268495  12.66  0.001085797    1.789    0.441
        37 -10.5037    151.7274      6.0059   2.3189679730e+01   4.5122316707e+01    0.2067652    0.1376191  73.92 0.0004627844    1.269    0.212
        38 -11.4281    194.0129      4.7303   1.9446767619e+01   3.6561307942e+01     0.188403    0.1494492 -83.99 0.0002604156    1.124    0.110
        39 -10.1445     13.3964      2.9224   5.8966738831e+01   7.4143052829e+01    0.2395709    0.1610631  49.17  0.001461421    1.983    0.496
        40 -10.7726    138.0482      1.9048   2.3588736189e+01   4.8463241525e+01     0.173246    0.1390907  88.20 0.0004526229    1.021    0.020
        41 -12.5276     20.0673      2.3386   5.4630880469e+01   7.3197255859e+01    0.3004292    0.1941957  23.47  0.001360267    1.304    0.233
        42  -9.4883     84.9967      1.2211   3.1323729853e+01   6.0386754791e+01    0.1584173   0.08071505  65.21 0.0003812278    1.566    0.361
        43 -10.6809     29.9178      1.3526   4.8931303755e+01   7.1645003914e+01    0.1990912   0.09207276  48.21 0.0004357006    1.814    0.449
        44 -10.3442     27.0584    121.6571   9.0957906754e+01   4.8634449524e+01     0.204553    0.1893799  -9.11   0.00114415    1.086    0.079
        45  -9.2933    109.6897    250.7272   8.4994370436e+01   6.3385217116e+00    0.1318793   0.09210979  -8.51  0.000289672    1.550    0.355
        46 -11.2842     24.2408    248.5931   1.0531327663e+02   1.6343793834e+01    0.3759812    0.1901548  57.60  0.001871573    1.947    0.486
        47 -12.0841     17.6074    248.4660   1.0684871114e+02   1.6994043717e+01    0.4724128    0.2721981   2.89  0.002347224    2.361    0.576
        48 -12.0707      2.1566    233.3668   1.0965195904e+02   2.1696088922e+01    0.6124033    0.3430135 -80.33  0.002142552    1.765    0.433
        49 -11.4570      2.5635    248.2210   1.1026454776e+02   1.8373016161e+01    0.3926525    0.3525017 -14.04  0.002224169    1.406    0.289
        50 -12.1241      9.8340    245.3049   1.0846986943e+02   1.8381000146e+01    0.3494903    0.2878293 -73.60  0.001731599    1.318    0.241
        51 -11.8267      4.6473    243.2488   1.0955827337e+02   1.9278573324e+01    0.4442292    0.2283065  52.24   0.00184301    1.691    0.409
        52 -12.0820      6.6036    239.8175   1.0893442486e+02   1.9871841185e+01    0.3619625    0.2748763 -75.39  0.001835357    1.375    0.273
        53 -11.5678     11.2932    120.7250   9.7036490397e+01   5.0171344895e+01    0.5052179    0.2682979 -20.65  0.001409919    2.208    0.547
        54  -9.4609     52.0278    121.0010   8.1163036272e+01   4.5940592194e+01    0.1772121     0.168396  -5.66            0    1.030    0.029
        55 -11.2003     69.4833    115.3558   7.3437250963e+01   4.4775796006e+01    0.3785057    0.2565185  33.19 0.0001480635    1.458    0.314
        56 -10.3112     37.8243    116.2586   8.5668656671e+01   4.8929865582e+01    0.4062356     0.121149  37.34  0.001285177    3.384    0.705
        57 -12.8477     23.3334    113.3697   9.0965719567e+01   5.1153943098e+01    0.3345474    0.2798765 -45.92 0.0004507414    1.098    0.089
        58  -9.4065      6.3131    112.6959   9.7856000207e+01   5.2608610868e+01    0.1994933    0.1428818 -40.67 0.0004274369    1.285    0.222
        59 -10.6950      2.7206    111.8466   9.9208244545e+01   5.3037992076e+01     0.241218    0.2086338  -9.35 0.0002885456    1.196    0.164
        60  -9.8152     40.5003    112.4542   8.3803728052e+01   4.9596945845e+01    0.1503765    0.1372808 -25.32 -1.229559e-05    1.036    0.035
        61 -11.6595     14.0463    107.4255   9.3774885000e+01   5.3455181568e+01    0.4730232    0.2351528 -65.50  0.001670473    1.871    0.466
        62 -10.7182     17.8978    105.3959   9.1766116658e+01   5.3676465720e+01    0.2397128    0.1937274 -86.55 0.0005070792    1.416    0.294
        63 -10.8649    247.8585    102.0158   3.2866859549e+01   1.4729165290e+01    0.1783265    0.1308296 -49.43  0.001275706    1.034    0.033
        64 -10.0531    112.5281    102.4534   5.6400001851e+01   3.9692400745e+01     0.146584    0.1444247  42.21 3.106041e-05    1.009    0.009
        65  -8.9880     78.2712    102.6530   6.7097986250e+01   4.6286491139e+01    0.1487683    0.1211975  82.12 0.0003255987    1.621    0.383
        66 -11.7554     18.8580     97.6332   8.9825274139e+01   5.5556854108e+01    0.6797495    0.4138093 -88.81  0.002809572    2.342    0.573
        67 -10.7464     22.9208     91.1278   8.6581754201e+01   5.6790734694e+01     0.572857     0.264562 -20.17  0.001149199    3.125    0.680
        68  -9.4755    217.7904     98.3997   3.5601060175e+01   1.9940529837e+01    0.1415344     0.114307  46.81 0.0005540003    1.581    0.368
        69  -9.7587     37.6828     97.2923   8.1508740024e+01   5.3710775785e+01    0.1425712    0.1116696  57.83 0.0003130423    1.601    0.375
        70 -11.8384     57.9661     92.2320   7.1797363067e+01   5.2078429177e+01     0.439861    0.3639426 -28.05  0.001001329    1.212    0.175
        71  -9.5791    144.5292     94.5454   4.6635577967e+01   3.4569704274e+01    0.1420311    0.1303705 -80.19 0.0002055255    1.071    0.066
        72 -10.1664      7.6086     91.2659   9.3670706893e+01   5.7975744374e+01    0.2116772    0.1864758 -70.66 0.0004541934    1.216    0.177
        73 -12.3063    159.5215     89.6279   4.2499057768e+01   3.2332123474e+01    0.3595521    0.3305449   6.16  0.002153623    1.367    0.269
        74 -10.8011    125.2357     93.0003   5.0614961776e+01   3.8933978840e+01    0.2298192    0.1985959  51.37 0.0003071371    1.142    0.124
        75  -9.7812     97.8021     93.6250   5.8264090987e+01   4.4515624512e+01    0.2191071     0.134534  52.62 0.0006604189    1.734    0.423
        76 -10.5042    114.0149     91.9028   5.3181703570e+01   4.1516443319e+01    0.2506919    0.2203593   9.79 0.0003225632    1.319    0.242
        77 -11.2365    104.8074     91.4440   5.5596112376e+01   4.3527756565e+01     0.434793    0.2565031  56.03  0.001859032    1.883    0.469
        78  -9.8186     66.7400     91.7295   6.8266645126e+01   5.0752420362e+01    0.1858872    0.1707701  68.15 0.0003211466    1.274    0.215
        79 -10.2231     10.6469     93.7270   9.2747647404e+01   5.7163325501e+01    0.2082194    0.1999415  50.65 0.0009466416    1.217    0.178
        80  -9.7130      1.5026     90.3920   9.6344203644e+01   5.8551086805e+01    0.2947262    0.1165142 -65.27  0.001218978    2.231    0.552
        81 -10.0665     45.2397     89.2975   7.6225056750e+01   5.4626211675e+01    0.3744685    0.2304809  65.41  0.001428633    3.083    0.676
        82 -13.7726     65.4248     81.8910   6.5895628911e+01   5.3090930987e+01    0.4896484     0.455815  39.07 0.0008437278    1.122    0.109
        83 -10.4308      6.2031     83.5216   9.2799214534e+01   5.9946778233e+01    0.3204828    0.2172117   1.85  0.001712551    1.481    0.325
        84  -9.9155     13.0279     83.0274   8.9386715182e+01   5.9582802513e+01    0.1919993    0.1824209  25.87 0.0003223318    1.209    0.173
        85 -11.1385     10.4725     80.3124   9.0020402289e+01   6.0416470813e+01    0.3877294    0.2064014  31.19  0.001704528    1.999    0.500
        86  -9.0504     27.3199     82.3682   8.2401804056e+01   5.8417937738e+01    0.1569198   0.09319126 -27.18 0.0007036924    1.790    0.441
        87 -10.7838     48.0513     79.5105   7.2238710292e+01   5.6403750764e+01    0.2527826    0.2055615 -43.38 0.0004350659    1.250    0.200
        88 -10.1409     86.1805     78.4801   5.7514527342e+01   4.9868783663e+01    0.5276331    0.3141837  12.70  0.001869279    3.371    0.703
        89 -10.1821     21.9874     76.2121   8.3338882696e+01   6.0371114239e+01    0.2190639    0.1906964  67.56 0.0006000131    1.519    0.342
        90 -11.2063    179.4659     76.4662   3.6204732072e+01   3.0449811319e+01    0.4394365    0.2120921  53.24  0.001474682    2.219    0.549
        91 -10.0847     74.9694     76.7945   6.0810210763e+01   5.2382054789e+01    0.2049227    0.1821782  59.67 0.0003636406    1.253    0.202
        92  -9.8234     43.3883     76.7710   7.3458350667e+01   5.7666964299e+01     0.194665    0.1239393 -38.99 0.0004304609    1.565    0.361
        93 -10.4460     53.0179     75.5526   6.8925485485e+01   5.6476229238e+01    0.3637631     0.200773  38.43   0.00163079    1.762    0.433
        94 -11.5732     12.0595     75.4422   8.8086444583e+01   6.1427331401e+01    0.5340521    0.2742064  22.81  0.002525304    1.927    0.481
        95 -10.8434      5.1806     74.3295   9.1323511109e+01   6.2173927725e+01    0.2220329    0.1530271 -47.07 0.0003124225    1.269    0.212
        96  -9.1431    142.3317     71.7503   4.1308524315e+01   3.8995067829e+01    0.1356362    0.1000047 -86.73 0.0004088052    1.553    0.356
        97  -9.4380    105.8826     72.0000   4.9722806043e+01   4.6935141786e+01    0.2225536   0.07689362  49.87 0.0004849712    2.723    0.633
        98 -12.6982     80.6561     67.2006   5.5809115191e+01   5.3063129583e+01     0.509056    0.3407324  20.25 0.0005628846    1.891    0.471
        99  -9.8481    151.7003     70.7079   3.9308327668e+01   3.7131482535e+01    0.1244667    0.1057431  24.47 0.0002752274    1.565    0.361
       100  -9.2659    118.6688     70.7381   4.6119354206e+01   4.4360031212e+01    0.1373454    0.1066114  27.53 0.0003155964    1.572    0.364
       101 -10.4849     90.4699     69.4019   5.3364502048e+01   5.0664958425e+01    0.2935028    0.2081345  87.83 0.0007746057    2.287    0.563
       102  -9.8065     39.2296     70.2103   7.3334122815e+01   5.9630781404e+01    0.1802095    0.1617596  47.39 0.0005461501    1.332    0.249
       103  -9.4420      1.4735     70.4505   9.2369325785e+01   6.3289522071e+01    0.1331824    0.1117476 -29.73 0.0001207907    1.004    0.004
       104 -10.2730    131.5378     68.8312   4.2711701400e+01   4.1834896689e+01    0.2338286    0.1999566  29.07 0.0002602947    1.405    0.288
       105 -11.8936    211.9794     67.3373   3.0236689189e+01   2.5637373308e+01    0.2111376    0.1645334 -57.79 0.0003304316    1.059    0.056
       106  -9.0992     45.0000     68.0058   7.0003536999e+01   5.9251306623e+01    0.2246877   0.07844303 -49.80 0.0008088586    2.987    0.665
       107 -11.9010     17.2418     64.7284   8.2554197288e+01   6.3355146745e+01    0.3841929    0.3000689   7.04 0.0002045831    1.193    0.162
       108 -13.5541     21.0184     58.4167   7.8624090333e+01   6.4287518356e+01    0.4147188     0.317201 -39.20 0.0007843219    1.257    0.204
       109 -11.4516      7.9591     62.9271   8.7024078352e+01   6.4533754892e+01    0.3031377    0.1909936 -40.86 0.0003295435    1.393    0.282
       110 -11.9612     11.6986     59.6889   8.4062162289e+01   6.4924888286e+01    0.3051795    0.2507712  44.08 0.0002881579    1.544    0.353
       111  -9.1657    105.3125     66.3216   4.8182670945e+01   4.8023308270e+01    0.1407826      0.10874  18.45 0.0007038717    1.653    0.395
       112 -10.0275     27.0189     65.8746   7.7872080948e+01   6.2082100046e+01    0.1846079    0.1633942  22.79  0.001106289    1.198    0.165
       113 -10.8680    128.4817     63.7424   4.1962250865e+01   4.3317784486e+01    0.2456343    0.2111878 -71.66 0.0004456913    1.189    0.159
       114  -9.9125     64.3744     64.4931   6.0758992903e+01   5.6684204943e+01    0.2372689    0.1340062 -41.24 0.0007314296    1.889    0.470
       115  -9.3017    166.4548     64.5199   3.5397728542e+01   3.4940993419e+01      0.12844    0.1136708 -77.94 5.006389e-05    1.013    0.013
       116 -10.9895     51.9112     63.7304   6.5559234980e+01   5.8997325505e+01    0.2456796    0.1997539 -50.10 0.0002294392    1.409    0.290
       117 -10.0345     49.5505     59.5371   6.5137407357e+01   6.0167820381e+01    0.1795329    0.1670344  75.88 0.0004832933    1.416    0.294
       118  -9.5637    119.9296     62.6217   4.3512654754e+01   4.5394986911e+01    0.1797216    0.1594102  62.34  0.001052239    1.047    0.045
       119 -10.5785     98.0594     60.8840   4.8479449794e+01   5.0487648277e+01    0.2318083    0.1858007  53.59 0.0004829492    1.155    0.134
       120 -11.3460     58.4398     58.9292   6.1191811994e+01   5.8757789097e+01    0.2691798    0.1906874  36.45 0.0005183063    1.293    0.226
       121  -9.7627     41.9776     59.4952   6.8529334449e+01   6.1363819671e+01    0.2030971    0.1241627  32.17 0.0003871139    1.520    0.342
       122  -9.6783     38.0227     59.4727   7.0381633039e+01   6.1946697281e+01    0.2007575    0.1239218  24.72 0.0003706919    1.523    0.343
       123  -9.8405    107.1446     56.5873   4.4760745292e+01   4.9166029568e+01    0.3449813    0.1611815 -27.97  0.001132848    3.020    0.669
       124 -10.2550     70.9349     56.0338   5.5428372012e+01   5.6910251364e+01    0.2511226     0.189174 -80.85  0.001228914    2.159    0.537
       125  -9.8759    229.1694     56.3779   2.6514746271e+01   2.4144184247e+01     0.147967    0.1127247 -72.95 0.0005514206    1.124    0.111
       126  -9.9710     82.9167     56.0930   5.1416184161e+01   5.4475000839e+01    0.2825226    0.1716944  25.14  0.001246212    2.194    0.544
       127 -10.0962     54.1237     55.8676   6.1884726193e+01   6.0055998043e+01    0.2013106    0.1743704  11.24 0.0004947457    1.070    0.066
       128 -12.9919    115.1696     53.2431   4.1853397683e+01   4.7871537849e+01    0.3201759    0.2826901  52.53 0.0006197055    1.100    0.091
       129  -9.8483     99.9917     55.0016   4.6104817862e+01   5.0984309118e+01     0.163681    0.1543597  55.97 0.0004611085    1.039    0.037
       130 -10.9392     66.2172     52.8361   5.6019865216e+01   5.8350944118e+01    0.5059853    0.2131284  37.13  0.002004975    2.353    0.575
       131 -10.3803     31.5613    248.1468   1.0356035966e+02   1.5727207736e+01     0.277206    0.1719694 -41.38  0.001296268    2.064    0.516
       132  -9.7886    225.6018     52.7879   2.6166078593e+01   2.5224113369e+01    0.1672417   0.07784435 -50.13 0.0009567779    1.701    0.412
       133  -9.3989    148.6501     51.8978   3.5082267883e+01   4.0583889144e+01    0.1814511     0.106684 -50.61 0.0006143904    1.707    0.414
       134 -10.9586    137.7593     50.4246   3.6538486073e+01   4.3199929480e+01    0.3042151    0.2036106  54.83 0.0009654775    1.440    0.305
       135  -9.8793     97.9379     51.2549   4.5456942915e+01   5.1993175591e+01    0.1867837    0.1608806  50.39            0    1.053    0.051
       136 -10.5303     83.7543     50.4288   4.9238739161e+01   5.5176106177e+01     0.211549    0.1871734 -33.38 0.0003492058    1.255    0.203
       137 -11.1770     14.0164     49.2828   7.9470360251e+01   6.6821159183e+01    0.3134967    0.1746753 -44.44 0.0009671129    1.686    0.407
       138  -9.8056    106.4657     49.9283   4.2877263371e+01   5.0295186376e+01    0.1779011    0.1356049 -35.66 1.923815e-05    1.466    0.318
       139 -10.6861     78.2579     50.0735   5.0853618512e+01   5.6378382080e+01    0.2376363    0.1798615  50.76 0.0003220072    1.224    0.183
       140  -9.8753    159.1008     48.8204   3.2725922963e+01   3.8727291788e+01    0.1840972    0.1429834 -77.93  0.000262595    1.204    0.169
       141 -10.4915      6.5293     49.3669   8.3861487527e+01   6.7472246381e+01    0.2580085    0.1470189  10.67  0.001160954    1.653    0.395
       142  -9.7192    154.8089     47.2460   3.2963322265e+01   3.9866659599e+01     0.166912    0.1434347  50.06  0.001055401    1.354    0.261
       143  -9.5631     66.0183     47.0494   5.3997178216e+01   5.9302259825e+01    0.1867062     0.162022  82.82 0.0005620911    1.525    0.344
       144  -9.9182     53.6054     47.1028   5.8876424455e+01   6.1618205159e+01    0.2558603    0.1608672   8.69  0.001176741    2.214    0.548
       145  -9.8783    129.5010     45.9933   3.6824193101e+01   4.5652247445e+01    0.1875472    0.1572351  69.65  0.001140572    1.070    0.066
       146 -10.6308    103.4328     45.2656   4.2148983756e+01   5.1621360512e+01     0.319125    0.2296548 -52.14  0.001750049    1.578    0.366
       147  -9.5905     10.0216     46.7765   8.0944449886e+01   6.7684676848e+01    0.1680219   0.09426082  17.55 0.0008713631    1.653    0.395
       148 -10.4734      2.2613     45.6487   8.5251725646e+01   6.8537996239e+01     0.231497    0.1827943   6.78 0.0006048655    1.196    0.164
       149 -10.2830     79.0743     45.4925   4.8984897227e+01   5.6886320594e+01    0.1981116    0.1205409  49.84 0.0003407989    1.463    0.316
       150 -10.2976     16.6821     43.7633   7.5979505813e+01   6.7590247094e+01    0.3011595    0.2161596  68.77  0.001266021    2.911    0.657
       151  -9.7299     85.9378     42.7429   4.5947283434e+01   5.5813556266e+01    0.1816717    0.1524877  52.48 0.0002727394    1.064    0.060
       152 -11.4244     37.1635     41.3382   6.4067752833e+01   6.5295324497e+01    0.4287827    0.2815558  36.59  0.001711455    1.418    0.295
       153 -10.5005     27.0198     42.7323   6.9825344100e+01   6.6522696861e+01    0.3111762    0.1598968  28.75  0.001534773    1.762    0.432
       154 -12.4671    141.7126     41.0506   3.3382530209e+01   4.3555431174e+01    0.2591062    0.2024297  77.24 0.0004294592    1.142    0.124
       155 -11.8465    183.4379     39.8400   2.7635821505e+01   3.4792988553e+01    0.4717131    0.2312072  85.12   0.00234922    2.312    0.568
       156 -10.5107    116.3250     40.2002   3.7715864828e+01   4.9383847009e+01    0.3439124    0.1871441 -56.96  0.001132623    2.334    0.572
       157 -11.9291     91.0102     39.7676   4.3513415421e+01   5.5108357208e+01    0.2539442      0.23199 -79.41  0.001594017    1.232    0.188
       158 -10.3317     68.7866     41.6121   5.0993979425e+01   5.9555531736e+01    0.1931336    0.1167285  55.58 0.0004605491    1.686    0.407
       159  -9.4780    110.3255     40.6489   3.9118553931e+01   5.0683188968e+01    0.1368718   0.09671355 -77.86 9.750078e-07    1.758    0.431
       160 -10.6886     81.5974     38.7092   4.5804284166e+01   5.7288608260e+01    0.2673464    0.1908443  56.02 0.0005264279    1.276    0.216
       161 -10.3096     51.5457     38.6677   5.6457839354e+01   6.3286383959e+01    0.2482371    0.1910879  48.89 0.0009116848    1.355    0.262
       162 -10.4667    214.6468     37.8842   2.4308277020e+01   2.9043345002e+01    0.1641365    0.1320037  87.59 0.0003842923    1.232    0.188
       163  -9.4685    191.9547     38.2197   2.6415544418e+01   3.3293777744e+01    0.1358713   0.08461667  77.54  0.000825479    1.513    0.339
       164 -11.8460    121.4840     36.8332   3.5709057197e+01   4.8634286758e+01    0.3852189    0.2554382 -41.32  0.001702487    1.638    0.389
       165  -9.2194     34.0078     55.0000   7.0776469493e+01   6.3359437388e+01    0.2162695   0.07028297  31.16 0.0007910286    2.864    0.651
       166  -9.3092     21.3103     37.6667   7.0966723183e+01   6.8128815095e+01    0.1161907   0.09913944  51.99 0.0007043169    1.675    0.403
       167  -9.2474    102.6936     36.2482   3.9441804575e+01   5.2956532379e+01    0.1254545   0.09494055  89.30 0.0001476239    1.503    0.335
       168 -10.4657     45.7946     33.8063   5.6950030443e+01   6.5016067690e+01    0.2657664    0.1801634 -43.59  0.001045001    1.793    0.442
       169 -10.1763      5.0819     35.2084   7.9847622152e+01   7.0292898470e+01     0.339064    0.1491169   8.14  0.001532887    2.457    0.593
       170  -9.7346     28.0940     33.7944   6.5606006179e+01   6.7852062615e+01    0.1648836    0.1201721 -15.59 0.0004117686    1.370    0.270
       171 -11.8616    212.9591     31.8913   2.3310041526e+01   3.0067957436e+01    0.1952719    0.1490904 -69.24 0.0002718326    1.008    0.008
       172 -11.0515    144.8479     32.0627   3.0563742043e+01   4.3948736553e+01    0.2936836    0.1979723 -67.35  0.001702306    1.511    0.338
       173 -10.7282     78.8864     21.4727   4.0276002341e+01   5.9918911404e+01    0.2421861    0.1978213  62.23  0.001108866    1.127    0.113
       174 -10.6939     81.2708     31.8987   4.3451359514e+01   5.8221530486e+01    0.3712708    0.2451241 -61.67   0.00189171    2.200    0.546
       175 -10.2324     80.4563     26.2214   4.1606481210e+01   5.9061186342e+01    0.2976493    0.2069428 -42.95  0.001211778    1.708    0.414
       176 -10.3376     55.0767     32.9517   5.2710089483e+01   6.3437138098e+01     0.191418    0.1588228  28.60 -0.001320134    1.045    0.043
       177  -9.1025    104.0786     33.0000   3.8085841777e+01   5.3037099360e+01    0.2182657   0.06537978  59.80 0.0007950741    2.892    0.654
       178  -9.3475     59.5176     32.5709   5.0847344811e+01   6.2632368090e+01    0.1326516    0.1093276  32.60 0.0001353213    1.049    0.047
       179  -9.9520    117.0518     31.3212   3.4915665839e+01   5.0294064389e+01     0.184721    0.1466278  68.81 0.0003812558    1.089    0.082
       180 -10.3701     88.1481     31.6602   4.1479035320e+01   5.6750862091e+01    0.3651506   0.06423073  49.67  0.001091768    4.387    0.772
       181 -12.2815     11.0533     29.8509   7.3883697564e+01   7.0639427251e+01    0.2944411    0.1983054  28.81  0.001777183    1.463    0.316
       182  -9.6982      1.3417     30.7876   8.0611917955e+01   7.1403482350e+01    0.1680891   0.09208454 -39.10 0.0003537642    1.644    0.392
       183  -9.6867    227.1904     30.0418   2.1922262086e+01   2.7754227994e+01    0.1370315   0.06842206 -41.64 0.0004080932    1.763    0.433
       184 -10.6917    130.0227     22.3027   3.0118339363e+01   4.8344394448e+01    0.2741705    0.2139491 -54.02 0.0009876878    1.345    0.256
       185 -11.1466    135.7425     29.0627   3.1107792815e+01   4.6324230858e+01    0.2575481    0.1760936  83.22 0.0003215206    1.364    0.267
       186 -10.5596    132.0937     26.6803   3.1014701916e+01   4.7409348083e+01     0.181644    0.1449534  64.82 0.0007137131    1.152    0.132
       187 -10.1059     39.1813     29.9606   5.8341043591e+01   6.6695381396e+01    0.2381819    0.1393926  18.97 0.0005737381    1.935    0.483
       188  -9.5533    127.9759     32.9863   3.3441548976e+01   4.7624128876e+01    0.1528459    0.1284849  75.67 0.0004104393    1.027    0.026
       189 -10.4891    216.9557     25.7243   2.1858466465e+01   3.0055662338e+01    0.1688533    0.1208836 -57.91 0.0003292344    1.139    0.122
       190  -9.7544    165.2020     26.6309   2.6664981953e+01   4.0142765977e+01    0.1635333   0.09360968  62.60 0.0001045724    1.659    0.397
       191 -10.1373     90.2025     24.5959   3.8489517076e+01   5.7098260674e+01    0.2798008    0.1492836 -48.32  0.001369271    2.356    0.576
       192 -11.4138     33.3145     24.0704   5.8575187754e+01   6.8472706017e+01    0.2697479    0.2126035  42.53 0.0002609433    1.355    0.262
       193  -9.5997    230.2005    247.3874   5.9713175169e+01  -6.1196187118e+00    0.1297789   0.09243425  18.41  0.000438303    1.521    0.343
       194 -10.1272      2.6915     26.4349   7.7940633258e+01   7.2042884454e+01    0.2273384   0.09672659  25.77  0.001130746    2.120    0.528
       195  -9.9465    104.0183     24.7401   3.5443025619e+01   5.3980897695e+01    0.1789062     0.141878  62.96 0.0002863793    1.069    0.065
       196 -10.5210    106.7704     21.2299   3.3770939766e+01   5.3724186558e+01     0.245456     0.161979  48.64 0.0003612818    1.447    0.309
       197 -10.0220     59.6985     24.8147   4.7622350705e+01   6.3563360700e+01    0.2502908    0.1572029 -39.68  0.001378323    1.918    0.479
       198 -10.3621     52.6535     23.7204   4.9802991312e+01   6.5074241830e+01    0.2736849    0.1877702 -40.91  0.001586714    1.798    0.444
       199 -11.6875     47.3938     23.6297   5.1895007020e+01   6.6077641715e+01    0.3569283    0.2057929  33.27  0.001905554    1.576    0.365
       200 -10.1505     25.7838     24.5561   6.2767704274e+01   6.9570737791e+01    0.2594904    0.1331207 -35.24  0.001113508    2.099    0.523
       201 -10.7829    212.7825     23.6884   2.1779515994e+01   3.1042041824e+01    0.2269642    0.1224128 -66.28 0.0009358829    1.584    0.369
       202 -10.3336    111.3317     24.3021   3.3861285520e+01   5.2369674437e+01    0.2392513    0.1138665  45.94 0.0007289819    2.194    0.544
       203  -9.6488    250.6151     23.4326   1.9359362788e+01   2.4640535602e+01    0.1026749   0.06644798 -62.33 0.0002659682    1.085    0.078
       204 -10.3175    200.6719     21.9550   2.2354982241e+01   3.3497121282e+01    0.1550045    0.1152693 -66.43 0.0005158483    1.070    0.066
       205 -10.8484    162.9840     20.6605   2.5514240673e+01   4.1265282208e+01     0.239026    0.2070541   5.43  0.001013521    1.756    0.430
       206  -9.5903     97.1232     22.0943   3.6036963183e+01   5.5814785072e+01    0.1655997    0.1330266  83.63  0.001022238    1.264    0.209
       207  -9.8921     83.6994     21.4911   3.9008002169e+01   5.8865445930e+01    0.2110997     0.148241  17.43   0.00118215    1.838    0.456
       208  -9.8534     21.0111     22.5005   6.4511390558e+01   7.0547109684e+01    0.1852572     0.100104  23.24 0.0009744229    1.695    0.410
       209 -10.8273     16.7703     21.0634   6.6359128317e+01   7.1326945875e+01    0.3372162    0.2106713  10.66  0.001947255    1.529    0.346
       210 -10.4078    131.3692    247.0900   7.9460744832e+01   4.4161622051e+00    0.1789817     0.157587 -13.81 0.0007635233    1.122    0.109
       211  -9.5739    124.4828     20.9729   3.0597542507e+01   4.9732930902e+01    0.1858868    0.1680143 -16.77 0.0005150409    1.413    0.292
       212 -10.5660    115.9905    246.9167   8.3023425105e+01   6.3202066515e+00    0.2057714    0.1789206   3.98 0.0006694897    1.040    0.038
       213 -10.8299     70.7181     18.6724   4.1526799326e+01   6.1964877369e+01    0.2143299    0.1904093  62.14 0.0005532124    1.150    0.131
       214 -10.1711      2.0375     20.2228   7.5683986676e+01   7.3127110092e+01     0.213202    0.1414048  29.73  0.001047374    1.581    0.367
       215 -10.6085     38.0338     18.8099   5.3844200192e+01   6.8348866324e+01    0.1820427    0.1592662  44.80  0.001000925    1.302    0.232
       216 -12.1538     24.3762     18.0622   6.0459201894e+01   7.0669874055e+01    0.2491252    0.1768255  21.81 0.0003686394    1.162    0.139
       217 -10.6991     52.4118    243.9025   9.8190614700e+01   1.4476110746e+01    0.2594934    0.1533369 -51.20  0.001321638    1.903    0.475
       218 -10.5447    225.5208     17.9792   1.9893094395e+01   2.9398318166e+01    0.1452976   0.08592968 -43.65 0.0003816216    1.530    0.346
       219 -10.0425     91.1161     18.1046   3.6009698247e+01   5.7564045251e+01    0.1974317    0.1462905  44.85   0.00055117    1.278    0.217
       220  -9.9362    147.9127     16.9077   2.6297869471e+01   4.4913235458e+01    0.1827924     0.116099 -69.44 0.0003776848    1.548    0.354
       221 -10.2887    239.9940     15.3238   1.8607333022e+01   2.7235186256e+01    0.1373141   0.09647161 -72.61  0.000370183    1.089    0.081
       222 -10.4776     38.8506     14.1361   5.1254226428e+01   6.8746424110e+01    0.1943629    0.1340231  27.67 0.0002593242    1.266    0.210
       223  -9.2240    194.6715    242.7223   6.5391127228e+01  -2.0212058012e+00    0.1256238    0.0753957 -11.24 0.0003419503    1.595    0.373
       224 -10.8862     37.4583    241.4777   1.0165659523e+02   1.6598156552e+01    0.4736263   0.09349559  43.44  0.001505938    4.109    0.757
       225 -10.0195    147.4846    243.4845   7.5306605724e+01   3.1505175406e+00    0.1326941    0.1090991  -0.82 0.0008102315    1.016    0.016
       226 -10.5040     31.6104    232.9491   1.0244998028e+02   1.9122454185e+01    0.3612339    0.1498623  30.16  0.001426306    2.058    0.514
       227  -9.4043     55.2910    231.6449   9.6333119839e+01   1.6905889887e+01    0.1443493   0.09234136  57.76 0.0007028239    1.682    0.405
       228  -9.4890    245.5838    230.5095   5.4667804155e+01  -5.0135824406e+00    0.1119541   0.07829547 -22.66 0.0001207041    1.014    0.014
       229  -9.8369    140.0012    227.9882   7.4707144279e+01   7.0496774299e+00    0.2120858    0.1660372  55.44  0.001147806    1.777    0.437
       230  -9.9676    223.4746    226.0162   5.7559192962e+01  -2.2831562610e+00     0.174633   0.07254079 -26.76 0.0006634981    2.503    0.600
       231 -11.8740      3.0569    220.8495   1.0877798057e+02   2.4535888525e+01    0.5188037     0.207028  70.13  0.001818363    2.866    0.651
       232 -10.6209      7.6623    221.0316   1.0764032755e+02   2.4117684735e+01    0.2816226    0.1138058 -78.28  0.001215166    2.436    0.589
       233  -9.4746     18.0368    219.7731   1.0492649152e+02   2.3521518608e+01    0.1754822     0.102344  25.42 0.0008747852    1.649    0.394
       234  -9.5912    210.3602    215.8178   5.8200163473e+01   7.3838716117e-01    0.1768236   0.08957837 -33.66 0.0006142108    1.665    0.399
       235  -9.5139     85.7762    215.1216   8.6411215468e+01   1.7042762871e+01     0.186257    0.1550432 -20.11 0.0002140748    1.278    0.218
       236  -9.8779    111.3146    214.3316   7.9619709723e+01   1.3783078549e+01     0.151387    0.1038421 -18.03 0.0007045676    1.681    0.405
       237 -10.2484     39.1382    207.2336   9.8235531109e+01   2.4556824672e+01     0.198063     0.187631  -2.42 0.0004637918    1.138    0.121
       238 -10.6963      5.6404    207.2024   1.0730913936e+02   2.7647421221e+01     0.201473    0.1232768 -84.62 0.0003789683    1.574    0.365
       239 -11.1143      2.9761    205.2505   1.0788859909e+02   2.8339061114e+01    0.2524445    0.1530473  76.24 0.0009452171    1.622    0.383
       240  -9.8061    237.6331    186.6145   4.8828230148e+01   2.5444006736e+00    0.1734978    0.1086587 -21.50 0.0007816934    1.549    0.354
       241  -9.2569     21.3392    179.7079   1.0066258730e+02   3.3443659223e+01    0.1521985   0.09643463  55.76 0.0002957694    1.648    0.393
       242  -9.4246     86.2105     10.3541   3.4367208437e+01   5.9377075897e+01    0.1656969    0.1004671  71.13 0.0002207583    1.523    0.344
       243  -9.3273    229.5054    165.5238   4.6414522118e+01   7.0051405224e+00    0.1224748    0.0957675 -34.31 0.0001740697    1.014    0.014
       244  -9.3006     39.3012    151.6900   9.1365624346e+01   3.9284930035e+01    0.1543549    0.1106639  61.40 0.0003615545    1.604    0.376
       245 -10.7521     22.4936    149.9886   9.6926835730e+01   4.1393252926e+01    0.2257848    0.1969902  17.56 0.0007312252    1.209    0.173
       246 -11.0202      6.3801    145.2236   1.0194745468e+02   4.3911295487e+01    0.2712112    0.2183084  81.22 0.0002477622    1.269    0.212
       247 -10.0144     13.5480    145.0424   9.9426156813e+01   4.3461686980e+01    0.1976263    0.1909946  -4.70 9.491575e-05    1.102    0.092
       248 -11.0438     29.3471    139.1498   9.2967461677e+01   4.3719705654e+01    0.3427083    0.2126461  46.29  0.001126669    1.777    0.437
       249  -9.5027      1.8526    140.1610   1.0299274315e+02   4.5556445825e+01    0.1940386    0.1427878 -49.27 0.0002906516    1.274    0.215
       250 -10.5824     21.5630    135.8095   9.5319591243e+01   4.5331571821e+01    0.2416886    0.1555243  67.30 0.0004243471    1.921    0.480
       251  -9.5513    235.5329    137.5249   4.0590841712e+01   1.0882905889e+01    0.1199463   0.09364597 -42.33 0.0008092259    1.008    0.008
       252  -9.8030     95.7493    133.9710   6.9089498311e+01   3.5729137628e+01    0.2256626    0.2001374 -51.64  0.001142457    1.134    0.118
       253  -9.7759     52.5796    130.2827   8.2885770989e+01   4.3449462202e+01    0.2910202    0.1525347 -66.95  0.001125613    2.094    0.522
       254  -9.6668      1.8984    131.2099   1.0199566938e+02   4.7958862628e+01    0.1989607    0.1426388 -43.01 0.0003681206    1.325    0.246
       255 -10.3681     27.9186    129.5231   9.1966016874e+01   4.6455557005e+01    0.2803802    0.2093297  68.87 0.0003591673    1.599    0.375
       256 -10.1992     14.5232    129.9490   9.7112220474e+01   4.7475111513e+01    0.2096384    0.1880455   3.89 0.0005327236    1.178    0.151
       257 -10.2298    247.4768    126.9781   3.7250113063e+01   1.0955687095e+01    0.1615905   0.07693809 -57.01 0.0004559455    2.388    0.581
       258  -9.6641     78.2552    126.4404   7.3001541799e+01   4.0597297120e+01    0.2147076    0.1428494  43.37 0.0009339552    1.558    0.358
       259 -10.0737     65.0002    125.2385   7.7330043990e+01   4.3001624123e+01    0.2068488    0.1928207  16.47  0.001086897    1.066    0.062
       260  -9.9187    208.3188    123.2827   4.1722571942e+01   1.7359559771e+01    0.1661574    0.1297103 -63.78  0.001000908    1.317    0.240
