#   1 NUMBER                 Running object number                                     
#   2 MAG_AUTO               Kron-like elliptical aperture magnitude                    [mag]
#   3 X_IMAGE                Object position along x                                    [pixel]
#   4 Y_IMAGE                Object position along y                                    [pixel]
#   5 X_WORLD                Barycenter position along world x axis                     [deg]
#   6 Y_WORLD                Barycenter position along world y axis                     [deg]
#   7 A_WORLD                Profile RMS along major axis (world units)                 [deg]
#   8 B_WORLD                Profile RMS along minor axis (world units)                 [deg]
#   9 THETA_WORLD            Position angle (CCW/world-x)                               [deg]
#  10 FWHM_WORLD             FWHM assuming a gaussian core                              [deg]
#  11 ELONGATION             A_IMAGE/B_IMAGE                                           
#  12 ELLIPTICITY            1 - B_IMAGE/A_IMAGE                                       
         1 -13.6684    214.9823     33.1093   4.0594219339e+01   2.7562561061e+01     1.081087    0.8685516 -53.76  0.004477899    1.163    0.140
         2 -13.2976    221.4673     26.4745   3.8339332839e+01   2.6879158916e+01    0.7553965    0.5699804  48.57  0.001516428    1.588    0.370
         3 -13.7064    237.2080     11.4119   3.3610352035e+01   2.5108943847e+01    0.7654433      0.59969 -65.08  0.002628527    1.065    0.061
         4 -10.4500      1.8665     13.7277   9.7051840945e+01   7.2439701469e+01     0.201712    0.1221256 -56.58  0.001257159    1.889    0.471
         5 -10.0343     91.7598      1.6481   5.1537898062e+01   6.0579820932e+01    0.2290756    0.1568072  65.16  0.001286725    1.537    0.349
         6 -15.4918      5.0599    177.8032   1.2385457654e+02   3.6089068046e+01     8.144985    0.9702298 -75.92    0.0234917    6.347    0.842
         7 -14.9363     79.7808    247.6136   1.1390364802e+02   1.3222561804e+01     7.762554     2.532151  27.97   0.02313515    6.615    0.849
         8 -10.8532     34.2612    237.7212   1.2182336531e+02   2.0730079457e+01    0.2420479    0.1257841  63.26 0.0007232373    1.630    0.387
         9 -10.6753     27.5050    250.4842   1.2377026725e+02   1.9096580122e+01    0.3080135    0.1675413  35.61  0.001278866    1.822    0.451
        10 -10.9219     61.4035    234.9757   1.1642413772e+02   1.8016233750e+01    0.3362541    0.1912296  67.25 0.0005694026    1.704    0.413
        11 -12.2228     31.9825    249.0116   1.2290309856e+02   1.8875222205e+01    0.5080031    0.4825824  79.40  0.003280337    1.446    0.308
        12 -10.1142     73.2964    230.5596   1.1364542700e+02   1.7311853167e+01    0.2853258    0.1117037  33.33  0.001037506    2.527    0.604
        13 -11.5558     37.8662    230.8708   1.2070039113e+02   2.1652676406e+01    0.3060419    0.2199792 -63.65 0.0003714699    1.621    0.383
        14 -13.6939     87.4939    228.5093   1.1050336504e+02   1.5733076515e+01     2.061935    0.8352487  50.09  0.009262422    2.255    0.556
        15 -11.2499     28.8228    245.9759   1.2329436529e+02   1.9777837140e+01    0.2906654     0.232129 -86.62  0.001621886    1.308    0.236
        16 -14.5708     10.8052    209.3895   1.2459900943e+02   2.8781167136e+01     1.505335     0.995463  66.97  0.009603083    1.210    0.173
        17  -9.6261     93.6943    220.0687   1.0824790521e+02   1.6498977926e+01    0.1739641    0.1577209  74.70 0.0004624094    1.105    0.095
        18 -11.9252     45.4211    217.5009   1.1821967842e+02   2.3479458111e+01    0.5050701    0.3050935  51.76  0.001924065    1.403    0.287
        19 -12.9028     26.3042    209.0072   1.2148884669e+02   2.7358469443e+01     0.385787    0.3024635 -53.63 0.0009651841    1.633    0.387
        20 -11.6293     40.3586    234.5915   1.2047601018e+02   2.0643181119e+01    0.2872652    0.2082914 -88.09   0.00054328    1.291    0.226
        21 -10.2070    192.6388    192.2452   8.1995434484e+01   5.0074832520e+00     0.363765    0.3168806  30.35  0.002116252    1.140    0.123
        22 -11.7455     55.8566    180.9913   1.1237629566e+02   3.0271310259e+01    0.3975242    0.2822363 -32.05  0.002099883    2.032    0.508
        23 -11.7821     61.7194    175.1171   1.1022566362e+02   3.0910982196e+01    0.3015152    0.2539102 -44.49 0.0005737215    1.390    0.281
        24 -12.7968     56.7925    128.9281   1.0463688526e+02   4.2814746189e+01      3.02289    0.8840551 -71.92  0.005700415   10.827    0.908
        25 -12.9260     79.1324    157.9759   1.0320602972e+02   3.2635358282e+01     1.502218    0.7583317  59.31  0.001098312    2.704    0.630
        26 -13.2612     68.2170    144.3107   1.0395347736e+02   3.7534820578e+01    0.8706344    0.6014033  84.63   0.00260427    1.728    0.421
        27 -13.3731     59.0744    161.4128   1.0909145208e+02   3.4530689664e+01    0.5242921    0.3063246 -44.25  0.001695796    2.002    0.500
        28  -8.8243    157.3801    160.2021   8.3367576629e+01   1.8007755591e+01    0.2083371     0.145272 -58.02 0.0005358368    1.686    0.407
        29 -12.0362     32.8625    156.2053   1.1530795695e+02   3.8701790856e+01    0.4657195     0.266892  88.75  0.002346857    1.784    0.439
        30  -9.4211    124.9437    153.9185   9.0156311698e+01   2.5807816189e+01    0.2302944    0.1821443  79.00 0.0004865273    1.582    0.368
        31 -10.0148    134.2205    146.9579   8.6245719933e+01   2.5595714275e+01    0.5150178    0.1322538 -52.63  0.001298173    4.773    0.791
        32 -11.3881     23.6301    147.6102   1.1677612931e+02   4.1610745007e+01    0.2514021    0.1961218  84.34  0.000996648    1.167    0.143
        33 -10.4653     95.2029    143.9836   9.6218885033e+01   3.3524344371e+01    0.3058244    0.2954924 -75.06  0.000724137    1.008    0.008
        34  -9.5843     98.3807    140.8304   9.4681366863e+01   3.3752380125e+01    0.3344079    0.2197172 -21.18   0.00128744    2.322    0.569
        35 -12.1110     83.1530    142.5193   9.9359250344e+01   3.5816399334e+01    0.3167931    0.2634346 -53.83 0.0003686867    1.169    0.145
        36 -11.0860     28.8355    142.7695   1.1481437872e+02   4.2328062665e+01    0.3105555     0.139466 -57.09  0.001455449    1.945    0.486
        37 -10.1585     77.8649    138.1878   1.0006610726e+02   3.7681063993e+01    0.2226158     0.187435  75.64 0.0005004862    1.281    0.220
        38 -11.5072     66.8857    127.6655   1.0132591346e+02   4.1835117015e+01    0.4642728    0.2475915 -66.34  0.001991537    1.906    0.475
        39  -8.9111    159.2876    135.6301   7.7328162777e+01   2.2874093952e+01     0.159152    0.1266622 -82.21 0.0007021272    1.709    0.415
        40 -10.6825    106.8990    131.7117   9.0276453859e+01   3.4437898065e+01    0.3854354    0.3371641  26.91  0.001176089    1.194    0.162
        41 -10.2978     94.5306    128.4393   9.3144480578e+01   3.7417476477e+01    0.2917763    0.2479267 -13.95 0.0009465883    1.359    0.264
        42 -11.2825     72.4285    164.9767   1.0608748889e+02   3.1899351679e+01    0.2985743    0.2456478 -63.09 0.0004469782    1.187    0.157
        43  -9.3797    114.9516    125.5182   8.6527286102e+01   3.4382565212e+01     0.222033    0.1396883  13.11 0.0008094804    2.557    0.609
        44  -9.4781    105.2338    120.1681   8.8046432802e+01   3.7490456670e+01    0.2180569    0.1979598 -19.73 0.0003967636    1.155    0.134
        45  -9.3589    168.0768    113.0822   6.9599886206e+01   2.5625547600e+01    0.2556519    0.1986217 -80.99  0.001131725    1.757    0.431
        46  -9.8548    205.2269    110.3679   6.1246409975e+01   1.7719839164e+01    0.3399773    0.2211854  38.16  0.001442587    1.712    0.416
        47  -8.7019    134.4843    102.5485   7.5087012235e+01   3.5462980558e+01    0.1576738    0.1525707   8.09 0.0001555297    1.021    0.021
        48 -10.4571     56.3549     95.8657   9.7932558860e+01   5.0900250944e+01    0.2312261    0.1881523  44.09 0.0006761148    1.405    0.288
        49  -9.6290     45.9957     91.5106   1.0059792052e+02   5.3113009977e+01    0.1924567    0.1342031  25.88  0.001028599    1.590    0.371
        50  -8.6699     83.7278     89.3207   8.6703416065e+01   4.8417717298e+01    0.1402678    0.1183929 -88.97 0.0002250769    1.569    0.363
        51  -9.2789     24.7788     82.7312   1.0649085769e+02   5.7078945393e+01    0.1571805    0.1407854  89.36 0.0003666583    1.304    0.233
        52  -9.7942    161.4818     81.5586   6.2441284568e+01   3.3278102082e+01    0.1524714    0.1495434  65.96 0.0001191353    1.020    0.019
        53  -8.6219    184.3356     77.3294   5.6597344318e+01   2.8448803749e+01    0.1550717    0.1175074  19.48 0.0007052036    1.728    0.421
        54 -10.5054     13.2453     60.1196   1.0599950935e+02   6.2866903619e+01    0.2063401    0.1610349 -42.74 0.0004731443    1.013    0.013
        55  -9.6056     29.2462     52.9080   9.6966203860e+01   6.3191897442e+01    0.1844026    0.1633165  17.28 0.0005886671    1.316    0.240
        56 -12.2820    198.7026     46.4567   4.5986440986e+01   2.9686894668e+01     1.024673    0.8832647 -45.05  0.005928093    1.164    0.141
        57 -13.0189    207.3528     37.3278   4.2522384469e+01   2.8823509936e+01    0.6580627     0.604486 -29.00  0.002582276    1.246    0.197
        58 -10.5979     40.7959    246.7585   1.2118676701e+02   1.8293487318e+01    0.2309374    0.1327662 -82.95  0.001425646    1.712    0.416
        59 -15.2736     35.9131    196.7082   1.1852465202e+02   2.9002699220e+01     3.392923     1.591652  70.10   0.01380397    2.356    0.576
        60  -9.8930    131.5379     38.8716   5.5867824554e+01   4.7409866982e+01    0.2852651    0.1909909  79.06  0.001146523    1.952    0.488
        61  -9.8844    131.6677     31.0919   5.3179593860e+01   4.8369197053e+01    0.2218287    0.1837734  71.12 0.0004484023    1.245    0.197
        62 -14.4897      7.7883    237.7616   1.2658133983e+02   2.3453742479e+01     1.775873      1.14957 -87.47   0.01293502    1.358    0.263
        63 -11.0357     53.0952    240.2705   1.1845108487e+02   1.8043087100e+01    0.3315273    0.2048672 -47.28  0.001615415    2.453    0.592
        64 -10.0505    189.6861     15.0958   3.8970830788e+01   3.5702405075e+01    0.1798717    0.1659579 -74.18 0.0008443845    1.101    0.092
        65 -10.4356     57.0051    239.0466   1.1760790080e+02   1.7791593656e+01    0.2307496    0.1685629  69.69 0.0009200516    1.161    0.138
