#   1 NUMBER                 Running object number                                     
#   2 MAG_AUTO               Kron-like elliptical aperture magnitude                    [mag]
#   3 X_IMAGE                Object position along x                                    [pixel]
#   4 Y_IMAGE                Object position along y                                    [pixel]
#   5 X_WORLD                Barycenter position along world x axis                     [deg]
#   6 Y_WORLD                Barycenter position along world y axis                     [deg]
#   7 A_WORLD                Profile RMS along major axis (world units)                 [deg]
#   8 B_WORLD                Profile RMS along minor axis (world units)                 [deg]
#   9 THETA_WORLD            Position angle (CCW/world-x)                               [deg]
#  10 FWHM_WORLD             FWHM assuming a gaussian core                              [deg]
#  11 ELONGATION             A_IMAGE/B_IMAGE                                           
#  12 ELLIPTICITY            1 - B_IMAGE/A_IMAGE                                       
         1 -14.6267     14.9822    132.9160   1.1107087828e+02   4.6341333287e+01     2.457567    0.9559308 -75.59   0.01008257    2.458    0.593
         2 -12.8401      4.4343     52.0559   9.9816495515e+01   6.5542087661e+01    0.9935331     0.337194 -52.36  0.004714204    2.210    0.548
         3 -13.9315     12.4493     43.8411   9.3478117086e+01   6.6564891279e+01     1.365126      1.05136 -46.03  0.006834269    1.260    0.206
         4 -13.4565    215.3216     35.5818   3.6793737178e+01   2.7523679934e+01     1.385078      1.00206 -47.62  0.008559287    1.298    0.229
         5 -11.9503     81.0009     37.7057   6.2538401467e+01   5.7838454832e+01    0.8218505    0.5423697  -8.35  0.004210783    1.860    0.462
         6 -12.1465     76.7377     32.4835   6.1933311608e+01   5.9369820071e+01    0.7880415    0.5150257   4.37  0.004042953    1.921    0.479
         7 -13.0245    234.5474     31.5150   3.4155713083e+01   2.4028055558e+01    0.9319945    0.6027129  88.55  0.005759416    1.446    0.308
         8 -12.1499     26.4965     29.7824   8.1340256081e+01   6.7627278079e+01     0.660678    0.4189309 -36.60  0.003211488    1.474    0.322
         9 -12.3440     59.9400     23.9398   6.4355547408e+01   6.3554544483e+01    0.8952298    0.4969029  28.48  0.004646796    1.790    0.441
        10 -12.5383     49.2139     27.3826   7.0031061852e+01   6.4887477953e+01     0.743464    0.4348999 -25.36   0.00409785    1.736    0.424
        11 -12.3099     43.6195     23.3450   7.0666256559e+01   6.6289608361e+01    0.9288579    0.3957261 -37.58  0.004520033    2.444    0.591
        12 -11.8172    203.3209     22.5222   3.5130943274e+01   3.1734499884e+01    0.4766295    0.3612223  68.61  0.003029444    1.307    0.235
        13 -13.1885    124.6300      5.5602   4.0715724715e+01   5.1717594701e+01     1.202442     0.586787  69.34  0.005931958    1.805    0.446
        14 -13.3945    145.6879      9.6402   3.8701528025e+01   4.6420468112e+01    0.8946356    0.8272604  22.01  0.006067608    1.314    0.239
        15 -12.8085    123.4401     16.8675   4.4524241249e+01   5.0966960083e+01     1.089254    0.4976415  50.01  0.005095874    1.927    0.481
        16 -11.0417    168.5941     10.9751   3.6112838821e+01   4.0905612153e+01     0.398141    0.1560075 -68.33  0.001262967    5.180    0.807
        17 -10.5582     90.4014      4.2455   4.7082733416e+01   5.9522856809e+01    0.3760072    0.1926309 -17.83  0.001952425    2.318    0.569
        18 -11.0759    173.3043      2.5796   3.3498969241e+01   4.0609368741e+01    0.2851433    0.1987423  89.58  0.001508114    1.235    0.190
        19 -10.7105    164.6792      2.2847   3.4341950247e+01   4.2630591909e+01    0.2244571      0.16603 -74.52    0.0014056    1.279    0.218
        20 -11.4795     49.8543    173.5592   1.0646785730e+02   3.2646890252e+01    0.2663643    0.2524944 -58.29 0.0004791529    1.164    0.141
        21 -11.2325     88.7653    250.0790   1.0616757894e+02   1.0236963872e+01    0.2834168    0.1628709  32.67  0.001513103    1.616    0.381
        22 -10.4164     56.3406    239.6053   1.1195435454e+02   1.6693863316e+01    0.2975075    0.2674345 -11.73  0.001981799    1.582    0.368
        23 -10.5130     63.1189    163.4509   1.0141862152e+02   3.3459101102e+01    0.2521299    0.2235497 -70.74 0.0003620916    1.070    0.065
        24 -12.8177     48.0728    159.8497   1.0508762778e+02   3.6297398412e+01    0.5342039    0.3183473 -35.58  0.001747612    2.219    0.549
        25  -8.8555    132.5858    158.8311   8.1759356951e+01   2.2866410344e+01    0.2072243    0.1477037 -64.24 0.0007745932    1.601    0.375
        26 -11.7864     72.7856    156.5339   9.7561408147e+01   3.3828800311e+01    0.5798824    0.4849567  12.04  0.003059785    1.411    0.291
        27 -12.9470     42.1411    149.2942   1.0525316397e+02   3.9654144732e+01    0.7211164    0.6069514  42.33   0.00387185    1.263    0.208
        28 -12.2087     43.7975    144.5882   1.0405089318e+02   4.0657468118e+01    0.6465526    0.3599493  48.91  0.002760848    1.979    0.495
        29 -12.1730     67.8116    143.5399   9.6683730234e+01   3.7831128388e+01    0.7511189    0.4469943  60.74  0.003027406    2.184    0.542
        30 -13.0515     88.5658    126.5973   8.6883183760e+01   3.8768585495e+01    0.9495578    0.6840328 -61.49  0.002465494    1.427    0.299
        31 -10.7069     88.5983    143.2349   9.0481198405e+01   3.4672780100e+01    0.3497708    0.2495589 -55.90   0.00110897    1.362    0.266
        32 -11.4070     92.5494    140.2702   8.8712645360e+01   3.4735147666e+01     0.513821    0.3912621  25.55  0.001332571    1.444    0.307
        33 -11.4652     76.1154    141.5856   9.3830256591e+01   3.7089073842e+01    0.3166252    0.2716847 -52.17 0.0003001809    1.131    0.116
        34 -12.5383    243.5585    134.0350   5.4080423168e+01   6.5875320350e+00    0.6355042    0.4647878  21.92  0.003585587    1.824    0.452
        35 -12.2532     29.6709    136.9684   1.0715882463e+02   4.4060987480e+01    0.5285041    0.3775657 -36.03  0.002469871    1.559    0.359
        36 -10.6895    105.1967    131.2081   8.3038875283e+01   3.4658405934e+01    0.4881355    0.3505076  20.75  0.002186471    1.676    0.403
        37 -11.4794     64.4575    124.4843   9.3956402511e+01   4.3080501029e+01    0.3453868    0.2836233  31.16  0.001722527    1.292    0.226
        38 -14.8682     13.3542    200.9229   1.1812904276e+02   3.0010116338e+01     2.095978     1.517693 -76.43   0.01328057    1.260    0.206
        39 -10.6273     22.6802    104.8215   1.0417690078e+02   5.2604439903e+01    0.4256878    0.2836784 -79.45  0.002258308    1.607    0.378
        40 -11.1962     27.5033    105.0119   1.0250282999e+02   5.2141345111e+01    0.3294414     0.249259   6.21  0.001265806    1.513    0.339
        41 -13.1439     33.8605    115.2532   1.0223245842e+02   4.9055267528e+01     1.018272     0.656372 -52.57  0.005309958    1.363    0.266
        42 -11.6436     24.4154    112.3163   1.0491686021e+02   5.0647655775e+01    0.4540909    0.3665468 -42.95  0.002430374    1.172    0.147
        43  -9.3025    102.6958    119.8692   8.1051569874e+01   3.7813708365e+01    0.2073326    0.1919029 -57.99 0.0003817166    1.085    0.078
        44 -11.4185     94.7570    134.6843   8.6856801116e+01   3.5720590433e+01    0.4849574    0.4289462 -44.61  0.001919174    1.124    0.110
        45 -11.2756     51.3393    108.6381   9.4890019171e+01   4.8703113060e+01    0.4912824    0.4172652  79.02  0.002584407    1.397    0.284
        46 -10.9580     50.1362    103.8778   9.4232258727e+01   4.9989347396e+01    0.3822894     0.321284  39.28  0.001638227    1.306    0.235
        47 -10.9466     72.9840    105.1217   8.6675946392e+01   4.6464461813e+01    0.5745685    0.3677744 -22.57  0.002466039    2.095    0.523
        48 -10.4476     34.9992     92.6324   9.7146894936e+01   5.4336727120e+01    0.3445995    0.2283975 -14.97  0.001761304    1.778    0.438
        49 -11.7578     35.7170    102.2163   9.9002214886e+01   5.2018838651e+01    0.4813396    0.3907955  28.41  0.002276398    1.359    0.264
        50 -10.8384     51.7474     97.4118   9.2121072885e+01   5.1300775781e+01    0.2840077    0.2342305 -28.92  0.001154386    1.187    0.157
        51 -11.0260     51.5310     91.7150   9.0767973389e+01   5.2632154168e+01    0.5193421    0.3631226 -36.62  0.002701868    1.375    0.273
        52 -11.7209     30.6382     79.9634   9.5777505076e+01   5.7627528357e+01    0.7073972    0.4722652  37.57  0.003503143    1.735    0.424
        53 -11.5000     36.2532     72.5092   9.1512820887e+01   5.8650823588e+01    0.6832688    0.4153809 -53.95  0.003571013    1.569    0.363
        54 -10.4225      9.4183     77.2908   1.0374296396e+02   5.9928409024e+01    0.2926879     0.223651 -30.31  0.001210353    1.207    0.171
        55 -10.5588     51.3798     74.1917   8.5966167005e+01   5.6451908993e+01    0.2832149    0.2356779 -23.03  0.001655375    1.114    0.103
        56 -10.7109      8.4795     71.5540   1.0286730200e+02   6.1242528609e+01    0.2994626    0.2218933  -9.60  0.001892492    1.397    0.284
        57 -11.2165    132.0420    247.8014   9.6777566384e+01   4.2919273352e+00    0.2057595    0.1959107 -44.07 0.0008305988    1.232    0.188
        58  -8.9924     15.1066    248.1725   1.2073651599e+02   1.9741158276e+01    0.1557528   0.09739733  67.85 0.0003940946    1.282    0.220
        59 -10.9771     56.8918     49.8620   7.5739432322e+01   6.0247058758e+01    0.5527934    0.2622945  33.08  0.002532631    2.086    0.521
        60 -12.3372    223.3930     41.5460   3.7252548807e+01   2.5033885847e+01    0.7228292    0.4235395 -46.15  0.003388296    1.514    0.340
        61  -9.8564     59.5481    246.0599   1.1184586368e+02   1.4979099868e+01      0.16755    0.1138739 -78.16 0.0004938738    1.539    0.350
        62 -11.3572     40.7352     45.0382   8.0681692853e+01   6.3383666153e+01    0.6698676    0.2875356  25.89  0.002983652    2.508    0.601
        63 -11.4520     86.2441     43.7081   6.3085702960e+01   5.5948295339e+01    0.7499677    0.5080134   3.01  0.003723574    1.913    0.477
        64 -13.9868     53.1775    211.8237   1.1004250320e+02   2.3097268266e+01     2.989167      1.25038  83.23  0.009332187    5.062    0.802
        65 -14.0678     78.1016    229.4155   1.0626980182e+02   1.5888143850e+01     1.832211      1.20219  42.41   0.01017083    1.337    0.252
        66 -14.8209    108.9899    229.0316   9.9330339091e+01   1.1391207126e+01     2.675714    0.9023324  37.26    0.0103697    2.551    0.608
        67 -10.2733     11.6835    238.6722   1.2086720980e+02   2.1994974047e+01      0.23859    0.1819019  77.83  0.001695644    1.082    0.076
        68 -10.9745     53.7732     31.4538   6.9867229552e+01   6.3598583698e+01    0.4739543    0.3203032   5.99  0.002584666    1.582    0.368
        69 -10.9049     11.2205    234.5768   1.2072890498e+02   2.2880977182e+01    0.2898085    0.2721201 -56.78   0.00220629    1.487    0.327
        70 -11.4771     44.1936    233.8635   1.1401273474e+02   1.9394403098e+01    0.4241164    0.3048805  72.46  0.001518625    1.230    0.187
        71 -10.6322     27.5802    228.6618   1.1707251230e+02   2.2409559384e+01    0.4677949    0.2048115  62.13  0.002257969    2.234    0.552
        72 -10.5678     37.1759    236.9190   1.1569974917e+02   1.9588927222e+01     0.432434    0.1795381  44.32  0.002175322    1.959    0.490
        73 -11.2217     38.1172    211.8209   1.1346616309e+02   2.4922521054e+01    0.5134692    0.2951858  71.27  0.002059003    1.749    0.428
        74 -14.5697     13.6114    155.0219   1.1404677809e+02   4.0975066818e+01     2.169692     1.375563 -66.34   0.01185149    1.354    0.262
        75 -10.3580     69.0569    207.5973   1.0586724195e+02   2.1953990594e+01    0.3865779     0.282602  83.63    0.0021161    1.409    0.290
        76  -9.2106      2.3016    249.6712   1.2316399671e+02   2.0733368074e+01    0.1202389   0.05828336  62.89 0.0007032507    1.645    0.392
        77 -11.3399     41.8859    180.1143   1.0935164238e+02   3.1977382568e+01    0.2760556    0.2509738 -53.39  0.000473981    1.238    0.192
        78 -14.0201      4.5460    132.8711   1.1420097464e+02   4.7096086135e+01     2.092641    0.5890847 -75.31  0.007588795    3.253    0.693
