#   1 NUMBER                 Running object number                                     
#   2 MAG_AUTO               Kron-like elliptical aperture magnitude                    [mag]
#   3 X_IMAGE                Object position along x                                    [pixel]
#   4 Y_IMAGE                Object position along y                                    [pixel]
#   5 X_WORLD                Barycenter position along world x axis                     [deg]
#   6 Y_WORLD                Barycenter position along world y axis                     [deg]
#   7 A_WORLD                Profile RMS along major axis (world units)                 [deg]
#   8 B_WORLD                Profile RMS along minor axis (world units)                 [deg]
#   9 THETA_WORLD            Position angle (CCW/world-x)                               [deg]
#  10 FWHM_WORLD             FWHM assuming a gaussian core                              [deg]
#  11 ELONGATION             A_IMAGE/B_IMAGE                                           
#  12 ELLIPTICITY            1 - B_IMAGE/A_IMAGE                                       
         1 -16.9109    137.8709     66.1554   7.1342195638e+01   4.1646169675e+01     24.92264     11.65081 -28.33   0.05267113    2.524    0.604
         2 -18.6961    117.5227    186.2046   1.0496233654e+02   2.0116855931e+01     4.157163     3.210289  29.72   0.02063255    1.466    0.318
         3 -10.7638    225.0982     34.1227   4.6630003934e+01   2.4561952308e+01    0.5269669    0.3270324 -28.92  0.002608363    1.649    0.394
         4 -12.5195    144.6378     32.0890   5.8270874600e+01   4.5247774605e+01    0.8018498    0.6405681  27.33  0.002147228    1.329    0.247
         5 -14.3480    153.8765     22.6687   5.3304958543e+01   4.4050550269e+01     2.979563     2.282438   1.31   0.01546736    1.531    0.347
         6  -9.0766    189.9731     14.8302   4.5550958095e+01   3.5624646063e+01    0.2314068     0.203695 -29.82 0.0007594622    1.234    0.189
         7 -12.8026    134.4650     10.9632   5.2759426531e+01   5.0172355192e+01     1.504833    0.9748142  28.02  0.004666033    1.699    0.411
         8 -11.5156    119.6075      9.6437   5.5260928323e+01   5.3893647993e+01    0.6213043    0.3891683  39.32  0.002863914    1.499    0.333
         9  -8.8080     17.3020      4.6593   8.9779669779e+01   7.2315292310e+01   0.09583931   0.08627898 -44.24 0.0007038158    1.673    0.402
        10  -9.1281    206.0006    242.2263   9.6036768340e+01  -4.2245676867e+00    0.2415656    0.1741408  21.25  0.001599161    1.190    0.160
        11 -10.2416    249.1317    249.6701   8.9812632353e+01  -1.1318302628e+01    0.2867889    0.1781208  27.20   0.00196106    1.246    0.197
        12  -8.7628    165.4629    249.2411   1.0426219527e+02   1.2240698910e+00     0.183709    0.1161837 -38.72 0.0009752736    2.040    0.510
        13  -8.8361     96.5123    249.8396   1.1664398111e+02   1.1670304154e+01     0.305106    0.1177822  44.27  0.001581849    1.987    0.497
        14 -10.0030     91.0668    246.9998   1.1734571639e+02   1.2909931885e+01    0.3193355    0.1615419  63.12  0.001059858    1.957    0.489
        15  -8.0361    180.4356    243.4789   1.0079560331e+02  -3.6672338856e-01    0.1199023   0.09545536  34.77 4.714676e-05    1.021    0.021
        16  -8.6671     12.6721    249.6984   1.3042443953e+02   2.2020057297e+01   0.08104271   0.07213122 -83.33 0.0003030171    1.643    0.391
        17  -9.5837     26.6324    195.2214   1.2503307307e+02   3.0785338438e+01    0.1939069    0.1586555 -70.36 0.0003640807    1.410    0.291
        18 -10.0532      2.9884    201.1493   1.2977460774e+02   3.1852499668e+01    0.2783284    0.1689392 -82.18  0.001960011    1.358    0.264
        19 -10.9885     25.8853    199.7939   1.2549666701e+02   2.9927558541e+01     0.460854    0.1904447  87.56  0.002264315    2.437    0.590
        20  -8.0735    216.6623    199.6949   8.7024915330e+01  -2.2469240475e-01    0.1345143    0.1172967  17.60 0.0004172902    1.068    0.064
        21  -9.2435    214.3063    196.5143   8.6873703280e+01   6.5375280518e-01    0.2426104    0.1957561   7.39   0.00054455    1.154    0.133
        22  -9.6525     18.2359    196.1395   1.2669521253e+02   3.1441283284e+01    0.2759263    0.1234947 -76.67  0.001388628    1.879    0.468
        23  -9.5304    219.1088    195.2363   8.5744058354e+01   7.0554206292e-03    0.2274471    0.1831183 -29.42 0.0005828066    1.316    0.240
        24 -10.4141    249.9362    192.3426   7.9734610496e+01  -4.7207894515e+00    0.2163862    0.1744043  -6.00 0.0001836413    1.073    0.068
        25  -9.8016    245.9909    240.0154   8.8807497450e+01  -9.8807316323e+00    0.1417358     0.106122  12.86  0.001008255    1.023    0.022
        26  -9.8846     43.9869    186.9365   1.2089515626e+02   3.0625908456e+01    0.3525231     0.112952 -64.49  0.001567387    2.746    0.636
        27  -9.9930      3.3446    230.6029   1.3107470674e+02   2.6261761452e+01      0.43157    0.1211195  65.11  0.002088817    3.180    0.686
        28  -9.3017    185.0753    228.8000   9.7818781338e+01   9.1510807902e-01    0.3263709    0.2335315 -45.47  0.002006569    1.734    0.423
        29  -9.9272    203.0055    186.3731   8.7101298753e+01   4.2640405477e+00    0.3311597    0.2504776  16.09  0.001043228    1.335    0.251
        30  -8.2244     12.5001    186.4371   1.2716230182e+02   3.3983483820e+01    0.1127179   0.08437962  82.35 0.0001897625    1.031    0.030
        31  -8.7223    242.0414    185.3174   7.9723176271e+01  -2.4722955215e+00    0.1761964    0.1454888  16.89 0.0003978524    1.096    0.087
        32  -9.5470     21.1631    230.8433   1.2819588157e+02   2.4445064750e+01    0.1695737    0.1011584  67.67 0.0006352316    1.231    0.188
        33  -8.9123     23.1678    182.5978   1.2478407995e+02   3.3780662845e+01    0.2340313    0.1380192  69.72  0.001439498    1.459    0.315
        34  -8.9056    220.0423    178.5491   8.2326254439e+01   2.3804128193e+00    0.2219763    0.1709753   4.41 0.0009824845    1.298    0.229
        35  -9.0282     15.1325    178.5175   1.2610411707e+02   3.5412397401e+01    0.2240322    0.1138607 -63.96  0.001046135    1.869    0.465
        36  -8.3479     35.3049    174.6794   1.2159423200e+02   3.4250734044e+01    0.1798813      0.16565 -72.36  0.001294071    1.339    0.253
        37  -8.7660     33.2430    171.9980   1.2178999510e+02   3.5059183348e+01    0.1952253    0.1322026  76.96 0.0005874228    1.271    0.213
        38  -9.3793    215.1889    240.1582   9.4104801228e+01  -5.3831895753e+00    0.1821981    0.1309552  16.13 0.0007023484    1.226    0.184
        39 -10.3706     20.2262    172.4736   1.2460146569e+02   3.6243731193e+01    0.3835028    0.1640811  83.45  0.001712938    2.440    0.590
        40  -9.8722     18.5088    166.8701   1.2451344117e+02   3.7628569772e+01    0.2873147    0.1314188  59.85  0.001511188    2.124    0.529
        41  -9.3181    203.6394    170.9397   8.3904401946e+01   6.7111501859e+00    0.3125217    0.2099261 -15.04  0.001500289    1.773    0.436
        42  -9.9757    205.6644    164.4632   8.2156615153e+01   7.4257692763e+00    0.6306038    0.3745296  52.08  0.002783422    1.894    0.472
        43  -9.9756     46.6448    226.5206   1.2356430536e+02   2.2382393503e+01    0.3863083    0.1950754  77.84  0.001748353    1.918    0.479
        44 -10.1712    220.0663    237.6770   9.2865992657e+01  -5.8272592341e+00    0.3278235    0.1722762  46.40   0.00177848    2.021    0.505
        45 -17.3845    120.2976    168.7807   1.0148915624e+02   2.3313341593e+01     5.496042    0.9500825  43.68   0.01432392    5.226    0.809
        46  -9.2830    178.4073    226.4530   9.8713675814e+01   2.3677970565e+00    0.2609528    0.1931608   3.01  0.001544652    1.659    0.397
        47  -9.6910     30.0923    236.2416   1.2701055223e+02   2.2511945677e+01    0.3362626    0.1029297  56.52  0.001702662    2.597    0.615
        48  -9.3568     26.0813    232.9988   1.2749604763e+02   2.3531975461e+01    0.2550729    0.1174511  65.95  0.001132557    1.759    0.432
        49  -8.4080    190.5134    223.8921   9.6046774719e+01   7.1268816697e-01     0.169743    0.1235741 -34.46   0.00103096    1.587    0.370
        50  -9.8771    250.1022    146.6358   7.0304572779e+01   1.8468139036e+00    0.6638563    0.1680254 -37.55  0.002209756    3.534    0.717
        51  -9.9737      2.5014    212.7810   1.3042660704e+02   2.9639121748e+01    0.2250105    0.1649525  82.83 0.0006232556    1.125    0.111
        52  -8.6780     21.6404    150.1726   1.2231961308e+02   4.1087848619e+01    0.1766461   0.08588031 -65.60 0.0007870595    1.711    0.415
        53  -9.7322    199.8837    147.4589   7.9573533342e+01   1.1619293566e+01    0.3166071    0.2456531 -24.92   0.00110549    1.306    0.234
        54  -9.2925    193.2248    145.1224   8.0384341224e+01   1.3455407922e+01    0.4189925    0.2876868 -77.17  0.001670221    2.704    0.630
        55  -8.7893     10.2398    156.4186   1.2546263599e+02   4.0650219347e+01    0.1512747   0.09239108  51.10 0.0008789282    1.620    0.383
        56  -8.2387    220.2299    145.4445   7.5218041913e+01   7.7852134564e+00    0.1770685    0.1404249  56.45 0.0005307401    1.480    0.325
        57 -10.6740    180.6916    142.8967   8.2488091229e+01   1.6565325490e+01    0.4552092    0.2949795 -12.89  0.001359085    2.311    0.567
        58  -7.8671     23.6446    142.6932   1.2107639605e+02   4.2624611360e+01    0.1203363   0.08126556 -47.50 0.0007041768    1.721    0.419
        59 -11.4668     10.4655    216.7806   1.2926798056e+02   2.8133954064e+01    0.5613192    0.2146056  83.02  0.002986596    2.445    0.591
        60  -9.7949     45.9318    129.6953   1.1369042273e+02   4.3478609605e+01    0.1775121    0.1608216  87.71 0.0005723465    1.108    0.098
        61 -11.9029     11.0587    207.4326   1.2867529235e+02   2.9877045876e+01    0.5759638    0.3938475  42.45  0.003678697    1.577    0.366
        62  -9.6324    180.7836    121.7170   7.7366028739e+01   2.0709075101e+01    0.5095438    0.2893734 -55.33    0.0012363    2.213    0.548
        63  -9.7114     32.3429    120.9876   1.1611286320e+02   4.6919039917e+01    0.6414797    0.1699602 -49.33  0.002225258    4.011    0.751
        64 -10.4743    248.3824    120.6381   6.4732375745e+01   6.2508539627e+00    0.4413776    0.3217933  40.87  0.001553138    1.499    0.333
        65 -10.0504     35.6269    213.9085   1.2466320768e+02   2.6065746982e+01      0.37365    0.1039638  42.88   0.00177936    2.789    0.641
        66  -8.8902    188.8717    209.7921   9.4063758765e+01   3.0946308753e+00    0.2064574    0.1796366 -19.33 0.0005631006    1.248    0.199
        67 -10.7215    168.1661    114.1499   7.8182311405e+01   2.5121173699e+01    0.4371935     0.368337  56.56 0.0009363838    1.235    0.190
        68 -17.0944    127.9254    200.9319   1.0493889493e+02   1.5398361934e+01     2.258305     1.822402  86.23  0.008580615    1.368    0.269
        69  -8.3070    138.9773    248.4751   1.0894123473e+02   5.4979006297e+00     0.186282   0.09346722  41.76 0.0005400106    1.570    0.363
        70  -8.5042    232.2865    217.4628   8.7386052804e+01  -5.2126998948e+00    0.1573038    0.1055076  42.31 0.0008906277    1.552    0.356
        71  -9.1710    207.7600    111.0253   6.9285703630e+01   1.6545875448e+01    0.3741731    0.2368106 -19.68  0.001579299    1.896    0.472
        72 -11.2084     70.3184    107.6733   1.0265997301e+02   4.5714479073e+01    0.8858758    0.3570338  25.60  0.003102408    3.784    0.736
        73  -9.8687    198.1863    205.4411   9.1531145123e+01   2.1308432714e+00    0.4226631    0.2113179  40.81  0.002033239    1.774    0.436
        74  -8.2364     38.3101    103.3017   1.1150366695e+02   5.0537576335e+01    0.1312837   0.08573948 -40.97 0.0003531589    1.605    0.377
        75  -8.6920    229.5890    203.4773   8.5370660876e+01  -2.9348453943e+00    0.2895763    0.1634477   0.14  0.001322364    2.554    0.608
        76  -9.2985    175.0599    231.7281   1.0012027213e+02   2.1511521952e+00     0.191891    0.1725533  -6.80 0.0002234297    1.262    0.208
        77  -8.7617    237.3247     95.3025   6.0401643608e+01   1.2627403603e+01    0.1428909    0.1099688  10.90 0.0005309206    1.638    0.389
        78  -9.7494     12.1036     85.2828   1.1664435839e+02   5.6795049571e+01    0.3118978      0.14426 -43.30  0.001609206    2.073    0.518
        79  -9.1805    232.4831     79.3337   5.7158873409e+01   1.6262933750e+01    0.2405351    0.1360435  60.05  0.001073027    1.925    0.480
        80 -10.5093    203.6260    201.2182   8.9745802762e+01   1.8186345388e+00    0.5706473    0.3364985  11.55  0.002575302    2.446    0.591
        81 -10.2317    113.5193     70.3751   7.9219952759e+01   4.6338979679e+01    0.3121635    0.2908872  -5.76 0.0005768508    1.060    0.057
        82  -9.8872    209.6408     63.3333   5.6379364269e+01   2.4190750828e+01    0.4164852    0.2750187 -30.26  0.001307356    1.516    0.340
        83 -10.5956    221.8766     39.7863   4.8457450611e+01   2.4595036309e+01    0.4928743     0.223068 -36.69  0.001899961    2.010    0.502
        84  -9.4316     82.9274    246.6968   1.1874264947e+02   1.4097774521e+01    0.2712611    0.1769924  62.30  0.001421449    1.239    0.193
        85  -9.7026     76.1654    243.0848   1.1962495688e+02   1.5633115198e+01    0.4059947    0.1766727  57.30  0.002190669    1.999    0.500
        86  -9.0640     71.9008    239.8398   1.2011058520e+02   1.6767304293e+01    0.2298315    0.1349109  46.82 0.0006118373    1.400    0.286
        87  -8.5547     69.6724    247.3112   1.2107577915e+02   1.5780188116e+01    0.1748055    0.0897417  64.18 0.0005861029    1.729    0.421
        88  -8.9096    130.0069    244.8627   1.1015595525e+02   7.4453373939e+00    0.1668154    0.1380861  29.59 0.0004661252    1.336    0.251
        89  -8.3893     95.7027    243.1012   1.1617146413e+02   1.2895569623e+01     0.282066    0.1484118  80.47  0.001197487    2.726    0.633
