#   1 NUMBER                 Running object number                                     
#   2 MAG_AUTO               Kron-like elliptical aperture magnitude                    [mag]
#   3 X_IMAGE                Object position along x                                    [pixel]
#   4 Y_IMAGE                Object position along y                                    [pixel]
#   5 X_WORLD                Barycenter position along world x axis                     [deg]
#   6 Y_WORLD                Barycenter position along world y axis                     [deg]
#   7 A_WORLD                Profile RMS along major axis (world units)                 [deg]
#   8 B_WORLD                Profile RMS along minor axis (world units)                 [deg]
#   9 THETA_WORLD            Position angle (CCW/world-x)                               [deg]
#  10 FWHM_WORLD             FWHM assuming a gaussian core                              [deg]
#  11 ELONGATION             A_IMAGE/B_IMAGE                                           
#  12 ELLIPTICITY            1 - B_IMAGE/A_IMAGE                                       
         1 -15.4890    244.1785    166.3956   2.8899708765e+01   2.3015639386e+00     4.860816     1.024514 -36.26   0.01684919    4.018    0.751
         2 -15.9978      8.0305    135.8227   8.3643696496e+01   4.6056961649e+01     3.116306     1.407242 -88.35   0.01368108    2.067    0.516
         3 -14.9579     14.0449     69.9765   7.2416198782e+01   6.2846421715e+01     2.475557     1.540498 -78.93   0.01255248    1.658    0.397
         4 -14.1246    246.9639     53.6612   5.0225771986e+00   1.8328533993e+01     3.539611    0.9645467 -31.11  0.006030824    3.571    0.720
         5 -13.6500    197.7844     47.2194   8.4044138857e+00   2.9508658172e+01     1.658743     1.024526  -8.18  0.007234588    2.708    0.631
         6 -14.1108    209.0522     55.5982   9.2256682385e+00   2.5794785670e+01     1.361618    0.9035617 -43.80  0.007349072    1.306    0.234
         7 -13.4354    188.3181      5.6987   3.5842137326e+02   3.6642432983e+01     0.919494     0.611217  79.83  0.004962949    1.385    0.278
         8 -13.4922    213.2967     35.5123   3.8502203404e+00   2.7545511210e+01     1.218171    0.2747948 -39.25  0.004464386    3.121    0.680
         9 -13.2902      5.8024     30.5042   6.6229135916e+01   7.2531815811e+01     0.897025    0.4113599 -40.71  0.003288906    1.829    0.453
        10 -11.7507     21.8061     15.0187   4.7154155676e+01   7.4006761514e+01    0.3423111    0.2700702 -84.92  0.001840916    2.683    0.627
        11 -13.5123    203.9396     18.1424   3.8446846420e-01   3.1702058296e+01     1.492158    0.6460876 -58.53  0.006744027    2.224    0.550
        12 -11.5055    244.8448      4.3848   3.5475679998e+02   2.4544639943e+01    0.5115358    0.2410966 -70.84  0.002856047    1.936    0.484
        13 -11.8695     24.5277      9.6656   4.1907208836e+01   7.4493005568e+01    0.2372909    0.1822145   9.91  0.001314863    1.149    0.130
        14 -11.9792    209.1524      4.7083   3.5674624291e+02   3.1944982284e+01    0.5140202    0.4710068 -43.80    0.0036092    1.276    0.216
        15 -12.1319    174.5658      2.9970   3.5877427834e+02   4.0221203321e+01    0.4292097    0.2746148 -85.56  0.002350498    1.405    0.289
        16 -11.8970      4.3588      2.2420   5.3099612995e+01   7.8034177429e+01    0.4812205     0.249123  15.81  0.002677276    1.909    0.476
        17 -12.0168     98.9772    194.7298   6.4414709432e+01   2.0432862844e+01    0.7869794    0.4507014  67.29  0.003255825    2.595    0.615
        18 -12.8070    246.0597    245.4602   4.2105349653e+01  -8.0718175061e+00    0.6089941     0.430366 -10.49  0.004102006    1.164    0.141
        19 -15.6902    137.6335    245.6889   6.2222353356e+01   5.2096340953e+00     7.606299     1.105188  37.22   0.02363911    4.782    0.791
        20 -13.7023    147.1908    229.7944   5.8167394415e+01   6.4335408415e+00     1.056536     0.657792  14.04  0.004239541    1.725    0.420
        21 -14.7829     42.1852    232.2423   8.1562870157e+01   2.0028810916e+01      3.38406     1.170036  63.59   0.01329285    3.630    0.725
        22 -12.4398     48.5808    214.6378   7.8897960451e+01   2.2926280833e+01     4.724791     1.478005  61.75    0.0140946    5.571    0.820
        23 -14.4693     85.5439    246.6727   7.3309453583e+01   1.2021984788e+01     1.623288    0.6225719  39.61  0.007860761    1.950    0.487
        24 -13.4720     70.2735    226.8109   7.4905701206e+01   1.7727352089e+01     1.305806    0.4407741  50.52  0.005206508    2.908    0.656
        25 -13.7748     12.8547    216.1225   8.7134009254e+01   2.6383717915e+01    0.9137324    0.4089592  58.06  0.003300404    1.821    0.451
        26 -14.3323     28.3507    235.4110   8.4700393522e+01   2.0903286523e+01     1.554948    0.4831582  56.29   0.00685189    2.812    0.644
        27 -15.0014     10.5789    234.3311   8.8343824984e+01   2.2880575029e+01      2.00021    0.6958995  73.82   0.00928248    2.920    0.658
        28 -13.7230      3.0136    206.7802   8.8942486900e+01   2.9269286788e+01     0.757022     0.466268  87.46  0.003751935    1.445    0.308
        29 -13.3628      4.1846    196.8447   8.8278647190e+01   3.1371334585e+01    0.9894271    0.2814615  52.53  0.004200679    2.738    0.635
        30 -12.1359     97.9246    187.4336   6.3648344089e+01   2.2214945228e+01    0.5795608    0.3996365  15.26  0.002231236    1.750    0.429
        31 -12.8219    100.2096    178.9954   6.1782851318e+01   2.3775341560e+01     1.090431    0.8612766  20.41  0.005682289    1.357    0.263
        32 -12.3641    231.4241    244.2072   4.4305324897e+01  -6.3828626410e+00    0.5721823    0.3952585   0.26  0.004215389    1.071    0.066
        33 -11.2575     68.4282    188.0792   7.1422560004e+01   2.6387869568e+01    0.5399035    0.3407749  49.17  0.002713982    1.445    0.308
        34 -13.3594     68.9848    147.7425   6.5669547553e+01   3.6342082688e+01     1.681568    0.9641793  87.56  0.005570734    2.462    0.594
        35 -13.1030     56.1333    146.4260   6.9474294703e+01   3.8465461678e+01     6.603071          nan -61.17   0.01336617    8.153    0.877
        36 -13.4261     32.7683     96.8889   6.9436572418e+01   5.4381120134e+01    0.8508649    0.6975644 -47.82  0.002658511    1.164    0.141
        37 -13.6795     35.3608    165.8815   7.8097451799e+01   3.5879434229e+01      1.93864     1.228537  63.49  0.007313779    1.518    0.341
        38 -12.8630     44.6289    159.0424   7.4666803186e+01   3.6596296859e+01     1.223705    0.5517499  49.29  0.005046946    2.187    0.543
        39 -13.2213     40.7229    145.8834   7.4263191722e+01   4.0473813600e+01    0.6380672    0.4201515  -2.25  0.001535268    2.187    0.543
        40 -14.0557      4.9079    100.0725   8.1294525658e+01   5.5634449118e+01     1.469943    0.7086049 -82.04  0.005063824    1.886    0.470
        41 -14.7939     39.3475    131.6630   7.2798547004e+01   4.4407250272e+01     2.454979     1.361427 -87.90   0.00896362    2.003    0.501
        42 -14.6507     22.7627    106.5483   7.5129013877e+01   5.2724899663e+01     1.894514     1.019139  58.34  0.006438939    2.214    0.548
        43  -9.9815      1.4032    247.0990   9.0562392016e+01   2.1289316307e+01    0.1489859   0.08854683  84.03 0.0007984129    1.557    0.358
        44 -15.3638      4.4773    160.4057   8.6399659628e+01   4.0023166471e+01     2.474002    0.5944228 -83.55   0.00819105    3.956    0.747
        45 -15.2447     15.5407    163.1284   8.3484341259e+01   3.8469278356e+01     1.399467    0.8720786  83.76  0.004811936    1.449    0.310
        46 -10.6869     66.9976    180.3320   7.0879015314e+01   2.8425514564e+01    0.3920244    0.2754392  62.32  0.001632261    1.411    0.292
        47 -11.1765    133.5180    185.5292   5.4455902431e+01   1.6802775578e+01    0.3252984    0.2158674  69.19   0.00140118    2.435    0.589
        48 -12.2661    102.6487    231.6376   6.8101460353e+01   1.2450632024e+01    0.6945422    0.5488138  88.42  0.003143584    1.576    0.366
        49 -10.2919     84.8906    135.9466   5.8541897880e+01   3.6896032958e+01    0.2737143    0.2269751  39.28 0.0007603312    1.203    0.169
        50 -11.9305     71.8745    132.7137   6.2072733682e+01   3.9836750477e+01    0.3110662    0.2867931 -44.16 0.0004308022    1.146    0.127
        51 -10.0346    105.8609    130.6381   5.0985231527e+01   3.4444227238e+01     0.314675    0.2377965 -61.95  0.001449357    1.385    0.278
        52  -9.7295     87.2034    122.1062   5.4818748499e+01   4.0041711690e+01    0.2325087    0.2122122 -22.57 0.0005367483    1.206    0.171
        53  -9.2760    101.0477    116.3068   4.9009138037e+01   3.8899927186e+01     0.214208    0.1979608  46.28 0.0002800056    1.085    0.078
        54 -13.0702    248.0122    107.1720   1.6380904621e+01   1.0547160167e+01     1.188778    0.3244072 -39.86  0.004616309    2.838    0.648
        55 -12.0987    249.0755     90.0174   1.2618839064e+01   1.2890254328e+01    0.7897342    0.3413617 -32.21  0.003714132    2.019    0.505
        56 -11.2960     52.1963    108.6111   6.4138173891e+01   4.9034124353e+01    0.3203005    0.2955043  45.12  0.001372744    1.133    0.117
        57 -12.2446     51.7640     99.6827   6.2338248083e+01   5.1436764137e+01    0.6063061    0.5298861  25.55  0.003266592    1.221    0.181
        58 -12.1828     43.2655     95.4353   6.4797079619e+01   5.3616418973e+01    0.5675695    0.4087501 -55.40  0.001844076    1.273    0.215
        59 -10.6961     97.6872    232.6990   6.9318157657e+01   1.2939293285e+01    0.3312682    0.2384345  74.62  0.001940123    1.710    0.415
        60 -12.6246    238.0796     56.7818   6.4965843042e+00   1.9608289446e+01     1.222135    0.3530326 -38.47  0.005004737    2.568    0.611
        61 -12.3613    191.8167    235.4963   5.0043811724e+01  -5.5157305412e-01    0.3528818     0.300993  15.91  0.002531485    1.235    0.190
        62 -12.8116    207.8783     67.9800   1.2444086571e+01   2.4238660689e+01    0.8458586    0.4973513 -47.96  0.004182689    1.522    0.343
        63 -12.0776    184.9451    233.8849   5.1115174495e+01   5.7383237977e-01    0.5355235    0.2483172  23.01  0.002662015    2.072    0.517
        64 -13.3644     29.2544    247.9507   8.5118267364e+01   1.8415156983e+01    0.9754673    0.3154832  41.69  0.004434098    2.065    0.516
        65 -12.6404    165.1700    230.7008   5.4565193260e+01   3.7418430538e+00     0.452166    0.3850088 -18.25  0.003063941    1.246    0.198
        66 -12.8740      3.9042     42.5030   7.1384442611e+01   6.9995381555e+01    0.6584333    0.3826259 -63.45  0.003064295    1.528    0.345
        67 -12.0429    168.7430    220.5352   5.2319905674e+01   4.8347668335e+00    0.5060517    0.3628489 -34.60  0.003051546    1.499    0.333
        68 -12.7120     11.7027     40.1720   6.5692216226e+01   7.0042843541e+01    0.5046839    0.3462071 -66.54  0.002859963    1.523    0.344
        69 -10.8361    127.4320    221.2109   6.1294072915e+01   1.0804583141e+01    0.3207479    0.2506722 -48.74  0.001933581    1.493    0.330
        70 -13.4418    148.4514    213.9967   5.5616437987e+01   8.9451513713e+00     1.285134    0.7422772  42.10  0.005269976    1.664    0.399
        71 -11.2412     67.8866    213.0014   7.4190075144e+01   2.0881098475e+01    0.5545637    0.3836678  77.55  0.002238403    1.549    0.354
        72 -10.4496     57.2089    211.9594   7.6640626906e+01   2.2460237323e+01    0.2746572    0.2077248 -58.76  0.001158305    1.541    0.351
        73 -12.4524     93.1653    204.3437   6.7118258889e+01   1.9227964244e+01    0.9566274     0.769948 -71.92  0.004365678    1.391    0.281
        74 -11.6108     85.1236    194.6183   6.7901797364e+01   2.2529954746e+01    0.6622691    0.4376572  45.28  0.002658838    1.355    0.262
