#   1 NUMBER                 Running object number                                     
#   2 MAG_AUTO               Kron-like elliptical aperture magnitude                    [mag]
#   3 X_IMAGE                Object position along x                                    [pixel]
#   4 Y_IMAGE                Object position along y                                    [pixel]
#   5 X_WORLD                Barycenter position along world x axis                     [deg]
#   6 Y_WORLD                Barycenter position along world y axis                     [deg]
#   7 A_WORLD                Profile RMS along major axis (world units)                 [deg]
#   8 B_WORLD                Profile RMS along minor axis (world units)                 [deg]
#   9 THETA_WORLD            Position angle (CCW/world-x)                               [deg]
#  10 FWHM_WORLD             FWHM assuming a gaussian core                              [deg]
#  11 ELONGATION             A_IMAGE/B_IMAGE                                           
#  12 ELLIPTICITY            1 - B_IMAGE/A_IMAGE                                       
         1 -14.1654    165.1181     51.8869   7.5526232371e+01   3.7292479448e+01     1.809541     1.294151   9.63  0.006543898    2.149    0.535
         2 -13.9925    178.3957     35.2654   6.8842796912e+01   3.6340727962e+01    0.8925524    0.8475367 -66.06  0.003351037    1.144    0.126
         3 -12.2434    189.6659     14.7474   6.2193503637e+01   3.6051567231e+01    0.2580347    0.2391497 -83.20 0.0009036863    1.157    0.135
         4 -13.3842    200.4875      4.0584   5.8529909425e+01   3.4641937145e+01    0.6652814    0.4763366  40.86  0.002764981    1.859    0.462
         5 -13.1793    195.2874      4.0074   5.9053093521e+01   3.5847104531e+01    0.5107181    0.3635396  80.87  0.002456498    1.159    0.138
         6 -10.6170     18.7096    219.1055   1.4471415631e+02   2.6315769060e+01    0.1572786    0.1128392 -72.28 0.0006167747    1.369    0.269
         7 -18.9236     52.4017    242.5788   1.4039193516e+02   1.7426409070e+01     6.558679     5.933348  77.18   0.04800659    1.315    0.240
         8 -10.3739    163.3685    204.0834   1.1228161523e+02   7.0229008439e+00    0.2422055    0.2288945  60.11 0.0005142419    1.077    0.072
         9 -11.5999    139.1383    200.7505   1.1703456330e+02   1.2308139510e+01    0.3195167    0.2084833 -72.27  0.001437742    1.960    0.490
        10 -12.6491    193.4722    192.5183   1.0368557166e+02   3.5606189329e+00    0.8466408    0.4959594 -52.27  0.003092278    1.948    0.487
        11 -10.7110    208.9581    197.7021   1.0155954104e+02  -2.9302316171e-01    0.1947018    0.1751083  27.33 0.0004838849    1.093    0.085
        12 -10.9911    154.2481    196.3623   1.1287846080e+02   1.0365133161e+01    0.2800953    0.2418368 -81.37 0.0008201977    1.303    0.232
        13 -10.6697    163.1947    210.8373   1.1351888501e+02   5.7081422012e+00    0.2812781    0.1972976 -62.13  0.001308706    1.715    0.417
        14 -11.0585    167.5578    189.1289   1.0856277367e+02   9.2866710403e+00    0.3655561    0.2913109 -32.50  0.001144412    1.368    0.269
        15  -9.9130    163.3202    188.2968   1.0933840132e+02   1.0298607534e+01    0.1479572    0.1176973   1.39 0.0007019421    1.616    0.381
        16 -13.9965     12.4666    206.0197   1.4490664210e+02   2.9760196294e+01    0.5209675    0.2853545  36.03  0.003106684    2.066    0.516
        17 -10.7076     72.9958    184.0220   1.2962724844e+02   2.7462595485e+01    0.2092938    0.1842034 -87.30 0.0004263346    1.036    0.035
        18 -19.0444     38.4645    106.4437   1.2572135102e+02   5.0313274416e+01     16.99063    0.7275479 -60.18    0.0246265   19.362    0.948
        19 -11.5148    207.4868    179.4730   9.8192913529e+01   3.3951991293e+00    0.6569688    0.3920968  21.22  0.002721184    2.359    0.576
        20 -10.8959    193.8167    164.9393   9.7912905593e+01   9.0030315855e+00    0.3750035    0.3085006 -48.16  0.001313836    1.219    0.180
        21 -11.5456     18.7429    214.1824   1.4433963011e+02   2.7359964907e+01    0.1818982    0.1347267  61.52 0.0005202453    1.233    0.189
        22 -11.8814    195.9040    170.2508   9.8617499513e+01   7.4965505037e+00    0.6801386    0.3584243 -46.33  0.002825957    1.902    0.474
        23  -9.2860    179.0163    206.0247   1.0929002303e+02   3.6858582907e+00    0.1625366    0.1561521  12.35            0    1.039    0.038
        24 -12.7450    141.9709    176.0356   1.1181897305e+02   1.7238531157e+01    0.5077565    0.3693583  -6.59  0.002162946    2.210    0.547
        25 -10.2271    120.1381    163.8239   1.1467343056e+02   2.4348169305e+01    0.2325031    0.1967142  78.92 0.0004845083    1.247    0.198
        26 -10.4065    115.0843    162.2982   1.1563155082e+02   2.5666001245e+01    0.2107625    0.1915381  65.46 0.0003989384    1.084    0.077
        27 -10.0378     14.7701    160.1496   1.4027138576e+02   3.9921047312e+01    0.2010995    0.1694804  -0.34 0.0009745514    1.703    0.413
        28 -13.0221    134.0274    145.6737   1.0734392454e+02   2.5883549396e+01     1.390175    0.3540521 -54.70  0.003215365    5.578    0.821
        29 -10.2461     10.0172    153.3514   1.4064978875e+02   4.1892651712e+01    0.2653757    0.1681884   9.37  0.001530209    2.395    0.582
        30 -10.7818    174.6409    148.9282   9.8479772307e+01   1.6452658657e+01    0.2876489    0.2450446 -81.55 0.0008290056    1.348    0.258
        31 -12.4365    145.2836    146.2574   1.0469786838e+02   2.3392982517e+01    0.5390319     0.397377  69.04  0.001855633    1.632    0.387
        32 -11.6006     88.6458    146.9009   1.1942773371e+02   3.4050750632e+01    0.3274599    0.2048567  47.29  0.000289346    1.682    0.405
        33 -11.0180      4.1337    146.5028   1.4131098998e+02   4.3917551358e+01    0.2114367    0.1851683 -31.10  0.001415353    1.472    0.321
        34 -13.0851    111.0894    139.9903   1.1198701813e+02   3.1767635645e+01    0.8180602    0.5680026 -14.09  0.003338127    2.367    0.577
        35 -12.5408    101.2255    139.2798   1.1446869137e+02   3.3747841085e+01    0.3040769    0.2841154 -42.93 0.0005517861    1.108    0.098
        36 -10.3838    158.5670    204.5418   1.1340698747e+02   7.8407464205e+00    0.3915458     0.188029  57.25  0.001401799    2.942    0.660
        37 -11.9069    105.9240    130.6679   1.1126613307e+02   3.4949240718e+01    0.4009898    0.3411455 -63.11  0.001263143    1.157    0.136
        38 -11.1975    106.0339    125.9679   1.1013615392e+02   3.6034654378e+01    0.3434387    0.2654229 -26.68 0.0007166467    1.524    0.344
        39 -11.6472      2.3156    126.1551   1.3939380644e+02   4.8696089810e+01    0.3301153    0.1134755 -69.46  0.001516709    2.210    0.547
        40 -12.2643    118.1108    129.7374   1.0776305787e+02   3.2833485099e+01    0.4066701    0.3826661 -14.90  0.001102802    1.163    0.140
        41 -12.3927    135.2213    122.1331   1.0143828757e+02   3.1041199964e+01    0.6783751    0.2765629 -49.81  0.002307175    2.499    0.600
        42 -11.4750    160.9243    127.9097   9.6621336952e+01   2.4083636741e+01    0.4253276    0.3265719 -71.58   0.00193136    1.538    0.350
        43 -11.4716    125.0306    127.1834   1.0532103445e+02   3.2031862348e+01    0.4095766    0.2599688  77.24   0.00147695    2.788    0.641
        44 -10.8032     85.0034    126.4852   1.1615024675e+02   3.9566050827e+01    0.2652078    0.1968564  78.01  0.001147397    1.750    0.428
        45 -10.7324    112.4186    118.9785   1.0668149499e+02   3.6435684618e+01    0.2841179    0.2280399  44.47 0.0001382594    1.285    0.221
        46 -10.0283     11.3075    116.6386   1.3561978596e+02   5.0266465597e+01    0.1225707   0.08303731  78.93 0.0007039829    1.738    0.425
        47 -10.9269    168.4306    113.2631   9.1262908876e+01   2.5485199302e+01    0.3931092    0.2892715 -77.21  0.001022419    1.748    0.428
        48 -10.8155    135.0000    106.4754   9.7446264864e+01   3.4512423848e+01    0.4995097    0.1064626 -46.35  0.001229437    4.809    0.792
        49 -10.9411      2.4196    112.7064   1.3756455386e+02   5.1722405338e+01    0.2231842    0.1627213 -53.43 0.0006357786    1.175    0.149
        50 -10.6597    205.2159    110.4789   8.3155691932e+01   1.7536783484e+01    0.3651614    0.2577015  33.49  0.001188924    1.796    0.443
        51 -13.1026     61.9376    109.2316   1.1907199544e+02   4.6969822464e+01    0.6343812     0.338137  36.28  0.002962905    2.059    0.514
        52 -11.0239     83.7733    107.3323   1.1198237125e+02   4.4201744729e+01    0.3301956    0.2417684  66.93  0.001587418    1.846    0.458
        53  -9.5755    110.3073    107.6335   1.0436113540e+02   3.9391241920e+01    0.1558185    0.1203784 -86.97 0.0007036916    1.751    0.429
        54  -9.9374    153.9694    103.9642   9.2141695591e+01   3.0757804059e+01    0.2260281    0.2199968  89.24  0.001199825    1.012    0.011
        55 -11.4446     66.9585    104.1273   1.1632276105e+02   4.7447777412e+01    0.3492327    0.1887686  16.98  0.001441645    2.732    0.634
        56 -10.0946     67.9089     98.8438   1.1472025685e+02   4.8487596800e+01    0.2176183    0.1784581 -23.15  0.001216131    1.257    0.204
        57 -10.5137     84.2231     76.8706   1.0344953082e+02   5.0507247106e+01    0.1941058    0.1873296 -43.88 0.0005029044    1.159    0.137
        58 -11.4319      1.5439    247.6552   1.4941706744e+02   2.2355957549e+01     0.130548   0.08886977 -84.36 0.0006703354    1.292    0.226
        59 -12.2487    159.2172    238.2581   1.1882187539e+02   1.2846199399e+00     0.313559    0.2685956 -53.63  0.001352769    1.346    0.257
        60 -13.1774    182.5393     28.5380   6.6514578891e+01   3.6176191802e+01    0.5167962    0.4444357  68.29   0.00128156    1.101    0.091
        61  -9.9902     13.6256     59.9457   1.2350886182e+02   6.2104610597e+01    0.1642475    0.1164135 -46.96 0.0004433078    1.154    0.133
        62  -9.6920    114.1114     22.1699   7.7034787863e+01   5.2823759579e+01    0.1684022    0.1433803  73.42 0.0004475762    1.321    0.243
        63  -9.8083    220.6745    229.1851   1.0513151941e+02  -7.5914554629e+00    0.2441393    0.1124802 -47.53 0.0008248475    2.731    0.634
        64 -10.5705    198.7135    222.8179   1.0828149227e+02  -2.9100283251e+00    0.2215359    0.1645413  27.65 0.0004395538    1.253    0.202
