#   1 NUMBER                 Running object number                                     
#   2 MAG_AUTO               Kron-like elliptical aperture magnitude                    [mag]
#   3 X_IMAGE                Object position along x                                    [pixel]
#   4 Y_IMAGE                Object position along y                                    [pixel]
#   5 X_WORLD                Barycenter position along world x axis                     [deg]
#   6 Y_WORLD                Barycenter position along world y axis                     [deg]
#   7 A_WORLD                Profile RMS along major axis (world units)                 [deg]
#   8 B_WORLD                Profile RMS along minor axis (world units)                 [deg]
#   9 THETA_WORLD            Position angle (CCW/world-x)                               [deg]
#  10 FWHM_WORLD             FWHM assuming a gaussian core                              [deg]
#  11 ELONGATION             A_IMAGE/B_IMAGE                                           
#  12 ELLIPTICITY            1 - B_IMAGE/A_IMAGE                                       
         1 -15.6232      7.0280     69.8045   2.9217636037e+02   6.9291295918e+00   0.07805573   0.04924496 -61.12  0.004137963    1.570    0.363
         2 -15.1874     42.3641      8.3869   2.9138749011e+02   7.4243449630e+00   0.09402773   0.06068088 -45.65  0.007029502    1.565    0.361
         3 -13.9190      8.0415      3.3851   2.9175450976e+02   7.6868851499e+00   0.05937242   0.03553136  50.94  0.005198343    1.913    0.477
         4 -14.1449     25.3190     31.9921   2.9173100465e+02   7.2548894189e+00   0.06253509   0.03759898  66.70  0.005560221    2.432    0.589
         5 -15.2477      8.1082     29.4394   2.9191473130e+02   7.3870003196e+00   0.06269386   0.04335783  44.68  0.006653825    1.501    0.334
         6 -15.4337     13.7653     20.4872   2.9179384295e+02   7.4561587367e+00   0.06806765   0.04501542 -35.17  0.005578091    1.687    0.407
         7 -15.0390    122.6648     36.7732   2.9063317091e+02   6.6167234043e+00   0.06413235    0.0340219  21.81  0.002666439    2.040    0.510
         8 -14.5448     24.9615     13.8511   2.9162302266e+02   7.4655750234e+00   0.04219903   0.02431384  29.84  0.004125539    1.716    0.417
         9 -14.4141    166.1061     30.3325   2.9009079242e+02   6.4295216327e+00   0.04372391   0.03060116  32.61  0.002739146    1.416    0.294
        10 -13.7410    189.1855     26.2760   2.8979887706e+02   6.3371273491e+00   0.05497319   0.02956501  68.41  0.003802225    3.464    0.711
        11 -15.6916     99.5802     12.8568   2.9075226544e+02   7.0301769438e+00   0.07076812   0.04107236  24.03  0.003079058    1.785    0.440
        12 -12.5117    186.3457     14.0499   2.8975585757e+02   6.4946512493e+00   0.01241917   0.01092697 -18.24 0.0005980839    1.205    0.170
        13 -12.5523    213.6044     10.0287   2.8941597417e+02   6.3764600131e+00   0.01935923    0.0117403   8.87  0.001801293    2.093    0.522
        14 -13.1340    218.6661     15.0832   2.8938889173e+02   6.2878974985e+00   0.01838574   0.01252667 -52.23  0.001382909    1.436    0.304
        15 -12.8963    223.6160      4.6370   2.8926689352e+02   6.3779301333e+00   0.02697216   0.01115721 -50.42  0.002239215    2.335    0.572
        16 -11.3669     59.3813      1.8431   2.9114975283e+02   7.3976955297e+00   0.01460771   0.01026642 -60.23  0.001560869    1.408    0.290
        17 -10.8754     62.4790      1.5003   2.9111173092e+02   7.3830840850e+00   0.01175172  0.006511468  27.29    0.0007208    1.813    0.449
        18 -11.5389    232.5316      1.5921   2.8914505770e+02   6.3590479089e+00   0.01275585  0.008113534  23.29 0.0007459191    1.630    0.387
        19 -12.1395     81.0831      1.8091   2.9089807592e+02   7.2680565995e+00   0.02697565    0.0103773  21.46  0.001989553    3.132    0.681
        20 -11.1403     33.0026      1.4503   2.9145309974e+02   7.5600285298e+00  0.009852124  0.006490875  26.53 0.0003526511    1.530    0.346
        21 -13.8284     98.9935    216.4957   2.9201602836e+02   4.6901636456e+00   0.03035978   0.01782185 -52.75  0.002992534    1.651    0.394
        22 -13.0550     58.1082    245.8994   2.9266870315e+02   4.5960221232e+00   0.04596162   0.02546856   4.43  0.003840927    2.701    0.630
        23 -13.8344     28.1200    246.6531   2.9301955039e+02   4.7664091539e+00    0.0279498   0.02644237  21.36  0.003481824    1.063    0.060
        24 -11.8890      2.7701    249.9865   2.9333265041e+02   4.8791794512e+00   0.01761554   0.01148223  31.05  0.001820635    1.519    0.342
        25 -14.3210      8.9847    245.6287   2.9323421714e+02   4.8923442856e+00   0.04859548    0.0339609  51.73  0.002931122    1.571    0.364
        26 -12.9751     41.8628    201.1348   2.9258156134e+02   5.2087750390e+00   0.01347376   0.01140688 -72.28  0.001566268    1.223    0.183
        27 -13.5954     39.2976    195.0053   2.9257355481e+02   5.2947126765e+00   0.02300966   0.02134281 -70.30  0.001932885    1.094    0.086
        28 -11.6863    133.7180    200.9189   2.9151921661e+02   4.6614857027e+00   0.01389246  0.009613778  36.95  0.001444084    1.438    0.305
        29 -12.2599    164.9367    196.6838   2.9113275808e+02   4.5229466839e+00   0.02217954   0.01153258  66.72  0.001592622    3.733    0.732
        30 -13.5233     29.9980    169.9814   2.9252728352e+02   5.6385285140e+00   0.04607915   0.02670639 -21.79  0.003590278    2.570    0.611
        31 -14.9112     13.7551    157.9963   2.9264145470e+02   5.8735376579e+00    0.1203297   0.06336196 -22.27  0.009102877    3.361    0.702
        32 -14.1474     22.4852    181.1301   2.9268265326e+02   5.5549400957e+00   0.03742573   0.03098923  13.98  0.003273671    1.264    0.209
        33 -15.2343      7.9576    183.9560   2.9286796037e+02   5.6090509350e+00   0.06654558   0.06261518 -57.95  0.008278511    1.055    0.053
        34 -14.6528     15.5427    175.2450   2.9272676989e+02   5.6641668629e+00   0.06184129   0.03353321  55.01  0.005389763    2.393    0.582
        35 -12.7916    201.6080    191.4555   2.9067741445e+02   4.3628635320e+00    0.0189444   0.01609561   2.00  0.001922532    1.265    0.210
        36 -10.6959     81.2397    193.3926   2.9207898726e+02   5.0625334166e+00  0.009822696  0.005838426  38.48 0.0009538085    1.674    0.403
        37 -12.5185     97.4992    188.1174   2.9185867745e+02   5.0259509621e+00   0.01171494  0.009230611  52.19  0.001307815    1.357    0.263
        38 -12.6701     48.7533    181.1078   2.9237885642e+02   5.3983208471e+00   0.02941552   0.01596657 -50.80  0.002786344    1.794    0.442
        39 -11.4908    109.1986    183.5992   2.9169570145e+02   5.0078995369e+00  0.009442853  0.006437198  10.95 0.0009512956    1.682    0.406
        40 -11.8517    122.3686    181.7584   2.9153223472e+02   4.9501604731e+00   0.02088767   0.01216306  70.95  0.001738458    2.785    0.641
        41 -12.9127     85.7482    180.3831   2.9194683657e+02   5.1853892017e+00   0.01980388   0.01489278  45.64  0.002183523    1.378    0.274
        42 -13.6710    124.0679    166.9548   2.9142136199e+02   5.1104264310e+00    0.0332022   0.02108315 -81.46  0.003189706    1.982    0.496
        43 -12.9566     25.3229    156.7958   2.9250027870e+02   5.8183292765e+00   0.02901385   0.02257867  34.48  0.003280938    1.281    0.220
        44 -12.7233     77.6156    157.2380   2.9189831535e+02   5.5006337278e+00   0.02085833   0.01470974  18.18  0.001259892    1.508    0.337
        45 -13.5326     73.9892    153.5600   2.9191758569e+02   5.5646967131e+00   0.03678589   0.02375369  21.86  0.003212745    1.621    0.383
        46 -13.1507    111.2943    155.5370   2.9149855436e+02   5.3184786823e+00   0.02787733   0.01653502  64.49  0.002462829    2.424    0.587
        47 -12.0794     55.6154    156.1221   2.9214581088e+02   5.6451018667e+00   0.01990791   0.01219892   3.25  0.001412893    2.198    0.545
        48 -12.3097    188.8456    156.1244   2.9060651904e+02   4.8461348546e+00   0.01065099   0.00920403  63.57  0.001244833    1.254    0.203
        49 -12.1838     85.6946    153.4736   2.9178172702e+02   5.4956169204e+00   0.02505869   0.01221068 -42.22  0.002155742    2.272    0.560
        50 -12.3934    122.0521    155.8258   2.9137602472e+02   5.2506490919e+00   0.01293654  0.009793035 -43.68  0.001348614    1.336    0.251
        51 -12.1445    103.5967    149.7231   2.9155167071e+02   5.4315589845e+00   0.01729906   0.01289166 -28.71  0.001538619    1.502    0.334
        52 -12.6461      6.4706    148.0411   2.9266452530e+02   6.0316637088e+00   0.02206344   0.01815364 -87.08  0.002526608    1.353    0.261
        53 -11.6200     44.6798    145.2629   2.9220543255e+02   5.8355442246e+00   0.01168197   0.01060193   7.19 0.0004193795    1.137    0.120
        54 -11.5520     38.6073    145.8286   2.9227915386e+02   5.8653150087e+00   0.01134394  0.009227888   7.00 0.0007423414    1.329    0.248
        55 -12.2282    148.7327    141.4078   2.9097880224e+02   5.2565096571e+00   0.01848249   0.01219836 -57.52  0.001920526    1.480    0.325
        56 -11.6676     88.3078    141.3026   2.9167649942e+02   5.6201164385e+00   0.01223286   0.01039347 -26.48  0.001423261    1.248    0.199
        57 -13.1886     43.9915    137.7451   2.9216710798e+02   5.9262377987e+00   0.03595399   0.01916393 -36.38  0.003154857    2.282    0.562
        58 -12.1125     62.7437    134.2176   2.9192846484e+02   5.8547296393e+00   0.02315773   0.01251637  33.92  0.002193057    1.804    0.446
        59 -12.8802    133.6166    132.0336   2.9109557262e+02   5.4551553920e+00   0.02643339    0.0178632  59.31   0.00266864    1.780    0.438
        60 -12.1254    111.0924    131.5757   2.9135308524e+02   5.5955552787e+00   0.02018874   0.01421203  -6.25   0.00205886    1.776    0.437
        61 -13.1888    111.9284    101.2584   2.9115622978e+02   5.9394897317e+00   0.02209711   0.01429155  47.01  0.001914428    1.650    0.394
        62 -12.8465    109.8750     96.1475   2.9114840253e+02   6.0106207447e+00   0.01815052   0.01304862  77.27 0.0003047923    1.770    0.435
        63 -14.5958    104.5333    123.2940   2.9137780785e+02   5.7302174689e+00    0.1190726   0.04499618  23.59   0.00900198    2.958    0.662
        64 -14.9956    105.9929    108.8623   2.9127183577e+02   5.8875795975e+00   0.05860978   0.05055369 -71.14  0.006253274    1.193    0.162
        65 -12.7114     80.8414    115.8545   2.9160590112e+02   5.9578244610e+00   0.02368185   0.01485064 -42.94  0.001598839    1.658    0.397
        66 -12.9988     86.3476    115.1078   2.9153760320e+02   5.9334393726e+00   0.02256111   0.01514057  -6.44  0.001561408    1.952    0.488
        67 -14.7831     29.9763    119.2746   2.9221552179e+02   6.2226753325e+00    0.1144092   0.01894672 -50.70  0.006462794    5.056    0.802
        68 -15.5596     16.1078    108.7680   2.9231133455e+02   6.4264530670e+00   0.08812808   0.06494884  53.67  0.007178679    1.493    0.330
        69 -15.5330     25.9453     94.9329   2.9211219359e+02   6.5269984062e+00   0.08938295   0.06781356  24.78   0.00997568    1.335    0.251
        70 -14.1021      2.6579     96.9326   2.9239416541e+02   6.6429570311e+00   0.05011382   0.02087326 -60.89  0.003887886    2.347    0.574
        71 -11.9456    184.9852    124.4780   2.9045551090e+02   5.2334612198e+00    0.0101381  0.006480069  28.51 0.0005978969    1.562    0.360
        72 -12.1984    180.8011    121.3071   2.9048421802e+02   5.2951035292e+00   0.01655983   0.01121892  16.54  0.001450299    1.610    0.379
        73 -12.7497      4.1344    119.8641   2.9251825111e+02   6.3701183385e+00    0.0312454    0.0106432  28.04  0.002347664    2.903    0.656
        74 -14.3224     92.7315    110.0953   2.9143282621e+02   5.9528874194e+00   0.04760211   0.04328014  77.56  0.005227812    1.179    0.152
        75 -12.1488     61.8962    108.9459   2.9178247002e+02   6.1507693993e+00   0.02788134   0.01401051 -71.34   0.00238237    2.374    0.579
        76 -12.8448     62.5431     99.8135   2.9171864768e+02   6.2520234223e+00   0.03393008   0.02100114  71.71  0.003050656    2.391    0.582
        77 -12.0760     46.2876    109.5073   2.9196656097e+02   6.2376629747e+00   0.01906457   0.01170602 -49.40  0.001909048    1.604    0.377
        78 -12.5962    123.0325    103.0080   2.9103863567e+02   5.8527276539e+00   0.01751873  0.009646399  23.84  0.001637019    1.897    0.473
        79 -12.7577    135.9014    103.4171   2.9089238493e+02   5.7707640692e+00     0.026326   0.01340209  28.81  0.001608627    1.948    0.487
        80 -12.4710     43.1732     91.4604   2.9189132220e+02   6.4640282364e+00   0.03051407   0.01420147 -69.40  0.002519174    2.513    0.602
        81 -12.7693     46.9823    100.2089   2.9190118738e+02   6.3405524473e+00   0.02764723   0.01968842  43.00  0.002977639    1.438    0.305
        82 -12.4600     52.7115     98.1373   2.9182209506e+02   6.3301377807e+00   0.02294293   0.01564405 -37.92  0.001952543    1.576    0.365
        83 -12.2134    136.9296     96.2790   2.9083637465e+02   5.8467171302e+00   0.01888244   0.01379312 -73.43   0.00191387    1.480    0.325
        84 -11.2837     76.0230     95.7191   2.9153738564e+02   6.2184526648e+00  0.008991348  0.008319312  22.67 0.0001927779    1.087    0.080
        85 -11.5276     85.1607    110.2014   2.9152105454e+02   5.9970279705e+00  0.009956535  0.008681322 -29.67 0.0006698102    1.191    0.160
        86 -11.8771     48.7435     93.7099   2.9184071454e+02   6.4048300608e+00   0.01707489   0.01143227  86.66  0.001184786    2.006    0.501
        87 -11.6705    109.6818     88.9828   2.9110636388e+02   6.0942211478e+00  0.009282792  0.008768204 -58.00 0.0005051701    1.053    0.050
        88 -11.7730     89.3517     87.5314   2.9133259471e+02   6.2328244538e+00   0.01920074  0.009749939  38.57   0.00175262    1.949    0.487
        89 -11.7107    125.4363     86.6024   2.9090943884e+02   6.0270589810e+00   0.01557493   0.01161415  89.47  0.001655091    1.615    0.381
        90 -13.6175    188.4744     84.4889   2.9016780816e+02   5.6723994295e+00   0.02975496   0.01633228  17.26  0.001692073    2.121    0.528
        91 -12.0718    132.6006     86.1692   2.9082391579e+02   5.9890233211e+00   0.01122593  0.008220485  18.48  0.001206071    1.438    0.305
        92 -12.7396    238.2288     80.2663   2.8956733490e+02   5.4211903945e+00   0.02015703   0.01442718  58.44   0.00211953    1.616    0.381
        93 -14.6636    162.2578     79.9334   2.9044250127e+02   5.8825167778e+00   0.07410049   0.04359641  -0.35  0.002365893    2.530    0.605
        94 -13.3657    177.8936     77.0934   2.9024424642e+02   5.8211128592e+00   0.02152512   0.01480448  36.60  0.001494576    1.445    0.308
        95 -10.5797     98.6273     84.2889   2.9120524047e+02   6.2145297124e+00  0.007096543  0.004873048  58.35 0.0007021353    1.720    0.418
        96 -13.4316    170.9723    241.5167   2.9133934320e+02   3.9706512545e+00   0.01644905   0.01515111  25.46  0.002014069    1.090    0.083
        97 -12.9179    217.2604     79.4936   2.8980450480e+02   5.5564609520e+00   0.02154974   0.01405836  12.81  0.001340146    1.766    0.434
        98 -12.9526    135.0028     66.4883   2.9067439047e+02   6.2009615352e+00   0.02676449   0.01775882  11.28  0.002450241    1.747    0.428
        99 -13.1407    135.1184     79.6128   2.9075425330e+02   6.0493192716e+00   0.04079886   0.01553539  31.75  0.003292055    2.492    0.599
       100 -11.9436    128.2847     72.8752   2.9079160328e+02   6.1678605208e+00    0.0270823  0.009069317 -47.39  0.001971103    3.072    0.674
       101 -12.0313    114.0494     80.5944   2.9100399361e+02   6.1645244654e+00   0.01585275   0.01433389  49.24 0.0009834743    1.138    0.122
       102 -11.7936     91.0800     80.1632   2.9126707462e+02   6.3072472883e+00   0.01875726   0.01280885 -20.66  0.001876314    1.832    0.454
       103 -11.3995     69.5337     80.2976   2.9151727198e+02   6.4347832256e+00   0.01147494   0.01073081  41.77 0.0008385309    1.084    0.077
       104 -13.8655     39.4223     68.1435   2.9179087418e+02   6.7547839447e+00   0.09810609   0.01728502  32.83  0.005939624    4.428    0.774
       105 -14.3933     61.1285     65.8512   2.9152535278e+02   6.6513173976e+00   0.07772018    0.0325039  27.30  0.006441162    2.407    0.585
       106 -12.9002     56.4422     79.2373   2.9166227662e+02   6.5253413553e+00   0.02123141   0.01569428 -34.56  0.001400566    1.458    0.314
       107 -13.9377     60.7488     75.3310   2.9158829818e+02   6.5445195809e+00   0.02884052   0.02620512  43.58  0.001113596    1.119    0.107
       108 -12.3443     41.8782     77.1750   2.9181817683e+02   6.6361785753e+00   0.01507386    0.0138677 -27.74 0.0005199224    1.108    0.098
       109 -12.5676    211.0630     78.1617   2.8986779221e+02   5.6091109894e+00   0.01996031   0.01307327  67.96  0.001912931    2.049    0.512
       110 -13.2879     77.0756     73.5140   2.9138807070e+02   6.4676680843e+00   0.04012115   0.01775071  15.97  0.003030763    3.118    0.679
       111 -12.6563     81.7987     70.1822   2.9131281403e+02   6.4777033495e+00   0.02326133   0.01693233  43.04  0.002509017    1.406    0.289
       112 -13.7984     87.8045     65.5192   2.9121447703e+02   6.4953516208e+00   0.03795208   0.02554073 -49.78  0.002589092    1.463    0.316
       113 -13.4349     92.6233     58.6643   2.9111631950e+02   6.5453097637e+00   0.03363969    0.0232618 -87.66   0.00297577    1.817    0.450
       114 -13.3162    199.8990     69.9446   2.8994579325e+02   5.7708144483e+00   0.02902451   0.01618265  23.34  0.002002464    1.886    0.470
       115 -11.3014    100.0799     65.0859   2.9106972915e+02   6.4267319272e+00    0.0101651   0.01003462  54.38  0.000846962    1.032    0.031
       116 -11.5640    158.4836     63.9788   2.9038736187e+02   6.0886720192e+00  0.009592647  0.005802704  84.29 0.0008104234    2.592    0.614
       117 -13.4293     79.1182     60.4739   2.9128384015e+02   6.6054425781e+00   0.02974897   0.02252675 -19.37  0.003229013    1.533    0.348
       118 -13.7348    177.8196     57.8317   2.9012581228e+02   6.0429944628e+00   0.03154609   0.02558261  61.74  0.002134461    1.370    0.270
       119 -11.8254     38.9573     60.4952   2.9174903955e+02   6.8455582785e+00    0.0169741   0.01062724  57.31  0.001624531    1.965    0.491
       120 -13.1734     25.7186     59.6429   2.9189713541e+02   6.9344742330e+00    0.0210196   0.01606941 -25.05  0.002304384    1.471    0.320
       121 -15.0878    119.7729     54.9786   2.9077933457e+02   6.4247892310e+00   0.04205173   0.02890955   9.46  0.001874774    1.684    0.406
       122 -13.7053    103.1676     50.8836   2.9094614866e+02   6.5715454475e+00   0.01883947    0.0180721 -24.81 0.0009279301    1.047    0.045
       123 -13.2698     97.5660     50.0828   2.9100602969e+02   6.6143572225e+00   0.04427116   0.02177693 -70.92  0.003744935    2.430    0.588
       124 -12.4623     64.0250     57.9868   2.9144322308e+02   6.7244475998e+00   0.01371368  0.009231453  27.36 0.0008034479    1.491    0.329
       125 -12.8547     67.0229     43.6100   2.9131963733e+02   6.8718481760e+00   0.02602499   0.01493983 -53.22  0.002538734    1.684    0.406
       126 -12.5518     65.4448     51.3855   2.9138598311e+02   6.7918758487e+00   0.02222642   0.01541775  48.79  0.002337984    1.547    0.354
       127 -11.5751     69.5016     49.5337   2.9132755549e+02   6.7888804129e+00   0.01478067   0.01165118 -68.89  0.001664469    1.309    0.236
       128 -12.1061      5.5717     50.7991   2.9207599608e+02   7.1564811054e+00   0.01548764   0.01127225 -32.27  0.001653871    1.513    0.339
       129 -12.7231    109.8385     54.3102   2.9089014819e+02   6.4921122544e+00   0.02076388   0.01553758 -59.85  0.001537513    1.322    0.244
       130 -11.2277     86.1974     49.6015   2.9113465779e+02   6.6880624251e+00   0.01070608  0.009153742 -81.36 0.0006494856    1.255    0.203
       131 -10.9724    250.0344     48.9809   2.8923719742e+02   5.7093755440e+00   0.01019183  0.007666398 -23.77 0.0004503669    1.526    0.345
       132 -12.6835    152.6391     46.8723   2.9034899318e+02   6.3204773502e+00    0.0256056   0.01273301  17.50  0.001036941    2.437    0.590
       133 -12.5994    158.7734     43.5615   2.9025755484e+02   6.3216317454e+00   0.02272552   0.01178405  24.82  0.002069419    2.001    0.500
       134 -13.0577     34.5395     32.9623   2.9163014050e+02   7.1886352547e+00   0.02546544    0.0146255  41.94  0.002062412    1.781    0.439
       135 -14.1366     95.8706    236.8409   2.9217714754e+02   4.4745339905e+00   0.04548303   0.02627533  36.38  0.003351806    1.703    0.413
       136 -13.6657      8.9280     42.8348   2.9198794288e+02   7.2280644144e+00   0.05470952   0.03211958  54.53  0.005091597    2.085    0.520
       137 -12.4480    146.9044    238.3660   2.9159756999e+02   4.1512622681e+00   0.01464207   0.01118363 -64.76  0.001061315    1.323    0.244
       138 -13.8983     10.4010    210.8881   2.9300496710e+02   5.2841770469e+00   0.04670665   0.03515392  18.52  0.005162529    1.391    0.281
       139 -12.4974     24.4104    217.3117   2.9288250496e+02   5.1265954137e+00   0.02689091   0.02284943  76.99  0.003028129    1.314    0.239
       140 -14.0804     25.6090    227.7677   2.9293278602e+02   4.9989746489e+00   0.04604453   0.01892447 -46.48  0.003723273    2.521    0.603
       141 -13.8630    217.6897     42.0149   2.8956724929e+02   5.9845207279e+00   0.05535004   0.02297851  24.73  0.004471024    2.570    0.611
       142 -12.8652    205.2282     40.2347   2.8970010766e+02   6.0801018526e+00     0.025748   0.01416725  46.21  0.001597633    1.970    0.492
       143 -12.7761    131.9474     33.4128   2.9050495243e+02   6.5995749960e+00   0.02323399   0.01515293 -15.14  0.002215316    2.071    0.517
       144 -13.2865    111.1503     42.0736   2.9079923898e+02   6.6249343011e+00   0.02765286   0.01600048  15.65  0.001384628    2.018    0.504
       145 -13.8873     20.3641    224.4261   2.9297287936e+02   5.0687681030e+00   0.02787156   0.02374751 -17.60  0.001748181    1.269    0.212
       146 -12.8835     16.0694    197.5532   2.9285765365e+02   5.4040104211e+00   0.03521796   0.01123974 -47.25  0.002496631    3.256    0.693
       147 -11.6719     25.8107     42.9170   2.9179279475e+02   7.1263195410e+00   0.01025888  0.008666409 -32.79 0.0004328057    1.230    0.187
       148 -11.7902    104.8771     36.8327   2.9083940678e+02   6.7228359056e+00   0.01543928  0.009611119 -67.54  0.001529637    1.693    0.409
       149 -12.8258     75.9229     37.5386   2.9117901509e+02   6.8883478444e+00   0.01723794   0.01199519  26.34 0.0009578466    1.449    0.310
       150 -12.1039     70.5126     36.4953   2.9123522020e+02   6.9327558352e+00   0.01257572   0.01143714 -16.85 0.0007203533    1.143    0.125
       151 -12.2389    243.2256     36.4466   2.8923798545e+02   5.8944060730e+00   0.03407401  0.007648994  34.25  0.002228531    3.766    0.735
       152 -11.6819     45.4531     36.5001   2.9152554653e+02   7.0826997899e+00   0.01130785  0.009268012 -30.00 0.0005733544    1.296    0.229
       153 -12.6821     47.4061     32.1369   2.9147594465e+02   7.1211862949e+00   0.02168629   0.01246716 -24.49  0.001867689    2.513    0.602
       154 -11.5726     51.7029     36.4574   2.9145287332e+02   7.0458014908e+00   0.01659338  0.006788129  23.94  0.001309291    2.653    0.623
       155 -13.7210     57.4852    203.6396   2.9241643902e+02   5.0865711870e+00   0.04660252   0.01850136 -66.57  0.003588252    2.836    0.647
       156 -12.4498    139.4640     21.8277   2.9034620692e+02   6.6875184163e+00   0.02462536   0.01576956  55.72 0.0005162706    1.856    0.461
       157 -12.8901    152.2801     31.4003   2.9025728543e+02   6.5004497671e+00   0.01925162   0.01308041 -55.51  0.001142011    1.436    0.304
       158 -14.5376    146.1034     30.8892   2.9032555695e+02   6.5434740723e+00   0.05614778   0.02783984  28.73  0.004096347    2.000    0.500
       159 -10.8911    211.2531     33.2553   2.8958724352e+02   6.1239462194e+00  0.008940237  0.007543743  65.86 0.0004037437    1.308    0.236
       160 -13.2850     53.0498    214.2964   2.9253314514e+02   4.9903130323e+00   0.02530373   0.01714403  65.06  0.002523788    1.867    0.464
       161 -11.5177    194.9429     23.7203   2.8971650078e+02   6.3317842803e+00   0.01503545    0.0110853 -49.57 0.0009430179    1.339    0.253
       162 -12.0733     97.8595     27.1379   2.9086062991e+02   6.8763842847e+00   0.01404697   0.01254728 -63.21   0.00130392    1.122    0.108
       163 -12.1785    121.0494     27.5126   2.9059451066e+02   6.7328624473e+00   0.01410286  0.008519497  27.44  0.001043282    1.662    0.398
       164 -13.1132     56.1929     27.7700   2.9134713387e+02   7.1188135783e+00   0.02472188       0.0159  30.18  0.001712956    1.541    0.351
       165 -11.3949    222.9577     21.7918   2.8938097326e+02   6.1849846931e+00   0.01016813  0.008790215 -17.63 0.0005801309    1.241    0.194
       166 -12.5272    215.2226     20.8421   2.8946439460e+02   6.2425546863e+00   0.01640445  0.009980369 -46.60  0.001086019    1.655    0.396
       167 -13.8928     68.0461    222.7654   2.9241194611e+02   4.8031110393e+00   0.04212629   0.02896916 -29.01  0.004325622    1.697    0.411
       168 -14.5932     62.9523    215.0200   2.9242320121e+02   4.9227895974e+00   0.05036414   0.04212932 -69.95  0.005650689    1.229    0.186
       169 -11.2017    249.6664    225.6649   2.9033458999e+02   3.6804379659e+00  0.007168566   0.00491119 -27.09  0.000705218    1.737    0.424
       170 -10.7707    201.9367     11.5391   2.8956012203e+02   6.4294962924e+00  0.009859486  0.006555455  24.40  0.001008754    1.539    0.350
       171 -11.3753     70.8883     16.9805   2.9111012271e+02   7.1548318355e+00  0.009741452   0.00955557  49.85 0.0004399699    1.038    0.037
       172 -11.5789     85.0042    215.4693   2.9217126574e+02   4.7857197589e+00   0.01289042  0.009721438 -87.26  0.001189909    1.556    0.357
       173 -11.5254    200.4938    215.5102   2.9083865835e+02   4.0927488575e+00  0.006518126  0.006491556 -41.17 5.610188e-05    1.010    0.010
       174 -12.7893    198.6282     37.2715   2.8975796732e+02   6.1539213894e+00   0.02734472   0.01323207  48.35  0.002022015    2.420    0.587
       175 -11.2208    155.9875    214.2032   2.9134400111e+02   4.3749683399e+00   0.01278817  0.008312981 -14.03  0.001202499    2.092    0.522
       176 -13.5380     94.5119    218.7617   2.9208171192e+02   4.6908935902e+00   0.02043153   0.01593062  29.76   0.00194401    1.281    0.219
       177 -10.8238    136.7551    211.0190   2.9154635718e+02   4.5269794452e+00  0.008859538  0.005595781 -62.21 0.0008801964    1.581    0.368
       178 -10.8959    149.1924    206.8269   2.9137697999e+02   4.5006549352e+00  0.009413966  0.007739382 -21.32  0.000594975    1.332    0.250
