#   1 NUMBER                 Running object number                                     
#   2 MAG_AUTO               Kron-like elliptical aperture magnitude                    [mag]
#   3 X_IMAGE                Object position along x                                    [pixel]
#   4 Y_IMAGE                Object position along y                                    [pixel]
#   5 X_WORLD                Barycenter position along world x axis                     [deg]
#   6 Y_WORLD                Barycenter position along world y axis                     [deg]
#   7 A_WORLD                Profile RMS along major axis (world units)                 [deg]
#   8 B_WORLD                Profile RMS along minor axis (world units)                 [deg]
#   9 THETA_WORLD            Position angle (CCW/world-x)                               [deg]
#  10 FWHM_WORLD             FWHM assuming a gaussian core                              [deg]
#  11 ELONGATION             A_IMAGE/B_IMAGE                                           
#  12 ELLIPTICITY            1 - B_IMAGE/A_IMAGE                                       
         1 -14.8479    206.3815      6.5872   4.8696094808e+01   3.2386040461e+01     2.959263     1.728037  33.77   0.01383554    2.369    0.578
         2 -14.2396    186.0038     35.3517   5.9297062892e+01   3.4296672162e+01     1.069929    0.9422538  -6.05  0.004032217    1.257    0.205
         3 -13.5658    190.6499     29.3739   5.6878413808e+01   3.3851752097e+01    0.6410666     0.604564 -40.48  0.001370498    1.085    0.078
         4 -12.3438     59.5576      3.3368   7.6463353551e+01   6.6955631277e+01    0.4000114    0.2109829  47.18   0.00211045    1.948    0.487
         5 -14.0724    172.0470     49.6130   6.5923215574e+01   3.5919982239e+01     1.762698     1.242176  29.29  0.005040521    1.683    0.406
         6 -11.8857    100.6878    197.3801   1.1688802531e+02   2.1348974678e+01    0.3486458    0.2587949  10.43  0.001311324    2.099    0.524
         7 -18.5151     45.1113    246.2857   1.3173865973e+02   1.9780514308e+01     6.442358      3.91125  35.10   0.04443853    1.813    0.448
         8 -11.2583    158.8874    202.6071   1.0563944666e+02   1.0777803603e+01    0.3885307    0.2126736 -66.34  0.001597199    3.507    0.715
         9 -10.8338     86.9587    202.2453   1.2031632044e+02   2.2423802611e+01    0.4325923    0.2453904  58.65  0.002329007    1.703    0.413
        10 -19.2133     22.1130     99.7529   1.2287334674e+02   5.2801170355e+01     17.95035     1.816134 -68.26   0.03909298    9.403    0.894
        11 -10.3770     75.3115    200.7804   1.2253529769e+02   2.4330257956e+01    0.2363889    0.1705718  34.44  0.001163045    1.520    0.342
        12 -11.9711    140.9903    198.4862   1.0863702424e+02   1.4580117029e+01     0.322412    0.2711943 -36.27  0.001064071    1.386    0.279
        13 -11.6203    135.9999    199.3210   1.0979350825e+02   1.5277684001e+01    0.2952501    0.2344387  86.48  0.001519358    1.538    0.350
        14 -13.5879    128.8135    211.1226   1.1292983230e+02   1.4353719209e+01    0.6421006    0.4603236  59.39  0.002970044    1.386    0.278
        15 -10.9555     81.7894    195.1578   1.2057923736e+02   2.4559892286e+01    0.3054702    0.2741685  89.51  0.001590847    1.134    0.118
        16 -11.8143    152.9469    193.4744   1.0537168332e+02   1.3398698053e+01    0.3817248    0.2152982  55.24  0.001603668    2.023    0.506
        17 -11.0218     97.3983    190.3159   1.1667189287e+02   2.3253363392e+01    0.3205137    0.1976073  66.28  0.001649616    1.804    0.446
        18 -12.2081    113.6569    208.7656   1.1566839178e+02   1.7187437989e+01    0.3016173    0.2032939  58.38  0.001386749    1.414    0.293
        19 -12.4207    110.5585    188.3864   1.1357047488e+02   2.1579673492e+01    0.5143133    0.3332828  -4.97  0.001980269    4.165    0.760
        20 -10.5915     59.0394    188.2850   1.2461540088e+02   2.8978432541e+01    0.3042875    0.2398115 -44.03  0.001938682    1.718    0.418
        21 -12.1446    106.5540    210.6113   1.1732500996e+02   1.7942996486e+01    0.6021747    0.2532057  43.79  0.002091073    2.016    0.504
        22 -10.4408     99.7389    186.4306   1.1564479007e+02   2.3682187764e+01    0.2525433    0.1103649  43.51  0.001129946    2.065    0.516
        23 -11.2637    150.9197    182.6348   1.0396004217e+02   1.5735498135e+01    0.2326979    0.2013676 -66.03 0.0005535022    1.328    0.247
        24 -10.9797     99.4318    180.7840   1.1492443424e+02   2.4891846829e+01    0.2365494     0.209322  57.26 0.0005670204    1.059    0.056
        25  -9.2922     53.4517    181.0831   1.2507307470e+02   3.1171039137e+01    0.1629478    0.1059196 -73.69   0.00035294    1.418    0.295
        26 -12.6379    112.9660    195.9112   1.1411281409e+02   1.9716281305e+01    0.5716333    0.3745248   5.41  0.002469301    3.321    0.699
        27 -10.9001    207.8159    195.8080   9.4970868120e+01   3.3301605635e+00    0.1665605    0.1534671  45.67 0.0006800973    1.335    0.251
        28  -9.6638    168.4541    176.9606   9.9234048049e+01   1.3531975414e+01    0.1799102    0.1239115 -72.64 0.0007678855    2.401    0.584
        29 -10.3445    165.5980    172.6103   9.9008172717e+01   1.4863378783e+01     0.248854    0.2072434 -71.25 0.0006695031    1.521    0.343
        30  -9.7714     64.5817    170.7285   1.2145134403e+02   3.2024349862e+01    0.2275944    0.1223799  54.46  0.001149668    1.835    0.455
        31 -10.7823    201.2620    168.6980   9.0989030174e+01   8.7402491579e+00    0.3834025    0.2821544 -59.28  0.001738942    1.939    0.484
        32 -11.2445    204.4171    165.3259   8.9686571330e+01   8.6965499745e+00      0.51061    0.3045914 -45.92  0.001660378    1.924    0.480
        33 -11.6023    193.8971    166.7955   9.2043102591e+01   1.0464218297e+01    0.3367521     0.302248 -35.31 0.0007217285    1.205    0.170
        34 -10.8230    190.5320    161.1719   9.1549343981e+01   1.2087618441e+01    0.3475102    0.2901615  85.54  0.001253928    1.727    0.421
        35 -10.5361    139.9859    168.4689   1.0380559195e+02   2.0478310033e+01    0.2145077    0.1314317  42.21 0.0003546017    1.538    0.350
        36 -11.2682    188.9671    154.9159   9.0535213651e+01   1.3501458405e+01    0.4301781     0.393658 -89.84  0.002078597    1.387    0.279
        37 -10.7852    160.2810    165.1872   9.8702722545e+01   1.7274530395e+01    0.2546473    0.1952728 -67.82 0.0007158654    1.671    0.401
        38  -9.7703      2.6639    161.9954   1.3436751294e+02   4.0203742780e+01     0.167748    0.1200158  61.21 0.0004771184    1.286    0.222
        39 -11.6560     97.4411    155.2316   1.1141206774e+02   3.0716752751e+01    0.4070858     0.327948  18.02 0.0009421506    1.567    0.362
        40 -11.6420     99.4887    151.5038   1.1026348995e+02   3.1217006887e+01    0.4463701    0.2881024  49.99  0.001658951    1.551    0.355
        41 -11.5735    133.7516    145.2574   1.0068636692e+02   2.6458605426e+01     1.141156    0.2814447 -54.21  0.002720959    6.251    0.840
        42 -13.0762    106.8454    203.0070   1.1632560893e+02   1.9319514753e+01    0.5620198    0.4141448  62.74  0.001617003    1.288    0.224
        43 -10.4600    174.6839    148.9394   9.2204904390e+01   1.7494918254e+01    0.2555914    0.2305419 -84.86 0.0006830985    1.357    0.263
        44 -12.1629    192.9908    194.5562   9.7550142918e+01   6.1008376584e+00    0.8908515    0.4779316 -61.67  0.003030498    5.308    0.812
        45  -9.1800    117.6708    146.3247   1.0480681142e+02   2.9235581901e+01    0.1498015    0.1109269  78.53 0.0007050108    1.700    0.412
        46 -12.1403    108.9793    139.6738   1.0565023279e+02   3.2261824720e+01    0.5995507    0.3450837 -34.99  0.002493229    2.316    0.568
        47 -12.4086     97.7580    139.1485   1.0842083687e+02   3.4292175646e+01    0.2728362    0.2632186 -77.83 0.0003887711    1.049    0.047
        48 -11.4671    105.9687    130.7016   1.0457193228e+02   3.4815032344e+01    0.4007922    0.3232543 -71.09  0.001229503    1.294    0.227
        49 -11.4649    103.7215    126.0152   1.0415735169e+02   3.6273518553e+01    0.2899264    0.2525069  -2.69 0.0007993547    1.396    0.283
        50 -11.0951    135.6436    127.9787   9.6389520235e+01   2.9778831361e+01    0.6004283    0.1414948 -49.04  0.001580095    4.576    0.781
        51 -11.2035    115.9842    129.9137   1.0179498783e+02   3.3180961414e+01    0.3413914    0.2803814 -13.03 0.0008117377    1.533    0.348
        52 -10.5673    160.2691    127.2982   9.0386846428e+01   2.4754587136e+01    0.4455751    0.2827999 -71.01  0.001663906    2.781    0.640
        53 -10.5095    120.1965    124.1313   9.9393405231e+01   3.3669742457e+01    0.2329361     0.202675 -18.71  0.001140755    1.306    0.234
        54  -9.9617    135.0000    119.9598   9.4621204731e+01   3.1626422574e+01    0.2526278   0.08556098 -45.62 0.0008001794    2.927    0.658
        55 -10.2044    111.0060    118.9882   1.0061152844e+02   3.6550372039e+01    0.2136735    0.2093458 -65.18 0.0003396491    1.015    0.014
        56 -11.2861     68.3486    115.7313   1.1186113224e+02   4.4170380082e+01    0.2497179    0.2231043 -43.34 0.0007627936    1.163    0.140
        57 -12.0771     63.7114    114.4119   1.1294822370e+02   4.5093201300e+01    0.3118233    0.3049994  -1.16  0.001462179    1.178    0.151
        58 -12.1836     65.4938    105.3743   1.1055660860e+02   4.6976958494e+01    0.7920572    0.4805027 -31.27   0.00364249    2.160    0.537
        59 -10.5496    134.5272    105.9900   9.1154433228e+01   3.4688070547e+01    0.3518465      0.14733 -43.82   0.00124633    2.348    0.574
        60 -11.7636      7.6248    214.8658   1.3637346035e+02   2.9204330813e+01    0.3006986    0.1675242  18.92  0.001774783    3.232    0.691
        61 -10.4460    205.4941    110.1377   7.6752029742e+01   1.7926445793e+01    0.3141439    0.2107813  39.71 0.0009342224    1.567    0.362
        62 -11.1241    119.3800    110.2948   9.6234367009e+01   3.6875994034e+01    0.4256396     0.202544  53.42  0.001547148    2.582    0.613
        63 -10.3561    168.0780    112.8094   8.4995196533e+01   2.5894988832e+01    0.3062468    0.2446342 -64.91 0.0009752521    1.505    0.336
        64  -9.5273    128.5382     95.4416   8.9801816804e+01   3.8163935984e+01    0.1509463    0.1476797 -54.68 0.0001361854    1.051    0.048
        65  -9.8893     41.6729     91.9501   1.1521813556e+02   5.2881094260e+01    0.1840428    0.1425537 -59.18 0.0003971998    1.089    0.082
        66  -9.0079     73.4718     73.4443   9.9783243996e+01   5.3020210043e+01    0.1388791    0.1262799 -38.14 0.0001664063    1.031    0.030
        67 -12.3608    167.7500     67.5703   7.2263845964e+01   3.4218665019e+01     1.447428    0.6609533 -56.31  0.003604622    3.965    0.748
        68 -11.9986    133.4303    204.1035   1.1102153917e+02   1.4844546423e+01    0.3650641    0.2291723 -87.23  0.001683364    2.788    0.641
        69 -11.5446     95.3841    199.6822   1.1828010329e+02   2.1697097658e+01    0.4142044     0.246448 -58.66 0.0009652025    1.805    0.446
        70 -10.9329    169.0468    236.0979   1.0861458927e+02   3.9375060612e+00     0.180173    0.1703732 -35.52 0.0003926617    1.321    0.243
        71  -9.8230    220.4864    228.9525   9.8336585502e+01  -3.1320391656e+00    0.2564557    0.1011498 -46.86  0.001025332    4.795    0.791
