#   1 NUMBER                 Running object number                                     
#   2 MAG_AUTO               Kron-like elliptical aperture magnitude                    [mag]
#   3 X_IMAGE                Object position along x                                    [pixel]
#   4 Y_IMAGE                Object position along y                                    [pixel]
#   5 X_WORLD                Barycenter position along world x axis                     [deg]
#   6 Y_WORLD                Barycenter position along world y axis                     [deg]
#   7 A_WORLD                Profile RMS along major axis (world units)                 [deg]
#   8 B_WORLD                Profile RMS along minor axis (world units)                 [deg]
#   9 THETA_WORLD            Position angle (CCW/world-x)                               [deg]
#  10 FWHM_WORLD             FWHM assuming a gaussian core                              [deg]
#  11 ELONGATION             A_IMAGE/B_IMAGE                                           
#  12 ELLIPTICITY            1 - B_IMAGE/A_IMAGE                                       
         1 -12.0271    193.0273     57.2372   5.3205267682e+01   2.9526944616e+01      1.06135    0.3623905 -29.59  0.003455285    3.299    0.697
         2  -9.0644    237.7234     42.0295   4.3493877303e+01   2.1073330446e+01    0.1934246    0.1565414 -48.46 0.0009866661    1.114    0.102
         3  -9.5711    172.0135     22.2701   4.6366009691e+01   3.9523344766e+01    0.5337117   0.09328466 -33.22  0.001602299    4.459    0.776
         4  -8.5969     80.3858     12.1734   6.2416904851e+01   6.2233181435e+01    0.1753643    0.1112812 -34.50 0.0004723977    1.757    0.431
         5  -9.4753    140.4088      9.2799   4.7179738761e+01   4.8833557560e+01    0.3054228    0.1747756  77.89  0.001052699    1.867    0.464
         6  -9.1470     18.7410      9.0377   8.7348722010e+01   7.1935887160e+01    0.1593536    0.1140065 -20.49 0.0002686619    1.072    0.067
         7  -9.6622    132.7742      7.4407   4.7871106432e+01   5.0883059912e+01    0.2441118    0.1526342 -36.16  0.001250859    1.766    0.434
         8  -9.2211    128.2410      6.9717   4.8531071849e+01   5.2029873514e+01    0.1611445    0.1140421 -19.71 0.0003663016    1.571    0.363
         9 -10.1991    116.6934      5.4432   5.0224197681e+01   5.4925498718e+01    0.2355756    0.2190385  56.09 0.0002661838    1.096    0.088
        10  -9.8445    110.9385      4.9890   5.1266460282e+01   5.6308354556e+01    0.1981622    0.1738595  42.34            0    1.017    0.017
        11  -9.0688     64.5182      4.5363   6.4143105235e+01   6.6024823285e+01    0.1245935    0.1023138  16.15 6.917512e-05    1.025    0.024
        12  -8.8324    153.5329      3.0431   4.3105212105e+01   4.6109511588e+01    0.1818607    0.1338426 -22.35 0.0004924672    1.545    0.353
        13  -8.4087    143.3975      2.7675   4.4503971907e+01   4.8662163735e+01    0.1764248    0.1263272   5.87 0.0009500366    1.704    0.413
        14  -9.1653     50.9858      3.1083   6.8621192082e+01   6.8485559430e+01    0.1834449    0.1440847   8.81 0.0004967151    1.007    0.007
        15  -9.0580    121.7158      1.9523   4.7913521630e+01   5.4022415010e+01    0.1733708    0.1570258  30.95 0.0003287178    1.105    0.095
        16  -9.1532     14.9182      1.9630   8.5821260711e+01   7.3320148137e+01     0.168606    0.1238897 -13.61  0.000315376    1.012    0.012
        17  -8.8566    240.7904    209.1858   8.0026891857e+01  -5.7809673687e+00    0.1787883     0.146788 -86.12 0.0009603245    2.889    0.654
        18  -8.9166    225.3044    249.7039   8.9620952063e+01  -8.7120036113e+00    0.1842146    0.1422923 -39.29  0.001264201    1.784    0.439
        19  -8.5229    173.4839    204.4692   9.2125645978e+01   6.1691172846e+00    0.1363381    0.1217829  32.88 0.0002854161    1.049    0.047
        20  -8.5608    250.2049    201.4269   7.6952568906e+01  -6.1237016227e+00    0.1567904    0.1125734  41.27  0.000940396    1.646    0.392
        21  -8.9595    159.2194    198.3302   9.4071058580e+01   9.8532315255e+00    0.1991577     0.116177  46.62 0.0006234645    1.633    0.388
        22  -8.8424    247.2630    194.0082   7.6048646756e+01  -4.6444405646e+00    0.1876874    0.1439624  81.29 0.0008891103    3.473    0.712
        23  -9.9222     77.7860    185.6640   1.1048040392e+02   2.6273690297e+01    0.2720597    0.2264324  41.04 0.0007292558    1.273    0.215
        24  -8.5527    174.3229    185.6656   8.8532154430e+01   9.4401360759e+00    0.1403859    0.1139748  78.83 0.0004721622    1.708    0.415
        25  -8.4866    249.3082    184.6569   7.3876436316e+01  -3.6124924979e+00    0.1158696    0.1016797 -55.51 0.0004159467    1.694    0.410
        26  -8.1097    224.9987    185.0000   7.8268184719e+01   3.3034694309e-01     0.208934   0.07236985  41.59 0.0006899193    2.867    0.651
        27 -10.0817    162.4372    183.1314   9.0626156126e+01   1.2181040846e+01    0.2696918    0.1866406  73.13  0.001145392    2.260    0.558
        28  -9.7960    177.9762    183.0071   8.7242539884e+01   9.2484122969e+00    0.2223798    0.1810946  81.59  0.001133785    1.743    0.426
        29  -9.4019    191.7200    180.4151   8.3857872883e+01   7.1234939089e+00    0.2763122    0.1310301  45.60  0.001136118    2.127    0.530
        30 -10.9345    162.6534    177.1633   8.9433104620e+01   1.3323711553e+01    0.4059355    0.2134369  58.28  0.001510192    2.753    0.637
        31  -9.1049    134.7399    179.0323   9.6135419252e+01   1.8249100400e+01    0.1858819     0.126444 -53.91 0.0008904128    1.555    0.357
        32 -10.4632    150.8808    178.5362   9.2338562329e+01   1.5311074679e+01    0.2943366    0.1997068 -68.87  0.001333537    1.978    0.494
        33  -8.4564    198.7492    177.5953   8.1858127211e+01   6.3059449467e+00    0.1949702    0.1307896  49.55 0.0008315133    1.641    0.391
        34  -8.0806    210.6805    176.3800   7.9246659620e+01   4.2990003984e+00    0.1351644    0.1137355 -78.70 0.0001242948    1.823    0.451
        35 -10.5568    159.0901    171.7742   8.9168530576e+01   1.5110704413e+01    0.3263794    0.1955705  51.65  0.001421896    1.776    0.437
        36 -10.8285    181.0743    170.2654   8.4025783825e+01   1.1074157055e+01     0.405261    0.2569248  58.19  0.001771846    2.021    0.505
        37  -9.2749    206.7540    170.6014   7.8818979314e+01   6.0378539490e+00    0.1928654    0.1330101  49.37 0.0008269998    1.611    0.379
        38 -10.7625    170.4972    169.4773   8.6158616382e+01   1.3322089986e+01    0.2842655    0.2125141  41.72   0.00141581    1.293    0.226
        39 -10.1406    151.0484    170.0022   9.0651164784e+01   1.7056156873e+01    0.2397139    0.1827104  75.19  0.001132065    1.713    0.416
        40  -8.6578    220.2044    169.4025   7.5979148057e+01   3.7410535263e+00    0.1946118    0.1313147  51.40 0.0009609947    1.772    0.436
        41  -8.7762    212.6459    169.3572   7.7408980675e+01   5.1478041864e+00    0.2086574    0.1788556 -85.59  0.001114751    1.743    0.426
        42  -9.0364    128.2326    167.2626   9.5508892299e+01   2.2035979618e+01    0.2332542    0.1222588 -63.83 0.0008922278    2.410    0.585
        43  -8.8906     67.6392    166.9252   1.1041024387e+02   3.2046094585e+01    0.1917586    0.1560685 -80.86 0.0005184481    1.112    0.101
        44  -9.3275    201.1653    166.3972   7.9044576233e+01   7.8627732966e+00    0.2009467    0.1349541  52.13 0.0009470092    1.704    0.413
        45  -9.3005    186.0232    166.5216   8.2191241653e+01   1.0814307182e+01      0.22544    0.1404912  42.43  0.001026213    1.575    0.365
        46 -10.3253    173.3218    164.7354   8.4550515919e+01   1.3705089391e+01    0.2797426    0.1732943  51.04 0.0007154837    1.725    0.420
        47 -10.0933    138.9294    164.9631   9.2495604980e+01   2.0503855848e+01    0.2459776    0.1844565  77.82  0.001139446    1.731    0.422
        48  -9.1871    214.2659    164.4590   7.6059783689e+01   5.6973066883e+00    0.2725443    0.1323124  38.56  0.001145425    2.103    0.525
        49  -9.5546    206.3675    162.9706   7.7276205353e+01   7.4747937682e+00    0.2482747    0.2003962  48.13  0.001239141    1.356    0.263
        50 -10.0064    163.6585    161.5596   8.6035605863e+01   1.6305588914e+01    0.2633662    0.1410077 -45.91  0.001077226    1.921    0.479
        51 -12.1491    177.2778    153.2276   8.1186824689e+01   1.5208646012e+01    0.6964411    0.4003868 -53.84  0.002850895    2.062    0.515
        52 -11.0983    158.7880    160.4939   8.6921686799e+01   1.7516225663e+01    0.3454576    0.2799202 -54.90  0.001398402    1.320    0.242
        53 -10.9601    154.7197    157.1235   8.7147674119e+01   1.9058818860e+01    0.3830711    0.2259792 -53.68  0.001561694    1.855    0.461
        54 -11.5053    169.9153    159.6086   8.4212431979e+01   1.5432342097e+01     0.479241    0.2448302  40.13  0.001928616    1.940    0.485
        55 -10.8655    172.1322    154.8603   8.2683985307e+01   1.5946010308e+01     0.339933    0.2147126 -52.03  0.001483376    1.743    0.426
        56 -10.3409      3.0223    159.0899   1.2502990912e+02   4.0620275168e+01    0.2944023    0.1438434 -66.36 0.0009726339    1.719    0.418
        57  -7.9645    238.3385    159.6869   7.0643837773e+01   2.0832652015e+00    0.1280518    0.1089737 -67.86 0.0006629334    1.694    0.410
        58 -10.6574    188.6374    157.5810   7.9714107685e+01   1.2009394143e+01    0.3612217    0.2861778 -85.49  0.001716504    1.881    0.468
        59 -11.0436    145.1145    153.9623   8.8747757863e+01   2.1697690327e+01    0.5422338    0.2190799 -48.34  0.001912447    2.523    0.604
        60  -8.9859    203.9587    152.4877   7.5454392293e+01   9.8685695204e+00    0.2229124    0.1434701  44.51 0.0006747231    1.596    0.374
        61  -8.7282    212.3548    151.6878   7.3639174686e+01   8.3382960234e+00    0.1415434    0.1175508 -80.54 0.0007044518    1.733    0.423
        62  -9.0708    196.8814    151.1378   7.6574320148e+01   1.1560407589e+01    0.2226167    0.2118674 -83.77  0.001060066    1.245    0.197
        63 -11.3654    191.8994    148.5585   7.7015268830e+01   1.3085003561e+01    0.5748378    0.2682235 -52.77  0.002021393    2.851    0.649
        64  -9.1558    162.4986    150.4836   8.3891591546e+01   1.8864085884e+01    0.1510147    0.1489809  57.68 9.725506e-05    1.049    0.047
        65  -9.0819    236.1073    148.3779   6.8584877167e+01   4.3565893330e+00    0.2568875    0.1838633  63.21  0.001286543    1.990    0.497
        66  -9.9795    208.9596    146.0000   7.3012184844e+01   1.0055138896e+01     0.353755    0.1567301  56.12  0.001220917    3.224    0.690
        67 -11.6204    181.2865    141.6709   7.7673440959e+01   1.6692946003e+01    0.6636797    0.4153134 -70.27  0.002400922    2.973    0.664
        68  -8.8507    132.4693    147.9360   9.0558205311e+01   2.5589124389e+01    0.2357699    0.1503408 -51.01 0.0009143188    1.580    0.367
        69  -8.9334    224.7729    147.7637   7.0450614925e+01   6.6053071506e+00     0.210999    0.1188892  57.94 0.0008792912    2.463    0.594
        70 -10.0004    201.4710    146.1393   7.4514945187e+01   1.1562398939e+01     0.286063    0.1999127  63.42  0.001223609    1.898    0.473
        71 -11.5506    157.5927    153.2670   8.5643049963e+01   1.9293368611e+01    0.6190852    0.3397388 -62.78  0.002236041    2.747    0.636
        72 -10.2808    162.4195    142.5701   8.2107906157e+01   2.0559827314e+01    0.4846117     0.279807 -64.34  0.001742772    2.712    0.631
        73  -9.9375    155.9452    143.8388   8.3915870274e+01   2.1665952883e+01    0.2815367    0.2279298 -45.57 0.0009305038    1.243    0.195
        74 -10.3454    147.4460    138.9523   8.4827730635e+01   2.4535679831e+01    0.4296519    0.2535397 -62.25  0.001650968    2.218    0.549
        75  -8.4671    214.7111    143.3534   7.1312590817e+01   9.3741195232e+00    0.1440668    0.1143872 -66.29 0.0005119963    1.673    0.402
        76 -10.7298    166.6373    140.6970   8.0700680577e+01   2.0050255645e+01    0.3632203    0.2894909 -75.53  0.001697888    1.606    0.377
        77 -11.1512    199.2043    138.9102   7.3294939746e+01   1.3407500930e+01      0.48725    0.3487456 -29.94  0.002330762    1.393    0.282
        78 -11.3332    187.9670    137.8040   7.5339011088e+01   1.6026260437e+01    0.5001775    0.3187203 -26.50  0.002144773    1.774    0.436
        79 -11.0050    192.9977    137.7758   7.4287220667e+01   1.4949059117e+01    0.3735459    0.3292552  23.73   0.00159732    1.164    0.141
        80 -11.7343    172.7439    138.2844   7.8751696216e+01   1.9231474166e+01    0.6040372    0.4253808  83.03  0.002438626    2.348    0.574
        81  -8.7079    219.7512    139.3940   6.9472885093e+01   9.0711977523e+00    0.1994223    0.1333009  34.05 0.0008811546    1.626    0.385
        82 -10.0528    209.6924    138.9919   7.1261058560e+01   1.1196278478e+01    0.3282543    0.2021646  36.04  0.001470484    1.761    0.432
        83  -9.4845    152.4352    138.7568   8.3573528450e+01   2.3518408291e+01    0.2942895     0.151247 -49.85   0.00096469    2.016    0.504
        84 -10.2181    163.2980    135.0564   8.0129352820e+01   2.1968680430e+01    0.4924937    0.2507118 -32.17  0.001770103    2.412    0.585
        85  -7.9114    243.3040    135.3578   6.4498975859e+01   5.1900494565e+00    0.1438619    0.1015096  -2.78 0.0004977399    1.720    0.419
        86  -8.8565    226.0261    134.4618   6.7215327757e+01   8.6868145583e+00    0.2083604    0.1432573  48.00   0.00102718    1.589    0.370
        87  -9.1345    133.4796    134.4783   8.7276369256e+01   2.8461594761e+01    0.1548438    0.1510866 -86.54 8.834046e-05    1.027    0.027
        88 -11.2180    202.7826    122.0751   6.8550675631e+01   1.5833022024e+01     0.501982    0.2604261  54.74  0.001997558    2.173    0.540
        89 -10.2615    186.1040    115.0002   7.0103074905e+01   2.0948795684e+01    0.3901066    0.2475725 -55.58  0.001624281    1.834    0.455
        90 -11.1002    198.3571    132.1072   7.1851805990e+01   1.4890396798e+01    0.4530332    0.2410419  44.12  0.001475249    1.944    0.486
        91 -10.4431    193.1364    130.2268   7.2451978817e+01   1.6389634849e+01    0.4309801    0.2938183 -64.91  0.001824984    2.046    0.511
        92 -10.8551    188.3079    123.4111   7.1770405056e+01   1.8795215063e+01    0.5545818    0.2773273 -50.10  0.002069399    2.232    0.552
        93 -10.2700    194.3994    121.2227   6.9985743622e+01   1.7856609038e+01    0.3071406    0.2575919 -64.38  0.001112039    1.359    0.264
        94 -11.5532    190.8058    118.3560   6.9992637246e+01   1.9221213342e+01    0.6144866    0.3326089 -31.11   0.00241048    1.998    0.499
        95 -10.8487    179.9346    132.6441   7.5815148192e+01   1.8812622828e+01    0.3830712    0.3176426  51.68  0.001497837    1.259    0.206
        96 -10.5359    186.3211    129.9949   7.3807250682e+01   1.7934834359e+01    0.4581693    0.2752692 -56.76  0.001830829    2.096    0.523
        97 -10.3182    172.1065    129.3864   7.6742169571e+01   2.1215036419e+01    0.4586603    0.2125579 -44.01  0.001684619    2.136    0.532
        98  -8.8895    170.1943    124.2271   7.5886914773e+01   2.2713099784e+01    0.2769867    0.1914673 -61.08 0.0007873314    1.765    0.433
        99  -9.2977    142.9957    131.0206   8.4043456629e+01   2.7247301383e+01     0.304641    0.2015737 -46.49  0.001323272    1.502    0.334
       100  -9.6066    155.6790    135.2029   8.1954973296e+01   2.3595222775e+01    0.2962026    0.1936661 -54.98  0.001257798    1.671    0.402
       101  -8.8323    137.0174    131.2717   8.5612385632e+01   2.8456222558e+01    0.2305558    0.1711248 -70.21 0.0007412759    1.635    0.389
       102  -8.8922    212.8063    129.7715   6.8510793581e+01   1.2242742595e+01    0.2010487    0.1776674 -78.48 0.0009000411    1.386    0.279
       103 -10.4220    165.7503    126.9954   7.7590301171e+01   2.3132625646e+01    0.4330523    0.2302303 -45.68  0.001688508    1.880    0.468
       104  -9.7505    147.2273    125.8694   8.1725812258e+01   2.7477381924e+01    0.4997073    0.2821352 -69.04  0.001583587    3.425    0.708
       105  -9.7170    214.6245    124.0809   6.6820501478e+01   1.2897429140e+01    0.5086775    0.2758002  69.07  0.001762206    3.507    0.715
       106 -10.5109    179.9848    125.3584   7.4013520196e+01   2.0276210036e+01    0.3630043     0.331852  84.72  0.001131823    1.240    0.193
       107 -10.0541      6.5984    124.3297   1.2103379015e+02   4.8471213213e+01    0.1954065    0.1614173  12.60 0.0007506949    1.605    0.377
       108 -10.1285    173.9868    119.3607   7.3807557873e+01   2.2853518100e+01    0.5650812     0.225322 -45.24  0.001903832    2.521    0.603
       109 -10.3362      2.6485    122.5284   1.2192437032e+02   4.9140817843e+01    0.2594077    0.1308826 -55.99  0.001427928    1.724    0.420
       110  -9.0868    157.6413    119.5578   7.7599798624e+01   2.6531738661e+01    0.2866151    0.1483317 -43.64   0.00108595    1.908    0.476
       111 -10.4928     18.3591    118.8676   1.1706366028e+02   4.8956250063e+01    0.2625526    0.2038462 -89.16 0.0005463702    1.186    0.157
       112 -10.1053    213.6842    118.1474   6.5559342823e+01   1.4179156826e+01    0.2469034    0.1818336 -52.68  0.001195015    1.443    0.307
       113 -11.2835    200.0244    126.6134   7.0195272212e+01   1.5578063492e+01    0.6185449    0.3947803 -77.46  0.002172411    3.358    0.702
       114  -8.9737    140.4975    117.5337   8.1296432333e+01   3.0791656666e+01    0.3402006    0.1547494 -45.18  0.001212356    2.170    0.539
       115  -8.8452    203.6835    116.3136   6.6956759991e+01   1.6714995833e+01    0.1525808    0.1185177 -71.70 0.0007035627    1.644    0.392
       116 -10.0426    180.8394    115.8264   7.1417988836e+01   2.1995215520e+01    0.2451227    0.2170133  -0.73 0.0009991316    1.242    0.195
       117  -8.8234    208.3257    113.6361   6.5427300915e+01   1.6179001536e+01     0.158166    0.1155256 -68.51 0.0007039547    1.795    0.443
       118  -9.1936    168.2791    111.4410   7.3019277307e+01   2.5787094227e+01    0.2860451    0.1906966 -59.60  0.001181544    1.814    0.449
       119  -9.0200      2.3464    112.6751   1.2094061921e+02   5.1473734905e+01    0.1240032   0.07709362  70.35 0.0007050007    1.744    0.427
       120  -9.7351    219.0300    110.9851   6.2873708682e+01   1.4308112479e+01    0.2377381    0.1808403   5.07  0.001140371    1.694    0.410
       121  -8.8153    213.3149    111.6710   6.4040742066e+01   1.5434391849e+01     0.152424    0.1142623 -67.71 0.0007044838    1.676    0.403
       122 -10.2300    176.8946    110.5950   7.0901852593e+01   2.3951572482e+01    0.3342459      0.20174 -55.13   0.00132904    1.940    0.485
       123  -9.1168    201.4817    109.4977   6.5663048591e+01   1.8482437732e+01    0.1522144    0.1438864 -43.63 0.0008102143    1.031    0.030
       124 -10.4780    189.9523    108.6671   6.7688926676e+01   2.1289095874e+01    0.2899862    0.2135954 -61.26  0.001038449    1.584    0.369
       125  -8.8442     56.8091    108.1899   1.0344103268e+02   4.7790077421e+01    0.1903214    0.1500958 -38.14 0.0004419723    1.300    0.231
       126 -10.1596      9.6712    107.9594   1.1819393643e+02   5.2152510055e+01    0.1809547    0.1291132 -71.91 0.0005070787    1.105    0.095
       127 -10.1181    205.8716    105.5105   6.3840717086e+01   1.8219561025e+01    0.3060942    0.2318764 -62.98  0.001461246    1.527    0.345
       128  -9.0412    213.6769    105.2863   6.2395882966e+01   1.6502052668e+01    0.1484491    0.1142109 -70.96 0.0003997563    1.601    0.375
       129  -9.2269    230.3640    104.1067   5.9342440394e+01   1.3071375692e+01     0.240839    0.1991686  35.78  0.001298309    1.366    0.268
       130  -9.2981    200.8931    103.5653   6.4260492334e+01   1.9716097747e+01     0.319656    0.1872802 -52.50  0.001266996    1.891    0.471
       131  -8.9505    160.8711    108.5801   7.3949847321e+01   2.8098048023e+01    0.2750255    0.1825466 -46.26 0.0006545013    1.503    0.335
       132 -10.2764    183.3144    109.0721   6.9146693332e+01   2.2754960389e+01    0.3912321    0.1756942 -44.61  0.001408091    2.208    0.547
       133  -9.6582    194.9947    103.0390   6.5238941827e+01   2.1181656449e+01    0.2438518    0.1844277 -70.75 0.0005517588    1.649    0.393
       134  -9.0533    209.4205    100.2486   6.1874021022e+01   1.8362697426e+01    0.2201275    0.1305616 -46.63 0.0008588514    1.652    0.395
       135  -8.5528    167.0000     99.9165   7.0195052190e+01   2.8411733930e+01    0.2651058   0.08889097 -39.45 0.0008011175    2.933    0.659
       136  -8.8709    160.4482    100.0690   7.1721870214e+01   2.9936717745e+01    0.2493797    0.1540821 -39.62  0.001030035    1.599    0.375
       137 -10.7138    215.5171     94.4871   5.9379370425e+01   1.7991603245e+01    0.3294761    0.2319125 -40.65  0.001327121    1.314    0.239
       138 -10.5931    210.9989     91.9809   5.9498919907e+01   1.9460810226e+01    0.4458299    0.2551448 -60.73  0.001289081    2.357    0.576
       139  -9.6468    203.1634     98.6628   6.2582782752e+01   2.0086369982e+01    0.2708216    0.1994135 -49.22 0.0007722676    1.344    0.256
       140 -10.2695    195.3633     97.6982   6.3772247449e+01   2.2085636219e+01    0.3387917    0.2424429 -68.74  0.001502165    1.780    0.438
       141 -10.0250    189.1126     97.6183   6.4951558210e+01   2.3579337361e+01    0.2657178    0.1851675 -31.98  0.001199336    1.449    0.310
       142  -9.6043     31.7145     97.6343   1.0950416022e+02   5.2969375734e+01    0.3263064    0.1707696  44.82   0.00113782    2.334    0.572
       143 -10.0181    176.4791     97.0448   6.7356801003e+01   2.6706448918e+01    0.3069566    0.1550419 -34.41  0.001052247    2.041    0.510
       144  -8.8544    177.4542     93.0014   6.6043229199e+01   2.7242441265e+01    0.2314674    0.2045055 -38.53  0.001168143    1.110    0.099
       145  -8.7752    235.9001     95.9551   5.6548994346e+01   1.3268466310e+01    0.2270625    0.1606207 -64.48  0.001002352    1.667    0.400
       146 -10.6694    189.3666     92.8316   6.3621024159e+01   2.4405615950e+01    0.4165824    0.2699951  65.86  0.001793753    1.787    0.440
       147  -9.9826    183.6705     95.5398   6.5471244582e+01   2.5267707308e+01    0.3945537    0.1526245 -36.17  0.001316499    2.586    0.613
       148  -8.9554    183.7380     90.0607   6.3965794547e+01   2.6271194067e+01    0.4466124    0.1809183 -48.99  0.001455704    2.846    0.649
       149  -8.8301    170.9899     95.4773   6.8093318496e+01   2.8327433943e+01     0.263416    0.1976796 -39.63 0.0007670891    1.307    0.235
       150  -9.8192    207.1432     94.6651   6.0847244749e+01   1.9880080399e+01    0.2337782    0.1894043 -88.49 0.0006185458    1.466    0.318
       151  -8.2953    153.4884     95.4863   7.2064032914e+01   3.2508159349e+01     0.156613    0.1548777 -38.72 0.0008104216    1.001    0.001
       152  -9.1263    164.5518     93.7994   6.9036673335e+01   3.0202465517e+01     0.310073    0.1554747 -34.17  0.001141091    2.102    0.524
       153  -9.5990    232.2167     92.0656   5.6162676714e+01   1.4701236422e+01    0.2697886    0.1822161 -78.86  0.001229344    2.103    0.525
       154  -9.6595    197.4980     86.9731   6.0540561340e+01   2.3513375516e+01    0.4332997    0.1752981 -35.78  0.001111783    2.395    0.582
       155  -9.2039    171.9636     90.8388   6.6591468351e+01   2.8981443917e+01    0.2817912    0.2222449 -40.15 0.0007000367    1.245    0.196
       156 -10.6064     25.0356     90.0947   1.1032501563e+02   5.5300688196e+01    0.2829977    0.2075174 -42.37 0.0004278007    1.275    0.216
       157  -8.4957    203.4697     90.4672   6.0402327955e+01   2.1479874616e+01    0.1500263    0.1423039 -47.47   0.00027977    1.004    0.004
       158  -8.1239    158.0000     90.0146   6.9441420433e+01   3.2517311316e+01    0.2621568   0.08908594 -38.87  0.000798494    2.915    0.657
       159 -10.3097    212.7716     96.5342   6.0355895499e+01   1.8257879227e+01    0.4916805    0.2251006 -57.86  0.001522751    3.787    0.736
       160  -8.3024     52.7232     89.3342   1.0050957753e+02   5.2767366882e+01    0.1322389    0.1040651  87.73 0.0006997797    1.605    0.377
       161  -7.9114     42.2783     89.6965   1.0423759643e+02   5.3839075137e+01    0.1258235   0.09952488  84.22 0.0002314701    1.547    0.354
       162  -9.3665    192.8587     88.1519   6.1702344429e+01   2.4416463375e+01    0.2125465    0.1846086   0.76 0.0008598901    1.343    0.255
       163  -8.5650    150.8274     87.5731   7.0409773047e+01   3.4713747272e+01    0.3075795    0.1188719 -36.52 0.0009920589    2.695    0.629
       164  -9.9227     30.2097     87.1013   1.0791179408e+02   5.5577278013e+01    0.2261355      0.18737 -51.67 0.0007544346    1.035    0.034
       165  -9.9556    225.5113     87.0439   5.5942420275e+01   1.7007239609e+01    0.2295975    0.1324058 -36.33 0.0007455037    1.592    0.372
       166  -9.1115    170.5307     83.5023   6.4814889775e+01   3.0702994868e+01     0.317493    0.1511039 -37.67 0.0007864808    2.068    0.517
       167  -8.6827    200.4167     83.1858   5.9018359206e+01   2.3476724261e+01    0.2187958    0.1305406 -47.22 0.0008072217    1.652    0.395
       168  -9.0814    193.2850     82.4895   6.0095395711e+01   2.5316221378e+01    0.2860207    0.1318094 -36.01  0.001074395    2.105    0.525
       169  -9.3625    230.7354     82.1775   5.3982978432e+01   1.6646293011e+01    0.2392298    0.1579821 -51.47 0.0007884147    1.464    0.317
       170  -8.8969    206.1281     85.1057   5.8546224591e+01   2.1788200997e+01    0.2272304    0.2068258  -0.80 0.0009317399    1.243    0.196
       171  -8.9631    159.1950     81.5272   6.6695316323e+01   3.3847460932e+01    0.3118536    0.2122963 -38.78  0.001383534    1.458    0.314
       172  -8.8414     31.7681     82.1735   1.0628009317e+02   5.6581435585e+01    0.1871952    0.1302012 -38.11  0.001070878    1.352    0.260
       173  -8.7980    236.5102     90.5148   5.5163959083e+01   1.4034838735e+01    0.1437853    0.1248097 -50.38 0.0001144048    1.068    0.064
       174 -10.1393    210.1483     81.1286   5.6848721742e+01   2.1518181880e+01    0.2676147    0.2207925  83.14  0.001383787    1.329    0.247
       175 -10.5868    211.0341     76.5022   5.5509790109e+01   2.2079780914e+01    0.3806507    0.2192167 -30.99  0.001660107    1.763    0.433
       176  -9.4835    220.3206     79.0958   5.4745353100e+01   1.9492591775e+01    0.2894599    0.1326023 -28.22  0.001086363    2.468    0.595
       177  -9.6356    201.2249     77.5817   5.7389409712e+01   2.4239615597e+01     0.297746    0.1990568 -38.24 0.0009941933    1.427    0.299
       178 -10.9225    183.9750     76.0371   6.0029610342e+01   2.8718381937e+01    0.5152846    0.2612489 -27.98  0.001946593    2.267    0.559
       179  -8.8680    166.9545     77.2841   6.3764968334e+01   3.2715184467e+01    0.2859981    0.2017544 -21.89  0.001264155    1.640    0.390
       180  -8.4444    174.5320     77.4859   6.2269209708e+01   3.0802659411e+01    0.1531507    0.1489287 -67.86 0.0008096261    1.012    0.011
       181  -8.3729    243.4934     76.4872   5.0898737455e+01   1.4784062328e+01    0.1383233    0.1213034 -48.43 0.0008105052    1.009    0.009
       182  -8.7868    223.4984     76.4760   5.3620696168e+01   1.9191325874e+01    0.1436798    0.1313694 -52.12  0.000171482    1.008    0.008
       183  -8.3981    194.2917     76.6702   5.8335327426e+01   2.6075087221e+01     0.157051    0.1123912 -66.15 0.0004432593    1.626    0.385
       184  -9.5318     38.7006     76.5356   1.0237036575e+02   5.7217526396e+01    0.2119485    0.1310342  13.24 0.0008096206    1.974    0.493
       185  -9.1183    157.6887     74.6538   6.4981514879e+01   3.5476449491e+01    0.2864422    0.1912606 -25.10  0.001073723    1.691    0.409
       186 -10.0632    206.2651     73.7526   5.5547968183e+01   2.3665969578e+01    0.2600895     0.205529 -36.87 0.0008872069    1.224    0.183
       187  -9.2561    210.5592     71.3000   5.4233605091e+01   2.3040214715e+01    0.2850574    0.1280004 -39.52  0.001124837    2.043    0.510
       188 -10.4141    193.8758     67.1042   5.5789366939e+01   2.7764990095e+01     0.416211    0.2234465 -32.30  0.001552954    1.891    0.471
       189 -10.9979    197.1816     60.7273   5.3503792872e+01   2.7959848213e+01    0.7216882    0.2520633 -28.18  0.002281227    3.520    0.716
       190 -10.9063    200.9809     52.9879   5.0826010723e+01   2.8193585638e+01    0.5994332    0.2530638 -40.63  0.002362034    2.206    0.547
       191  -9.2739    210.7530    249.7934   9.2232529936e+01  -6.6455838907e+00    0.2440476    0.1547653  -2.34  0.001448043    1.811    0.448
       192 -11.1051    220.8941     70.6332   5.2532695799e+01   2.0721786448e+01    0.3984235    0.2648069  64.02   0.00196092    1.594    0.373
       193  -8.8934    163.4555     70.5583   6.2507545171e+01   3.4770949437e+01    0.3160904    0.1515978 -34.78  0.001008317    2.112    0.527
       194  -9.9495    181.7922     69.0188   5.8450201439e+01   3.0451604727e+01     0.458409    0.2321091 -26.11  0.001722953    2.366    0.577
       195  -8.6567    170.5131     69.9423   6.0880056314e+01   3.3115277785e+01    0.2401952    0.1503528 -35.19  0.001037201    1.604    0.376
       196  -8.9990    187.4714     68.0082   5.7141794827e+01   2.9204128885e+01    0.2321455    0.1463304 -34.30 0.0008432812    1.583    0.368
       197  -9.1340      8.5099     67.4852   1.1184511573e+02   6.1532323781e+01    0.1219192   0.09547711 -55.18 2.940448e-05    1.024    0.023
       198  -8.2936    212.3086     66.3159   5.2677161037e+01   2.3416915278e+01    0.1413305     0.113915  19.43 0.0002835343    1.632    0.387
       199  -9.0194    203.2609     65.7455   5.3901004595e+01   2.5683247069e+01    0.2644635    0.1743337 -39.24 0.0007136473    1.444    0.307
       200  -8.6434    171.1609     63.2198   5.8767019297e+01   3.4074750513e+01    0.2173285    0.1763711 -66.24  0.001058521    1.342    0.255
       201  -8.7850    176.0000     71.0227   6.0117764810e+01   3.1560102825e+01     0.252831   0.08619425 -34.93 0.0007996924    2.923    0.658
       202  -8.3545    153.0000     65.9341   6.3349840222e+01   3.8165041660e+01    0.2490634    0.0872974 -35.10 0.0007947183    2.889    0.654
       203  -9.5753     21.8638     61.1391   1.0499326267e+02   6.2056595645e+01    0.1818701     0.154289 -62.97 0.0008548175    1.225    0.184
       204  -9.0548    206.4734     59.1231   5.1655311844e+01   2.5931602152e+01     0.305744    0.1465613 -25.75  0.001068441    2.492    0.599
       205  -9.0515    221.0000     59.0288   4.9599871169e+01   2.2483224816e+01    0.2345602   0.07573193 -33.48 0.0008018743    2.939    0.660
       206  -8.5793    153.2013     59.0378   6.1145157335e+01   3.9264298116e+01    0.2053744    0.1206422 -32.99 0.0007020288    1.750    0.429
       207  -9.2861    227.0000     56.9861   4.8315763814e+01   2.1395567097e+01    0.2323383   0.07390707 -33.46 0.0008041129    2.954    0.661
       208  -8.5632     10.0121     56.2330   1.0868047986e+02   6.3883554963e+01    0.1317706   0.09731203   4.03 0.0003929254    1.569    0.363
       209  -8.2269    175.3627     55.2868   5.5638523796e+01   3.4267925380e+01    0.1547644    0.1120839  31.09 0.0004865022    1.690    0.408
       210  -9.5137    233.0403     48.9375   4.5638948400e+01   2.1174800671e+01     0.208179    0.1672894  26.15  0.001143977    1.725    0.420
       211  -9.1850    181.3673     46.7703   5.2122539935e+01   3.4005630532e+01    0.2458046    0.1781485  29.40 0.0008905656    1.753    0.430
       212  -8.7194    169.0000     43.9902   5.3390075600e+01   3.7543375913e+01    0.2362766   0.08368123 -30.61 0.0008015574    2.936    0.659
       213  -8.6024    167.9733    249.5403   1.0011771150e+02  -1.2532016837e-01    0.1861401   0.09774732  37.56 0.0004320217    1.527    0.345
       214  -8.8999    168.5851     36.7382   5.1258054953e+01   3.8632919256e+01    0.2033024    0.1282312 -43.30  0.000946164    1.626    0.385
       215 -10.9812    197.6833     49.5864   5.0389450215e+01   2.9504836679e+01    0.5149381    0.2867198 -23.65  0.002194932    2.132    0.531
       216  -8.1915    149.4604     34.4422   5.3971375729e+01   4.3787838398e+01    0.1438686    0.1336965  54.12 0.0001854995    1.023    0.022
       217  -7.8034    157.3005     31.3322   5.1517037614e+01   4.2196595135e+01    0.1478479    0.1048022  30.93  0.000703316    1.650    0.394
       218  -8.6067    125.5302     29.9990   5.7477718869e+01   5.0245617079e+01    0.2086764    0.1393226 -27.14  0.001027597    1.582    0.368
       219  -8.1789    173.3055     39.6414   5.1348098150e+01   3.7043807618e+01    0.1552206    0.1045851 -65.04 0.0007040031    1.726    0.420
       220 -10.1469     30.4731     28.1932   9.0070402357e+01   6.7708088576e+01    0.2981573    0.1957505  -9.58  0.001242502    1.498    0.333
       221  -9.3524     58.0178     28.2850   7.7850823283e+01   6.4123712526e+01    0.1820363    0.1503849   6.56 0.0007528091    1.075    0.070
       222  -9.2809     42.2336     27.5533   8.4308548768e+01   6.6455385236e+01    0.2103716    0.1467794 -30.32 0.0004075328    1.243    0.196
       223  -8.3379      4.6561     26.7270   1.0250179772e+02   7.0055306123e+01    0.1200315   0.06340936 -29.50 0.0002612682    1.618    0.382
       224  -8.6607    136.5288     25.0514   5.3343202901e+01   4.8161781326e+01    0.1974868    0.1410871 -20.63 0.0004361957    1.535    0.349
       225  -8.5042    147.4349    247.2220   1.0372116517e+02   3.4403960353e+00    0.1374732    0.1173403 -86.08 0.0004474636    1.508    0.337
       226  -9.5946     85.0030     21.5390   6.5095468292e+01   6.0244518051e+01    0.2320367    0.1763006 -37.97 0.0006379583    1.511    0.338
       227  -8.3392    160.7132     20.6235   4.7567641542e+01   4.2579820048e+01    0.1451173   0.09983926  31.71 0.0007017179    1.724    0.420
       228  -8.8502    155.8160     15.6033   4.6752833118e+01   4.4353826059e+01    0.2467286     0.111708 -20.23  0.001007976    2.635    0.620
       229  -8.3570     23.5305     15.4413   8.7895856952e+01   7.0492433273e+01     0.119193    0.0891558 -16.10 0.0001901084    1.033    0.031
       230  -8.6562      8.7326     15.0016   9.5699375545e+01   7.1849216382e+01    0.1394746   0.07868224 -43.13  0.000226281    1.441    0.306
       231  -9.6080     29.8502     12.8491   8.3402968565e+01   7.0196170203e+01    0.1784684    0.1256765  -8.27 0.0003570544    1.197    0.165
       232  -8.4695    249.9807    245.0454   8.4617432986e+01  -1.1511556241e+01    0.1350428    0.1002156   4.91 0.0003862891    1.049    0.046
       233  -8.4990     34.3423     10.2966   7.9891526255e+01   7.0011260330e+01    0.1241913   0.07588634  -1.50 0.0007032886    1.665    0.399
       234  -8.5136    177.8109    242.1940   9.7228069303e+01  -6.0752861253e-01    0.1641424    0.1239169  17.05 0.0003325151    1.289    0.224
       235  -8.4737    239.9618    240.4496   8.5584522236e+01  -9.6472541493e+00    0.1445556   0.09407762  50.58 0.0008078684    2.500    0.600
       236  -8.3740    244.3019    236.6713   8.4212379218e+01  -9.7926640639e+00   0.09681752   0.09167954  25.09 0.0004568135    1.646    0.392
       237 -10.3877    203.8651    232.6366   9.0833335005e+01  -3.3468684878e+00     0.205936    0.1792103  10.84 0.0003319003    1.115    0.103
       238  -8.6156    245.0000    230.0019   8.2969717435e+01  -9.0849949581e+00    0.1760667   0.06089109 -33.92 0.0007997211    2.924    0.658
       239  -8.5304    229.6392    228.3095   8.5384933788e+01  -6.6767538020e+00    0.1076263   0.09540879  53.38  0.000704094    1.742    0.426
       240  -8.4097    228.6712    222.3436   8.4536793688e+01  -5.7440505813e+00    0.1073805    0.1002946  66.33  0.000705091    1.747    0.428
       241  -8.8641    239.6842    221.3639   8.2403333012e+01  -7.2418402933e+00    0.1028726    0.1002418 -84.75 8.484544e-05    1.767    0.434
       242  -9.1313    248.2507    218.8906   8.0477086234e+01  -8.1510910300e+00    0.2232092    0.1860349 -70.74  0.001308795    2.728    0.633
       243  -8.4760    239.9575    215.4748   8.1312088224e+01  -6.5065451448e+00    0.1562751     0.105245  55.46 0.0008098978    2.616    0.618
       244  -8.8832     73.1637    210.1421   1.1432709228e+02   2.1614574964e+01    0.1802315    0.1252338  69.41 0.0003878781    1.312    0.238
