#   1 NUMBER                 Running object number                                     
#   2 MAG_AUTO               Kron-like elliptical aperture magnitude                    [mag]
#   3 X_IMAGE                Object position along x                                    [pixel]
#   4 Y_IMAGE                Object position along y                                    [pixel]
#   5 X_WORLD                Barycenter position along world x axis                     [deg]
#   6 Y_WORLD                Barycenter position along world y axis                     [deg]
#   7 A_WORLD                Profile RMS along major axis (world units)                 [deg]
#   8 B_WORLD                Profile RMS along minor axis (world units)                 [deg]
#   9 THETA_WORLD            Position angle (CCW/world-x)                               [deg]
#  10 FWHM_WORLD             FWHM assuming a gaussian core                              [deg]
#  11 ELONGATION             A_IMAGE/B_IMAGE                                           
#  12 ELLIPTICITY            1 - B_IMAGE/A_IMAGE                                       
         1 -14.7759      8.4922    149.4453   1.4887982689e+02   4.2608918438e+01     6.213586     1.865604  84.83   0.02545488    3.665    0.727
         2 -13.5808      4.1773     11.3176   1.3128735279e+02   7.4043158022e+01      2.10622    0.7619665 -56.78   0.01039792    2.011    0.503
         3 -13.6643    190.2991     25.7326   7.3800679441e+01   3.3885910197e+01      1.62721     1.372916  60.88  0.007500506    1.195    0.163
         4 -13.4996    205.6398      6.6893   6.6379640943e+01   3.1922028096e+01     1.374534    0.9790963  39.35   0.00681304    1.593    0.372
         5  -9.7280     29.5423     61.0413   1.3205455808e+02   6.1163139817e+01     0.211502     0.186419  34.94 0.0003762021    1.301    0.231
         6 -11.2900    174.6370    249.3329   1.2450799426e+02   5.4325576890e+00    0.3097425    0.1989908  50.38  0.001487682    1.746    0.427
         7 -11.7834    143.4494    243.0245   1.2911126610e+02   1.0344772516e+01    0.2787406    0.2413231  76.48  0.002296152    1.556    0.357
         8 -11.2670    127.2256    248.9297   1.3247103655e+02   1.1769850349e+01    0.3093633     0.208798 -47.15  0.002340499    2.076    0.518
         9 -10.8697    122.1119    249.6588   1.3341178489e+02   1.2341749985e+01    0.3382567    0.1026598  42.60  0.001753599    2.306    0.566
        10 -11.4591    132.8993    246.9989   1.3131926186e+02   1.1265161669e+01    0.4237868    0.2263508  59.72  0.002499613    2.531    0.605
        11 -11.1462    140.9950    249.8550   1.3020723447e+02   9.8509182287e+00    0.3891539    0.1656394  38.61  0.002350893    1.665    0.399
        12 -12.1724    136.9479    244.3472   1.3036713860e+02   1.1055231101e+01    0.5512526    0.1985388  48.54  0.002787198    2.647    0.622
        13 -10.2589     29.6400    249.5266   1.4902828825e+02   2.2961316355e+01    0.2515033    0.1580176  53.42  0.002112243    1.061    0.057
        14  -9.9859     19.5092    247.5544   1.5060488891e+02   2.4205347537e+01     0.295197    0.1872912  31.43  0.002091832    1.679    0.404
        15 -10.1998      2.3969    249.2173   1.5336389663e+02   2.5478418756e+01    0.2114504    0.1284175  69.90  0.001655087    1.285    0.222
        16 -11.8272    185.1124    238.1045   1.2145446923e+02   5.2084444646e+00    0.4472811    0.3290586 -79.76   0.00265685    3.727    0.732
        17  -9.5906     95.4466    241.0133   1.3733826981e+02   1.6879274228e+01    0.1250513    0.1005418 -79.75 0.0003922502    1.559    0.359
        18 -14.2195    107.8512    229.6058   1.3415708532e+02   1.6904615569e+01     8.688493          nan  42.27   0.01938968   11.517    0.913
        19  -9.5115     32.9436    218.5076   1.4720438196e+02   2.7434849769e+01    0.1781428    0.1659022  -5.53  0.001327284    1.706    0.414
        20 -10.5121     37.4902    213.7128   1.4613076893e+02   2.7776545867e+01    0.3436604     0.262224  22.86  0.002611862    1.702    0.412
        21 -10.1978     20.7159    212.0054   1.4916850940e+02   2.9696487038e+01    0.3694535    0.1816417  27.68  0.001828491    2.237    0.553
        22 -13.2538      8.5836    207.9155   1.5125194142e+02   3.1472245100e+01      1.14816    0.7332677 -86.55  0.006333715    1.512    0.339
        23 -11.4685     14.9386    198.7543   1.4973339927e+02   3.2521262776e+01    0.3731551    0.1875856  48.92   0.00234592    1.478    0.323
        24  -8.3096    221.6920    213.6821   1.1206440976e+02   2.6566444334e+00    0.1152707   0.06781074  13.70 0.0004982933    1.635    0.388
        25 -11.2575      2.6976    151.9658   1.5036128587e+02   4.2511920033e+01    0.6709436    0.2171462 -83.77  0.001411043    2.675    0.626
        26 -11.3700     65.4050    201.7675   1.3994243052e+02   2.6743719880e+01     0.203726    0.1938507  85.28 0.0005739144    1.314    0.239
        27 -12.6537     40.4723    236.9660   1.4671141578e+02   2.3746984543e+01    0.2330913    0.2167436 -84.01 0.0007385232    1.512    0.339
        28  -9.7998    191.9874    193.0112   1.1394164406e+02   9.4829774304e+00    0.2988871    0.1698072 -56.65  0.001373465    3.830    0.739
        29 -11.7120     71.1940    193.1735   1.3804538305e+02   2.7563004876e+01    0.2188143    0.2071909 -88.72 0.0005163439    1.281    0.219
        30 -13.8524     45.8277    229.2660   1.4540325676e+02   2.4380305156e+01    0.8510932     0.675002  85.95  0.002995053    1.344    0.256
        31 -10.7238     80.7400    179.9020   1.3471585794e+02   2.8778260548e+01    0.2068142    0.1866471  74.70 0.0003659191    1.127    0.113
        32 -13.1910     67.9507    177.9679   1.3733998716e+02   3.0796261838e+01    0.4322893    0.2657252 -43.79  0.001998237    2.361    0.576
        33 -11.5221      2.2023    181.6380   1.5161693348e+02   3.6710500775e+01    0.6465177    0.1963651 -79.86 0.0006582202    2.933    0.659
        34  -8.5652    209.4215    180.1429   1.0870407929e+02   8.3050457154e+00    0.1412831    0.1130014 -37.29 0.0004405607    1.579    0.367
        35 -11.7291     87.7766    170.3532   1.3205713941e+02   2.9635365705e+01    0.5273604    0.4977639  24.08   0.00366474    1.264    0.209
        36  -9.3117     66.7765    243.0996   1.4248923552e+02   1.9995318609e+01     0.156178   0.09671547  55.96 0.0006289882    1.245    0.197
        37 -10.2208      3.7396    227.7791   1.5266254273e+02   2.8612416449e+01    0.2264796     0.142757  34.13  0.001817452    1.584    0.369
        38  -8.9696    102.4914    149.5153   1.2569473239e+02   3.1558944439e+01    0.1659174    0.1261055 -47.32 5.901777e-05    1.485    0.326
        39 -11.9165     88.4966    153.1781   1.2964540511e+02   3.2949435476e+01    0.2454038    0.2352797  -6.53 0.0006782038    1.282    0.220
        40  -9.8838     99.5543    153.7958   1.2706252927e+02   3.1158783959e+01    0.2871982    0.2537569 -38.14 0.0007949614    1.355    0.262
        41 -12.3391     67.2200    143.7656   1.3369581738e+02   3.7868658483e+01    0.6720639    0.3907856  60.47  0.003164612    1.782    0.439
        42  -9.5089    134.0000    146.4388   1.1770424325e+02   2.6798688059e+01    0.3634455    0.1596316 -48.70  0.001528188    2.492    0.599
        43  -9.6398    110.4101    138.3023   1.2185372942e+02   3.2535548764e+01    0.3504736    0.2398216 -14.15  0.001576278    2.565    0.610
        44  -8.6118    174.5758    137.8544   1.0715929208e+02   2.0631601452e+01    0.1819019     0.130235 -51.02 0.0009210663    1.700    0.412
        45  -9.0426    156.9973    137.2321   1.1073472739e+02   2.4163955963e+01    0.1951169    0.1089094  43.22  0.000786986    1.665    0.399
        46 -10.4312     98.1713    135.5984   1.2447072474e+02   3.5122748006e+01    0.2335872    0.2066493 -30.88 0.0003977517    1.346    0.257
        47  -8.3903    192.2203    144.0271   1.0498089510e+02   1.6270613180e+01    0.1656313     0.107193 -31.36 0.0004741395    1.603    0.376
        48  -8.9739     81.4745    248.9544   1.4032678591e+02   1.7469405464e+01     0.131136    0.0661277  68.55 0.0008072938    2.380    0.580
        49 -10.4248    173.2129    222.5554   1.2154459074e+02   8.6587827620e+00    0.2961011   0.08646828  37.19  0.001310008    2.704    0.630
        50  -9.1314    107.7285    124.5395   1.1992875581e+02   3.5855361493e+01    0.1861681    0.1324343  40.27 0.0005250009    1.365    0.267
        51 -10.1143    168.1274    113.1134   1.0290057115e+02   2.6129878931e+01     0.338181    0.2804983 -72.02  0.001076645    1.585    0.369
        52  -9.5479    203.2020    111.7662   9.5751925869e+01   1.8928654476e+01    0.1989898      0.15319  12.36 0.0006559429    1.353    0.261
        53  -9.6207     28.5935    221.3412   1.4811774849e+02   2.7396741536e+01    0.2450134    0.1576629 -44.00  0.001636883    2.858    0.650
        54  -9.0988    155.8062     75.3982   9.5413317643e+01   3.5497759076e+01    0.2194144    0.1365557  41.69 0.0007614973    1.648    0.393
        55 -11.5214      9.8547     63.9782   1.4078511427e+02   6.1881248345e+01    0.6183626    0.1621498  32.43  0.002464056    3.753    0.734
        56  -8.5773      8.8077    249.3919   1.5236194785e+02   2.4900353393e+01    0.1175662   0.07318982  30.96 0.0009485226    1.734    0.423
        57  -8.5956     51.3342    250.2768   1.4548924753e+02   2.0656388101e+01   0.08254691   0.06891319  25.74 0.0002306272    1.605    0.377
        58 -10.2025    237.5098    247.0093   1.1427902275e+02  -2.4805707867e+00    0.1295947   0.08665303 -14.31  0.001033215    1.593    0.372
