#   1 NUMBER                 Running object number                                     
#   2 MAG_AUTO               Kron-like elliptical aperture magnitude                    [mag]
#   3 X_IMAGE                Object position along x                                    [pixel]
#   4 Y_IMAGE                Object position along y                                    [pixel]
#   5 X_WORLD                Barycenter position along world x axis                     [deg]
#   6 Y_WORLD                Barycenter position along world y axis                     [deg]
#   7 A_WORLD                Profile RMS along major axis (world units)                 [deg]
#   8 B_WORLD                Profile RMS along minor axis (world units)                 [deg]
#   9 THETA_WORLD            Position angle (CCW/world-x)                               [deg]
#  10 FWHM_WORLD             FWHM assuming a gaussian core                              [deg]
#  11 ELONGATION             A_IMAGE/B_IMAGE                                           
#  12 ELLIPTICITY            1 - B_IMAGE/A_IMAGE                                       
         1 -14.2682     56.5151    127.7663   5.6004732740e+01   4.3367222083e+01      6.73949     3.148095  69.43   0.01906703    4.451    0.775
         2 -13.4988    220.8083     47.4220   3.5772185736e+02   2.5428355699e+01    0.8533011    0.7723354  49.72  0.001391369    1.461    0.316
         3 -12.0222    248.0886     28.7027   3.5179462088e+02   2.2657058446e+01    0.6434242    0.2899427 -52.31  0.003731089    1.698    0.411
         4 -11.5672    249.1587     21.6958   3.5032609393e+02   2.3248287736e+01    0.4402926    0.3033348 -52.10  0.003168035    1.046    0.044
         5  -8.4544    235.2298     11.9753   3.4901168971e+02   2.6801615778e+01    0.1457878   0.07492662 -36.32 0.0005229447    1.579    0.367
         6  -9.6336      2.0000     11.9891   5.4386703010e+01   7.7972263170e+01      0.19308   0.06550065 -60.18 0.0005944294    2.901    0.655
         7  -9.8910    227.3815      9.5419   3.4886902329e+02   2.8544189784e+01    0.2028251    0.1664167 -56.82 0.0006616617    1.132    0.117
         8  -9.8409      2.5654      2.5360   4.7863591501e+01   7.9738671646e+01    0.2814591    0.1289804 -43.56  0.001429192    1.997    0.499
         9  -9.1855    196.6788      3.2961   3.4902007104e+02   3.5487183021e+01    0.1328496   0.06806587 -59.68 0.0002522466    1.617    0.382
        10  -9.3532     59.5075      2.4656   8.1959710643e+00   6.9489889432e+01    0.1336676     0.116351  49.94 0.0001188721    1.006    0.006
        11 -10.2662    164.2855    217.8397   4.1748117955e+01   7.2590657258e+00    0.2500273    0.1422405   5.31  0.001249574    2.132    0.531
        12  -9.6384     74.7511    249.7804   6.4897995935e+01   1.2928988436e+01    0.2635823    0.1701853 -48.07  0.001104717    1.997    0.499
        13  -8.8285     76.0000    244.8969   6.4237534391e+01   1.3653254383e+01    0.2049298    0.1154286 -60.46 0.0009837676    2.171    0.539
        14 -13.2273     44.0016    242.1566   7.1269637098e+01   1.7669832245e+01    0.9910854    0.8032584  51.39  0.002534007    1.102    0.093
        15 -14.3510     54.6327    235.3548   6.8410670855e+01   1.7839881903e+01     5.729771     1.517876 -54.16   0.02150523    4.758    0.790
        16 -14.1532     54.3924    217.8272   6.7196171469e+01   2.1410659601e+01     1.513413     1.220776 -86.75  0.005365913    1.373    0.272
        17 -14.7638     31.2062    181.7041   7.0611396677e+01   3.2187207023e+01     3.616585     1.425524  40.18   0.01265134    2.073    0.518
        18 -15.5410     42.8371    173.4316   6.6515039554e+01   3.3012283142e+01     11.02629     4.671677  75.70    0.0237751    3.548    0.718
        19  -9.7963     73.4591    190.3329   5.9597094123e+01   2.5148593721e+01    0.3045015     0.209361 -46.97  0.001555453    1.680    0.405
        20 -10.9283    128.6393    189.3287   4.5234647928e+01   1.7387174808e+01    0.3824507    0.2312838   1.57  0.001621998    2.511    0.602
        21 -13.9853     18.7848    236.5382   7.6697777000e+01   2.1230963536e+01    0.7431814    0.4911431 -70.46  0.003234537    1.798    0.444
        22  -9.4515     94.6876    182.9634   5.2893751763e+01   2.3860335224e+01    0.3686085    0.2234537  41.65  0.001230975    1.517    0.341
        23 -10.6275    116.2232    182.4011   4.7189156949e+01   2.0723617084e+01    0.2666017    0.2202934   9.23  0.001169043    1.249    0.200
        24  -9.8882    121.5008    182.0164   4.5802932176e+01   1.9986277423e+01    0.2017695    0.1388589 -49.72 0.0005270239    1.553    0.356
        25  -9.0132     83.5236    181.4340   5.5720375446e+01   2.5829441121e+01    0.2531179    0.1435854 -64.72 0.0005984052    1.936    0.483
        26 -14.7741      5.7410    229.7743   7.9421071017e+01   2.3731383644e+01    0.9425021    0.5099723  73.09  0.003891663    1.712    0.416
        27  -9.9765     59.9256    179.1492   6.2104487107e+01   2.9555221973e+01    0.3167094    0.1881405 -63.52  0.001427906    1.765    0.433
        28 -11.0529    178.9687    165.5044   2.9942637390e+01   1.4042680726e+01    0.5597872    0.4614095  59.86  0.003245579    1.663    0.399
        29 -10.2854    171.3984    174.1944   3.3088143374e+01   1.3674290053e+01    0.2949667    0.2614505 -74.26  0.001421295    1.581    0.368
        30 -11.5142    174.4337    170.4846   3.1785460487e+01   1.3867134246e+01    0.4884439    0.4561928  25.76  0.002353114    1.196    0.164
        31  -9.4362     80.0012    173.6960   5.5646606145e+01   2.8165807470e+01    0.2487765    0.1900539  82.19 0.0003084404    1.497    0.332
        32  -9.1106    125.1813    248.4045   5.3824227529e+01   7.2585951627e+00    0.1897782   0.08693628 -49.97 0.0009957887    2.611    0.617
        33 -12.5486     75.0351    149.9617   5.3533413101e+01   3.4810523221e+01     1.488303    0.9086327 -81.71 0.0006275185    2.035    0.509
        34 -11.9210     60.4393    160.8554   5.9722277742e+01   3.4072302982e+01     0.706784    0.5156287  22.95  0.001240788    1.417    0.294
        35 -12.0850     65.5581    157.0958   5.7608776206e+01   3.4346451277e+01    0.7590312    0.6147686  -1.15    0.0038008    1.493    0.330
        36 -13.7049     62.4620    144.8568   5.6772626449e+01   3.7968626215e+01     1.182811    0.8672146 -12.67    0.0013968    1.832    0.454
        37 -10.1166    110.4501    166.8136   4.6103999144e+01   2.5079319528e+01    0.2839483    0.2512755  61.58 0.0003775202    1.214    0.176
        38  -9.4114    141.9675    163.5277   3.7551376210e+01   2.0507656193e+01    0.2474023    0.1972587 -65.86 0.0006260671    1.540    0.350
        39 -10.8450     42.0236    154.2789   6.4770659879e+01   3.8050817415e+01    0.2703334    0.2247756  54.62 0.0001963576    1.114    0.102
        40 -10.2453    134.3194    148.0155   3.6326588682e+01   2.5129417973e+01    0.5909384    0.2328683 -53.39  0.002065499    2.841    0.648
        41 -10.3865    132.0217    142.2837   3.5698537737e+01   2.6802848957e+01    0.6736236    0.3123263 -41.41   0.00216351    2.288    0.563
        42 -11.4303     82.9651    144.6716   5.0126587261e+01   3.4926632345e+01    0.6587406    0.4765491 -16.47  0.002916692    1.909    0.476
        43 -12.2817     70.0608    145.0591   5.4313172239e+01   3.6822667752e+01    0.5152785     0.471783  74.71  0.001653475    1.074    0.069
        44 -10.7029     39.9628    145.2439   6.4399564201e+01   4.0692954367e+01     0.277124    0.2519281 -72.47 0.0003006829    1.118    0.105
        45 -10.4972     36.5511    142.0475   6.5188761972e+01   4.1928240535e+01     0.351049    0.2496921  80.59  0.001090979    1.421    0.296
        46 -10.5525    108.9629    145.3207   4.2501597341e+01   3.0331718210e+01    0.2959792    0.2793712  51.27 0.0006579455    1.051    0.048
        47  -9.2396    100.8278    143.4770   4.4474710294e+01   3.2213306930e+01    0.2400195    0.2043924 -75.43 0.0005535302    1.274    0.215
        48 -16.8276      6.1093    216.5089   7.8944959660e+01   2.6459940644e+01     6.471104     4.892234  69.35   0.02330085    1.180    0.152
        49 -10.5836     46.9326    140.2675   6.1358654754e+01   4.1225044332e+01    0.4559622    0.2223721  55.54   0.00144417    2.311    0.567
        50  -9.4722    125.1340    133.8256   3.5630638753e+01   2.9992372661e+01    0.3163293    0.2370335 -65.55  0.001143186    1.530    0.346
        51 -10.2762    122.9152    130.0589   3.5370283151e+01   3.1275943580e+01    0.3542173    0.2581656 -77.45 0.0003582375    1.830    0.453
        52 -10.7087    101.1478    131.2066   4.1825724420e+01   3.5150901016e+01    0.9457086     0.564572 -15.60  0.002989318    3.816    0.738
        53 -10.1223    105.3795    130.2962   4.0363692031e+01   3.4584841373e+01    0.3928493    0.3607506  77.57  0.001245699    1.144    0.126
        54  -9.4553     48.3520    133.4761   5.9873077084e+01   4.2890841169e+01     0.266683    0.1387194 -69.67  0.001081447    1.905    0.475
        55 -11.7065     85.4771    131.9072   4.6866049130e+01   3.7766063128e+01    0.2979307     0.285198 -60.49 0.0004226211    1.069    0.065
        56 -14.7770      9.9763    206.4018   7.7652956133e+01   2.8343159461e+01    0.9851964     0.618143   5.07  0.003013411    2.049    0.512
        57  -9.7831    133.0100    132.0035   3.3185649767e+01   2.8871735709e+01    0.2999479    0.2044716 -76.30  0.001242689    2.217    0.549
        58  -9.2966    130.4498    127.6873   3.2845952396e+01   3.0325685592e+01    0.3337895    0.1488239 -54.13 0.0009227101    2.508    0.601
        59 -10.7854     44.2167    130.5220   6.0923590265e+01   4.4200400979e+01    0.4747583    0.2575728 -48.41  0.001969299    1.977    0.494
        60  -9.5394     31.1452    132.1748   6.5929470552e+01   4.5178354475e+01    0.3342136    0.1631961  41.31 0.0008928195    1.940    0.484
        61  -8.9972    236.3275    131.6827   1.3894261086e+01   1.0759880120e+01    0.1154087   0.08440131 -56.33 0.0006162607    1.678    0.404
        62 -10.1568    135.7193    127.0261   3.1360815689e+01   2.9423568600e+01    0.5868062    0.1292831 -52.36  0.001200879    7.581    0.868
        63  -8.7448    219.1982    126.1906   1.5158013003e+01   1.4195570038e+01     0.167216    0.1278942 -48.65 0.0004173495    1.316    0.240
        64  -9.5128    109.3028    126.0647   3.8255994320e+01   3.4851947827e+01    0.2869687    0.2195481  17.35 0.0008022666    1.573    0.364
        65  -8.5899    132.0660    211.5237   4.7744888357e+01   1.2640003606e+01    0.1844771    0.1128196  29.12 -1.529744e-05    1.419    0.295
        66  -9.4971     95.9137    209.8351   5.6085872966e+01   1.7909464648e+01    0.2325967    0.1983548  66.00  0.001408296    1.310    0.237
        67 -10.3816     95.8792    121.2068   4.1199138122e+01   3.8592051402e+01    0.3250165    0.2584194  16.29 0.0006423055    1.480    0.324
        68  -9.5468    115.2940    121.2679   3.5408372216e+01   3.4803176961e+01    0.2763783    0.1966613  38.70  0.001257444    1.416    0.294
        69 -10.0930    234.3858    169.1859   2.1174801499e+01   5.5974511940e+00    0.1638496   0.09124661 -40.99 0.0004832843    1.690    0.408
        70 -10.1944    122.5751    115.7602   3.2046045790e+01   3.4583035523e+01    0.3837012    0.2647546  89.52   0.00152923    2.312    0.568
        71 -10.9759    244.0921    114.7768   9.6113133367e+00   1.2066254663e+01    0.3129784    0.1736432 -54.48  0.001650426    2.169    0.539
        72  -9.0964    105.9683    116.0454   3.6852695776e+01   3.7893065488e+01    0.2243549    0.2213704  40.58            0    1.037    0.035
        73  -8.4931    102.3802    116.1339   3.7963599533e+01   3.8581680078e+01    0.2114556    0.1485905 -66.87 0.0003404347    1.615    0.381
        74  -9.7916    210.8855    198.7141   3.0009794174e+01   4.2883545396e+00    0.1996166    0.1594993 -17.19 0.0004717818    1.110    0.099
        75  -9.9168    192.0887    193.3973   3.2455601004e+01   7.4800469265e+00    0.4661713    0.2632137 -63.00  0.001560347    6.559    0.848
        76 -10.5556    117.9186    109.6993   3.1782030447e+01   3.6920271205e+01    0.5417818    0.3348357  66.30  0.002086742    2.290    0.563
        77 -11.4977     23.7850    105.7903   6.5339954163e+01   5.3145578453e+01    0.6033823    0.3150504 -66.35  0.001548028    1.741    0.426
        78 -10.3568     32.4717    109.5269   6.2246179321e+01   5.1286091335e+01    0.2692271    0.1866053 -71.86 0.0006011379    1.376    0.273
        79 -10.2264     34.7292    107.0776   6.0895320646e+01   5.1721722263e+01    0.4476103    0.2411993  46.05  0.001623085    1.923    0.480
        80  -8.6741    212.3894    106.2635   1.1902462177e+01   1.8476559756e+01    0.1804179    0.1020372 -45.07 0.0003825451    1.558    0.358
        81 -11.3356     15.4989     98.9522   6.8014694945e+01   5.5686907273e+01    0.5439761    0.3711915  24.50  0.002743756    1.537    0.349
        82  -8.4581    109.9892     98.9881   3.1178642984e+01   4.1029859207e+01    0.1866298     0.179133  62.17 0.0004006274    1.031    0.030
        83 -10.0688     23.6801     96.2500   6.3907064474e+01   5.5773840216e+01    0.2865926    0.2391962  72.21 0.0007359403    1.231    0.187
        84  -9.3227     80.1281     94.1639   3.9658598511e+01   4.8278245194e+01    0.4294842    0.3006152  72.00  0.001803766    1.902    0.474
        85  -9.2883    103.5868     92.2760   3.1199289107e+01   4.3926154192e+01    0.3009937    0.2099686 -69.67  0.001278675    1.771    0.435
        86 -10.1277     12.4992     92.9750   6.8580698917e+01   5.7526293710e+01     0.261797    0.1898547 -22.53 0.0008292636    1.544    0.352
        87 -10.3386     44.3523     90.2790   5.3282232094e+01   5.5116258157e+01    0.2925937    0.2421037  63.45 0.0001874583    1.303    0.233
        88  -9.5202     37.2035    250.6113   7.3218653673e+01   1.6787080893e+01    0.1907207   0.09528223  23.68 0.0002813659    1.788    0.441
        89  -9.7514     94.4298     81.5397   3.0875449276e+01   4.8313118935e+01    0.3384882    0.2402537 -88.16 0.0009442043    2.045    0.511
        90  -9.0572     41.5099     77.8499   5.1460215702e+01   5.8727890174e+01    0.2307396     0.194428  61.14 0.0005926402    1.302    0.232
        91  -8.9655     88.1126     75.6976   3.1141147207e+01   5.0965192721e+01     0.251597    0.1871778  68.97 0.0009150048    1.594    0.373
        92  -9.1295     35.6065     74.8342   5.3586214708e+01   6.0246180741e+01    0.2301306    0.1893184  50.91 0.0004708366    1.308    0.235
        93  -8.8692     98.9099     73.9300   2.6956127202e+01   4.8960495276e+01    0.2330038    0.1831684 -87.75 0.0005031284    1.559    0.358
        94  -8.9061     65.1599     73.8185   3.9401386543e+01   5.5978718007e+01    0.2153895    0.1838203  -2.51  0.001073743    1.361    0.265
        95 -10.0558     17.3280     74.1360   6.3018678812e+01   6.2237514122e+01    0.3080943    0.1898018  31.92 0.0008884972    1.682    0.406
        96  -9.6047     30.7934     71.9984   5.5331057397e+01   6.1528797638e+01    0.2507612    0.2105532  44.09 0.0007039754    1.262    0.207
        97 -13.0931    209.6402     55.1493   5.5688757163e-01   2.6615566775e+01    0.9515527    0.8110045 -41.99  0.003381773    1.143    0.125
        98  -9.4655     67.4685    241.8711   6.5928724788e+01   1.5175307642e+01    0.1958038    0.1529549 -50.22 0.0007917618    1.619    0.382
        99 -12.2100    197.9246     62.3250   3.5798509180e+00   2.8014899464e+01    0.5446222    0.4805047  27.54 0.0008203768    1.499    0.333
       100  -8.2264    143.9938     61.0179   1.1432747802e+01   4.0558083638e+01    0.1740172    0.1604758 -73.38            0    1.008    0.008
       101  -8.0319    112.3146     58.3118   1.7703170669e+01   4.8816367201e+01    0.1508672    0.1200888  21.10 0.0004636384    1.636    0.389
       102 -10.4199      1.9044     49.7831   6.7253994561e+01   6.9395836601e+01    0.3758832    0.1209387 -69.79  0.001449528    2.697    0.629
       103 -10.9394     12.3917     48.2263   5.9762744662e+01   6.9161717647e+01    0.3065031    0.1790528 -76.62  0.001455638    1.913    0.477
       104 -11.0181     21.2078     46.9270   5.3464281070e+01   6.8698780352e+01     0.359202    0.2067399  35.00   0.00144263    1.806    0.446
       105  -9.4828    108.9815     38.8360   1.1387217337e+01   5.2829966666e+01    0.2562481     0.154908  38.09  0.001090864    2.035    0.509
       106  -9.5388     18.3178     36.3192   5.1500954481e+01   7.1406853916e+01    0.1432686   0.09110615 -26.30 0.0003452169    1.660    0.397
       107 -10.6510     22.1643     31.3825   4.6540053203e+01   7.2044339122e+01    0.2141012    0.1780024 -40.40 0.0006208015    1.163    0.140
       108  -8.9415    108.4452    239.9346   5.6527633610e+01   1.0667543615e+01    0.1588567    0.1247688 -60.26  0.001032369    1.616    0.381
       109 -10.1657    103.0600    238.3573   5.7561551867e+01   1.1599591885e+01    0.3018628    0.1730345 -51.56  0.001037092    2.087    0.521
       110 -10.2381      1.9936     21.6965   5.8934202856e+01   7.5942362760e+01    0.2708304    0.1829059 -67.59 0.0008216953    1.569    0.362
       111  -9.5290     60.7246     21.0540   1.8571855732e+01   6.7035110382e+01    0.2550578    0.1903582  60.76 0.0006794474    1.360    0.265
       112  -8.9721    189.4136     14.7807   3.5237907706e+02   3.5921403817e+01    0.1573585    0.1180443 -21.88 0.0007234027    1.584    0.369
       113  -9.8567     72.6744    233.0902   6.4030054174e+01   1.6226727520e+01    0.2435046    0.1637095  35.88 0.0006615291    1.184    0.155
       114 -10.1222    147.8106    226.5361   4.6378235069e+01   7.9700302872e+00     0.355269    0.1528092 -56.31  0.001571412    3.433    0.709
       115  -9.4969    141.6572    228.3167   4.7916325336e+01   8.4622884410e+00    0.1208265    0.0879541  49.56 0.0007048614    1.714    0.416
       116 -10.7612    164.2757    224.7038   4.2741734235e+01   6.1840822667e+00    0.3529406    0.1650005 -51.87  0.001718533    2.863    0.651
       117 -10.1632    174.9992    223.0603   4.0388278909e+01   5.1082364911e+00    0.1866492    0.1492834   2.86 0.0005916348    1.020    0.020
