#   1 NUMBER                 Running object number                                     
#   2 MAG_AUTO               Kron-like elliptical aperture magnitude                    [mag]
#   3 X_IMAGE                Object position along x                                    [pixel]
#   4 Y_IMAGE                Object position along y                                    [pixel]
#   5 X_WORLD                Barycenter position along world x axis                     [deg]
#   6 Y_WORLD                Barycenter position along world y axis                     [deg]
#   7 A_WORLD                Profile RMS along major axis (world units)                 [deg]
#   8 B_WORLD                Profile RMS along minor axis (world units)                 [deg]
#   9 THETA_WORLD            Position angle (CCW/world-x)                               [deg]
#  10 FWHM_WORLD             FWHM assuming a gaussian core                              [deg]
#  11 ELONGATION             A_IMAGE/B_IMAGE                                           
#  12 ELLIPTICITY            1 - B_IMAGE/A_IMAGE                                       
         1 -18.0317    232.9364     77.0772   4.7587376693e+01   1.7742167307e+01     6.741857     4.961281 -36.49    0.0245568    1.254    0.202
         2 -12.6416    151.9375     48.6785   5.3026815183e+01   4.0743381298e+01     1.056479    0.8820719 -31.19  0.005790778    1.252    0.201
         3 -11.1553    132.5102     28.4617   5.0455126430e+01   4.8014179186e+01    0.6223961    0.3464587  -5.45  0.002526374    2.657    0.624
         4 -13.3076    138.0635     43.0767   5.4104675765e+01   4.4856974267e+01     2.075166     1.227513 -23.55  0.009524929    1.904    0.475
         5 -11.3123    125.2676     25.1961   5.0849030124e+01   5.0093262415e+01    0.8312566    0.3197905  36.78  0.002855295    3.551    0.718
         6 -10.4281    141.8399     15.9651   4.4649455273e+01   4.7107179234e+01    0.6267796    0.2491148 -12.51  0.002222971    4.136    0.758
         7 -10.4976    125.1627     13.8530   4.6958229588e+01   5.1277682635e+01    0.3335611     0.282882  62.45  0.002042303    1.100    0.091
         8 -11.7679    119.1893     10.1970   4.6850530163e+01   5.3005807211e+01    0.7155111    0.4831183  50.70  0.004013251    1.272    0.214
         9 -11.3764    136.3501     33.3365   5.1287325251e+01   4.6521346054e+01    0.6686623     0.433187   1.57  0.002247227    2.123    0.529
        10  -8.7707    216.6377      2.1479   3.2283267564e+01   3.0899533218e+01    0.2457184    0.1771313  81.68  0.001579625    1.239    0.193
        11  -9.5360    209.0995      2.2558   3.2912450843e+01   3.2553186574e+01    0.3026755    0.1842932  74.09 0.0008716072    1.476    0.322
        12  -8.5936    248.6237    195.2574   7.0537232864e+01  -4.3293764184e+00    0.3277525    0.1389726  34.13  0.001535767    2.467    0.595
        13  -8.4025    206.4965    241.8553   8.6534097278e+01  -5.0902720774e+00    0.1796402    0.1373517  18.83 0.0006677687    1.081    0.075
        14 -10.7160    142.7426    142.5048   8.1252315470e+01   2.4692179233e+01    0.8702961    0.3139142 -55.57  0.002409222    4.109    0.757
        15 -10.1115    144.3201    138.1542   7.9837647145e+01   2.5344334639e+01    0.4728401    0.2514113 -58.73  0.001708031    2.460    0.593
        16 -11.2446     67.7425    144.3605   1.0203305286e+02   3.7239057710e+01    0.8352691    0.5624072  63.36  0.003988641    1.790    0.441
        17 -11.8603     51.4626    135.4457   1.0517979874e+02   4.1508647242e+01    0.6403275    0.4775059  20.84 0.0008788463    1.577    0.366
        18 -13.6160     63.8579    131.9045   1.0087178211e+02   4.0859819509e+01     2.138813       1.4917  12.64  0.004023054    1.820    0.451
        19 -11.3307    160.4108    129.1967   7.3771476124e+01   2.3925894190e+01    0.6215883    0.4478291 -37.43  0.002865787    1.361    0.265
        20  -7.6450    112.2362    177.9923   9.6181545879e+01   2.2232232818e+01    0.1794994    0.1209228 -56.12 0.0003090699    1.511    0.338
        21  -8.9677     48.6886    176.1063   1.1172443975e+02   3.1837278384e+01    0.2027367    0.1854202  37.35 0.0002573509    1.248    0.199
        22 -10.2172      5.4888    123.8953   1.1696674348e+02   4.8392848871e+01     0.197479    0.1886511  -3.43  0.001411572    1.313    0.239
        23 -10.6137    196.0327    143.3934   6.9424960358e+01   1.3624835803e+01    0.7054968    0.4288984 -68.94  0.002104434    3.635    0.725
        24 -10.3352    143.5777    121.5987   7.5937585856e+01   2.9159384402e+01    0.3778574    0.2540616  53.38  0.001359631    1.649    0.393
        25  -9.3136     46.9198    191.6445   1.1387302647e+02   2.8407496851e+01    0.2222919    0.1772696 -76.71 0.0002710221    1.160    0.138
        26  -9.7126    185.9022    169.4101   7.7288305444e+01   1.0520400739e+01    0.3516802    0.2816909 -74.51  0.001311651    1.841    0.457
        27  -9.9680     97.5592    122.3045   8.8730250693e+01   3.8046070964e+01    0.3974713    0.2451325  54.60  0.001656584    2.021    0.505
        28  -9.2062    204.5309    165.8583   7.2706780414e+01   7.7397598417e+00    0.4438513    0.2737499   0.70  0.001819076    2.501    0.600
        29  -8.5747     88.5774    112.3205   8.8989878386e+01   4.1959853224e+01    0.2698459    0.1429781 -55.85 0.0006705381    1.900    0.474
        30  -9.2579    178.5455    109.9977   6.4880895745e+01   2.3871290329e+01    0.2804259    0.2124264  27.88 0.0007179909    1.521    0.342
        31  -8.1894     80.3809    106.0618   8.9983736412e+01   4.4771171196e+01    0.2040797    0.1718177 -47.53  0.000597024    1.107    0.097
        32  -8.7156    107.4616    100.4840   8.0112398670e+01   4.1251043715e+01    0.1542519     0.145343 -20.83 0.0001354673    1.017    0.017
        33  -9.6059    203.2328    189.5997   7.7842119682e+01   3.6871845584e+00    0.2311641    0.2215145 -82.63 0.0007916988    1.447    0.309
        34  -8.1175    204.2782    160.5927   7.1622656453e+01   8.7628875288e+00    0.1919381    0.1329221  27.59 0.0005951099    1.535    0.349
        35 -10.2860     97.8203     87.1059   7.9153086783e+01   4.5987521033e+01    0.2400895    0.2248169   1.54 0.0002312052    1.044    0.042
        36 -10.4885    192.7357    153.2479   7.2334487916e+01   1.2361647021e+01    0.5064776    0.2784089 -47.62  0.002138331    1.910    0.476
        37  -9.4305    158.2056     76.3450   5.9987545385e+01   3.4847289273e+01    0.3727795    0.2803991  83.19  0.001396478    1.700    0.412
        38 -10.9272    130.3284     69.3548   6.4363617376e+01   4.2581614336e+01    0.5137038    0.4110856  19.47  0.002121981    1.385    0.278
        39  -9.0644    149.9875    157.9720   8.2949735061e+01   1.9821361337e+01    0.2359502    0.1913096  80.85 0.0005747732    1.655    0.396
        40  -9.4847    106.0482     65.1811   6.9645562466e+01   4.8630098995e+01    0.6143011    0.2074805 -36.08  0.001727624    3.077    0.675
        41 -13.2586     19.7916    143.1567   1.1524507306e+02   4.2699497009e+01     1.787118     1.558603  29.04  0.009456509    1.379    0.275
        42 -10.2607    145.1045     63.8154   5.9114850722e+01   4.0074979733e+01    0.2936187    0.2127299 -42.52 0.0007656981    1.419    0.295
        43 -10.9480    167.8783     41.8085   4.8103055105e+01   3.7812239929e+01    0.4950427    0.3335743  14.99  0.002275911    2.222    0.550
        44 -12.3479    166.0290     54.3470   5.2044133150e+01   3.6511121903e+01     1.336112    0.8324085 -60.38  0.005935926    2.001    0.500
        45 -10.2014    157.5231     43.9182   5.0525452180e+01   4.0047595483e+01     0.450082    0.2709544 -22.70  0.001350838    1.923    0.480
        46  -9.0383    205.5229    224.4817   8.3829052327e+01  -2.4066519706e+00    0.2286631    0.2167955  47.02 0.0006954394    1.497    0.332
        47 -11.4226    141.2978     51.6249   5.6147203971e+01   4.2874593198e+01    0.6133965    0.4266824  34.77  0.002928836    1.551    0.355
        48 -10.2550    225.1654    217.9872   7.8960058362e+01  -4.3323857360e+00    0.2197844    0.1848284  -8.77 0.0003045646    1.133    0.117
        49  -8.7590    193.4122    218.6609   8.5206110566e+01   3.7441987558e-01     0.242072     0.179181  37.31  0.001342287    1.351    0.260
        50  -8.6141    123.9853     61.5113   6.3462422253e+01   4.5359427860e+01    0.2292646    0.1934913 -29.01 0.0006420469    1.201    0.167
        51  -8.6210    121.9955     48.9726   5.9781508517e+01   4.7780574710e+01    0.2317129    0.1651608  18.67 0.0006027658    1.656    0.396
        52 -10.0811    127.3716     41.4814   5.5948151888e+01   4.7598417519e+01    0.3081073    0.2519229  76.98  0.001012433    1.406    0.289
        53 -10.0003    162.4865     62.4679   5.5072982528e+01   3.6129392664e+01    0.4772955    0.3403279 -28.67  0.001631951    1.481    0.325
        54  -9.7068    159.3115     35.5067   4.7698274458e+01   4.0702499162e+01    0.3844137    0.2441336 -61.74  0.001304779    1.936    0.484
        55  -9.9413    203.5809    151.2771   6.9708560118e+01   1.0640950946e+01    0.3837365    0.3083611 -57.16  0.001469627    1.489    0.329
        56 -10.3132    148.8414     33.1419   4.8821073951e+01   4.3536340899e+01    0.4776226    0.2847211 -10.48  0.002147349    2.281    0.562
        57 -10.6015    203.7631    146.7943   6.8665725151e+01   1.1451877754e+01    0.5611358    0.3789614  70.11  0.001909079    2.529    0.605
        58  -8.6262    184.6303    189.1352   8.1570255658e+01   6.9923399949e+00     0.213778    0.1786337  36.96 0.0003431427    1.227    0.185
        59  -9.8878    126.6187     29.0940   5.1900213769e+01   4.9333415010e+01    0.2647673    0.2247735  46.02 0.0006295545    1.070    0.066
        60  -8.9450    194.6199    213.9989   8.4144714280e+01   9.4626302668e-01    0.2428212    0.1725692  26.98 0.0003124542    1.274    0.215
        61  -8.7238    195.2054    209.1696   8.3160033958e+01   1.6560608668e+00     0.197383    0.1586478   0.09 0.0003472625    1.155    0.134
        62  -8.2013    151.1209     18.9694   4.4066205557e+01   4.4567066333e+01    0.2121312    0.1430173  36.44 0.0006076623    1.639    0.390
        63  -8.1682    161.0123    195.5135   8.7892370854e+01   9.9444660915e+00    0.1876138    0.1181803  58.83 0.0003525957    2.259    0.557
        64  -8.8123    222.3121    205.7967   7.7259675852e+01  -2.0614511189e+00     0.226129     0.146707 -22.11 0.0006900546    1.453    0.312
        65 -10.2184    162.4795    203.8898   8.9074951826e+01   8.0788319587e+00    0.2449165    0.2343829  -4.41  0.000435199    1.096    0.087
        66  -8.3625    114.6841    201.0803   9.9370473276e+01   1.6716363490e+01    0.1759802    0.1735749 -45.19 0.0003489233    1.098    0.089
        67  -9.7925    218.0802    149.0140   6.6447867473e+01   8.3238344786e+00    0.3865709    0.2093091  43.63  0.001349922    2.007    0.502
        68 -10.0785    192.3313    193.9028   8.0890808733e+01   4.7838377517e+00    0.8501316    0.4432299 -61.55  0.002624953    5.417    0.815
