#   1 NUMBER                 Running object number                                     
#   2 MAG_AUTO               Kron-like elliptical aperture magnitude                    [mag]
#   3 X_IMAGE                Object position along x                                    [pixel]
#   4 Y_IMAGE                Object position along y                                    [pixel]
#   5 X_WORLD                Barycenter position along world x axis                     [deg]
#   6 Y_WORLD                Barycenter position along world y axis                     [deg]
#   7 A_WORLD                Profile RMS along major axis (world units)                 [deg]
#   8 B_WORLD                Profile RMS along minor axis (world units)                 [deg]
#   9 THETA_WORLD            Position angle (CCW/world-x)                               [deg]
#  10 FWHM_WORLD             FWHM assuming a gaussian core                              [deg]
#  11 ELONGATION             A_IMAGE/B_IMAGE                                           
#  12 ELLIPTICITY            1 - B_IMAGE/A_IMAGE                                       
         1 -12.6120    198.8019     40.1360   4.4400345525e+01   3.1094273430e+01     1.080417    0.9932541 -15.72  0.005494381    1.244    0.196
         2 -12.5729    208.6102     29.8184   4.0577627797e+01   3.0088178053e+01    0.7939185    0.7117941  32.77  0.001762194    1.366    0.268
         3 -11.6445    233.4117      4.5749   3.2496225924e+01   2.7367866027e+01    0.7863206    0.4798349  81.02   0.00473685    1.522    0.343
         4  -7.8816    169.0000    235.9920   9.4664580523e+01   2.1220788340e+00    0.1800703   0.07257725 -45.66 0.0007909109    2.863    0.651
         5 -14.1838     46.8825    200.9924   1.1633124191e+02   2.6639104370e+01     12.24306     2.385974  47.58   0.02590901    4.784    0.791
         6 -10.2807     48.7502    216.5898   1.1731894361e+02   2.3095895184e+01    0.4117599    0.2894199  82.62   0.00200919    1.296    0.228
         7 -14.8787      3.7592    246.9029   1.2745031253e+02   2.1831116013e+01     1.107647    0.8865808 -70.42  0.007394105    1.561    0.359
         8  -8.8600     59.5965    220.5356   1.1544519194e+02   2.0987725763e+01    0.2686997    0.2037306  22.96 0.0009537377    1.648    0.393
         9  -8.7719     91.3106    214.9211   1.0815271737e+02   1.7919634291e+01    0.2584115    0.1731469  82.61  0.001209422    1.775    0.437
        10 -12.0874     55.5211    188.1317   1.1309249455e+02   2.8510764248e+01    0.8072478    0.6580212  85.04  0.003629658    1.101    0.092
        11 -15.9164      6.1752    206.1081   1.2506469392e+02   2.9573655966e+01     18.17777     1.463793 -76.72   0.02574946    9.893    0.899
        12  -9.2436     42.0896    208.4284   1.1800551665e+02   2.5568495346e+01    0.3478161    0.1681521  71.60  0.001416256    2.326    0.570
        13  -8.6636     32.7834    204.2770   1.1960425427e+02   2.7454931467e+01    0.2449305    0.1380816 -72.33 0.0008131819    1.616    0.381
        14 -10.3565    109.1668    201.7636   1.0244281197e+02   1.7989991016e+01    0.4152513    0.2757119 -44.24  0.002136801    1.715    0.417
        15  -8.9343     62.6556    200.9021   1.1286139530e+02   2.4773036550e+01    0.2216984    0.1721037  65.40 0.0004198616    1.170    0.145
        16  -9.4093     64.8985    196.5526   1.1188238937e+02   2.5451444814e+01    0.3971227     0.295882 -23.45  0.002171522    2.052    0.513
        17  -9.2068    194.4417    197.7025   8.2980780845e+01   4.3940517519e+00    0.2557344    0.1305005 -45.17  0.001142884    2.159    0.537
        18  -7.7498    120.0013    194.2588   9.8806143767e+01   1.7844012303e+01    0.1735307    0.1142211  37.56 0.0002848772    1.435    0.303
        19  -9.6165     38.2321    185.6590   1.1680458685e+02   3.1018057657e+01    0.2286976    0.1751472  89.17 0.0008398875    1.131    0.116
        20  -8.6432     99.4695    180.8639   1.0158343791e+02   2.4108921796e+01    0.2138127    0.1961605  -5.17 0.0007292455    1.273    0.214
        21  -8.3587     39.5447    177.0335   1.1564085108e+02   3.2871740929e+01    0.1854741    0.1585096  56.96 0.0005424243    1.177    0.150
        22  -7.5974    149.3034    176.6969   8.8819854245e+01   1.6464863828e+01    0.1428057    0.1169084  75.64 0.0005915115    1.594    0.373
        23 -10.2659     69.1945    174.7539   1.0816338333e+02   2.9907104103e+01    0.2932251    0.2800328 -54.34 0.0006714647    1.171    0.146
        24 -10.8013     73.5151    169.6709   1.0635956104e+02   3.0537338065e+01    0.5001422    0.3076513 -37.49  0.002318645    2.114    0.527
        25 -10.5275    112.6538    172.7277   9.6957939235e+01   2.3832878974e+01    0.5976318    0.1619549  41.47  0.001859759    3.506    0.715
        26 -11.6471     58.5554    130.3884   1.0408473733e+02   4.2106768476e+01     1.173122    0.3741592 -69.08  0.003420238    4.362    0.771
        27 -12.0277     70.9399    155.5103   1.0486333671e+02   3.4311933060e+01    0.5638448    0.4436798 -26.35   0.00136929    1.581    0.368
        28 -12.0447     68.6086    144.2148   1.0362261295e+02   3.7403215032e+01    0.9072406    0.6087879  73.63  0.003546275    1.890    0.471
        29 -13.3033     56.1270    239.7367   1.1773570654e+02   1.7630090630e+01    0.7983975    0.7202078  -2.45  0.005806947    1.648    0.393
        30  -8.0392    175.2883    149.6418   7.7090418839e+01   1.7088343493e+01    0.1496991    0.1228007 -78.10 0.0007024873    1.683    0.406
        31 -10.1589     53.8394    147.9635   1.0833840538e+02   3.8307439256e+01    0.4269632    0.2254229 -58.62  0.002010706    1.671    0.402
        32  -8.3767     38.9731    146.4914   1.1219322840e+02   4.0266002599e+01    0.1890633    0.1277518  34.66  0.001036151    1.634    0.388
        33  -9.7279    102.7545    139.5352   9.3104585901e+01   3.3358687571e+01    0.4851543    0.2979831 -30.19  0.001985559    2.131    0.531
        34 -10.7270     90.3832    138.8782   9.6446463516e+01   3.5554777518e+01    0.2997277     0.258794 -37.89 0.0005618623    1.185    0.156
        35  -9.4090     33.5788    165.6444   1.1587876728e+02   3.6160216323e+01    0.3729444    0.1915607  53.88  0.001843236    2.044    0.511
        36  -8.9873    105.7984    130.9074   9.0340080789e+01   3.4898968845e+01    0.3194952     0.286453 -73.94  0.001326764    1.191    0.161
        37  -9.1207     32.2141    131.0931   1.1196354278e+02   4.4689873090e+01     0.209273    0.1939628  36.26   0.00106683    1.262    0.207
        38  -9.6688    133.0000    140.9702   8.5281869389e+01   2.7453359523e+01    0.4961663    0.1671839 -51.75  0.001514073    3.210    0.688
        39  -9.4993    112.0198    129.8421   8.8341943192e+01   3.4029619250e+01    0.3450756    0.2518766  18.43  0.001094671    1.645    0.392
        40  -8.6284     44.1534    129.8438   1.0827251330e+02   4.3853324162e+01    0.1849768    0.1476599 -39.78 0.0004638915    1.312    0.238
        41  -9.3336     99.2481    125.8365   9.1050440431e+01   3.7255546325e+01    0.3056622    0.2355853 -19.45 0.0005148295    1.547    0.354
        42 -10.1998    117.5057    124.3424   8.5488260525e+01   3.4289769080e+01    0.6026415    0.3562403  -8.04  0.001773403    4.374    0.771
        43 -10.8461     89.0196    153.8391   9.9701881731e+01   3.2118658685e+01    0.5971878    0.3989079 -28.91   0.00168338    1.994    0.498
        44 -10.8916     28.5130    117.9811   1.1110984458e+02   4.8227411656e+01    0.3151507    0.2422273 -64.57  0.001888748    1.081    0.075
        45 -11.7567     82.6137    160.8914   1.0263425488e+02   3.1367318620e+01     1.446166    0.5921421  57.00  0.004340196    4.540    0.780
        46  -8.5573    107.9858    118.9712   8.6858704092e+01   3.7328710559e+01    0.2292587    0.2150782 -16.98  0.000322483    1.072    0.067
        47 -11.1380     32.2644    107.2237   1.0810776123e+02   5.0535363810e+01    0.4968218    0.2615336 -63.34  0.002437994    1.589    0.371
        48 -11.0161     50.0447    107.7936   1.0235826348e+02   4.8653133401e+01    0.5471205     0.353183  61.81  0.002587256    2.165    0.538
        49  -9.3835    114.8507    108.3280   8.2112485940e+01   3.8470461430e+01    0.4600069    0.0970355 -43.54  0.001121085    4.784    0.791
        50  -9.2319    119.6162    104.1578   7.9611697276e+01   3.8449539853e+01    0.2325958    0.1403393 -34.38 0.0009491182    1.746    0.427
        51  -8.4991    205.5394    110.0350   6.1342206555e+01   1.8440992365e+01    0.2782446    0.2022104  31.67  0.001015736    1.583    0.368
        52 -14.6391     21.5798    249.9178   1.2460402345e+02   1.9564072854e+01     2.435972    0.7497254  28.25   0.01024952    4.732    0.789
        53  -7.7074    128.6824     95.7106   7.4695875305e+01   3.8369007722e+01    0.1574828    0.1215517   3.11 0.0007004986    1.596    0.373
        54  -9.9085    149.6577    228.5497   9.7516908019e+01   6.3821634460e+00    0.2353599    0.1703614 -51.75  0.001360134    1.623    0.384
        55  -8.4272     74.9534     84.9050   8.8114874019e+01   5.0734630290e+01    0.2172446    0.1977911 -28.73 0.0004240627    1.023    0.023
        56 -12.1944    187.9660     48.0122   4.8044940690e+01   3.2624695904e+01    0.9595193      0.74299  25.24  0.003415761    1.625    0.385
        57 -10.0378     81.4903    246.0006   1.1340919819e+02   1.3263567466e+01    0.3879046    0.2335827  55.03  0.001818437    1.455    0.313
        58  -9.7106     59.0204    229.8610   1.1637718905e+02   1.9186172536e+01    0.2582971     0.169213 -78.53 0.0005892207    1.524    0.344
        59  -9.4213    143.5294     48.4917   5.6274236197e+01   4.3349698367e+01    0.2753487    0.2409892 -75.35   0.00149423    1.317    0.241
        60 -10.1150    151.5296    220.6486   9.5940258387e+01   7.4775697421e+00    0.2622966    0.2397688   5.39  0.001665856    1.110    0.099
        61  -8.0919     53.5445    220.5080   1.1667674226e+02   2.1725384676e+01    0.1404029    0.1113708  35.17 1.918212e-05    1.379    0.275
