#   1 NUMBER                 Running object number                                     
#   2 MAG_AUTO               Kron-like elliptical aperture magnitude                    [mag]
#   3 X_IMAGE                Object position along x                                    [pixel]
#   4 Y_IMAGE                Object position along y                                    [pixel]
#   5 X_WORLD                Barycenter position along world x axis                     [deg]
#   6 Y_WORLD                Barycenter position along world y axis                     [deg]
#   7 A_WORLD                Profile RMS along major axis (world units)                 [deg]
#   8 B_WORLD                Profile RMS along minor axis (world units)                 [deg]
#   9 THETA_WORLD            Position angle (CCW/world-x)                               [deg]
#  10 FWHM_WORLD             FWHM assuming a gaussian core                              [deg]
#  11 ELONGATION             A_IMAGE/B_IMAGE                                           
#  12 ELLIPTICITY            1 - B_IMAGE/A_IMAGE                                       
         1 -15.0702      3.5588    123.4797   1.4086903492e+02   4.7825879117e+01     5.259803     0.495435 -77.36   0.01432266    8.074    0.876
         2 -13.6186    197.6684     28.4245   6.7671621584e+01   3.2099848238e+01     1.289466     1.017384  63.10  0.005263334    1.299    0.230
         3 -13.5918    214.9336      7.5904   5.9222944110e+01   2.9786190963e+01    0.9444326     0.850418  46.91  0.002726302    1.143    0.125
         4 -11.9047     84.7024    152.1805   1.2492987865e+02   3.3618424854e+01    0.2485933    0.2142019 -53.64 0.0008086982    1.303    0.232
         5 -13.2004    238.8407    248.1895   1.0989981965e+02  -3.1196193583e+00     1.191057    0.2436325  39.16  0.005314647    3.422    0.708
         6 -12.9466    123.7259    249.6168   1.2808767119e+02   1.2507754756e+01    0.7555955    0.1612329  41.63  0.003412991    3.270    0.694
         7 -11.7619     29.8255    249.0428   1.4245875114e+02   2.3349801310e+01     0.274438    0.1454474  45.00  0.001789434    1.444    0.307
         8 -13.5848    140.5741    248.4938   1.2529960601e+02   1.0397291932e+01    0.6221481    0.4976644  45.95  0.005249873    1.113    0.101
         9 -11.4592     19.2134    241.2573   1.4372222708e+02   2.5447617329e+01    0.2278811    0.1481998 -72.97  0.001849321    1.822    0.451
        10 -12.5470     19.4113    247.8330   1.4391697844e+02   2.4493457513e+01    0.4608673    0.2150605  43.88  0.003605763    1.612    0.380
        11 -13.2727     45.6671    216.3399   1.3844413744e+02   2.6656144871e+01    0.9589892    0.6936686  50.92  0.005511575    1.196    0.164
        12 -13.1511     30.4020    234.6288   1.4179382765e+02   2.5368718548e+01    0.2436853    0.1863992  79.60 0.0007788833    1.243    0.195
        13 -14.3220     34.8416    228.9242   1.4085296216e+02   2.5792486659e+01    0.7116306    0.4592359  72.76   0.00237343    1.228    0.186
        14 -12.1612    121.1824    232.4373   1.2694575235e+02   1.5060428583e+01    0.4050618    0.1061544  43.67  0.001893261    2.792    0.642
        15 -12.1501    106.6081    230.8147   1.2924432932e+02   1.7228965515e+01    0.4332836    0.1026204  43.25  0.001982589    3.006    0.667
        16 -11.2172      3.2919    228.3390   1.4566097309e+02   2.8750118268e+01    0.1897853    0.1055458  62.01  0.001603146    1.218    0.179
        17 -11.6127     91.5029    227.7987   1.3152977870e+02   1.9600445451e+01    0.2868091   0.09998499  46.41  0.001579381    2.140    0.533
        18 -10.0910    172.8189    222.3975   1.1705059646e+02   8.9057020767e+00    0.1702279   0.08303007  33.82 0.0009544105    1.750    0.429
        19 -10.1623     21.0242    212.4650   1.4232499833e+02   2.9690456652e+01    0.1381711   0.07568903  42.24 0.0007078259    1.591    0.372
        20 -12.2136     10.2272    207.0094   1.4386642661e+02   3.1533670075e+01     0.459526    0.2703788  29.55  0.002839395    2.091    0.522
        21 -11.9324     57.8679    200.4357   1.3528137568e+02   2.7961593406e+01    0.2081536    0.1783872  78.93 0.0004425877    1.181    0.153
        22 -12.1442     64.5845    191.8026   1.3336199660e+02   2.8686642931e+01    0.2089352    0.1823894  72.35 0.0005013103    1.148    0.129
        23 -13.0283     61.6917    176.8538   1.3261352436e+02   3.1732537049e+01    0.4030072    0.2337181 -48.51  0.001480962    2.341    0.573
        24 -10.8499     75.5668    178.4253   1.2998106748e+02   2.9764132138e+01    0.2045719    0.1724231  69.59 0.0002760718    1.022    0.022
        25 -12.0817     82.8665    169.6737   1.2752867891e+02   3.0456778088e+01    0.4376674    0.4024282 -46.47  0.003160372    1.374    0.272
        26 -11.9868     67.6833    143.4144   1.2767026509e+02   3.7624791119e+01    0.5539638     0.313948  62.36  0.001896646    1.921    0.479
        27 -10.1408    108.3495    138.0022   1.1725605523e+02   3.2959014331e+01    0.3766146    0.2542308 -16.97  0.001468438    2.661    0.624
        28 -10.5588     95.5470    135.2177   1.1982415084e+02   3.5524299079e+01    0.2122961    0.2060638  67.89 0.0003203318    1.092    0.085
        29 -11.4845     26.7719    129.0750   1.3577870933e+02   4.4918939317e+01    0.3679735    0.1654201  52.76  0.001977467    2.227    0.551
        30  -8.9291    106.1372    124.1846   1.1522166180e+02   3.6153988300e+01    0.1697391    0.1461377  74.63 0.0002561251    1.220    0.180
        31 -12.5825    175.0322    249.1430   1.1987642955e+02   5.5753313232e+00     0.436099    0.2173478  46.27  0.002816904    1.644    0.392
        32  -9.8837    158.1152     76.5038   9.0322965604e+01   3.5118715760e+01    0.2315153    0.1511206  50.11  0.000948854    1.561    0.359
        33 -10.5748     96.0527    153.4405   1.2255890815e+02   3.1762258731e+01    0.2548659    0.2426199  45.69 0.0007349617    1.158    0.137
        34  -9.5561     99.1648    149.0954   1.2120913250e+02   3.2162073039e+01    0.1747337    0.1701112 -13.85 0.0003793975    1.228    0.185
        35 -13.0526      5.8943    247.4920   1.4582063563e+02   2.5737406733e+01    0.7214403    0.4434284  63.77  0.006732547    1.061    0.058
        36 -10.1733     74.0044    250.0000   1.3590067740e+02   1.8578077409e+01    0.1607756   0.04061383  39.21 0.0003064972    3.004    0.667
