#   1 NUMBER                 Running object number                                     
#   2 MAG_AUTO               Kron-like elliptical aperture magnitude                    [mag]
#   3 X_IMAGE                Object position along x                                    [pixel]
#   4 Y_IMAGE                Object position along y                                    [pixel]
#   5 X_WORLD                Barycenter position along world x axis                     [deg]
#   6 Y_WORLD                Barycenter position along world y axis                     [deg]
#   7 A_WORLD                Profile RMS along major axis (world units)                 [deg]
#   8 B_WORLD                Profile RMS along minor axis (world units)                 [deg]
#   9 THETA_WORLD            Position angle (CCW/world-x)                               [deg]
#  10 FWHM_WORLD             FWHM assuming a gaussian core                              [deg]
#  11 ELONGATION             A_IMAGE/B_IMAGE                                           
#  12 ELLIPTICITY            1 - B_IMAGE/A_IMAGE                                       
         1 -12.2315    213.0303     44.7487   3.1054032676e+01   2.7304230188e+01    0.9698638    0.8442612  69.09  0.005789904    1.288    0.224
         2 -11.8040    228.7518     30.7057   2.6394405403e+01   2.5821810146e+01    0.6760268    0.5768499 -66.99   0.00287023    1.095    0.087
         3  -9.2844     32.8113     19.3921   6.6770227020e+01   7.0375298953e+01    0.2277732   0.08985683 -43.85  0.001013992    2.615    0.618
         4  -9.6803    250.3217     11.6757   2.0955534615e+01   2.3806260658e+01    0.3210734    0.1739629 -44.97  0.001337869    1.434    0.303
         5 -10.2671    249.6830      7.4892   2.0167461093e+01   2.4385285021e+01     0.438968    0.2397818 -30.85  0.002595367    1.899    0.473
         6  -9.9665    127.7970    231.5834   8.6166715140e+01   8.9720559187e+00    0.2814369    0.1087776  35.22 0.0008968145    2.182    0.542
         7  -9.8907     74.3220    249.3610   9.9290840183e+01   1.2987531490e+01    0.2797588    0.2168383 -36.51  0.001813004    1.830    0.453
         8  -9.9892     72.9125    245.5017   9.9265405811e+01   1.3874433785e+01    0.2478799    0.1626562  40.17 0.0009289184    1.239    0.193
         9 -12.7808     54.6940    232.6699   1.0209179470e+02   1.8595620254e+01    0.9794653    0.8097867  43.65   0.00384301    1.141    0.124
        10 -11.6716     28.2257    195.8175   1.0532688296e+02   2.9541157561e+01    0.5505466    0.4667477 -34.53  0.001003609    1.600    0.375
        11 -13.3915     38.8096    186.4833   1.0196557174e+02   3.0594757550e+01     1.966696         1.24  79.35   0.00771736    1.548    0.354
        12 -15.1668      9.9420    241.7594   1.1178153491e+02   2.1614271646e+01     7.898245     5.175644 -85.62   0.05433514    1.491    0.329
        13  -8.1732     99.3952    180.8370   8.5723187212e+01   2.3712576088e+01    0.1927855    0.1294528 -48.33 0.0006302031    1.613    0.380
        14 -10.2384     57.6611    171.3193   9.5411222060e+01   3.2025033674e+01    0.4869229    0.3002947 -35.21  0.001967459    2.332    0.571
        15  -9.9500     63.1047    166.4196   9.3287092234e+01   3.2525815440e+01    0.3521169    0.2418717 -41.88 0.0008635027    1.754    0.430
        16  -8.4294    102.3141    171.6812   8.3518775201e+01   2.5370616581e+01    0.1515425    0.1081474  68.88 0.0007037991    1.650    0.394
        17  -8.6699    240.4412    169.4884   5.4105136879e+01   2.6905350387e+00    0.1236767     0.100262 -20.55 0.0001162077    1.013    0.013
        18  -9.0216    110.8748    167.7215   8.0627088790e+01   2.4866418237e+01    0.2627566    0.2139187 -70.58 0.0005773022    1.307    0.235
        19  -8.6109     83.3430    163.5332   8.7271781404e+01   3.0336254355e+01    0.4810222    0.1505959 -70.72  0.001089313    7.079    0.859
        20  -9.9202     35.8279    160.2214   1.0016960893e+02   3.7359772870e+01    0.3818066    0.1979371  54.76  0.001365566    1.951    0.487
        21 -10.2030     32.6733    156.5455   1.0066906155e+02   3.8616679079e+01    0.4662457    0.1764863 -76.78  0.001808619    2.594    0.614
        22 -10.9553     81.2888    151.6055   8.5879306478e+01   3.3609694389e+01     0.716958    0.4330727 -36.25  0.001729007    2.193    0.544
        23 -11.1992     58.3858    132.6382   8.9532692950e+01   4.1758234003e+01      1.32602    0.4636858 -75.91  0.003333836    5.745    0.826
        24 -10.7554     74.0329    157.5785   8.8933875515e+01   3.3204955576e+01    0.5087173    0.4535085  58.57 0.0009264697    1.078    0.073
        25 -11.7604     68.7591    144.6833   8.8380199888e+01   3.7229790161e+01    0.9334075    0.5872768  73.33  0.002633192    2.017    0.504
        26 -14.7746      7.7651    210.1687   1.1086037633e+02   2.8298031390e+01     10.34441     1.346149 -79.39   0.02919586    7.180    0.861
        27  -9.3110     97.4056    138.3844   7.8740212141e+01   3.4241362364e+01    0.4868723    0.3021682 -20.18  0.001767345    2.991    0.666
        28 -10.6358     83.9854    137.2926   8.2465434906e+01   3.6776462392e+01    0.3319989    0.2925577 -42.90 0.0005351835    1.204    0.170
        29  -9.4143    107.0285    130.2369   7.4242605223e+01   3.4483809247e+01    0.4730409     0.339911   4.43  0.001857167    2.100    0.524
        30  -7.3470     96.3189    124.2885   7.6027440507e+01   3.7893924254e+01    0.1513581    0.1215407 -14.83 0.0004106447    1.597    0.374
        31  -9.3532    105.3192    220.5146   8.9706942185e+01   1.4302645391e+01    0.2144699    0.1210978 -60.21  0.001083059    2.005    0.501
        32  -8.2683     33.0000    125.9527   9.6748589555e+01   4.6447806655e+01    0.2334683   0.07207046 -69.33 0.0005991339    2.918    0.657
        33  -8.2430    105.6641    118.1389   7.1829071742e+01   3.7636242628e+01    0.2094888    0.1873655 -47.53 0.0003325694    1.117    0.105
        34  -8.5036    231.0521    113.9449   4.4390012759e+01   1.3095323250e+01    0.2036071     0.173526 -33.00  0.001145181    1.077    0.071
        35  -8.1236    205.5140    110.4492   4.7491474484e+01   1.8480311630e+01     0.138898    0.1245983 -46.28 0.0001796769    1.016    0.016
        36  -7.6995    114.6474    110.3188   6.7306591116e+01   3.7682868628e+01    0.1620998    0.1221883  83.05 0.0007047154    1.744    0.427
        37 -11.6995     60.3022    153.3112   9.2241823351e+01   3.6197424688e+01    0.4905868    0.3227759 -40.13  0.001217612    1.844    0.458
        38 -11.5804    114.7968    230.1192   8.8777095917e+01   1.1101035236e+01    0.4767125    0.3408613  25.45  0.002792022    1.344    0.256
        39  -8.1824     33.0000     90.9609   9.0633599043e+01   5.5363342677e+01    0.2361666   0.07174657 -64.18 0.0008075249    2.978    0.664
        40  -8.2738     73.6928     88.3393   7.4392531737e+01   5.0499286558e+01    0.1499809    0.1165484  81.51 0.0007042507    1.682    0.406
        41  -8.3836    162.3224     85.3076   4.9048285788e+01   3.2336400566e+01    0.1460383    0.1190481  13.25 0.0003759348    1.644    0.392
        42  -8.6041     94.5157    238.4941   9.4068174281e+01   1.2360905011e+01    0.1258218    0.1030756  45.85 0.0008103367    1.024    0.024
        43  -8.7119     58.3001     77.0315   7.6941055106e+01   5.5543307478e+01    0.2062343    0.1769919 -52.38  0.000530299    1.129    0.114
        44  -9.7187     13.2460     60.1075   9.2361699224e+01   6.4384057461e+01    0.2159682     0.180984 -46.85  0.000528297    1.019    0.019
        45  -9.9539     13.1175     52.7367   9.0510391503e+01   6.6040221367e+01    0.2649981    0.1874092  78.56  0.001450756    2.038    0.509
        46 -11.1892    203.1907     50.2190   3.3470326606e+01   2.8693611439e+01    0.4692966     0.331986  43.11  0.001707286    1.852    0.460
        47  -9.1020    124.7981    203.8188   8.3041031774e+01   1.4714257357e+01    0.1907712    0.1523171  58.08 0.0007231832    1.337    0.252
        48 -10.6708    221.8870     36.5268   2.8285872216e+01   2.6509030490e+01     0.368053    0.2991396  55.24  0.001057852    1.527    0.345
        49  -9.5121    101.4025    243.8178   9.3154428402e+01   1.0460388031e+01    0.4045892     0.120023 -60.90  0.001629004    4.025    0.752
        50 -10.5038     78.8548    238.8970   9.7445300538e+01   1.4357545939e+01    0.3083301    0.2057334 -44.44  0.001787737    2.004    0.501
        51  -9.8695     73.6041    238.8845   9.8560600115e+01   1.5034878335e+01     0.321558    0.1033232 -62.41  0.001389727    3.352    0.702
