#   1 NUMBER                 Running object number                                     
#   2 MAG_AUTO               Kron-like elliptical aperture magnitude                    [mag]
#   3 X_IMAGE                Object position along x                                    [pixel]
#   4 Y_IMAGE                Object position along y                                    [pixel]
#   5 X_WORLD                Barycenter position along world x axis                     [deg]
#   6 Y_WORLD                Barycenter position along world y axis                     [deg]
#   7 A_WORLD                Profile RMS along major axis (world units)                 [deg]
#   8 B_WORLD                Profile RMS along minor axis (world units)                 [deg]
#   9 THETA_WORLD            Position angle (CCW/world-x)                               [deg]
#  10 FWHM_WORLD             FWHM assuming a gaussian core                              [deg]
#  11 ELONGATION             A_IMAGE/B_IMAGE                                           
#  12 ELLIPTICITY            1 - B_IMAGE/A_IMAGE                                       
         1 -14.7362      6.7141     24.8161   1.3796655061e+02   7.3022493964e+01     1.677935    0.8090423 -63.65  0.007246586    1.671    0.401
         2 -12.3940     42.1497     33.4950   1.1876740412e+02   6.7962972626e+01      0.81143    0.6028299  71.75  0.003747099    2.002    0.501
         3 -12.8996     83.2016     22.4188   9.4206579539e+01   6.2540244955e+01    0.6583617    0.6257761 -57.01  0.001564055    1.175    0.149
         4 -12.4276     73.6026      2.0409   8.6336444960e+01   6.7436225641e+01    0.6168747    0.3851708 -41.31  0.003017143    1.808    0.447
         5 -12.2632     75.6344     13.3805   9.2243300155e+01   6.5555622818e+01    0.4532939     0.404286 -51.95  0.001210024    1.295    0.228
         6 -14.4713     85.9602     11.7787   8.7668020071e+01   6.3379621480e+01     3.404686    0.5636358  51.17  0.009399015    4.476    0.777
         7 -13.3913     85.1343      4.8589   8.4114110882e+01   6.4395074247e+01    0.9662297     0.490323  50.77  0.003980529    1.781    0.438
         8 -13.8353     96.4142      3.8574   8.0345219466e+01   6.1674040910e+01     1.346762    0.6239381  66.62  0.005421091    2.149    0.535
         9 -11.9303     90.4703      1.7730   8.0818998393e+01   6.3394468579e+01    0.3422692    0.3025612  66.93  0.001074792    1.151    0.131
        10 -13.5465    123.5507     10.3561   7.7328787071e+01   5.3759524870e+01      1.87228    0.8586128  73.32 0.0006483601    2.285    0.562
        11 -11.6901    186.0750     11.7494   6.8976339880e+01   3.6236313052e+01    0.4740959    0.3799493 -71.89  0.002210927    1.203    0.169
        12 -10.1287    150.1828      8.5963   7.2174653401e+01   4.6483879692e+01    0.3390776    0.1789226  74.40  0.001227923    1.811    0.448
        13 -11.9633    137.5718      4.9270   7.2584635082e+01   5.0378976164e+01    0.6607276    0.3775697  54.57  0.002726635    1.620    0.383
        14 -10.6637    143.2988      2.9579   7.0957462525e+01   4.8942032431e+01    0.3160669    0.2501159 -54.75  0.001175158    1.307    0.235
        15 -10.8251    193.0225      6.2191   6.6606694477e+01   3.4909194754e+01    0.4043986    0.1686671 -31.26  0.001132575    2.172    0.539
        16 -11.0372    126.4642      4.3689   7.4168237100e+01   5.3538034663e+01    0.6098345    0.2240861  74.26  0.002053533    2.837    0.648
        17 -11.2968     33.5410      3.9959   1.0833377709e+02   7.4805306768e+01    0.3226252     0.267203  16.43  0.000982053    1.190    0.160
        18 -11.5259    161.9821    189.2926   1.1834294909e+02   1.4486945542e+01    0.1925084    0.1433059  35.73  0.001171678    1.093    0.085
        19 -11.3450     36.0937    178.5243   1.4569730765e+02   3.4871355545e+01    0.2651962    0.2387618   5.90   0.00151315    1.551    0.355
        20 -10.6491     42.2632    175.8829   1.4405055007e+02   3.4749155947e+01    0.2572413    0.1565527  58.86  0.001230815    1.359    0.264
        21 -11.3571    146.1846    219.2153   1.2561336035e+02   1.2661328132e+01    0.3916387    0.2955286  72.46  0.002520951    1.934    0.483
        22 -11.2022     54.1484    170.9424   1.4075799900e+02   3.4404688229e+01    0.4724281    0.1742677  53.80  0.002053883    2.516    0.603
        23 -11.0943     45.8064    166.7917   1.4249151686e+02   3.6250723195e+01    0.2928481    0.1880058  45.48 0.0009386768    1.304    0.233
        24 -11.4586     79.0426    162.5532   1.3359522033e+02   3.2878721217e+01    0.5228114     0.261781  73.50  0.002103832    3.079    0.675
        25  -9.8436     48.4018    160.7808   1.4131989263e+02   3.7241324422e+01    0.1867196      0.15379   3.69  0.001091802    1.697    0.411
        26  -9.8661      9.3237    160.1715   1.5122952716e+02   4.1155433737e+01    0.2282089   0.09070843  14.95  0.001007017    3.729    0.732
        27  -9.3563     13.3080    153.6810   1.4993571985e+02   4.2229077149e+01    0.1285815   0.06464481  59.36 0.0003505174    1.637    0.389
        28  -9.6644    103.9350    151.4620   1.2560401141e+02   3.1309410875e+01    0.2035354    0.1235389  40.26 0.0003184931    1.466    0.318
        29 -11.4617     59.7177    146.2246   1.3678580839e+02   3.9083073504e+01    0.6992586    0.3610572  55.37  0.003350037    1.857    0.462
        30 -11.4862     51.9593    143.9840   1.3870282117e+02   4.0551987963e+01    0.3676291    0.2221909  56.82  0.001476464    1.513    0.339
        31  -9.5579     43.7914    149.4483   1.4151997152e+02   4.0258748230e+01    0.1566177    0.1207736  19.14  0.000493134    1.582    0.368
        32 -10.1609     40.7847    144.0034   1.4184613380e+02   4.1815575527e+01     0.207377    0.1628284  42.12 0.0003154739    1.231    0.188
        33 -10.9014      6.2345    143.1033   1.5131194157e+02   4.5084328865e+01    0.2499956    0.2307965  60.04  0.001246989    1.230    0.187
        34 -12.2528     47.4757    130.1236   1.3842994583e+02   4.4287971751e+01    0.5669563    0.3966171  60.16  0.003199933    1.316    0.240
        35 -11.4287     55.2061    124.4975   1.3533279317e+02   4.4693762606e+01    0.3502431     0.275559 -34.95 0.0008186641    1.646    0.392
        36 -11.9991     49.9978    124.6941   1.3697954381e+02   4.5279831916e+01    0.4919049    0.2848001 -89.28  0.001703092    1.837    0.456
        37 -11.1979     46.2077    125.1810   1.3821979772e+02   4.5602217321e+01    0.3208608    0.1983359  79.10 0.0002138734    1.668    0.401
        38 -11.2605     81.7515    131.2214   1.2836068910e+02   3.9374618752e+01    0.4049424    0.2064014 -54.39  0.001794272    2.061    0.515
        39 -12.5325     10.1085    130.1748   1.4958819967e+02   4.7722452108e+01    0.4333888    0.2921394  18.71  0.002035318    1.760    0.432
        40 -11.4085     67.2232    128.4347   1.3222575164e+02   4.2173117499e+01     0.339497    0.2835159  31.37  0.001136935    1.290    0.225
        41 -11.2080    126.4808    128.4595   1.1544239044e+02   3.1944887745e+01    0.4168567    0.2970755 -24.36  0.001937089    1.908    0.476
        42 -10.5668    137.5770    122.7475   1.1136065415e+02   3.0834118598e+01    0.2388044    0.1936952  35.15  0.001222575    1.203    0.169
        43  -9.1538     36.9473    123.0000   1.4085715775e+02   4.7113912859e+01    0.1993968   0.07121108  26.67 0.0007984932    2.915    0.657
        44 -11.1158     57.0048    119.9279   1.3410750830e+02   4.5556802209e+01     0.206663     0.178464 -89.73            0    1.078    0.072
        45 -11.0046     79.9948    110.0799   1.2499548036e+02   4.4578739850e+01    0.3046643    0.2457299   3.79 0.0009046298    1.662    0.398
        46  -9.5796      5.0581    108.1912   1.4985143105e+02   5.3175941768e+01    0.1466907   0.09385807  19.38 0.0008608466    1.816    0.449
        47 -13.5598     17.6084    101.1479   1.4500974712e+02   5.4060879409e+01     0.446835    0.4229389  87.97  0.001868116    1.140    0.123
        48 -11.9311     58.7539     98.6728   1.2989425134e+02   5.0477603990e+01    0.5225002    0.2944009 -57.43  0.001818027    1.699    0.411
        49 -12.9686     55.4118     94.5243   1.3028870021e+02   5.1931876615e+01    0.6441416    0.4431551 -29.12  0.002180095    1.966    0.491
        50  -9.9386      5.4740     99.0080   1.4910105690e+02   5.5339547429e+01    0.1717045    0.1552026  38.59 0.0006226539    1.256    0.204
        51 -10.4779     32.0128    100.4914   1.3979702145e+02   5.3046936981e+01    0.1868883    0.1277487  28.14  0.001030828    1.584    0.369
        52 -10.4704     70.2143     95.9999   1.2528654443e+02   4.9480381165e+01    0.2622319    0.2102497  75.67   0.00126232    1.322    0.244
        53 -10.5321     81.6408     95.2637   1.2117207428e+02   4.7803068923e+01    0.2989457    0.2194815  71.39 0.0006359115    1.590    0.371
        54 -10.6593    188.3079     94.1806   9.3063304508e+01   2.4568474236e+01    0.3678018    0.2805364 -63.90  0.001788121    1.667    0.400
        55  -9.5052     95.7978     95.4088   1.1654130310e+02   4.5204231501e+01    0.1926858    0.1431339  30.71 0.0002545387    1.472    0.321
        56 -10.2163    164.0997     92.6584   9.7494989582e+01   3.0542805334e+01    0.3428872    0.2326388 -65.16  0.001443736    2.065    0.516
        57  -9.4229      3.0007     92.9560   1.4955553194e+02   5.6918481847e+01    0.1465189    0.1213983  87.58 0.0007636173    1.004    0.004
        58  -9.6874     44.4012     89.6976   1.3349155187e+02   5.4448066633e+01    0.2712434    0.1177247 -64.66  0.001148884    2.076    0.518
        59 -10.9023    152.5018     88.2842   9.8863987035e+01   3.4116675162e+01    0.2807563    0.2537582  57.02  0.000615881    1.093    0.085
        60 -10.5554    249.7269     86.4435   8.1911911490e+01   1.2466075975e+01    0.2387249    0.2000779 -22.01 0.0006924079    1.040    0.038
        61 -10.8395     89.5156     86.4050   1.1622647925e+02   4.8449137986e+01    0.3483029    0.2573986  50.07  0.001053227    1.355    0.262
        62 -10.5548     26.0130     85.6569   1.4000425553e+02   5.7220097255e+01    0.1716838    0.1594105  85.17 0.0004962987    1.072    0.067
        63 -11.2366    128.5777     83.2396   1.0338267720e+02   4.0795893072e+01    0.3874803    0.2693763  47.52  0.000810456    1.393    0.282
        64 -10.5089     67.5563     81.2094   1.2272689027e+02   5.3435314375e+01    0.2699769    0.2086523  54.08 0.0006671372    1.349    0.259
        65  -9.7529    143.5031     81.0698   9.8892374758e+01   3.7637577384e+01    0.2316647     0.154525 -40.68 0.0007892807    1.539    0.350
        66 -10.6967     41.9801     78.1286   1.3218680778e+02   5.7563882794e+01    0.3122003    0.2108946 -43.47 0.0009443657    1.568    0.362
        67  -9.9620     46.8971     75.7225   1.2961688607e+02   5.7592185827e+01    0.2519211    0.1617422 -56.35 0.0007454713    1.439    0.305
        68 -10.8555    144.6819     73.8552   9.6398460422e+01   3.8671355492e+01    0.2807952     0.240985  50.48 0.0003269449    1.132    0.117
        69 -12.8792     96.6554     71.8137   1.0947278916e+02   5.0283354091e+01    0.7553954    0.3941537  39.48  0.001162622    1.994    0.498
        70  -9.5559    120.5296     72.9429   1.0242259968e+02   4.4734722222e+01    0.2276857    0.1551206 -40.60 0.0004576005    1.510    0.338
        71  -9.1747     38.2461     72.3213   1.3253532468e+02   5.9384409946e+01    0.1350303   0.09140437 -43.72 0.0002383096    1.528    0.345
        72 -11.0639     83.2744     68.4885   1.1311901474e+02   5.3670279114e+01    0.2595587    0.2490565 -61.07 0.0003635333    1.031    0.030
        73  -9.7739    210.4939     68.5010   8.2565162630e+01   2.3151834971e+01    0.1407945    0.1339159 -25.59 0.0008106649    1.003    0.003
        74  -9.5319     19.7780     66.3479   1.3962646277e+02   6.2436811581e+01    0.1592376    0.1215171  -1.67 0.0005856945    1.583    0.368
        75  -9.7250    130.4321     65.5096   9.7261860424e+01   4.3755600323e+01    0.1556057    0.1510804  35.05 5.814446e-05    1.043    0.041
        76  -9.6432     61.3182     65.2922   1.2078843866e+02   5.8144462268e+01    0.1420996    0.1086673 -21.72 0.0002537017    1.603    0.376
        77  -9.9540    104.2666     64.6468   1.0457715842e+02   5.0139134613e+01    0.3101878    0.1435293  50.87  0.001137703    2.198    0.545
        78 -11.2023    214.7188     62.0105   8.0242828120e+01   2.3026987722e+01     0.395192    0.2877474 -28.64  0.002064139    1.295    0.228
        79  -9.5586    135.4759     63.4859   9.5289814108e+01   4.2854879592e+01    0.1564317    0.1516931  74.49 3.413505e-05    1.029    0.028
        80 -10.5172     51.9223     62.4155   1.2400133889e+02   6.0156033779e+01    0.3372088    0.2475238   3.68 0.0008723107    1.751    0.429
        81  -9.6916    170.3507     62.7171   8.7457614278e+01   3.3965642276e+01    0.1582593    0.1177329 -73.34 0.0003818445    1.654    0.395
        82 -12.7967    125.5725     57.4925   9.5781448953e+01   4.6426249832e+01    0.3601197    0.3355889  26.93 0.0004885967    1.116    0.104
        83 -10.2759    174.6172     56.7288   8.4829270207e+01   3.3759426169e+01    0.2407049    0.2192198  23.58 0.0005546725    1.178    0.151
        84 -12.0707     68.6930     55.1807   1.1435451194e+02   5.9243327590e+01    0.4246635    0.3510178  50.37  0.001138383    1.287    0.223
        85 -11.4548    210.1878     54.6938   7.8847167799e+01   2.5054546158e+01    0.3318987    0.2420728  38.48  0.001183404    1.537    0.349
        86 -11.2195    133.3142     53.8216   9.2481280336e+01   4.5088798959e+01    0.4238063     0.294038  66.46  0.001445736    1.527    0.345
        87  -9.9439     59.4203     53.8620   1.1792079794e+02   6.1047717806e+01    0.2798015     0.179986 -15.67  0.001185522    2.443    0.591
        88 -12.8955      3.2585     47.1177   1.4469456064e+02   6.7952877100e+01    0.6950442    0.4447342  61.53  0.002267134    1.748    0.428
        89 -13.8646    180.2804    221.5892   1.1949448470e+02   7.2487477318e+00     1.603374    0.9589006  33.04   0.01017029    1.254    0.203
        90 -11.8559    161.8041    222.7131   1.2305799665e+02   9.8531170939e+00    0.9229913    0.5288818  55.60   0.00502411    2.376    0.579
        91 -12.5004     42.2260     42.4361   1.2221181729e+02   6.6000481531e+01     0.563278    0.3751376   7.20  0.001890777    1.911    0.477
        92 -11.1804    145.3345     50.8536   8.8634744603e+01   4.2415481434e+01    0.3346708     0.286415 -33.40 0.0007507548    1.202    0.168
        93 -10.7359    176.5332     45.3173   8.0923574349e+01   3.4871004763e+01    0.2708505    0.2591749  72.01 0.0004308376    1.035    0.034
        94 -11.5389    157.2696     43.8180   8.3770521293e+01   4.0264466169e+01    0.3515459    0.2852561  36.58 0.0007557914    1.323    0.244
        95 -10.1085    102.1419     41.7547   9.6580653191e+01   5.4965278729e+01    0.2144025     0.204061 -77.91 0.0007488261    1.129    0.114
        96  -9.9803     95.8560     42.5339   9.8971958342e+01   5.6297470151e+01     0.222212    0.1459486  49.86 0.0004617541    1.501    0.334
        97 -10.2263    197.2183     41.0772   7.6646461788e+01   3.0010353109e+01    0.2465778    0.2032581  69.17 0.0006143561    1.228    0.186
        98 -10.3361    217.5497     38.5042   7.3524742982e+01   2.5265496029e+01    0.2445588    0.1115533  54.96 0.0009631178    2.266    0.559
        99 -11.4540     82.1786     34.3979   1.0036197321e+02   6.0787356941e+01    0.4083066    0.2797903  32.87   0.00155478    1.571    0.363
       100 -12.5018     79.1813     30.4335   9.9680949133e+01   6.2120675566e+01    0.6094915     0.539078  61.08  0.001862313    1.244    0.196
       101 -10.7699    176.4467     33.4351   7.7120132054e+01   3.6437799901e+01    0.2802429    0.2419373  42.82 0.0006009046    1.229    0.186
       102  -9.4474    108.9710     28.5261   8.8856087224e+01   5.5390617315e+01    0.2272527    0.1095277  38.36 0.0008092313    2.472    0.596
       103 -12.9865     42.5950     47.3862   1.2374375701e+02   6.4836239963e+01    0.5966733    0.4687753  -0.72  0.002133423    1.482    0.325
       104 -11.3449      2.3202    208.7507   1.5421086475e+02   3.2259419901e+01     0.317813    0.2729677 -39.04   0.00257993    1.906    0.475
       105 -12.2060      9.0739    210.2704   1.5291131657e+02   3.1411706013e+01    0.3829052    0.1892585  48.17  0.002571218    1.394    0.283
       106 -11.8436     14.5184    208.3300   1.5176674328e+02   3.1271641943e+01    0.2440528    0.1983384   6.07  0.001660849    1.885    0.470
       107 -11.5542    144.7963    207.1017   1.2436297576e+02   1.4615111269e+01    0.4379302    0.3428816   0.27  0.002828342    1.586    0.369
       108 -10.8716     44.5837    208.3980   1.4557138275e+02   2.8229093819e+01    0.2171853    0.1396073  49.08 0.0009781722    1.145    0.127
       109 -11.8985     36.2265    207.0322   1.4725041325e+02   2.9377806383e+01    0.4179742    0.1229631  45.60  0.002100341    2.220    0.549
       110 -11.7739     24.4278    208.3430   1.4975170287e+02   3.0335796507e+01    0.3527608    0.1043967  41.94  0.001855061    2.148    0.534
       111 -10.9113    242.1599     23.2428   6.7328978439e+01   2.1244861367e+01    0.3160229    0.2297147 -78.46  0.001327566    1.443    0.307
       112 -10.5918     53.2631    201.0575   1.4326635629e+02   2.8581749269e+01    0.2664362    0.1640633  66.38  0.001303228    1.445    0.308
       113 -10.7229    150.7347     20.1371   7.6431729046e+01   4.5120217420e+01    0.3721922     0.274236  34.17  0.001707462    1.517    0.341
       114 -10.3881    139.5541     20.5372   7.8516443016e+01   4.8196546249e+01     0.269217    0.2399795  66.59  0.000566906    1.060    0.056
       115 -11.7091     64.0957     17.9553   9.9691368458e+01   6.7292914734e+01    0.3932275    0.2704891  43.14 0.0008244941    1.451    0.311
       116  -9.7119    208.9518     18.2837   6.8734176980e+01   2.9610002942e+01    0.1940775    0.1676031  85.61 0.0006060587    1.150    0.130
       117 -10.1648     37.3640     16.4737   1.1343726494e+02   7.2035925778e+01    0.2175334    0.1134525 -46.06 0.0007425947    1.774    0.436
       118 -12.2642     79.3740    220.2717   1.3915767339e+02   2.1982465402e+01    0.7109712    0.2824693  56.58  0.003473909    2.546    0.607
       119  -9.6373     53.4968     10.5297   1.0053832239e+02   7.0482541526e+01    0.1335423    0.1216484  -2.17 7.821804e-05    1.025    0.024
       120 -14.2654     80.1982    207.1316   1.3791053667e+02   2.4110809189e+01     2.292053    0.9877866  57.30   0.01118429    2.369    0.578
       121 -11.4302     27.5232    219.7709   1.4957090619e+02   2.8018805652e+01    0.3668398    0.2035121  81.55  0.002491412    1.719    0.418
       122 -10.9791    140.0657    221.5387   1.2708290109e+02   1.3250073845e+01    0.3026583    0.2514524  20.75  0.001708147    1.242    0.195
       123 -11.1694    135.8079    188.4160   1.2369032992e+02   1.8995770719e+01    0.6101868    0.3790745  79.18  0.002647206    3.436    0.709
       124 -11.4359     68.7332    184.8470   1.3849353042e+02   2.9758991550e+01    0.4883512    0.2500547  45.75  0.002630555    1.549    0.354
