#   1 NUMBER                 Running object number                                     
#   2 MAG_AUTO               Kron-like elliptical aperture magnitude                    [mag]
#   3 X_IMAGE                Object position along x                                    [pixel]
#   4 Y_IMAGE                Object position along y                                    [pixel]
#   5 X_WORLD                Barycenter position along world x axis                     [deg]
#   6 Y_WORLD                Barycenter position along world y axis                     [deg]
#   7 A_WORLD                Profile RMS along major axis (world units)                 [deg]
#   8 B_WORLD                Profile RMS along minor axis (world units)                 [deg]
#   9 THETA_WORLD            Position angle (CCW/world-x)                               [deg]
#  10 FWHM_WORLD             FWHM assuming a gaussian core                              [deg]
#  11 ELONGATION             A_IMAGE/B_IMAGE                                           
#  12 ELLIPTICITY            1 - B_IMAGE/A_IMAGE                                       
         1 -11.6522    114.9222     61.0165   7.6199980972e+01   4.7979625267e+01     1.916032    0.1812997 -37.81  0.003276311   10.994    0.909
         2 -12.5022    114.7451    105.2468   8.9775305432e+01   3.8922623449e+01     4.714607    0.2024836 -47.48  0.005444874   22.504    0.956
         3 -10.2695    134.7556     45.5411   6.5633636247e+01   4.5945469110e+01    0.6401608    0.1917823 -29.82   0.00194488    3.626    0.724
         4  -9.9635    114.8936      5.0038   5.4743177200e+01   5.5582641116e+01    0.6037803    0.1466554 -21.56  0.001972546    4.274    0.766
         5 -10.6153    114.8769     38.4077   6.7979103963e+01   5.1688101911e+01    0.9538882    0.1557108 -30.47  0.002125062    7.257    0.862
         6 -12.0613    199.1170     34.1525   5.0381476439e+01   3.0949290472e+01     1.026679    0.8706191  33.89   0.00438112    1.371    0.271
         7 -12.3491    210.6987     20.8371   4.5300664325e+01   2.9628043157e+01    0.9972405    0.7658715  25.64  0.005296015    1.722    0.419
         8 -10.4628     33.1144     13.7689   8.6445564034e+01   6.9557358685e+01    0.5652572    0.1243717 -40.53  0.002088081    3.939    0.746
         9  -8.7645     21.6647      6.6769   8.8580626088e+01   7.1849697662e+01    0.1211278   0.06993798 -13.37 0.0007050726    1.711    0.416
        10  -9.0569     32.7582      3.2342   8.1181724553e+01   7.1063305595e+01    0.3245225   0.08175737 -37.65  0.001292503    3.661    0.727
        11  -8.0749    134.5136      2.4762   4.9995819098e+01   5.1044929485e+01    0.1363652    0.1217486  53.40 0.0008100501    1.005    0.005
        12  -8.2833    193.3233    192.0010   9.0812479618e+01   5.1864115343e+00    0.3200544    0.1707026  22.11  0.001279797    2.759    0.637
        13 -14.4021     98.0481    241.1622   1.1613047881e+02   1.3203945123e+01     11.10242     1.633378  40.06   0.03299554    6.074    0.835
        14 -12.9584     44.3778    208.1914   1.2310628449e+02   2.6574453086e+01     1.680866     1.066212 -40.43  0.007757317    3.140    0.682
        15 -10.8709    115.0000    182.9398   1.0563369485e+02   2.1470029214e+01     0.841422    0.1349246 -55.91   0.00213036    6.744    0.852
        16 -10.1782    115.0000    174.4659   1.0428682066e+02   2.3260209463e+01    0.4435934     0.184022 -52.12  0.001784641    2.509    0.601
        17 -10.3092     69.3539    179.8833   1.1526433258e+02   2.9287707619e+01    0.4125582    0.2614444 -43.15  0.002120215    2.274    0.560
        18 -10.2101     73.7844    174.5183   1.1361638323e+02   2.9847618448e+01    0.3143491    0.2309208 -49.65  0.001300083    1.635    0.388
        19  -9.8168    134.4374    171.8251   9.9453470678e+01   2.0255394839e+01    0.4480162     0.171631 -48.78  0.001671613    2.766    0.638
        20  -9.8749     32.6322    165.0215   1.2174085421e+02   3.7047570239e+01    0.3291078    0.1190008 -72.42  0.001503542    2.334    0.572
        21  -8.8109    195.0119    168.0120   8.5771951562e+01   8.9291230771e+00    0.2191504    0.2100236  37.11  0.001283368    1.107    0.097
        22 -10.5137     82.6041    164.2838   1.1017389429e+02   3.0850709591e+01    0.3973829      0.29009 -58.99 0.0008115215    1.379    0.275
        23  -7.5089    161.2861    165.3186   9.2263308654e+01   1.6288316965e+01    0.1435937    0.1150612   1.70 0.0006438365    1.591    0.372
        24 -11.7484     70.2773    160.6103   1.1255616279e+02   3.3483220267e+01    0.5334643    0.3311968 -44.39   0.00122004    2.058    0.514
        25 -10.0642     88.5925    157.8883   1.0775785991e+02   3.1384642975e+01    0.5165483     0.344658 -32.70  0.001638834    2.312    0.567
        26 -10.0755     32.8868    157.0858   1.2088440336e+02   3.8809192110e+01    0.2964143    0.1499047 -74.27  0.001286063    1.652    0.395
        27 -10.8305    134.4246    146.8834   9.4588266072e+01   2.5603741787e+01     1.553247    0.2044788 -50.12  0.003087119    8.347    0.880
        28 -10.0966    134.7906    130.5475   9.0863442317e+01   2.9137784168e+01     0.804014    0.2175133 -44.61  0.002277312    3.819    0.738
        29 -10.0445    134.5998    120.4162   8.8463194707e+01   3.1421663789e+01    0.9341285    0.1551763 -45.73  0.002076378    5.954    0.832
        30  -9.6334    134.6564    111.9209   8.6278232404e+01   3.3276627696e+01    0.6568858    0.1534721 -45.53  0.001716045    4.212    0.763
        31 -10.7240    134.5914    103.4922   8.4032389357e+01   3.5117072981e+01    0.9005352    0.1930194 -42.71  0.002228771    4.682    0.786
        32 -11.7543     68.6532    144.5708   1.1056466751e+02   3.7444506004e+01    0.8097274     0.504425  77.92  0.003908841    1.909    0.476
        33 -10.0841     32.6872    143.8022   1.1946422571e+02   4.1878837899e+01    0.3852127   0.09596624 -68.00  0.001451731    3.137    0.681
        34 -10.0884     30.3109    138.8263   1.1946393884e+02   4.3266053175e+01     0.421079    0.1862845  35.83  0.002010255    2.441    0.590
        35 -13.1541     54.2411    197.4961   1.2028471422e+02   2.7533613247e+01     1.868701     1.186406 -85.08  0.009562439    1.414    0.293
        36 -10.7859    114.2525    128.8668   9.5687278963e+01   3.3634442037e+01     1.064765    0.4175177 -46.18  0.003755021    2.583    0.613
        37  -8.7653    102.6185    141.7031   1.0138657039e+02   3.2793342114e+01    0.4736547    0.2847016 -26.20  0.001744089    3.292    0.696
        38 -10.4702     90.1883    142.0845   1.0463435715e+02   3.4801318351e+01    0.2681639    0.2459651 -51.63 0.0004618687    1.191    0.161
        39 -10.3510     28.4479    149.9775   1.2117060358e+02   4.0871603480e+01    0.2382097    0.1537852  67.92 0.0007977905    1.479    0.324
        40 -10.0389     59.3283    132.6602   1.1107167183e+02   4.1504945764e+01     0.280046    0.2009607 -81.40  0.001543538    1.312    0.238
        41 -10.2874     57.7987    127.1573   1.1056452712e+02   4.3009471069e+01    0.3990819    0.1882143 -70.62  0.001732551    2.086    0.521
        42  -9.9995     32.3485    131.3544   1.1800935377e+02   4.4816437651e+01    0.3753062    0.1668571 -57.72  0.001832034    1.941    0.485
        43  -8.4319    106.0507    131.0409   9.8307489646e+01   3.4661004898e+01    0.2497322    0.1794513  79.41  0.001147892    1.752    0.429
        44  -9.3540     98.8002    127.9848   9.9570450518e+01   3.6667570962e+01    0.2662704    0.2313621   2.43 0.0007511923    1.478    0.324
        45 -10.0699     95.5211    224.1105   1.1489286445e+02   1.6560659083e+01    0.2944955    0.1987986  51.45 0.0007829989    1.214    0.176
        46  -8.1816    108.0209    120.0439   9.5308223660e+01   3.6850960928e+01    0.1736944    0.1670337  71.93 0.0003156213    1.060    0.056
        47  -8.0104    168.0091    112.5143   7.8478979663e+01   2.5549670535e+01    0.2227546    0.1421326  76.11 0.0008100764    2.516    0.603
        48 -10.7880     32.6425    108.2771   1.1453666263e+02   5.0221730993e+01    0.7106944   0.07136755 -64.47  0.001856928    6.039    0.834
        49  -9.4321     43.8902    108.8861   1.1131288140e+02   4.8965202924e+01     0.208842    0.1607556 -49.00  0.001241305    1.266    0.210
        50 -10.1067     86.0602    225.0094   1.1676285368e+02   1.7796899842e+01    0.3283404    0.1538403  60.78  0.001012548    2.116    0.527
        51 -10.1023    114.8302    202.6669   1.0851810498e+02   1.7529094611e+01    0.6960884     0.140521 -58.54  0.002001782    6.194    0.839
        52  -8.9026     33.0000     90.9518   1.1128909988e+02   5.4230249707e+01    0.2151208   0.06079479 -63.33 0.0007943995    2.887    0.654
        53  -9.1891     61.0226    221.5945   1.2109413237e+02   2.1891496996e+01    0.3106835    0.1658078 -51.58   0.00167835    2.732    0.634
        54  -8.7260     66.8400    219.8607   1.1987187668e+02   2.1449247533e+01    0.1795566    0.1537672 -60.46 0.0006990033    1.560    0.359
        55 -10.7300    134.5516     57.3686   6.9784825664e+01   4.4106588129e+01    0.9436022    0.1555336 -34.04  0.002078612    6.465    0.845
        56  -8.7035    162.7605    213.7363   1.0049067450e+02   7.1999285907e+00    0.2029962    0.1426768  72.27   0.00106017    1.992    0.498
        57  -9.1084    150.1632     53.9089   6.5009454404e+01   4.0822875310e+01    0.2347659    0.2025176 -67.28 0.0005504396    1.291    0.225
        58  -8.9557    151.5050     46.9528   6.2408931799e+01   4.1553265588e+01    0.2787808    0.2128704  87.05 0.0009515384    1.577    0.366
        59  -9.6398    134.7388    208.8391   1.0532373047e+02   1.2974166187e+01    0.3392007    0.1105483 -53.12  0.001309632    3.518    0.716
        60  -9.9030    115.0000     18.5140   6.0163073839e+01   5.4214891654e+01    0.3334078    0.1423766 -29.37  0.001380517    2.356    0.576
        61  -7.8884    163.7940    204.9497   9.8902742051e+01   8.4839736816e+00    0.1584491    0.1081527 -44.96 0.0006061479    1.682    0.406
        62 -10.8326    189.8183     40.6932   5.3597828432e+01   3.2490597928e+01    0.4386137    0.3519938  31.93   0.00134408    1.454    0.312
        63 -14.6613      7.0789    245.4666   1.3153874008e+02   2.3755901614e+01     1.589823     1.242574 -81.95   0.01376585    1.533    0.348
        64 -10.3185     91.0305    232.4026   1.1656057249e+02   1.5742682154e+01    0.3891896     0.209635  86.94  0.002024049    2.439    0.590
        65 -10.1629     32.7751     35.0992   9.5831982129e+01   6.6045257165e+01    0.4968917   0.07225791 -48.75   0.00149651    5.212    0.808
        66 -10.4260     78.4343    220.7008   1.1777776308e+02   1.9690584767e+01    0.3607882    0.2102476  56.99  0.001774365    1.424    0.298
        67  -9.8979     73.6954    218.6161   1.1847448764e+02   2.0749116766e+01    0.4225652    0.1901681 -76.14  0.002116305    2.463    0.594
        68 -15.6345      6.2661    209.3095   1.3005520835e+02   3.0400960323e+01     17.09189     1.208224 -77.15   0.02030737   10.780    0.907
        69  -9.5200     70.2265    216.6269   1.1894568859e+02   2.1607444809e+01    0.1957818    0.1624564  72.95  0.001245795    1.105    0.095
        70  -7.8277    134.5264     12.4705   5.3672221462e+01   5.0133605055e+01    0.1398474    0.1262948  46.69 7.003867e-05    1.011    0.011
        71  -9.7659     59.1056    229.7079   1.2208620714e+02   2.0632388107e+01    0.3515134    0.1440582 -67.31  0.001897346    2.478    0.596
        72  -9.0267    135.0000    199.0275   1.0382902933e+02   1.4744214832e+01    0.2017986   0.07713879 -52.87  0.000800692    2.930    0.659
