#   1 NUMBER                 Running object number                                     
#   2 MAG_AUTO               Kron-like elliptical aperture magnitude                    [mag]
#   3 X_IMAGE                Object position along x                                    [pixel]
#   4 Y_IMAGE                Object position along y                                    [pixel]
#   5 X_WORLD                Barycenter position along world x axis                     [deg]
#   6 Y_WORLD                Barycenter position along world y axis                     [deg]
#   7 A_WORLD                Profile RMS along major axis (world units)                 [deg]
#   8 B_WORLD                Profile RMS along minor axis (world units)                 [deg]
#   9 THETA_WORLD            Position angle (CCW/world-x)                               [deg]
#  10 FWHM_WORLD             FWHM assuming a gaussian core                              [deg]
#  11 ELONGATION             A_IMAGE/B_IMAGE                                           
#  12 ELLIPTICITY            1 - B_IMAGE/A_IMAGE                                       
         1 -15.9803    240.0567     92.0858   2.7228309346e+01   1.3448405721e+01     4.410468     1.601079 -33.06   0.01760314    2.303    0.566
         2 -11.0314     40.9055     13.9828   4.8546811382e+01   7.0824160779e+01    0.1946312    0.1677804   0.27 0.0003108004    1.088    0.081
         3 -10.4083    154.6781    240.3564   7.0446808220e+01   6.0860611737e+00    0.1112126   0.07767612  59.26 0.0007045561    1.763    0.433
         4 -10.9122     85.1986    227.3901   8.2104256307e+01   1.7856420064e+01    0.1768729   0.07921328  46.41 0.0009527737    1.728    0.421
         5 -10.4872    162.2944    225.0353   6.7139123757e+01   7.0762719102e+00    0.2667782    0.1616942  16.56  0.001460444    2.069    0.517
         6  -9.9999     99.1298    225.1068   7.9198855717e+01   1.6342700979e+01     0.170237     0.143053  37.71 0.0006018223    1.213    0.176
         7 -10.3092     59.5068    222.5166   8.6684372958e+01   2.2001621968e+01    0.1161814   0.08656268  59.14 8.031217e-05    1.017    0.017
         8 -10.7537    126.0843    220.5265   7.3453450531e+01   1.3201514092e+01    0.2005189    0.1576938  77.03 0.0007290532    1.510    0.338
         9 -10.0694     74.6569    219.3166   8.3472846240e+01   2.0665788366e+01    0.1271441   0.06850654  60.59 0.0007048558    1.714    0.417
        10 -10.2269    143.6176    216.8365   6.9589507958e+01   1.1131468691e+01    0.1491632    0.1165982 -70.80 0.0009501374    1.699    0.411
        11 -10.1770     76.5063    211.4949   8.2421337098e+01   2.1855670718e+01    0.1209055   0.09566762  58.35 3.184453e-05    1.003    0.003
        12 -10.0129    116.6733    210.3419   7.4113883729e+01   1.6324473822e+01    0.1288809   0.08313599  64.00 0.0007051209    1.737    0.424
        13 -10.8841    185.9992    204.0218   5.9683722047e+01   6.4018935714e+00    0.1812178    0.1505125  65.65  0.001140326    1.720    0.419
        14 -11.5561    165.2277    202.5438   6.3375148033e+01   9.9480228592e+00    0.2748064    0.2193688  81.47  0.001633708    1.894    0.472
        15  -9.8919    149.3173    198.6556   6.5925569167e+01   1.3165892086e+01    0.1266498   0.09458055  68.06  0.000387796    1.719    0.418
        16 -11.2271    177.9252    196.9874   6.0061562020e+01   8.7334915184e+00    0.2006083    0.1717604  21.94 0.0009820659    1.020    0.019
        17 -10.4146    124.8163    197.0227   7.0727264518e+01   1.7423998334e+01    0.3187675    0.1554793  43.43  0.001548617    1.762    0.432
        18  -9.8410    112.3196    197.6277   7.3441684075e+01   1.9280932298e+01    0.1351633   0.08765271  67.67 0.0007032921    1.801    0.445
        19 -11.9361    163.4086    194.0292   6.2397837101e+01   1.1597113396e+01    0.3666572    0.2362004  59.69  0.001875895    2.065    0.516
        20 -10.6783    172.4951    190.9555   6.0112522763e+01   1.0569173629e+01    0.1768205    0.1267734 -41.50 0.0005745474    1.560    0.359
        21 -10.0713    138.8627    189.0293   6.6618353437e+01   1.6567486599e+01    0.2070365    0.1501084  86.98  0.001084055    2.010    0.502
        22  -9.9332    129.3941    188.1769   6.8496655187e+01   1.8301189308e+01    0.1729612    0.1247337 -72.67 0.0009180789    1.726    0.421
        23  -9.9149    165.4977    186.5035   6.0746595787e+01   1.2478621709e+01    0.1299186     0.115984  34.80 0.0008100467    1.056    0.053
        24 -10.3223    109.5618    185.7641   7.2466054824e+01   2.1987199067e+01    0.1753607    0.1231233 -80.21 0.0009497951    1.686    0.407
        25 -10.2548    120.0000    184.0023   6.9915983054e+01   2.0643471600e+01    0.2008383   0.07579176 -55.28  0.000801943    2.939    0.660
        26 -11.0357     94.7127    182.9340   7.5409877206e+01   2.4865456344e+01     0.315909    0.2310608 -84.28  0.001812994    1.470    0.320
        27 -10.2750    174.3794    183.2392   5.8427232120e+01   1.1488107624e+01    0.1704979    0.1240764 -51.84 0.0008567619    1.672    0.402
        28  -9.9164     74.3130    183.6427   8.0119329418e+01   2.7676133677e+01    0.1391167   0.08215427  67.08 0.0006277577    1.742    0.426
        29 -10.7962      1.5040    181.6502   9.6119582273e+01   3.6116277050e+01    0.2358586   0.08416285 -76.85  0.001198346    2.411    0.585
        30 -10.9422     77.8060    175.5424   7.8380348328e+01   2.8911351324e+01    0.2588652    0.1415827  69.67  0.001193016    2.184    0.542
        31 -10.4132    147.9294    179.9567   6.3253919592e+01   1.6655497230e+01    0.2120646     0.159631  70.59   0.00113281    1.709    0.415
        32 -10.5664    177.0106    170.3212   5.5560671473e+01   1.3163620832e+01    0.2928863    0.1890793 -49.59  0.001490521    1.807    0.447
        33 -11.1843    121.7360    168.4639   6.7106010069e+01   2.3441174152e+01    0.4684534    0.2847119 -76.61  0.002075948    2.407    0.584
        34  -9.7671    206.6475    169.3189   4.9764673618e+01   8.0728780677e+00    0.1205799    0.1065139  89.75 0.0007047219    1.744    0.427
        35 -11.0786    139.2172    164.3000   6.2420278684e+01   2.1168380173e+01    0.4167181    0.2669863 -74.95  0.001838095    2.429    0.588
        36 -10.6076     79.7735    163.4166   7.6355219519e+01   3.1294467933e+01    0.4514789    0.2272759  83.84  0.001673712    3.413    0.707
        37 -10.8844    146.3383    162.6925   6.0544963844e+01   2.0175030606e+01    0.2653181    0.2119942  74.09 0.0008158106    1.533    0.348
        38 -10.8746    144.1076    159.5148   6.0442081747e+01   2.1208229279e+01    0.2414249    0.2226379 -77.28 0.0004382891    1.189    0.159
        39 -10.7463    205.8475    161.7300   4.8409427582e+01   9.3656118767e+00    0.2438931    0.1737899 -58.84  0.001243086    2.134    0.531
        40 -10.5029    177.7526    159.9128   5.3390545674e+01   1.4808644092e+01    0.2536386    0.1968153 -59.06  0.001354735    1.625    0.385
        41 -11.0502    188.7166    156.5626   5.0555443448e+01   1.3325562280e+01    0.3558793    0.2105051 -41.54  0.001651187    1.748    0.428
        42 -10.2618    105.9252    157.9599   6.9103716869e+01   2.8371521300e+01    0.2379694    0.1606301  71.73  0.001139914    1.774    0.436
        43 -10.9446    196.9896    157.0212   4.9078916288e+01   1.1712717224e+01    0.2149411    0.1946439  -3.21 0.0008624638    1.031    0.030
        44 -10.5591    167.5668    156.3505   5.4756218261e+01   1.7369957012e+01    0.2635049    0.1354005 -47.26  0.001138928    2.105    0.525
        45 -10.7086     93.0641    159.8994   7.2570946640e+01   3.0051133844e+01    0.3075828    0.1792368  69.67  0.001347434    2.220    0.550
        46 -11.5010    204.8931    154.1238   4.7026649899e+01   1.0723259399e+01    0.1992373    0.1875436 -44.69  0.001163711    1.274    0.215
        47 -10.5355     81.6187    153.8949   7.4537420110e+01   3.3182196053e+01    0.2720907    0.1662057 -84.29  0.001044781    1.890    0.471
        48 -10.8920     67.9572    153.3479   7.7970530976e+01   3.5282035576e+01    0.3707525    0.2086144  67.46  0.001571871    2.018    0.504
        49 -10.5733    133.1291    152.7287   6.1650603458e+01   2.4629274061e+01    0.3330166    0.2051459  74.11  0.001298163    2.831    0.647
        50 -12.2796    189.1143    148.6473   4.8823031453e+01   1.4589113831e+01    0.5342801    0.2795115 -47.79  0.002319618    2.192    0.544
        51 -11.3706    199.9705    147.8242   4.6597022828e+01   1.2652003114e+01    0.2536972    0.1928906 -29.93  0.001201102    1.273    0.214
        52 -10.5469     39.4362    147.1355   8.4686702409e+01   4.0280636089e+01    0.3619691    0.1487268  68.42  0.001368508    3.263    0.694
        53 -11.4743    148.9571    143.8752   5.6216627701e+01   2.3386365871e+01    0.6314353     0.374963 -68.45  0.002448234    2.791    0.642
        54 -11.1622    107.0860    144.5948   6.6458344169e+01   3.1140819970e+01    0.4870157    0.2953266  79.26  0.001922445    2.684    0.627
        55 -11.2179     55.3702    144.0978   8.0063328654e+01   3.9133955917e+01    0.5227549    0.2543567 -88.93  0.002153773    2.560    0.609
        56 -11.1512    124.8039    141.8556   6.1492022309e+01   2.8504669871e+01    0.5569183    0.3054964 -71.42  0.002028611    3.021    0.669
        57 -10.6818     87.9227    143.2618   7.1198865256e+01   3.4670850349e+01     0.325053    0.1979439 -81.77  0.001449428    1.997    0.499
        58 -10.3273    165.4291    143.2298   5.2461539029e+01   2.0228641480e+01    0.2059472     0.135915 -53.97 0.0009524638    1.737    0.424
        59 -10.3456    182.3143    140.8350   4.8457837791e+01   1.7286234893e+01    0.2896734    0.1209013 -46.25  0.001082564    2.622    0.619
        60 -12.0371    188.6639    135.9525   4.6117639197e+01   1.6873056396e+01    0.5453977    0.2371525 -45.33  0.002113993    2.461    0.594
        61 -10.5431    172.1568    137.2818   4.9730283673e+01   1.9986537310e+01    0.2826721    0.1899372 -64.74  0.001238508    2.150    0.535
        62 -10.8976     22.9505    137.0887   8.8119996666e+01   4.4333371579e+01    0.4131685    0.1483543  70.16  0.001444198    3.962    0.748
        63 -10.6358     38.5398    135.0361   8.3569609273e+01   4.3292230556e+01    0.2078699    0.1141178 -75.88  0.001034402    1.611    0.379
        64 -10.8791    179.5319    132.7553   4.7188678716e+01   1.9307325099e+01     0.355261    0.1369841 -42.05  0.001291557    2.572    0.611
        65 -10.4521    112.8329    132.7416   6.2634513402e+01   3.2783134107e+01    0.2924303    0.1946861 -84.92  0.001242708    2.123    0.529
        66 -10.8859    142.9383    130.2618   5.4608950404e+01   2.7391372091e+01    0.4711228    0.2153646 -51.32   0.00176859    2.349    0.574
        67 -11.2276    131.8288    129.5843   5.7132359698e+01   2.9795539665e+01    0.6603315    0.2698288 -55.29  0.002253238    2.894    0.654
        68 -11.7329     83.3123    130.9850   7.0272397351e+01   3.8318886416e+01    0.4893017    0.2819285 -76.71  0.002098237    2.054    0.513
        69 -11.5432    192.7185    129.1099   4.3767852129e+01   1.7240526735e+01     0.350111    0.1863592 -38.75  0.001206459    1.812    0.448
        70 -11.2138    168.3961    127.8841   4.8351452061e+01   2.2542269787e+01    0.3572875    0.1844001 -43.32  0.001469117    1.932    0.482
        71 -11.0352    152.8333    127.3834   5.1648943229e+01   2.5924982586e+01    0.5642659    0.2022387 -48.97  0.001849619    3.049    0.672
        72 -12.3133     98.9901    124.7767   6.4668124946e+01   3.7154697844e+01    0.9412084    0.3849571 -57.74  0.003444141    2.487    0.598
        73 -10.7951     72.8266    127.8495   7.2681132374e+01   4.0689421180e+01    0.4257079    0.1824314 -68.75  0.001616773    2.517    0.603
        74 -10.8305     12.6031    128.3982   9.0223311845e+01   4.7297101122e+01     0.333021    0.1229584  84.18  0.001313897    2.996    0.666
        75 -10.0853     17.0086    244.6905   9.5541320823e+01   2.2828357003e+01    0.1463516   0.09233411  53.81 0.0005643676    1.114    0.102
        76 -11.8392     78.6351    110.9491   6.7620782886e+01   4.3935656273e+01     0.758517    0.3467672 -74.06  0.002426636    3.621    0.724
        77 -11.7841     92.4824    109.2798   6.3062753859e+01   4.1998855815e+01     1.004038    0.3150609 -55.20  0.003197842    3.119    0.679
        78 -11.4750    122.2039    110.7229   5.5071948161e+01   3.5915165839e+01    0.4935103    0.2496564 -50.80  0.001929767    1.971    0.493
        79 -11.1461     14.3428    109.6323   8.7882047764e+01   5.1756859880e+01    0.5269772    0.2052941 -84.42  0.002230546    2.423    0.587
        80 -11.1889    174.6214    110.1840   4.2677720661e+01   2.4541054066e+01    0.4221569    0.1711113 -41.91  0.001511786    2.384    0.581
        81 -11.6682    159.3031    109.9421   4.5866223233e+01   2.8016562003e+01    0.4477868     0.209113 -36.82  0.001664238    2.203    0.546
        82 -11.5812     66.2752    108.5427   7.0967756470e+01   4.6408564235e+01    0.6172773    0.2461331 -66.40   0.00224365    2.636    0.621
        83 -11.4547    188.8554    122.8197   4.3012383178e+01   1.9146716699e+01    0.3370152    0.1986061 -41.32  0.001513682    1.656    0.396
        84 -11.3518    182.9858    108.0347   4.0461061463e+01   2.3068604830e+01    0.3340028    0.1986801 -36.87   0.00146152    1.608    0.378
        85 -10.9074    133.2309    108.3998   5.1625281746e+01   3.4092750370e+01    0.3360686    0.2096038 -54.94  0.001423126    1.700    0.412
        86 -12.0146    189.2302    106.4769   3.8871789926e+01   2.1956463546e+01     0.444981    0.1776864 -40.81  0.001618302    2.369    0.578
        87 -11.1674    196.6257    107.1956   3.7703002723e+01   2.0201633976e+01    0.2137424    0.1338104 -24.98 0.0009479119    1.674    0.403
        88 -12.0507    139.7581    102.6126   4.8457566224e+01   3.3889362545e+01    0.6169775    0.2885936 -42.71  0.002300278    2.098    0.523
        89 -12.0461     44.7396     99.5305   7.6288976050e+01   5.1447970107e+01      1.09829    0.4852836 -82.78  0.003856916    3.329    0.700
        90 -11.5933     22.2607    101.3111   8.4254321121e+01   5.3207098770e+01    0.7548185    0.3118201  72.48    0.0026515    3.939    0.746
        91 -11.3582     20.8126     93.3663   8.3609580812e+01   5.5307819979e+01    0.4089724    0.1215454 -54.88  0.001594568    2.789    0.641
        92 -11.4554    180.1185    122.9889   4.4764071832e+01   2.0969551990e+01    0.4252994    0.2204844 -33.80  0.001744119    1.970    0.492
        93 -12.2860    150.0855    100.2783   4.5360207445e+01   3.2033680989e+01    0.8819718    0.2149202 -42.24  0.002392211    3.946    0.747
        94 -12.0484    128.5980    100.1601   5.0597694399e+01   3.6876967971e+01    0.5767246    0.2963522 -41.72  0.002241452    1.944    0.486
        95 -10.5685      6.5062    102.0337   8.9607120005e+01   5.4166656472e+01     0.204092    0.1017075 -79.25  0.001039665    1.615    0.381
        96 -11.2663    175.5206    100.5327   3.9955627489e+01   2.6128457588e+01    0.3259752    0.1457899 -37.00  0.001206645    2.154    0.536
        97 -11.6646    159.5581     99.3270   4.2966667803e+01   3.0042288065e+01    0.4805148    0.1446538 -40.74  0.001447784    3.178    0.685
        98 -11.8771    107.4162     92.7810   5.4353010478e+01   4.2995312451e+01     0.529318    0.3748202  11.69  0.002210378    2.220    0.550
        99 -11.5474     81.7880     97.9763   6.3597878514e+01   4.6573532381e+01    0.6021586    0.2019835 -58.72  0.001914541    3.168    0.684
       100 -11.8296     43.0959    120.7947   8.0357189955e+01   4.6306046612e+01    0.8362273     0.341098 -87.96  0.002766005    3.891    0.743
       101 -11.4535     95.1984     93.9837   5.8344155160e+01   4.5120330773e+01    0.7210236    0.2736556 -45.65  0.002476028    2.603    0.616
       102 -12.4895     63.2569     92.9954   6.8519164306e+01   5.0690236606e+01    0.9586027    0.3501288 -61.96  0.003403162    2.688    0.628
       103 -11.9386    164.9618     93.0893   4.0070096061e+01   2.9975191746e+01    0.4147736    0.2102251 -39.61  0.001619449    1.889    0.471
       104 -10.1353     57.8472     91.8761   7.0131831898e+01   5.1721335021e+01    0.1930521    0.1578055  79.67 0.0002433011    1.315    0.240
       105 -12.2936    108.3155     97.6833   5.5460496202e+01   4.1701621865e+01    0.5764461    0.4112854  86.82  0.002476773    1.985    0.496
       106 -12.6306    124.9993     87.5836   4.7929548194e+01   4.0364483351e+01    0.9067432    0.4081302 -36.29  0.003161364    2.470    0.595
       107 -11.2428     34.7936     86.5966   7.7330351689e+01   5.5748975058e+01    0.8556734    0.2212473 -63.36  0.002994066    3.011    0.668
       108 -11.7042      5.5083     88.4482   8.8432781523e+01   5.7571434486e+01    0.6571285    0.1478865 -62.42  0.002534067    2.953    0.661
       109 -11.9418    138.7670     89.9954   4.5128782985e+01   3.6726928963e+01    0.5967931    0.2708959 -42.35  0.002176391    2.136    0.532
       110 -11.4212    166.7222    101.6752   4.2068746518e+01   2.7937825065e+01     0.515904    0.1851424 -32.54  0.001558707    3.365    0.703
       111 -10.4987    188.3269     86.9930   3.3836198863e+01   2.5552855466e+01    0.2461421    0.1265827 -12.17  0.000704705    4.276    0.766
       112 -11.7548     85.9005     85.7801   5.8988729832e+01   4.8752222472e+01    0.4310049    0.2943541 -70.61  0.001855393    1.720    0.419
       113 -11.4082     86.9650     80.5188   5.7088065201e+01   4.9773478115e+01    0.3527667    0.2466903  16.56  0.001556724    2.034    0.508
       114 -12.2085    177.0826     91.8348   3.7270781683e+01   2.7349222765e+01    0.3615818    0.2166223 -30.89  0.001532836    1.685    0.407
       115 -11.2237     29.0988    121.3350   8.4670702431e+01   4.7614122617e+01    0.6640816    0.2139305 -80.62  0.002315776    3.448    0.710
       116 -12.5707     48.2244     81.6335   7.1192064366e+01   5.5486091950e+01    0.8311934    0.3209498 -60.14  0.003287601    2.236    0.553
       117 -11.5999    117.4995    123.8577   5.9473880202e+01   3.3906534087e+01    0.5253143    0.3082181 -61.05  0.002208455    1.889    0.471
       118 -11.3201    158.4997     81.5122   3.8074917559e+01   3.3690268563e+01    0.3352243    0.1506268 -36.67  0.001209611    2.160    0.537
       119 -11.0488     24.0494     79.8564   8.0120742557e+01   5.8405034691e+01    0.4105836    0.2107518 -88.67  0.001811327    2.327    0.570
       120 -12.1357     25.6131     73.0044   7.8118013968e+01   5.9959010976e+01    0.7870849    0.2985504 -32.78  0.002426038    5.436    0.816
       121 -10.5499     74.3672     78.7933   6.0860433810e+01   5.2387582095e+01     0.453207    0.1394664 -58.72   0.00126113    4.230    0.764
       122 -11.1547    174.5885     77.2748   3.3583495547e+01   3.0523037767e+01    0.3106979    0.1366884 -38.73  0.001139254    2.114    0.527
       123 -11.4516     58.5803    122.1632   7.5888165719e+01   4.4082308486e+01    0.6373765    0.2875775 -83.75  0.002201363    3.397    0.706
       124 -10.5006    172.5573    120.2924   4.5647451662e+01   2.3095319217e+01    0.2968635    0.1387861 -44.22  0.001140507    2.138    0.532
       125 -10.9810    167.5906     76.2345   3.4624127791e+01   3.2422052486e+01    0.2234681    0.1481312 -23.78 0.0009549528    1.668    0.400
       126 -12.1323    128.2428     72.6967   4.2404456079e+01   4.2662168713e+01    0.7312255    0.2793783 -35.78  0.002375614    2.766    0.638
       127 -10.6055     10.0448     74.6324   8.4764305425e+01   6.0698746909e+01    0.1673485    0.1471393 -65.38 0.0004482996    1.110    0.099
       128 -11.1732    140.4913     73.5420   3.9651555800e+01   3.9567591696e+01     0.344263    0.1520216 -37.55  0.001223986    2.211    0.548
       129 -11.6281     63.0000     70.9970   6.2666655932e+01   5.6015642582e+01    0.5505502    0.1816266 -48.54  0.001927509    2.707    0.631
       130 -11.0321    158.5755    119.8093   4.8530721339e+01   2.6219290916e+01    0.4485097     0.211069 -45.31   0.00171871    2.128    0.530
       131 -11.4304     81.7509     71.5191   5.6024889898e+01   5.2766107668e+01    0.4520415    0.2873848 -66.76  0.001940681    1.972    0.493
       132 -11.7735     82.1775     66.4849   5.4197098827e+01   5.3798746396e+01    0.5289785    0.3072905 -20.63  0.001881834    3.152    0.683
       133 -12.1153    141.6578    116.8498   5.1708214588e+01   3.0477636718e+01    0.9074351    0.3135022 -49.26  0.002878101    3.089    0.676
       134 -11.1863    119.2527     78.8850   4.6800826542e+01   4.3479093695e+01    0.4002002    0.2077957 -44.38  0.001563829    1.861    0.463
       135 -12.1439    104.4624     80.6821   5.1623800542e+01   4.6296133316e+01    0.7961037     0.291963 -46.49  0.002669174    2.614    0.617
       136 -10.9334    163.1240     70.3053   3.3700708440e+01   3.4568067961e+01    0.3113165    0.1869696 -19.56  0.001219982    2.100    0.524
       137 -10.4985    115.5130     70.5022   4.5099185856e+01   4.6041717149e+01    0.3433962    0.1493762 -40.80  0.001228318    2.228    0.551
       138 -11.7187    140.9978     81.3733   4.1992770794e+01   3.7931898951e+01    0.4489104     0.231723 -36.02  0.001717222    1.959    0.490
       139 -11.0936     94.8089     70.2121   5.1231595932e+01   5.0544611431e+01    0.3830087     0.191109 -52.81  0.001471008    2.111    0.526
       140 -10.9717    170.4877     70.0159   3.2183994046e+01   3.2781020564e+01    0.2444304    0.1482345 -33.25  0.001034378    1.598    0.374
       141 -11.4504     51.0012     67.0789   6.6183286605e+01   5.8632270163e+01    0.7521485      0.22447 -62.11  0.002219541    4.218    0.763
       142 -10.9809     16.5354     68.5758   8.0990789475e+01   6.1750146143e+01    0.4608222   0.09272173 -67.02  0.001527382    3.632    0.725
       143 -10.7309    170.5924     82.2253   3.5805327562e+01   3.0624722577e+01     0.225513    0.1470366 -24.33 0.0009572969    1.696    0.410
       144 -11.1521    146.9752     65.7317   3.5629258100e+01   3.9409643093e+01    0.4493828    0.2362431 -23.35   0.00161671    2.447    0.591
       145 -11.6468    203.5117     65.5013   2.5384942456e+01   2.5412081284e+01    0.3150263    0.1352861 -31.55  0.001204379    2.143    0.533
       146 -11.6849    150.2691     78.8697   3.9072481094e+01   3.6184352683e+01    0.4053655    0.2061286 -39.54  0.001562356    1.889    0.471
       147 -11.3435    130.6276    116.8417   5.4426256525e+01   3.2813748802e+01    0.5309147    0.2526369 -56.66  0.001904894    2.506    0.601
       148 -10.9641     70.8691    118.3666   7.1502936926e+01   4.3306615386e+01    0.3509367    0.1841443 -71.58  0.001468621    2.036    0.509
       149 -11.2760    110.1541     61.0585   4.3337658572e+01   4.9123831917e+01    0.5794547    0.2589488 -33.90  0.002065481    2.418    0.587
       150 -10.9181      2.4162    114.8014   9.2062723990e+01   5.1300517631e+01    0.6305055    0.1652527 -89.91  0.002018441    4.552    0.780
       151 -11.7365    186.0464    114.9915   4.1634040839e+01   2.1142688029e+01    0.4250489    0.2098158 -35.70  0.001716079    1.964    0.491
       152 -11.3036     73.2765     56.1754   5.3742720543e+01   5.7622426970e+01    0.8200468    0.2084416 -44.77  0.002464085    3.649    0.726
       153 -11.8646    192.9775    113.9369   4.0061810776e+01   1.9828427129e+01     0.375586    0.1989585 -43.17  0.001583525    1.860    0.462
       154 -11.3501    138.6118     64.2514   3.7039350939e+01   4.1752444687e+01    0.4709555    0.1987464 -28.37  0.001514818    2.938    0.660
       155 -10.2605     24.9945     57.0174   7.4559044607e+01   6.3855125137e+01    0.3437653     0.110625 -51.67  0.001389337    2.419    0.587
       156 -11.2409      7.8100     52.9637   8.1667257548e+01   6.6043756159e+01    0.7745238   0.04249978 -59.75  0.002484378    4.138    0.758
       157 -10.6511    157.4937     75.0101   3.6311376906e+01   3.5129606513e+01    0.2490517    0.1510642 -35.08  0.001038503    1.611    0.379
       158 -10.7197    100.1917     55.4734   4.4254783425e+01   5.2415580780e+01     0.289587    0.1803147 -17.57  0.001144284    2.295    0.564
       159 -11.9101    108.8447    111.8745   5.8983969399e+01   3.8336587120e+01    0.8065749     0.330745 -55.88  0.002799049    2.611    0.617
       160 -10.8248    121.7283     63.4327   4.0973323756e+01   4.5990227715e+01    0.5092861    0.2102997 -31.94  0.001675959    2.797    0.642
       161 -10.5995     62.9972     48.9993   5.5025274689e+01   6.0874595525e+01    0.4392992    0.1506237 -42.23  0.001554717    2.774    0.640
       162 -11.9609     45.2556     49.4676   6.2852595287e+01   6.3385010853e+01    0.4326237    0.2106104 -43.30 0.0006137236    1.870    0.465
       163 -11.2742     92.2005     44.2027   4.2328385540e+01   5.6236266368e+01     0.415168    0.1741011 -26.31  0.001295935    3.600    0.722
       164 -10.3031    113.5186     42.1911   3.5219120271e+01   5.1708976407e+01    0.4048864    0.2546355   3.01  0.001545425    2.631    0.620
       165 -11.0273     53.7005     50.2802   5.9422302404e+01   6.2044886174e+01    0.6771595    0.1539955 -52.47  0.001954592    4.349    0.770
       166 -10.4628    123.0149     41.6708   3.2597283749e+01   4.9466880521e+01    0.3204733    0.1964481   2.51  0.001178867    2.767    0.639
       167 -10.7323     17.1775     40.6478   7.3635587837e+01   6.8257781307e+01    0.3113903   0.07040028 -46.66  0.001097009    3.479    0.713
       168 -10.7361      4.8062     39.5953   7.9983447031e+01   6.9300381931e+01    0.3841479    0.1316084 -73.74  0.001524498    3.078    0.675
       169 -10.9381     82.8563     42.5689   4.4803092114e+01   5.8480135532e+01    0.6857151    0.2618266 -28.64  0.002037188    4.111    0.757
       170 -10.8258     27.4340     29.8346   6.4001211770e+01   6.9642185972e+01    0.3256887   0.07662058 -46.47  0.001146051    3.340    0.701
       171 -10.0080     12.6827     21.2911   6.9045571038e+01   7.2751812835e+01    0.1077302   0.09337086  79.87 0.0003005287    1.598    0.374
