#   1 NUMBER                 Running object number                                     
#   2 MAG_AUTO               Kron-like elliptical aperture magnitude                    [mag]
#   3 X_IMAGE                Object position along x                                    [pixel]
#   4 Y_IMAGE                Object position along y                                    [pixel]
#   5 X_WORLD                Barycenter position along world x axis                     [deg]
#   6 Y_WORLD                Barycenter position along world y axis                     [deg]
#   7 A_WORLD                Profile RMS along major axis (world units)                 [deg]
#   8 B_WORLD                Profile RMS along minor axis (world units)                 [deg]
#   9 THETA_WORLD            Position angle (CCW/world-x)                               [deg]
#  10 FWHM_WORLD             FWHM assuming a gaussian core                              [deg]
#  11 ELONGATION             A_IMAGE/B_IMAGE                                           
#  12 ELLIPTICITY            1 - B_IMAGE/A_IMAGE                                       
         1 -10.9218    110.5974     40.9499   2.1760704129e+01   5.2465993857e+01      1.14033    0.5864136 -37.11  0.004728112    1.993    0.498
         2 -12.3964     58.0668     29.8679   3.4218248374e+01   6.7141990534e+01    0.7511067    0.3885256 -27.80   0.00129164    2.564    0.610
         3 -12.2285    104.6569     13.1309   1.1533645865e+01   5.7678239130e+01    0.8072298     0.490195   6.17  0.001869331    2.663    0.624
         4 -12.5184    105.6774     20.0262   1.4313398086e+01   5.6635704302e+01    0.4141025    0.3336707 -75.69 0.0003246452    1.201    0.167
         5 -11.5252     20.2648     22.1946   5.4243975403e+01   7.5301123049e+01    0.5594257    0.3538831 -39.19  0.001802959    1.584    0.369
         6 -11.7283     35.5000     17.9508   3.9783161439e+01   7.3681160290e+01    0.6464933    0.3938444 -29.36  0.003185924    1.873    0.466
         7 -11.3655      6.6191     10.3708   6.0628243093e+01   7.9185528522e+01    0.5970286     0.393747  34.35  0.003272035    1.592    0.372
         8 -10.8576     12.9626      8.4036   5.2118664523e+01   7.8866037743e+01    0.3790753     0.260359 -67.49  0.001386827    2.096    0.523
         9 -12.0607     22.8287     11.1085   4.4634424775e+01   7.6990915430e+01    0.5909626     0.502621 -20.08  0.002961688    1.170    0.145
        10 -11.6746     15.2645     15.6331   5.4825455141e+01   7.7222024874e+01    0.5033848    0.3044766 -11.52  0.002420473    2.200    0.545
        11 -11.0250     17.1662     10.6354   4.9502216028e+01   7.7910252641e+01    0.2772707    0.2494898 -41.14 0.0008006538    1.212    0.175
        12 -10.9649     68.0849     19.1552   2.4120804546e+01   6.6432241118e+01    0.4184775    0.3537252 -79.08  0.002329223    1.315    0.239
        13 -11.9322    165.2165     17.7701   5.3906505031e+00   4.1339730857e+01    0.5396217    0.3021734  50.00  0.002538771    2.279    0.561
        14 -11.6292     86.3315     13.3875   1.5541685346e+01   6.2506201736e+01    0.7831725    0.5049323  16.85  0.003562162    2.276    0.561
        15 -10.7488     89.4888      8.4544   1.2361920969e+01   6.2186440934e+01    0.3542074    0.2301716 -39.63  0.001125323    1.619    0.382
        16 -11.0708    122.0408      5.6863   5.8528594809e+00   5.3755288658e+01    0.7374083    0.1891898 -48.95  0.002341777    3.956    0.747
        17 -11.0303    128.5234     12.4693   7.6072696079e+00   5.1365699951e+01    0.3505292    0.1996053 -63.49  0.001281264    1.742    0.426
        18 -12.4219    134.8813     15.1225   7.7648931312e+00   4.9402464868e+01    0.8429582    0.2623125  67.05  0.003086498    2.739    0.635
        19 -11.2801    227.9335     15.2120   5.3584356863e-01   2.7726316669e+01    0.3929583    0.1774132 -69.25  0.001353338    2.076    0.518
        20  -9.9714    218.3977     13.7020   6.7066719054e-01   2.9784339106e+01    0.2317124   0.08475671 -35.97  0.001084066    2.072    0.517
        21 -11.5672    192.0161      9.2117   1.0258644450e+00   3.5920447310e+01    0.5689551    0.2992727  -8.49  0.002447206    3.465    0.711
        22 -12.2989     49.0712     13.0148   2.8503504619e+01   7.1660665297e+01     0.692442    0.2650937  53.66  0.002762183    2.366    0.577
        23 -11.9722    212.1259      9.4568   3.5999759515e+02   3.1526926878e+01    0.5095366    0.3177907 -18.35    0.0024551    2.042    0.510
        24 -11.0885    120.5768     11.6793   8.3773903359e+00   5.3564873728e+01    0.3274296    0.1524187  74.15 0.0008872533    1.921    0.479
        25 -12.2640    167.7336      9.6597   2.7823965628e+00   4.1593086982e+01    0.6089899    0.2681011  74.39  0.002546876    2.116    0.527
        26 -10.6778    164.6649      4.5040   1.4855665250e+00   4.2862254809e+01    0.3566585    0.2414787  18.37  0.001577235    2.462    0.594
        27  -9.9209     64.3592      2.1034   1.5249810388e+01   6.9251505407e+01    0.2333893    0.1794475  18.38 0.0006020159    1.511    0.338
        28 -11.2230     64.2484     10.1293   2.0253162835e+01   6.8469299699e+01    0.2947519    0.2547171  76.02 0.0003470682    1.136    0.119
        29 -10.2621     64.5127      6.5653   1.7982177940e+01   6.8784978173e+01    0.2477843    0.2082749 -67.49  0.001139774    1.319    0.242
        30  -9.7779     61.6462      6.3151   1.8804193643e+01   6.9515080378e+01    0.2587349    0.1728533  65.75 0.0005954227    1.371    0.270
        31 -11.7920    156.8346      7.7015   3.0564357374e+00   4.4499291699e+01    0.4429182    0.2448719  51.67  0.002105821    2.208    0.547
        32  -9.7771      1.0000      8.4781   6.6317108836e+01   8.0024668402e+01    0.2590228   0.06615918 -63.56  0.000931139    3.906    0.744
        33 -11.6727    184.6963      6.5241   7.5426052741e-01   3.7870973703e+01    0.3921359    0.1707651 -51.43  0.001899028    1.828    0.453
        34  -9.9169     78.0355      7.5186   1.4572385819e+01   6.5269205287e+01    0.2239888    0.1873253 -60.82  0.000618986    1.269    0.212
        35 -10.0381     76.4168      3.7911   1.2925476026e+01   6.6037285395e+01     0.244442    0.1684062  51.59  0.001287198    1.362    0.266
        36 -10.7225     73.0136      2.9852   1.3333609563e+01   6.6984136030e+01     0.502126     0.214755  40.14  0.001958955    2.792    0.642
        37  -9.6727    231.6572      6.0601   3.5837067711e+02   2.7972156312e+01    0.1621079    0.1119849 -48.52 0.0005755019    1.093    0.085
        38 -10.2915    233.7224      2.7738   3.5758717443e+02   2.7911427640e+01    0.3422965    0.1136569 -53.60  0.001234042    2.102    0.524
        39 -11.1475    176.0367      5.7426   1.0776912381e+00   3.9984206620e+01    0.3118239    0.1823394 -73.83 0.0009421408    1.488    0.328
        40 -10.0528    144.9761      9.9975   4.8734072176e+00   4.7298827756e+01    0.2041351    0.1549221  45.08 0.0005660355    1.645    0.392
        41 -11.9729    137.8516      4.1678   3.5808366828e+00   4.9716366805e+01     0.570907    0.2520789  70.39 0.0004477756    2.009    0.502
        42 -12.1495    133.1356      2.5616   3.4695158574e+00   5.1098189974e+01     0.496288    0.3107123  75.08  0.001986559    1.428    0.300
        43 -11.4916    114.3054      2.9322   5.7254865491e+00   5.6067423744e+01    0.5429485    0.2959312 -77.12  0.002089961    1.856    0.461
        44 -10.8962     41.8247      3.6140   2.5477812706e+01   7.4413577015e+01     0.448662    0.2419821  31.66  0.002048459    2.208    0.547
        45 -10.0500    242.5022      3.9551   3.5753011128e+02   2.6157577004e+01    0.2534926   0.09126835 -67.97  0.001280247    2.533    0.605
        46 -10.2304    218.6775      3.8135   3.5839220826e+02   3.0760578690e+01    0.1870306    0.1435665  89.41 0.0008193543    1.360    0.264
        47 -10.5097    223.6880      2.6514   3.5793087915e+02   2.9872276939e+01    0.2306442    0.1575332 -65.07 0.0002797073    1.151    0.132
        48 -10.8084    207.4943      2.5320   3.5856922244e+02   3.3210303747e+01    0.2909091    0.1804434  88.17  0.001767491    1.547    0.354
        49  -9.8286    204.1978      1.5962   3.5848926031e+02   3.4007399949e+01    0.2636673     0.128617  86.38  0.001405012    1.964    0.491
        50 -10.4710      2.0434      2.0722   6.0573207286e+01   8.1214477582e+01    0.2543765    0.1635087 -31.12  0.001331327    1.488    0.328
        51 -10.6345    105.3481      1.8105   6.4652567727e+00   5.8559806891e+01    0.3171168    0.1799348 -89.00  0.001216875    1.682    0.406
        52  -9.6031     12.7639      2.2007   4.7168729601e+01   7.9966359463e+01    0.1739335     0.131982  -0.68 0.0005073933    1.346    0.257
        53  -9.4569    245.7861      1.3094   3.5688077920e+02   2.5827375294e+01    0.1255104   0.08858956  86.84 0.0002986843    1.559    0.358
        54 -10.0227    152.3553      1.4517   1.4426593166e+00   4.6227747789e+01    0.2563836    0.1162535  82.51 0.0006261799    1.983    0.496
        55 -10.0186    123.0027      1.3208   4.0557207056e+00   5.3885999140e+01    0.3237705    0.1114882  76.98  0.001223769    2.537    0.606
        56  -9.7727     82.0461      1.3388   1.0294901515e+01   6.4784862578e+01    0.2082061    0.1147384  72.12 0.0004366914    1.590    0.371
        57 -12.2405      2.4614    111.6565   8.5712365580e+01   5.3647456707e+01    0.6593617    0.3713411  50.48  0.001272766    1.690    0.408
        58 -10.0481    249.5118    250.4543   4.1858837493e+01  -5.4919464080e+00    0.1190676    0.1071296  12.36 0.0005770815    2.031    0.508
        59  -9.9204    239.4882    250.4636   4.3308014923e+01  -4.6545938535e+00   0.09852614   0.06638899  -2.67 0.0004837903    1.008    0.008
        60  -9.3214    202.3035    250.3515   4.9144180884e+01  -1.2129245519e+00    0.1098474   0.06226935  -4.62  0.000704031    1.703    0.413
        61 -11.5962      4.6481    106.5845   8.4415992006e+01   5.4934216920e+01    0.7100125    0.4225712  74.49  0.003358816    1.613    0.380
        62 -10.4352     12.4160    111.2777   8.1469976835e+01   5.3135580928e+01    0.6109481    0.1819346 -77.83  0.002031347    3.059    0.673
        63 -11.1254     16.5372    109.7226   7.9545305866e+01   5.3264336298e+01     0.334122    0.2219059  41.74 0.0002310909    1.461    0.316
        64  -9.5737     48.7457    111.9857   6.6306708603e+01   4.9151848957e+01    0.2174534    0.2000838  79.40  0.000651164    1.024    0.023
        65 -11.8795     80.1683    108.0095   5.3401772739e+01   4.5079411927e+01    0.4109498     0.340185  28.88 0.0006984378    1.312    0.238
        66  -9.6190     85.8598    103.4772   5.0255924406e+01   4.5138866220e+01    0.2336465      0.15491  41.45 0.0005640543    1.486    0.327
        67 -10.9200     50.7037    100.2826   6.3121952571e+01   5.2090950485e+01     0.655727    0.4031632 -34.16  0.002641721    2.156    0.536
        68 -11.7980      9.0457     96.9959   8.1560806443e+01   5.7342308292e+01    0.4951503    0.3973505  43.60 0.0005164539    1.252    0.201
        69 -10.0355     16.3861     95.6498   7.7926039582e+01   5.7211577357e+01    0.3081838    0.1896347  83.12  0.001405756    1.664    0.399
        70 -11.8538    247.7789     96.1204   1.6185713076e+01   1.3998737041e+01    0.3961019    0.2425282 -17.42  0.002256388    2.028    0.507
        71 -10.4363    210.2369     98.3175   2.0983771398e+01   1.9973463743e+01    0.2198972     0.171003 -41.71 0.0003573591    1.080    0.074
        72 -12.0577     67.2203     95.0175   5.4994464159e+01   5.0818253659e+01    0.4715904    0.4023724  29.71  0.001341497    1.247    0.198
        73  -9.6679     77.6848     96.6551   5.1387863951e+01   4.8457283666e+01    0.2992791    0.1608826  32.75  0.001124763    2.054    0.513
        74 -10.2949     78.5569     92.9184   5.0032626656e+01   4.9228886508e+01    0.7069769    0.3152407  45.03  0.002521287    2.201    0.546
        75 -10.6252     30.0405     96.8350   7.1672923412e+01   5.5642052089e+01    0.2614241    0.2032462 -70.63 0.0005303554    1.225    0.184
        76 -11.9921    126.0208     94.5608   3.5684427689e+01   3.8512411436e+01    0.2690776    0.2452463 -63.73  0.000193013    1.064    0.060
        77 -10.8978     23.2282     94.3650   7.4473496168e+01   5.6997132963e+01    0.3803436    0.3149332 -41.03  0.001645308    1.290    0.225
        78 -10.5851     19.1964     91.8324   7.6031854527e+01   5.8050079039e+01     0.322172    0.2350294  78.65  0.001601587    1.385    0.278
        79 -10.9852     27.1699     85.9130   7.1053303009e+01   5.8953727775e+01    0.5896671    0.5528192 -12.63  0.001781555    1.160    0.138
        80 -10.7121     18.8069     86.3178   7.5367069479e+01   5.9606671693e+01    0.4621626    0.3150123 -21.87  0.002207963    1.745    0.427
        81 -12.0589     42.4950     91.1030   6.4729095326e+01   5.5735770544e+01     0.529515    0.4201864  67.26 0.0008738477    1.318    0.241
        82 -10.4381     98.2323     91.0057   4.2643390089e+01   4.5581764768e+01    0.2530996    0.2164828  56.54 0.0003626026    1.140    0.123
        83 -10.3843     35.5107     92.6339   6.8322337694e+01   5.6194520462e+01    0.3544899    0.2670223  89.91  0.001523906    1.372    0.271
        84 -11.6908      6.5305     88.6669   8.1898360112e+01   5.9793417865e+01    0.6966721    0.3222159  21.23  0.002965844    2.208    0.547
        85 -10.1545      9.4754     86.5152   8.0160072398e+01   6.0216252216e+01    0.3560203    0.2360246  66.61  0.001256297    1.551    0.355
        86  -9.4659     67.0404     88.3609   5.3252946118e+01   5.2565117924e+01    0.2195542    0.2007192  45.36 0.0006160611    1.093    0.085
        87  -9.7371     89.9674     85.4710   4.3733662165e+01   4.8676970351e+01    0.3792765    0.2120944 -62.24  0.001430097    2.112    0.526
        88 -10.1545     52.0669     87.0283   5.9345439190e+01   5.5445604588e+01    0.2263295     0.214312 -87.35 0.0003616108    1.025    0.024
        89 -11.4913     45.3184     84.3767   6.1788739749e+01   5.7154121508e+01    0.4845875    0.4009707  16.55 0.0009583366    1.332    0.249
        90 -10.1443     37.5962     85.6816   6.5826446742e+01   5.7837984677e+01    0.3636858     0.250463   0.85  0.001627768    1.862    0.463
        91 -10.1725    143.1339     84.2448   2.8738653431e+01   3.6620473679e+01    0.2432791    0.2013273 -49.24  0.000465704    1.162    0.139
        92 -12.5509     75.5269     79.1412   4.7063526840e+01   5.3210618461e+01    0.6887972    0.4676963  69.71  0.002880703    1.865    0.464
        93  -9.7072     67.4411     80.8509   5.0874581308e+01   5.4378678764e+01    0.3749176    0.2826588 -12.35  0.001631364    1.930    0.482
        94  -9.2481    113.6498     83.3181   3.5693677746e+01   4.3784756223e+01    0.1676164    0.1215127 -87.93 0.0003540834    1.736    0.424
        95  -9.1770     59.6568     83.2947   5.4935498759e+01   5.5170757572e+01    0.1637999    0.1165034  67.80 0.0007030932    1.662    0.398
        96 -10.6044     89.4978     77.6820   4.1428088625e+01   5.0574470955e+01    0.4224248    0.3116626  53.20  0.001099539    1.327    0.246
        97 -10.0537     94.4837     76.1968   3.9250561825e+01   4.9783246550e+01    0.3057198    0.2463553  38.50 0.0007823557    1.340    0.254
        98 -10.7534     53.5186     76.2406   5.5635900255e+01   5.8003994436e+01    0.6021033    0.3229612 -64.70  0.002388172    2.020    0.505
        99 -11.4490    248.2007     77.5902   1.2420285150e+01   1.6424132223e+01     0.212135    0.1763817 -10.36  0.001344287    1.510    0.338
       100  -9.8406     58.1438     77.5978   5.3916858659e+01   5.6876910822e+01    0.2497224     0.209833 -77.95 0.0005062938    1.246    0.197
       101 -10.0261     46.6205     75.4277   5.8719049638e+01   5.9303350673e+01    0.3439659    0.2033802 -45.61  0.001142169    1.780    0.438
       102 -11.1305     13.8880     74.7227   7.6063015494e+01   6.3145385669e+01     0.377489    0.2947481  86.74  0.001903232    1.285    0.222
       103 -11.3357     27.0353     73.3792   6.8445329000e+01   6.2352663419e+01     1.115429    0.4742662   7.06  0.003622894    3.754    0.734
       104 -10.5511     39.7900     73.3882   6.1598847466e+01   6.0811704538e+01    0.4916568    0.2591097  20.93  0.001474273    2.195    0.544
       105 -11.8049     40.8317     69.0452   5.9786202913e+01   6.1781768651e+01    0.3510657    0.3104738  14.24 0.0005069685    1.204    0.170
       106 -10.7385      2.0024     71.5021   8.2374456803e+01   6.4679807758e+01    0.4081359    0.2128663 -70.99  0.001887936    1.701    0.412
       107  -9.9487     80.9075     72.7647   4.2885120952e+01   5.3570710786e+01    0.3189984    0.2274176 -58.04  0.001441382    1.456    0.313
       108 -10.3136    122.6161     68.9060   2.8778168843e+01   4.4530495239e+01    0.3924799    0.2142488  56.49  0.001448645    1.803    0.445
       109  -9.9920     13.6384     67.4052   7.4867222981e+01   6.5121473253e+01    0.3365169    0.1397266  13.11  0.001307309    2.649    0.622
       110  -9.6700     96.4913     65.5654   3.4946088307e+01   5.1574515216e+01    0.2391976    0.2197621  83.70 0.0004974842    1.042    0.040
       111 -11.0792     92.4851     62.5020   3.5136184640e+01   5.3150438693e+01    0.4460103    0.2958248  65.44 0.0006515683    1.630    0.387
       112 -10.4289     14.0357     56.2856   7.2194548582e+01   6.7992381907e+01    0.3129503    0.2191149 -26.22  0.000459406    1.524    0.344
       113 -12.5127      5.8103     61.6953   7.8658184734e+01   6.7107133244e+01    0.7210464    0.4505844 -12.01  0.003570372    1.784    0.440
       114 -10.5864      9.5293     56.5266   7.5248731803e+01   6.8241534574e+01    0.3026393    0.2332454  44.93  0.001198408    1.393    0.282
       115  -9.4060    202.0097     64.7861   1.4195898768e+01   2.6679228725e+01    0.1596009     0.105425  70.53 0.0004616196    1.683    0.406
       116 -10.0971    158.7398     63.0146   1.9653961318e+01   3.6673065981e+01    0.2596158    0.1991634  58.06 0.0002688594    1.388    0.280
       117  -9.5250    104.9837     63.5347   3.1647561000e+01   4.9924344460e+01    0.2346217     0.149124  57.03 0.0004909147    1.530    0.346
       118 -11.7277     41.8658     58.8022   5.5862143981e+01   6.4165092756e+01    0.8066553    0.5285279  67.60  0.003484286    2.133    0.531
       119 -11.5751     46.4836     59.4665   5.3590471631e+01   6.3279006263e+01    0.7724364    0.2986614  45.65  0.002673753    2.818    0.645
       120  -9.7264    113.5169     60.9717   2.8405990960e+01   4.8293167880e+01    0.2340298    0.1524888 -40.21  0.001028228    1.585    0.369
       121 -10.7064     31.5836     53.2549   5.9932966626e+01   6.6949744519e+01    0.5260574    0.2432624  21.71   0.00192273    2.467    0.595
       122 -10.0522     29.7321     59.5886   6.3159713270e+01   6.5620079658e+01    0.3762717    0.2480288  89.87  0.001703395    1.957    0.489
       123 -10.0845     26.0134     59.4998   6.5396716271e+01   6.6066345756e+01    0.3681086    0.2081877  28.44  0.001410591    1.766    0.434
       124 -10.8162     25.5452     55.6328   6.4521285185e+01   6.7088426314e+01    0.4049621    0.2320355 -45.64 0.0008553434    1.730    0.422
       125 -10.1959     88.0005     55.7738   3.4091906837e+01   5.5554853627e+01    0.5284568    0.2022866 -35.01  0.001640742    3.466    0.712
       126 -11.6251     76.5214     53.1878   3.7237803905e+01   5.8732178634e+01    0.6204547    0.3763811 -34.32  0.000766382    1.943    0.485
       127 -11.5436     72.6380     47.1440   3.6222245156e+01   6.0793030348e+01    0.5988166    0.2928263 -54.10  0.002246674    2.488    0.598
       128  -9.9306    124.5301     56.5670   2.4217062888e+01   4.6294447016e+01    0.2959427    0.1472015 -38.73 0.0009277267    2.023    0.506
       129  -9.5534     91.4812     57.4484   3.3572663491e+01   5.4396143435e+01     0.156308    0.1441866  81.34 3.415545e-05    1.035    0.034
       130  -9.9179    118.2526     56.4234   2.5629176572e+01   4.7919398903e+01    0.3660301     0.149175  68.12  0.001139776    3.240    0.691
       131  -9.5593     50.7672     56.4464   5.0207404421e+01   6.3258111027e+01     0.207237    0.1431236  23.84 0.0009442194    1.651    0.394
       132  -9.0221     33.8936     57.0000   5.9824239921e+01   6.5737665604e+01    0.2337555   0.08127998  28.64 0.0007974545    2.908    0.656
       133 -10.1827     60.4944     52.0226   4.3613502452e+01   6.2402150564e+01    0.4590773     0.254117 -62.79  0.001778019    2.437    0.590
       134 -10.5030     61.3258     46.3315   4.0762800161e+01   6.3407149656e+01     0.478004    0.3459658  -1.70  0.002106055    2.151    0.535
       135 -11.9854     43.2530     44.3117   4.9282672762e+01   6.7253154109e+01    0.5902718     0.565787 -89.75 0.0007391885    1.125    0.111
       136  -9.7150    243.5261     51.4498   7.4020861271e+00   2.0581182882e+01    0.1195663   0.08796328 -48.77 8.459255e-05    1.013    0.013
       137 -10.0282    122.6788     44.9351   2.0548150233e+01   4.8691750558e+01    0.2586215    0.1956467  58.89  0.000632869    1.307    0.235
       138  -9.8622    219.6428    247.1785   4.5901526870e+01  -2.5231661330e+00    0.2524497   0.06546886 -31.07  0.001113683    4.293    0.767
       139 -11.8871    117.0982     45.3713   2.1926582273e+01   5.0075566078e+01    0.7295924    0.5385583  -9.05  0.003348641    1.972    0.493
       140 -10.8713    120.4441     40.5189   1.9409793541e+01   4.9954469746e+01    0.2720323    0.2243245 -45.71 0.0005866223    1.232    0.188
       141 -11.8016    119.1183     36.8840   1.8331113204e+01   5.0840251993e+01    0.4838287    0.3356349 -67.20  0.001328436    1.508    0.337
       142  -9.5450     10.7565     51.5912   7.3281501331e+01   6.9422189722e+01    0.1728311    0.1242202  29.03 0.0002806414    1.445    0.308
       143 -11.2321    155.0008     48.8580   1.6045772002e+01   3.9813812063e+01    0.2614642    0.1984275 -38.69 0.0003669736    1.318    0.241
       144  -9.4124    144.8213     50.2542   1.8129704281e+01   4.2156770259e+01    0.1846356    0.1725538  39.39 0.0005156575    1.310    0.237
       145  -9.5538     55.4582     50.4410   4.5383379022e+01   6.3727173272e+01    0.2202892    0.1775773  46.87 8.665825e-05    1.215    0.177
       146  -9.6356     51.8709     48.3783   4.6327641130e+01   6.4846286046e+01    0.2297529    0.1972415   4.81 0.0005992173    1.337    0.252
       147  -9.3073    189.1939     49.5966   1.1813273207e+01   3.1612710571e+01    0.1617509    0.1223286  62.46 0.0002538908    1.489    0.329
       148  -9.7759      1.9225     48.8743   7.9004132804e+01   7.0591742167e+01    0.2096858    0.1628594 -41.34 0.0007801987    1.212    0.175
       149 -11.2058     20.8341     45.8855   6.4471711872e+01   6.9975038355e+01    0.3830021    0.2603289 -44.20 0.0007747675    1.426    0.299
       150 -10.6680     31.4708     44.6432   5.6726037836e+01   6.8989492054e+01     0.400943    0.2356038  33.88  0.001733554    1.675    0.403
       151 -10.5567     26.1810     42.8114   5.9562188249e+01   7.0096907134e+01    0.3284796    0.2719033 -76.07  0.001059587    1.356    0.263
       152 -10.3735     23.7813     37.5032   5.9079112204e+01   7.1598796016e+01    0.4477482    0.1772716  41.58  0.001730773    2.763    0.638
       153 -10.2095     13.2256     46.2968   7.0090757257e+01   7.0564218758e+01    0.2937718    0.1908029 -32.18  0.001137498    1.588    0.370
       154  -9.9735    146.3345     45.1487   1.6250245583e+01   4.2548657382e+01    0.4211737    0.1699072 -49.04  0.001325081    2.435    0.589
       155  -9.7641    200.2029     45.3891   9.6090592350e+00   2.9778222909e+01    0.1822613    0.1129168 -86.67 0.0009585273    1.728    0.421
       156  -9.5354    140.3686     43.7828   1.6795944043e+01   4.4278279492e+01    0.2073797    0.1694766 -87.18 0.0005629928    1.136    0.119
       157 -10.0441    156.1189     42.5930   1.3969871231e+01   4.0451912036e+01    0.2670971    0.2051915 -31.23  0.001409284    1.417    0.294
       158 -10.5693     98.2792     41.5155   2.5154587942e+01   5.5561687826e+01    0.2906189    0.2349022 -85.36 0.0001847751    1.288    0.224
       159 -10.0518     56.9898     41.9504   4.0825901887e+01   6.5167109309e+01    0.2988442    0.2008547  51.37  0.001091167    1.481    0.325
       160  -9.6251     17.9504     41.1210   6.4879070729e+01   7.1399431412e+01    0.2785904     0.138573 -41.32  0.001150786    2.050    0.512
       161 -11.0559      3.8674     35.8556   7.4452794213e+01   7.3717545152e+01    0.4311045    0.3647766  76.28  0.002608933    1.340    0.254
       162 -11.3590     78.8244     35.4307   2.8571974005e+01   6.1416319848e+01    0.7612867    0.5106592 -33.30  0.003609563    1.642    0.391
       163 -11.1709     60.5486     36.6893   3.6580914641e+01   6.5413152101e+01     0.392884     0.308191 -17.21 0.0005128745    1.563    0.360
       164  -9.4820     16.6750    248.6528   8.7284471623e+01   1.9510383926e+01    0.1021973   0.08586897 -19.39  0.000704977    1.747    0.427
       165 -11.5866     48.9279     30.3442   3.9112539832e+01   6.8970214438e+01    0.7628595    0.3869742  42.56  0.002474506    1.889    0.471
       166 -10.4757    153.2667     35.8927   1.2290412452e+01   4.2099792022e+01    0.2548287    0.1913013  69.13 0.0006299171    1.323    0.244
       167 -11.1535    175.1028     31.9043   8.5239716200e+00   3.7242550403e+01    0.5387216    0.4251548 -21.82  0.002724084    1.530    0.346
       168  -9.6998    229.9754    243.4742   4.3798175627e+01  -3.0722097697e+00    0.1480176   0.07909346  22.29  0.001043236    1.625    0.385
       169  -9.0465    172.6774    242.6525   5.3390032918e+01   2.8787633484e+00    0.1178367   0.07140061  -3.48  0.000704947    1.741    0.426
       170 -12.5142    104.2555     32.6711   1.9951973624e+01   5.5361339320e+01    0.7775294    0.3699489  51.99 0.0001290944    2.059    0.514
       171 -12.4839    114.3768     25.0370   1.4682457085e+01   5.3703864980e+01     1.024028    0.3436779  61.09   0.00252145    2.571    0.611
       172 -10.1962    217.0169     32.1970   5.0407485449e+00   2.7948008128e+01    0.2024576    0.1409452 -46.28 0.0002631907    1.140    0.123
       173 -10.2163     68.2398     32.6401   3.1213929560e+01   6.4389583380e+01    0.4783384    0.2562354  61.69  0.001984972    2.009    0.502
       174 -10.6777      8.8601     30.5850   6.8373073730e+01   7.4641954231e+01    0.4627346    0.3125846  13.59  0.002544998    1.491    0.329
       175 -10.3450    135.7971     30.3274   1.2982574695e+01   4.7347873514e+01    0.2556054     0.239715   3.10  0.001171498    1.361    0.265
       176 -11.6531     26.5700     28.1389   5.2446362925e+01   7.3246119638e+01    0.4952484    0.3288814 -63.26  0.002036164    1.812    0.448
       177  -9.6687     67.4569    241.0360   7.5470680524e+01   1.5641479531e+01    0.1528731     0.121359 -76.39 0.0007566345    1.558    0.358
       178 -11.2011    157.9495     29.3088   9.6495495620e+00   4.1778015538e+01    0.4025177    0.2318778  82.48 0.0008644353    1.697    0.411
       179 -11.8142    164.2825     27.6634   8.4338897541e+00   4.0404479967e+01    0.4645032    0.2913589 -59.18 0.0004510083    1.428    0.300
       180 -11.9525    125.7671     27.9784   1.3766072793e+01   5.0298861829e+01    0.5425791    0.3798841 -86.06   0.00190575    1.396    0.284
       181 -11.1152    188.7079     27.2735   5.9933822397e+00   3.4639143912e+01    0.3164219    0.2536743  56.08  0.001207682    1.556    0.357
       182 -11.3694    183.3410     25.7699   6.0490186857e+00   3.6056915137e+01    0.3993477    0.2111918 -59.04  0.001408422    1.681    0.405
       183 -10.5934    230.6241     27.0386   3.0019796261e+00   2.5883560031e+01    0.2152745    0.1620714  75.06 0.0008774482    1.558    0.358
       184 -11.6212    145.3401     25.8740   1.0117286285e+01   4.5424593556e+01    0.4905924    0.2743115 -87.87  0.002198897    1.852    0.460
       185 -11.2321    155.2437     22.6624   7.8925220968e+00   4.3273603260e+01    0.4130447    0.2884777 -34.49  0.002201451    1.456    0.313
       186 -11.4179    149.8423     22.1235   8.3346775647e+00   4.4715285660e+01    0.3639181    0.1927007  73.69  0.001679228    1.762    0.433
       187  -9.7548    170.6143     23.4607   6.5567674157e+00   3.9360606819e+01    0.2552558    0.1224342  75.53 0.0005619719    2.013    0.503
       188 -11.1527    134.8103     22.1702   1.0270345779e+01   4.8623534039e+01    0.4190767    0.2310084  87.61  0.001858282    1.829    0.453
       189 -10.8960    139.7602     21.3988   9.3347162806e+00   4.7414451656e+01    0.3040831    0.1803699  61.40 0.0009344744    1.662    0.398
       190 -10.2970     38.7630     22.0047   4.0247701937e+01   7.2393687053e+01    0.3244797    0.2021547 -37.10  0.001087161    1.699    0.411
       191 -10.5576    147.3863    239.3413   5.7876838354e+01   6.2847221478e+00    0.1949044    0.1830294  60.36 0.0009484379    1.509    0.337
       192  -9.1886    224.1538     22.3667   2.3336645042e+00   2.7673178301e+01    0.1572714    0.0932847 -76.62 0.0003767627    1.600    0.375
       193 -10.9841    178.8582     20.8482   5.0808225735e+00   3.7688461444e+01     0.419364    0.2426223  46.19  0.001999569    2.468    0.595
       194  -9.9940     13.7843     22.6576   6.0318711072e+01   7.5959065366e+01    0.2118225    0.1514424  30.10 0.0002930583    1.405    0.288
       195 -10.1553    131.9989    240.7541   6.1199467180e+01   7.9267638543e+00    0.1620637   0.08220964  28.53 0.0007190881    1.569    0.363
       196  -9.4180    218.5351    231.5035   4.3928858825e+01  -6.0503458838e-01    0.1063417   0.07787781  -2.33 9.630045e-05    1.003    0.003
       197 -10.0785      5.2964     22.3686   6.8422252158e+01   7.6756297979e+01    0.2281848    0.1751727  20.92  0.001369277    1.323    0.244
       198 -10.6560      8.8756     19.8748   6.3639473195e+01   7.7019699099e+01    0.3017707    0.1944827 -15.24  0.001608472    1.668    0.401
       199 -10.3850    248.5417    223.4399   3.8252800139e+01  -2.5670922582e+00    0.2040872    0.1573283 -33.11  0.001666905    1.688    0.408
       200  -9.7759     44.7900    215.3770   7.9144870616e+01   2.3316076681e+01    0.1818797    0.1126032  18.15 0.0009473957    1.696    0.410
       201 -10.6274      9.3805    211.6071   8.7893824954e+01   2.7660824751e+01    0.2474885     0.163358  42.45  0.001156607    1.174    0.148
       202  -9.1577    164.4961    211.4855   5.0687267454e+01   8.4357488730e+00    0.1228892    0.1022626   8.68 0.0008105059    1.001    0.001
       203  -9.8052    216.6828     20.0188   2.2260713069e+00   2.9437070408e+01    0.1751191    0.1249506 -48.98 0.0004022612    1.099    0.090
       204  -9.0386    171.6342    208.7101   4.8865494815e+01   7.9378094985e+00    0.1274372   0.08243217  -0.49 0.0007025235    1.705    0.414
       205  -9.9017     46.6374     20.1378   3.4396799004e+01   7.1149145983e+01    0.2314001     0.183688  58.09 0.0006716805    1.295    0.228
       206  -9.5347     79.0117    205.3296   6.9546849423e+01   2.1303143855e+01    0.2644714    0.1496595 -86.62  0.001211659    2.444    0.591
       207  -9.3775    232.6296    190.7951   3.5535740830e+01   2.9957659536e+00    0.1513677   0.08748362 -38.96 0.0009513007    1.682    0.405
       208  -9.7703     74.7724     19.2549   2.1863188214e+01   6.4771838554e+01    0.1943705    0.1578392  33.86 0.0007070311    1.346    0.257
       209 -10.2035    211.0399     16.1305   1.6366291398e+00   3.1036242310e+01    0.1996978    0.1420786 -45.71 0.0002748331    1.162    0.139
       210  -9.2867    199.1881     17.6070   2.7206944713e+00   3.3414899048e+01    0.1596333    0.1080353  71.50 0.0006071315    1.602    0.376
       211 -11.7355      4.8062    184.0405   8.8237302917e+01   3.4399277295e+01    0.5839237    0.3560475  74.60   0.00235646    1.459    0.315
       212  -9.3949     28.2317    175.9906   8.1046922835e+01   3.4277697226e+01    0.1769235    0.1097607 -84.13  0.000471513    1.615    0.381
       213 -10.6806    126.9951     16.7130   9.3900502445e+00   5.1318302225e+01    0.2760624    0.2141581  58.12  0.000608014    1.347    0.258
       214 -10.3372     15.8575    174.1023   8.4626092735e+01   3.5926211652e+01    0.2326766    0.1545428  57.25  0.001238683    1.274    0.215
       215  -9.2016    238.2940     16.3113   2.8577142000e-01   2.5640102484e+01   0.09445728   0.08820841  -2.41  0.000246753    1.592    0.372
       216  -9.0831     65.3119    168.6966   6.9160998851e+01   3.1668656154e+01    0.1571704   0.09857464  58.47 0.0007019638    1.612    0.380
       217  -9.0598     93.5108     16.4951   1.5341091939e+01   6.0274711434e+01    0.1442688    0.1286566  74.80 0.0008104362    1.026    0.025
       218 -11.0361    186.4612     14.9995   2.9056016135e+00   3.6569253274e+01     0.235384    0.1688223 -83.61 0.0003840021    1.255    0.203
       219 -12.0330      8.9590    166.8936   8.6363936897e+01   3.8336227205e+01    0.7772231    0.3124365 -60.30  0.003180618    2.730    0.634
       220 -11.5162     14.4502    159.4710   8.4265332766e+01   3.9807885847e+01    0.3690656    0.3362169 -53.48  0.001224871    1.303    0.233
       221 -10.3268     13.6886    156.3000   8.4328698913e+01   4.0705326985e+01    0.2368849    0.1639638  42.27 0.0004354053    1.283    0.221
       222 -10.0226    205.1771    163.4304   3.5085638081e+01   1.0438375626e+01    0.2290807    0.1528293 -34.64  0.000808886    1.329    0.248
       223  -9.8590     31.4994    156.9990   7.8553016914e+01   3.8850892182e+01     0.222981   0.09786956  70.10 0.0008106927    2.631    0.620
       224 -11.4953     47.0191    148.3626   7.2469713885e+01   3.9382757383e+01    0.7293161    0.4751685 -55.67  0.002857635    1.645    0.392
       225 -12.7371     22.8783    148.6859   8.0739257811e+01   4.1930652402e+01    0.6237963    0.3464431 -41.54  0.001553537    2.352    0.575
       226 -10.5122     16.8130    147.8755   8.2751912079e+01   4.2690068536e+01    0.3216418    0.2153017  88.07 0.0004141074    1.397    0.284
       227  -9.4735      4.5318    153.4819   8.7172510853e+01   4.2152551427e+01    0.1414214    0.1160631  63.08 6.908529e-05    1.028    0.027
       228  -9.4838     55.4950    152.5578   7.0179136496e+01   3.7165847147e+01    0.1501022    0.1370966  58.31 0.0001964855    1.027    0.026
       229  -9.7805    104.0603    147.1000   5.4237024951e+01   3.0843373719e+01    0.2147262    0.1976121  -6.68            0    1.232    0.188
       230 -11.5296      3.8764    142.4760   8.6892549869e+01   4.5126052190e+01    0.7175056     0.261694  42.08  0.002413801    2.286    0.563
       231 -10.5382     33.2075    144.4654   7.6781984231e+01   4.2042347085e+01    0.2866645    0.2368723  79.78 0.0008122774    1.125    0.111
       232 -10.4149     40.7956    139.1398   7.3495972683e+01   4.2645382858e+01    0.4342959    0.2602119 -74.53  0.001940608    1.644    0.392
       233 -11.3919     80.4466    138.7298   5.9836098881e+01   3.7039169774e+01    0.2973731    0.2446852  50.79 0.0002828882    1.149    0.130
       234 -11.4350     23.2105    137.0510   7.9627050385e+01   4.5073931141e+01     0.422214    0.3620828  26.79  0.001182118    1.232    0.189
       235 -10.1520     20.3419    134.3100   8.0433958037e+01   4.6088845251e+01    0.2728521    0.2133909 -18.51   0.00116699    1.602    0.376
       236 -11.1127     12.6987    135.2229   8.3320580640e+01   4.6466195920e+01    0.5622102    0.2950231 -48.98  0.002431037    2.189    0.543
       237 -10.6529     30.2010    132.5894   7.6594870432e+01   4.5625691931e+01    0.3457418    0.2866612  -8.90 0.0009166132    1.477    0.323
       238  -9.9218     25.9887    131.7105   7.8078703583e+01   4.6289049857e+01    0.2421995    0.1914437 -68.92 0.0004857272    1.261    0.207
       239 -10.1580     22.9846    126.7467   7.8712804806e+01   4.7952050663e+01    0.1968467    0.1799002  52.66 0.0002910172    1.079    0.073
       240 -10.7988     10.5368    126.4946   8.3502447586e+01   4.9032178320e+01    0.2559797    0.2259917  61.48 0.0009509927    1.052    0.049
       241  -9.8250     33.3013    125.8900   7.4617339757e+01   4.7164145059e+01    0.2471195    0.1717318  77.14 0.0009169905    1.437    0.304
       242  -9.6490      2.3102    125.8890   8.6620373004e+01   4.9732041636e+01    0.2390725       0.1497  70.23  0.001176077    1.452    0.311
       243 -10.9959    104.4141    122.5556   4.8960551657e+01   3.6724406363e+01    0.3824773    0.3073423  48.89 0.0009375064    1.212    0.175
       244 -11.8738    244.9168    117.8258   2.0760424336e+01   1.1429991532e+01     0.434861      0.19951 -51.31  0.002127301    2.586    0.613
       245  -9.3201     13.4690    122.4908   8.2041185327e+01   4.9929288668e+01     0.143926    0.1301643  81.29 0.0008096198    1.030    0.029
       246  -9.5021     55.9991    121.7598   6.5266576743e+01   4.5432486478e+01    0.2068453    0.1283389  31.61 0.0007691031    1.601    0.375
       247  -9.6389     44.4380    120.1732   6.9446998745e+01   4.7449330360e+01    0.2356782    0.1486341 -73.86 0.0004938403    1.565    0.361
       248  -9.7084     43.2217    116.1832   6.9277269682e+01   4.8714292701e+01    0.2670911    0.1741476  79.28 0.0005834603    1.695    0.410
       249  -9.2357     78.6108    115.1749   5.5640642519e+01   4.3505611228e+01    0.2143249    0.1451324 -49.36 0.0004629535    1.551    0.355
       250 -11.5536     17.1343    100.7223   7.8228722407e+01   5.5738058080e+01     1.090866    0.2762202  25.89  0.002983005    3.388    0.705
       251 -10.7466     35.6147    102.8419   7.0200117108e+01   5.3355074452e+01    0.5913792    0.3176506  -3.65  0.001900287    3.140    0.682
       252 -11.8025     26.1214    107.0464   7.5045194330e+01   5.3181506942e+01    0.7017934     0.447944 -43.32  0.002607357    1.745    0.427
       253 -11.4432     22.6351    114.1717   7.7462120601e+01   5.1504598703e+01    0.6186944    0.3480131  -6.98  0.002175158    2.527    0.604
       254 -11.2079     28.3715    112.9356   7.4897492087e+01   5.1307515550e+01    0.3973185    0.3023385  39.27  0.001351225    1.286    0.222
