#   1 NUMBER                 Running object number                                     
#   2 MAG_AUTO               Kron-like elliptical aperture magnitude                    [mag]
#   3 X_IMAGE                Object position along x                                    [pixel]
#   4 Y_IMAGE                Object position along y                                    [pixel]
#   5 X_WORLD                Barycenter position along world x axis                     [deg]
#   6 Y_WORLD                Barycenter position along world y axis                     [deg]
#   7 A_WORLD                Profile RMS along major axis (world units)                 [deg]
#   8 B_WORLD                Profile RMS along minor axis (world units)                 [deg]
#   9 THETA_WORLD            Position angle (CCW/world-x)                               [deg]
#  10 FWHM_WORLD             FWHM assuming a gaussian core                              [deg]
#  11 ELONGATION             A_IMAGE/B_IMAGE                                           
#  12 ELLIPTICITY            1 - B_IMAGE/A_IMAGE                                       
         1 -11.0975     23.7409     32.3576   8.7382956319e+01   6.7829602245e+01     1.419956    0.4729485 -35.67  0.003557313    2.869    0.651
         2 -11.0214     32.0288     64.4885   9.4592011685e+01   6.0847487748e+01     1.973536    0.7159588 -28.63  0.005854867    5.399    0.815
         3 -10.6006      7.1220     30.0269   9.5219620852e+01   6.9627334248e+01    0.6021576     0.404852 -41.52  0.002688513    1.234    0.189
         4  -9.3692     91.3908     26.0495   5.7454156797e+01   5.7864245603e+01    0.5269628     0.206311 -40.07   0.00172548    3.039    0.671
         5  -9.9641     60.2682     31.9278   7.0573552831e+01   6.3014641264e+01     0.819576    0.4888308 -15.78   0.00299737    1.862    0.463
         6 -10.3613     62.9535      3.2600   5.6580285278e+01   6.5885894896e+01     0.629752     0.475556 -22.84  0.004103142    1.470    0.320
         7  -9.7088     63.2373     21.2054   6.4756324951e+01   6.3936687784e+01    0.4759427    0.3012101 -46.72  0.001822994    2.266    0.559
         8  -9.8281     64.6395     13.3352   6.0685447010e+01   6.4586437255e+01    0.3602948    0.2507245   8.92  0.000220401    1.408    0.290
         9  -9.6159    130.8334     45.8100   5.4437158660e+01   4.6395457177e+01     1.185285    0.5155741 -17.87  0.002085933    4.376    0.771
        10  -8.4700     72.0052      8.4778   5.5983133689e+01   6.3674161638e+01    0.2229044    0.1661895   0.83 -3.66505e-05    1.338    0.253
        11 -10.3757     73.5083     17.6138   5.9527342136e+01   6.2447190499e+01     1.134984    0.3753656 -22.71  0.004231424    3.801    0.737
        12  -9.5360     78.0658      4.4082   5.2333233494e+01   6.2825297205e+01    0.5031005    0.3096073   3.89  0.002029356    1.837    0.456
        13 -10.1911     69.6005     40.9609   7.0685999316e+01   6.0068092809e+01     1.078045    0.3531778 -36.31  0.003794861    3.081    0.675
        14 -10.1690     76.1103     32.1137   6.4767747278e+01   6.0164723408e+01    0.6203768    0.4994028  84.57  0.001030322    2.098    0.523
        15 -10.3031     51.3997     15.0529   6.6605411817e+01   6.6696734149e+01     1.473154    0.7048607   1.66  0.005191338    4.707    0.788
        16 -10.1040     46.2523     29.4410   7.5394891443e+01   6.5555358189e+01    0.6270229    0.4275213 -30.79  0.002559502    1.395    0.283
        17  -9.1197    102.8660     21.0907   5.2423667898e+01   5.5929256187e+01    0.3325078     0.258625 -46.70 0.0008646384    1.557    0.358
        18  -8.5889    104.5339     15.0999   4.9755128133e+01   5.6165824852e+01    0.3317094    0.1807489  10.19  0.001448152    2.760    0.638
        19  -8.7842    128.7146     25.0519   4.8021386589e+01   4.9518302083e+01    0.5435708    0.2856653 -17.71  0.002357806    2.408    0.585
        20  -9.8010    119.0037     19.9630   4.8285843789e+01   5.2356000438e+01    0.6329365    0.3684168   0.90  0.002241583    2.501    0.600
        21  -9.3555    132.7939     17.1209   4.4627002964e+01   4.9376607350e+01    0.3081315    0.1808206  80.07  0.001369257    1.929    0.481
        22  -9.0644    125.3176     13.0290   4.4643272927e+01   5.1550741873e+01     0.231893    0.2252952  34.92 0.0007935305    1.127    0.112
        23  -8.3893    130.6296      6.1540   4.1427027377e+01   5.0900047589e+01    0.2915395    0.1761565   2.74 0.0009785661    2.306    0.566
        24  -8.8290    135.3419      2.5385   3.9520836995e+01   5.0076513575e+01    0.4699251     0.244602  33.15  0.002213225    2.425    0.588
        25  -8.8997    126.9763      8.9814   4.2983595390e+01   5.1523940806e+01    0.3525585    0.1826564  33.09  0.001313655    2.365    0.577
        26  -8.7909    125.8645      5.1867   4.1911663202e+01   5.2109408507e+01    0.3027703    0.2159429  26.60   0.00104923    1.588    0.370
        27 -10.7421     37.2874      9.5252   7.0140478614e+01   6.9524904333e+01    0.8172998    0.3330741 -36.65  0.002671957    2.627    0.619
        28 -10.4157     26.2533     11.0589   7.6424238239e+01   7.0803302255e+01    0.8542383    0.3276387  34.14  0.004235715    2.523    0.604
        29  -8.7622     19.7103      8.9521   7.8884842837e+01   7.1849191223e+01    0.2788258    0.1858739  16.39  0.001354912    1.329    0.247
        30  -9.7666     17.9136      3.5940   7.7074696034e+01   7.2750867235e+01     0.333087    0.2872639  29.42  0.001689321    1.675    0.403
        31  -9.7769     10.5999     18.5988   8.8656970678e+01   7.1310581756e+01     0.631717    0.2718543 -11.36  0.002648546    3.661    0.727
        32  -9.0395     96.3114     14.7766   5.1654415530e+01   5.8022310710e+01     0.521827    0.2336139 -13.83  0.002210859    2.972    0.663
        33  -8.4821    120.5230      5.9125   4.3105187014e+01   5.3305829875e+01    0.2928287    0.1407799  56.51  0.001070755    1.693    0.409
        34  -8.9453    115.3408      4.4549   4.3564359120e+01   5.4632504681e+01    0.2623357    0.2146952 -68.14 0.0005564895    1.459    0.315
        35  -8.7099    112.3132     15.3017   4.8065478690e+01   5.4374552111e+01    0.2608036     0.199568 -45.33  0.000779882    1.541    0.351
        36  -9.2571    114.3905      9.6322   4.5590781238e+01   5.4417337814e+01    0.3873146    0.1933126  47.28 0.0008161884    1.749    0.428
        37  -9.0296    105.2806      2.0097   4.4673551094e+01   5.7130323208e+01    0.4633532    0.1832187  59.53  0.002110511    2.034    0.508
        38  -8.5355    110.2905      7.6558   4.5718487168e+01   5.5532920744e+01    0.1928385    0.1439523  54.66  0.000282413    1.135    0.119
        39  -9.0453    110.8900      4.3822   4.4406134233e+01   5.5665403159e+01    0.2325418    0.1809096  15.85 0.0006379488    1.416    0.294
        40  -7.9442     80.6189     12.6656   5.5143963025e+01   6.1548890128e+01    0.2305157    0.1599988 -35.56  0.001328093    1.698    0.411
        41  -9.4612     85.2521     12.9590   5.3912772982e+01   6.0564065011e+01    0.4266583    0.2458355 -48.14  0.001691279    2.565    0.610
        42  -8.0276     84.6394      6.7274   5.1476716884e+01   6.1265816839e+01    0.3252203    0.1442191  24.41  0.001302677    3.231    0.690
        43  -9.3447      2.1895     14.2129   9.1661521598e+01   7.2659765306e+01    0.3730989    0.2127303 -58.16  0.001849314    2.459    0.593
        44 -10.4834      5.5938      4.6229   8.4973642617e+01   7.3845462108e+01    0.5327077    0.3553985  -0.20  0.001936078    1.238    0.192
        45  -8.0525    190.2478     14.2118   3.5853903969e+01   3.5903389212e+01    0.2173916    0.1670617  18.61  0.001008166    1.933    0.483
        46  -8.7692    133.6530     11.9355   4.2794106384e+01   4.9668478562e+01    0.3269826    0.1809728 -44.03  0.001622453    2.056    0.514
        47  -7.7891    141.5431     12.4843   4.1670671550e+01   4.7723395706e+01      0.13092    0.1148555  74.59  0.000117638    1.040    0.038
        48  -7.8554    156.1769      9.3978   3.8615030894e+01   4.4485457240e+01    0.2137729    0.1030805 -20.56 0.0009811975    2.583    0.613
        49  -8.7571    102.0821      7.9226   4.7601901322e+01   5.7371764432e+01    0.2994885    0.2152685 -68.96 0.0006943863    1.976    0.494
        50  -9.1997     96.9383      4.6345   4.7514568466e+01   5.8789939462e+01    0.3987948    0.2858764 -57.21  0.001427647    1.919    0.479
        51  -7.5724    143.3659      5.1122   3.9131023482e+01   4.7946394460e+01    0.1698263    0.1091905 -42.13 0.0007963213    1.714    0.417
        52  -8.4183     89.2723      2.8546   4.8654288890e+01   6.0602578064e+01    0.2861961    0.1834674 -33.36  0.001078518    1.835    0.455
        53  -7.7446    151.4028      2.2023   3.7169745256e+01   4.6266849529e+01    0.1704087    0.1099653 -42.44 0.0009524756    1.681    0.405
        54  -8.0893    167.2437      1.4194   3.5056253986e+01   4.2556791042e+01    0.2171111    0.1020127  68.59 0.0003706708    1.780    0.438
        55 -10.7404    133.5092    109.3124   7.2972921665e+01   3.4066595903e+01    0.9283938    0.4618888 -43.25  0.002160525    1.980    0.495
        56 -10.3931    199.8419    248.0363   8.6356515631e+01  -5.7247385744e+00    0.4730706     0.291706  20.38  0.002756001    1.430    0.301
        57 -10.6019    191.3224    247.8807   8.7989656017e+01  -4.5060042839e+00     0.476698    0.2895692  22.75  0.002717845    1.451    0.311
        58 -10.1830    171.6433    249.9458   9.2205161762e+01  -1.9753435345e+00    0.4256293    0.1782869  31.11  0.001960383    2.115    0.527
        59 -10.2479    139.3554    103.8275   6.9955819055e+01   3.3963932857e+01    0.7690564    0.3920961 -46.58  0.001723723    1.965    0.491
        60 -10.0136    116.6635    125.2530   8.1741268730e+01   3.3915260702e+01    0.6446905    0.3993347  62.94  0.002316381    2.325    0.570
        61  -7.6108    152.4769    121.4833   7.1367777041e+01   2.7251419095e+01    0.1570343    0.1531057 -42.28 2.218538e-05    1.014    0.014
        62  -8.5845     98.7272    120.2546   8.5746631278e+01   3.8524705371e+01    0.4607196     0.279922 -12.33    0.0015322    3.359    0.702
        63  -9.8114    140.5979    118.2684   7.3500658404e+01   3.0547158312e+01    0.4562572    0.3349257 -69.62  0.001128032    1.738    0.425
        64 -10.2510     91.8709    112.8565   8.6002718036e+01   4.1536317166e+01    0.6593781    0.5022457  79.47  0.001616579    1.817    0.450
        65  -9.1104     93.2364    103.3337   8.3065609149e+01   4.3541520851e+01    0.7164916    0.4015445  22.17  0.002720154    2.452    0.592
        66  -8.5079    152.4274    114.8524   6.9669530380e+01   2.8695895161e+01    0.2198087    0.2060529  85.68  0.000607269    1.154    0.133
        67  -9.6614     81.6401     99.3875   8.5765695559e+01   4.6476932758e+01    0.7535989    0.3307583 -51.83  0.001917718    2.199    0.545
        68 -10.4846     78.0171    112.6384   9.0373807050e+01   4.3900544818e+01    0.6195214    0.4115487 -85.18   0.00199777    2.349    0.574
        69  -7.9926     77.8028    105.7682   8.8727921281e+01   4.5596319697e+01    0.2987637    0.1803687 -26.39   0.00120458    2.192    0.544
        70  -9.9942     14.3395    110.4226   1.1131667207e+02   5.1551807104e+01    0.7876803    0.3737177 -84.73  0.003149987    2.477    0.596
        71 -11.1674     20.9330     99.1415   1.0715442952e+02   5.3844415229e+01       1.8997    0.7039587 -74.85  0.005621698    3.341    0.701
        72  -8.2297     87.4562    249.9976   1.0944237859e+02   1.0396494853e+01    0.1824835    0.1392136  44.13 0.0003651713    1.112    0.100
        73  -9.8375     15.6884     70.7988   1.0323979399e+02   6.0816390751e+01      1.02263    0.3510896 -33.12  0.003873975    3.437    0.709
        74  -9.5751     17.0061     60.4200   1.0001263123e+02   6.2978297587e+01    0.7337989    0.2748881 -52.38  0.003387583    2.048    0.512
        75 -10.5291     25.7271     77.9899   1.0084545427e+02   5.8447975176e+01    0.6414635    0.4331637  82.06  0.001861262    2.371    0.578
        76  -9.8399    151.7975    247.6727   9.5917769643e+01   1.3431855016e+00    0.3118296    0.2272143 -44.40  0.001889011    1.602    0.376
        77 -10.1446     11.7269     45.6061   9.8141588046e+01   6.6377671114e+01    0.8894638    0.3782818   2.27  0.003064702    3.035    0.671
        78 -10.1869     34.5183     90.5762   1.0039091642e+02   5.4750939253e+01    0.6213989    0.3097281 -74.93  0.002269845    2.773    0.639
        79 -10.1186     37.1719     80.5042   9.6909502349e+01   5.6825866418e+01    0.6879829     0.346619 -11.47  0.002626825    3.330    0.700
        80 -10.0201      5.0633     41.8181   1.0027485735e+02   6.7540575889e+01    0.5414329    0.3036249 -62.14  0.002444488    1.843    0.457
        81  -9.0846    157.2126    245.3928   9.4484787551e+01   9.0383659275e-01    0.1898196     0.101006  42.36 0.0006791893    1.728    0.421
        82  -7.8597    167.3841    114.2233   6.6045895472e+01   2.5492197219e+01    0.2131365    0.1427728 -49.72  0.000287685    1.502    0.334
        83 -10.4099     62.9853     95.5304   9.1161375397e+01   5.0240622911e+01    0.6156323       0.4003 -80.07  0.001516195    2.410    0.585
        84 -10.1511     65.9303    110.9788   9.3967176788e+01   4.6108851216e+01    0.5371015    0.4354197  61.54 0.0009904475    1.472    0.321
        85  -9.5880     59.6936    109.5757   9.5744945500e+01   4.7302335235e+01    0.3885929    0.3011745 -88.13  0.001145164    1.584    0.369
        86  -8.1513    158.8217    111.8231   6.7366238220e+01   2.7909045593e+01    0.2275515    0.2124897  -6.59 0.0004039164    1.135    0.119
        87  -8.6225      1.6738    116.6868   1.1623759978e+02   5.0775353897e+01    0.3871152    0.1518627 -83.69  0.001599644    2.661    0.624
        88  -8.8207    239.5415    111.4918   5.2337388482e+01   1.0904794278e+01    0.2698959     0.137014  53.42  0.001251476    2.309    0.567
        89  -9.0989     35.6802    111.0253   1.0423359795e+02   4.9669265186e+01    0.2069057    0.1547152 -58.18 0.0008961335    1.145    0.127
        90 -10.3189      4.3661     89.2033   1.1141692226e+02   5.7251966987e+01     1.028158    0.3199918 -71.45  0.004013167    2.937    0.659
        91 -10.9036     45.0464    102.1618   9.9157548419e+01   5.0889928127e+01     1.028412    0.5959509  74.82  0.003412101    3.532    0.717
        92  -7.9465      2.0224    104.5001   1.1456196860e+02   5.3719534558e+01    0.2128288    0.1180407  23.64  0.001153982    2.161    0.537
        93  -9.9602    149.3587    102.8582   6.7207629668e+01   3.1914144160e+01    0.5690549    0.2800288 -49.62  0.001105872    2.160    0.537
        94  -8.0164    249.6716    104.3085   4.9391284976e+01   1.0244703113e+01    0.1339909   0.09133296 -63.43 0.0003561001    1.660    0.397
        95  -8.4844    166.0336    103.7847   6.3624136250e+01   2.7920032633e+01    0.2720145    0.2111105 -45.62 0.0005337792    1.255    0.203
        96  -8.0661     73.9245    102.7645   8.9253648811e+01   4.6921179719e+01    0.2500352    0.1887719 -69.00 0.0006041402    1.509    0.337
        97  -8.6632    158.9977    100.9982   6.4447699763e+01   3.0090851608e+01    0.3414142    0.2093192 -48.96 0.0004801303    1.660    0.398
        98  -7.5193    102.2812    101.3336   7.9688279506e+01   4.2306313220e+01    0.1576295    0.1192864 -14.61 0.0002637226    1.613    0.380
        99  -9.2782      6.5505    103.7676   1.1293450110e+02   5.3655677793e+01     0.416195    0.2415148  74.87  0.001245968    2.232    0.552
       100  -9.5647    243.4396     97.3074   4.8714204621e+01   1.2552167621e+01    0.2655502    0.1172021 -34.74  0.001140503    2.120    0.528
       101 -10.5829     94.1317     91.0924   7.9313156419e+01   4.6138478058e+01    0.4669969    0.3181593  20.09 0.0003917498    1.765    0.433
       102 -10.1837     85.4920     86.6081   8.0821678484e+01   4.8691105160e+01     0.523996    0.3993301 -87.81 0.0009547799    2.050    0.512
       103  -9.6614     87.7616     78.6409   7.7606896097e+01   4.9967232944e+01    0.6537126    0.3816714  21.45  0.001990574    2.258    0.557
       104  -8.6719    189.4783     95.5265   5.6753406933e+01   2.4158763863e+01    0.3163081    0.2560467  -9.60 0.0007131341    1.535    0.349
       105  -9.5802     94.2190     97.1755   8.1042464202e+01   4.4770399129e+01    0.3827962    0.3205624 -64.19 0.0007050631    1.335    0.251
       106  -8.7113    164.3659     94.0055   6.1365805947e+01   3.0226517165e+01    0.4153866    0.2398472 -48.09   0.00118226    1.756    0.431
       107  -8.7114    163.6328     87.2567   5.9675897064e+01   3.1678480132e+01    0.3811471    0.2693933 -64.76  0.001708048    1.707    0.414
       108  -9.4779    138.4284     92.8437   6.7104754149e+01   3.6450754323e+01    0.4094366    0.3473142 -23.91  0.001063678    1.253    0.202
       109  -9.6234    140.4810     82.0504   6.3453450490e+01   3.8091314731e+01    0.7813947     0.313087 -33.48  0.002589105    2.906    0.656
       110  -8.9805    139.9650     75.5397   6.1638851242e+01   3.9417731118e+01    0.5515365    0.2674765 -35.29  0.001696286    2.160    0.537
       111  -8.6500    157.8608     91.3811   6.2072061588e+01   3.2249192163e+01    0.3526078    0.1919432 -48.10  0.001202761    1.894    0.472
       112  -9.1308     65.0095     85.9582   8.7811904524e+01   5.2150381227e+01    0.7019808      0.51031 -23.28  0.003546919    1.461    0.315
       113  -7.8974     46.9508     90.3471   9.5670740031e+01   5.3499420850e+01    0.2462881    0.2198997  -7.38  0.001269029    1.160    0.138
       114 -10.2512     47.8778     84.3541   9.3765546936e+01   5.4776262415e+01    0.5841461    0.4003948  89.00  0.001633523    2.481    0.597
       115  -9.1277     48.7739     77.2327   9.1442512020e+01   5.6265091713e+01    0.5674886      0.34243  -4.20  0.002567205    2.249    0.555
       116  -8.6161    150.2388     88.9710   6.3132627745e+01   3.4493781429e+01      0.30444    0.2793542  -9.50  0.001086406    1.180    0.153
       117  -9.6629     40.0544    106.7042   1.0187968425e+02   5.0306448991e+01    0.3974295    0.2098919 -65.48 0.0008303864    1.774    0.436
       118 -10.2871    103.8896     82.5586   7.3661472251e+01   4.6039725514e+01    0.5821661    0.3136219 -51.05 0.0009079789    2.057    0.514
       119  -9.5621    105.1353     71.0538   6.9618131534e+01   4.8038573480e+01    0.7189837    0.4108965 -24.55  0.002635998    2.220    0.550
       120  -8.8762    157.8272     83.6519   5.9918385657e+01   3.3717370037e+01    0.2909294    0.2125314 -48.07   0.00065861    1.378    0.274
       121  -7.3910    170.5222     83.5072   5.7230331727e+01   3.0743362667e+01    0.1510789    0.1422696 -71.05 2.726249e-05    1.046    0.044
       122  -8.4799    149.9452     80.5635   6.0790113909e+01   3.6149868658e+01    0.3663067    0.1986402 -49.39 0.0006819089    1.995    0.499
       123  -8.6320    119.0524     80.3916   6.8547376117e+01   4.3266148611e+01    0.3001705    0.2122243 -48.03 0.0004517352    1.479    0.324
       124  -8.5105    119.8474     75.9277   6.6937989492e+01   4.3947773683e+01    0.2747391    0.2135671  33.88 0.0004779561    1.318    0.241
       125  -9.2647    115.3520     72.2059   6.7011771418e+01   4.5634613065e+01     0.545099     0.301245 -36.86  0.001574768    1.849    0.459
       126  -9.1195     74.3477     79.0886   8.2392113444e+01   5.2206062911e+01    0.6742032    0.2654958 -46.54  0.001974572    2.401    0.584
       127  -8.1822    166.2836     78.6034   5.6732441831e+01   3.2624341795e+01      0.26815    0.1689574 -49.32 0.0005496317    1.626    0.385
       128  -9.8386     65.5030    103.5067   9.2314071107e+01   4.7989233419e+01    0.7011219    0.5115424  18.20  0.003509691    1.546    0.353
       129  -7.9203    184.1168     78.1068   5.3222909127e+01   2.8496119387e+01    0.2145457    0.1983143  17.56 0.0006376021    1.265    0.210
       130  -7.4059    174.3198     78.6885   5.5180457460e+01   3.0701887196e+01    0.1541334    0.1129538 -73.62 0.0007036469    1.647    0.393
       131  -8.5799    156.8789     76.3221   5.8039682279e+01   3.5269579858e+01    0.2590383    0.1973037 -50.15 0.0005399242    1.340    0.254
       132 -10.8619     21.8438     53.3453   9.5746985511e+01   6.4067887857e+01    0.8065203    0.5334393  87.18  0.002995518    3.511    0.715
       133  -8.8215    130.7161     64.3001   6.0423183024e+01   4.3551193243e+01    0.4909171       0.2565 -48.29  0.001973362    2.178    0.541
       134  -9.4298    127.3500     75.0790   6.4658660062e+01   4.2420249776e+01    0.3995516    0.2790991 -58.07 0.0008807891    1.727    0.421
       135  -8.1980    129.3133     69.0096   6.2259131099e+01   4.3065003932e+01    0.3926437    0.2528546  19.46  0.001586856    2.320    0.569
       136  -8.2126     62.1301     73.8069   8.5248181305e+01   5.5215064140e+01    0.2884348    0.2441151 -42.35  0.001636425    1.149    0.130
       137 -10.5152     54.9014     70.6917   8.7067154978e+01   5.6885142161e+01    0.5542851    0.4082699 -89.02  0.001095369    2.466    0.594
       138  -8.9473     55.2873     63.1149   8.4457967637e+01   5.8381408448e+01    0.4732042    0.3118536   4.11  0.001613775    1.788    0.441
       139 -10.2579     62.5512     60.7445   8.0777425265e+01   5.7784061703e+01      1.04103    0.2975298  36.19  0.003128236    3.578    0.720
       140  -8.3518    162.8931     73.2332   5.5912204418e+01   3.4370498937e+01    0.3325613    0.1904195 -54.04 0.0009425273    2.002    0.500
       141  -9.8701     81.5597     72.1311   7.7628462229e+01   5.2408490272e+01    0.4003601    0.3074071 -66.73  0.000967942    1.773    0.436
       142  -9.1348     83.4233     64.7711   7.4514098037e+01   5.3496981564e+01    0.5548588    0.3730519   0.12  0.002296548    1.992    0.498
       143  -7.3295    175.4962     72.4477   5.3267936087e+01   3.1492048064e+01    0.1468357     0.137646 -77.34 0.0001021761    1.028    0.027
       144  -8.3954    169.5083     70.2966   5.3795103541e+01   3.3282678252e+01    0.4438272    0.1899539 -30.24  0.001083313    2.775    0.640
       145  -8.3706    170.6487     64.8598   5.2074063534e+01   3.3899832191e+01    0.2402059     0.188525 -66.08 0.0006692353    1.358    0.264
       146  -9.3751    146.9869     69.2247   5.8120976925e+01   3.8867907716e+01    0.4393983    0.2701705 -55.21 0.0009646325    1.928    0.481
       147  -7.8288    147.1964     64.1802   5.6562508801e+01   3.9664370694e+01    0.2950765    0.1948926  28.88  0.001284317    1.969    0.492
       148  -8.2657    156.4954     69.6261   5.6191181774e+01   3.6521056870e+01     0.354991    0.1915077 -25.26 0.0007834414    2.369    0.578
       149  -8.2553     95.2447     54.0046   6.6832850851e+01   5.3095907277e+01    0.2759172    0.1770003 -48.30  0.001159452    1.832    0.454
       150  -9.6446     94.8609     68.1999   7.1870784050e+01   5.0667410605e+01    0.4070058     0.272077 -52.27 0.0007342878    1.744    0.427
       151  -9.3469     97.6468     58.1087   6.7533666159e+01   5.1914027845e+01    0.8415057    0.4829962  -4.68  0.002924614    3.562    0.719
       152  -7.8451     23.2878     68.9185   9.9561880732e+01   6.0669404521e+01    0.1807195    0.1389742 -44.79 0.0003527951    1.076    0.071
       153  -9.3404    138.2341     65.2415   5.8910144498e+01   4.1625400202e+01    0.5526457    0.2444947 -33.98   0.00161443    2.403    0.584
       154  -9.0324    121.2976     66.1181   6.3421234847e+01   4.5404732694e+01    0.3540214     0.252349 -53.96  0.000612994    1.632    0.387
       155  -7.7840    122.0739     61.0512   6.1569954188e+01   4.6092047854e+01    0.2302281    0.1898667  20.59 0.0004914038    1.313    0.239
       156  -9.3938    109.7564     63.8590   6.5876632559e+01   4.8358746442e+01    0.3886133    0.2829774 -57.13   0.00087529    1.703    0.413
       157  -8.5876    110.8747     58.0187   6.3590543022e+01   4.9109049429e+01    0.3425351    0.2663251  14.19 0.0009985833    1.458    0.314
       158  -8.0717    157.8031     63.0449   5.4014118465e+01   3.7292293669e+01     0.230461    0.1852505 -66.85 0.0006367562    1.361    0.265
       159  -8.0859    164.9362     60.4946   5.1904129413e+01   3.5971092399e+01    0.2211038    0.1938699 -46.22  0.000709431    1.149    0.130
       160  -9.8745     73.1847     59.3551   7.6266546214e+01   5.6322024229e+01    0.5131117    0.2560616 -49.22 0.0009157039    2.288    0.563
       161  -9.2687     75.0908     50.7254   7.2429302118e+01   5.7513701995e+01    0.6693833    0.3848356  12.96  0.002751945    2.632    0.620
       162  -7.3288    152.4118     60.2435   5.4282309863e+01   3.9043077165e+01     0.198001    0.1335065 -47.74 0.0005618742    1.549    0.354
       163  -8.2343      9.6399     60.0009   1.0319406338e+02   6.3552155420e+01    0.2411456    0.1331285 -30.43  0.001114351    1.667    0.400
       164  -9.0303    146.6624     58.4107   5.4932895134e+01   4.0720201553e+01    0.4842477    0.2537271 -29.26  0.001325315    2.150    0.535
       165 -10.1946     85.1313     47.9864   6.7907660936e+01   5.6090028671e+01    0.3946758    0.3024381 -60.33 0.0009685597    1.852    0.460
       166 -10.3455     90.3137     38.0866   6.2475037510e+01   5.6534831020e+01    0.8782643    0.3224775  37.43  0.002643633    3.087    0.676
       167  -8.6263     87.5780     58.2302   7.0820897995e+01   5.3901564014e+01    0.3077799    0.2460759 -59.97 0.0007587215    1.632    0.387
       168  -8.7284     89.7355     52.6366   6.8101050174e+01   5.4431797738e+01    0.5888938    0.2824977  28.98  0.002209948    2.794    0.642
       169  -8.6460    238.8575    242.8050   7.8266980695e+01  -1.0128952726e+01    0.1465579    0.1245361   2.98   0.00105924    1.287    0.223
       170  -8.2032     92.5085     20.5479   5.4953961257e+01   5.8250431165e+01     0.239141    0.1622993  41.53 0.0007185519    1.287    0.223
       171  -8.8772    138.9068     56.6452   5.6082300765e+01   4.2858509638e+01    0.3799588    0.2958196 -67.51 0.0005053065    1.534    0.348
       172  -8.3448    139.0291     52.0012   5.4598041166e+01   4.3538160861e+01    0.3275342    0.1869691  39.03  0.001405742    1.954    0.488
       173  -8.8345    141.9201     48.3791   5.2843603353e+01   4.3373332745e+01    0.5209737    0.2326898 -30.22  0.001688148    2.471    0.595
       174  -8.5402    129.9922     57.8335   5.8536478537e+01   4.4782738731e+01    0.2666638    0.2067607 -45.51 0.0005597509    1.370    0.270
       175  -7.7730    130.6487     53.6883   5.7042344205e+01   4.5277159424e+01    0.2031536    0.1521609  -8.92 0.0009890966    1.635    0.389
       176  -8.7861    121.0962     46.9380   5.7119571681e+01   4.8518177974e+01    0.2668097    0.1976916 -38.19 0.0004871148    1.433    0.302
       177  -9.0706    118.1963     55.3865   6.0709161155e+01   4.7898260757e+01    0.3243627    0.2639981 -72.83 0.0007417909    1.580    0.367
       178  -8.2864    118.7267     51.2581   5.9180189081e+01   4.8420572913e+01    0.3502313    0.1651107  42.84  0.001224412    2.110    0.526
       179  -8.6156     53.7047     38.7072   7.6075126538e+01   6.3019064684e+01    0.3645281    0.2230388 -44.03  0.001515307    1.796    0.443
       180  -8.1077     10.6961    236.6491   1.2344357511e+02   2.2243074442e+01    0.1010655   0.08011607 -56.61 0.0007040691    1.702    0.413
       181  -9.0420    188.1930    233.5493   8.6347844794e+01  -1.8461065721e+00    0.2183871    0.1733145 -34.36 0.0009249154    1.374    0.272
       182  -9.8385     50.0358     54.3884   8.3599122518e+01   6.0793033473e+01    0.3834807    0.3022657 -62.68  0.001283197    1.731    0.422
       183  -9.9009     55.6610     43.8174   7.7299104926e+01   6.1882515031e+01    0.9271722    0.4796734   0.48  0.003083502    4.598    0.783
       184  -8.9509    199.2424    230.4801   8.3636880321e+01  -3.0016951736e+00    0.2594106     0.211918  49.39 0.0007645919    1.646    0.392
       185 -10.4583    219.0637    224.1106   7.8712057059e+01  -4.8819466588e+00    0.2225053    0.1908866  -2.94  0.001477457    1.131    0.116
       186  -8.6637    162.8715     53.9011   5.0402608401e+01   3.7478783813e+01    0.3072744    0.1961537 -38.80   0.00122329    1.588    0.370
       187  -7.6139    157.6566     55.7291   5.1909028996e+01   3.8471362106e+01    0.1461785    0.1081055  32.26  0.000699226    1.613    0.380
       188  -9.1125    105.6339     51.7741   6.2922053664e+01   5.1262787324e+01    0.5781791    0.2853296 -31.97  0.001906699    2.153    0.536
       189  -8.1247    152.4601     53.2813   5.2197849735e+01   4.0101913155e+01    0.1991568    0.1305225 -48.30 0.0009350739    1.616    0.381
       190  -7.4550    172.2846     50.2997   4.7750969287e+01   3.5721588182e+01    0.1353877    0.1084983  28.87  0.000213741    1.551    0.355
       191  -8.1737    157.5290     49.0210   4.9967036922e+01   3.9491255174e+01     0.208702    0.1382142 -37.46 0.0006349614    1.557    0.358
       192  -9.1318    187.1452    224.3717   8.5039773376e+01  -1.8559093814e-01    0.2343398    0.2044146  23.57 0.0001683603    1.139    0.122
       193  -8.6017    132.8428     35.8354   5.0736548997e+01   4.7252906462e+01    0.3096259     0.227474 -45.87 0.0005677625    1.496    0.332
       194 -10.7827    134.0100     30.9807   4.8913830177e+01   4.7569587105e+01    0.3593031    0.2662372   7.42   0.00188281    1.713    0.416
       195  -9.4336    149.8215     47.5526   5.0992372428e+01   4.1576671066e+01    0.4693978     0.188036 -35.62  0.001217929    2.533    0.605
       196  -9.5997    153.4954     41.1373   4.8370775094e+01   4.1563158301e+01    0.3595272    0.2983358  44.61  0.001209367    1.238    0.192
       197  -8.9200    112.7511     42.8089   5.7815678680e+01   5.1018682420e+01    0.3622347    0.2320593  10.15  0.001372472    2.256    0.557
       198  -8.5276    111.9752     47.0046   5.9490906174e+01   5.0589111074e+01    0.2547372    0.2052785 -41.69 0.0004992448    1.351    0.260
       199  -7.5465    110.4772    224.5150   1.0163285859e+02   1.1993845596e+01    0.1341425    0.1188965  47.47 0.0002280932    1.002    0.002
       200  -8.9015    188.4134    219.9808   8.4030857545e+01   3.5675688349e-01    0.2319588    0.1750575  26.24 0.0003424005    1.196    0.164
       201  -7.2894    109.7266    218.6886   1.0102232231e+02   1.3308258752e+01    0.1269509    0.1052282 -13.73 0.0002656929    1.553    0.356
       202  -7.2717     56.0000    215.5190   1.1272977428e+02   2.1659020298e+01    0.2677746   0.06840936 -68.65 0.0009303885    3.900    0.744
       203  -8.3934    189.0762    215.0357   8.3032459331e+01   1.0993828037e+00    0.1967917    0.1717259   6.24 0.0002790399    1.019    0.019
       204  -9.0730     84.9010     21.6643   5.7616086782e+01   5.9722077135e+01    0.2726702    0.2279729  48.40  0.000614352    1.196    0.164
       205  -8.6541     45.2411     15.7529   6.9579615893e+01   6.7585121568e+01    0.2311889    0.1530328  23.53  0.000758133    1.329    0.248
       206  -7.2846    215.7660    212.3085   7.7235419684e+01  -2.5624582164e+00    0.1093394    0.1012636 -46.49 0.0002314913    1.488    0.328
       207 -10.3265    156.0384    209.3796   8.9125279458e+01   7.5866528285e+00    0.2402974    0.2233762 -29.18 0.0002155909    1.140    0.123
       208  -8.8648     42.2007     27.8241   7.6513428574e+01   6.6368264693e+01    0.2265162    0.1555214 -10.96 0.0002324154    1.358    0.264
       209 -10.1130     37.7916     41.9670   8.4379259805e+01   6.4619714012e+01    0.3932869    0.3515985  51.69  0.001448369    1.651    0.394
       210 -10.2201     35.8853     37.9582   8.3698003201e+01   6.5545943819e+01    0.4328868    0.2626215 -17.89 0.0003596213    1.672    0.402
       211  -8.1938    122.9054     40.6991   5.4567341300e+01   4.8971226567e+01    0.4364715    0.2497927  22.42   0.00174464    2.716    0.632
       212  -9.5090    104.8598     40.7810   5.9211024515e+01   5.3063207020e+01    0.4090373    0.2341302 -46.96  0.001145196    2.146    0.534
       213  -8.3570    106.3223     36.3120   5.7186444629e+01   5.3344944760e+01    0.2564349     0.193291  48.60  0.000879965    1.220    0.180
       214  -9.7065     79.3074     23.7845   6.0248727164e+01   6.0604842531e+01    0.5165605     0.255507  31.40  0.001663569    2.171    0.539
       215  -7.6397    163.7561     41.4217   4.6670153862e+01   3.9023204032e+01    0.2055784    0.1171058  52.49 0.0009487018    1.697    0.411
       216  -8.9051    139.7105     39.9032   5.0631969136e+01   4.5075434454e+01    0.4124868    0.2368923 -34.63  0.001391869    1.836    0.455
       217  -8.8693    144.2775     36.4445   4.8650880613e+01   4.4416749543e+01    0.2733079     0.207028 -64.09 0.0005967279    1.507    0.337
       218  -8.7416    118.8567     34.6595   5.3448562357e+01   5.0704266304e+01     0.289354    0.1875653 -36.30 0.0006131257    1.665    0.399
       219  -8.6135    153.2113     35.0139   4.6591678664e+01   4.2422060676e+01    0.2118136    0.1814786  39.14 0.0007148898    1.252    0.201
       220  -9.3405    101.0661     32.2128   5.7093234881e+01   5.5032273861e+01     0.448164     0.225153 -33.99   0.00134684    2.116    0.527
       221  -8.1397    102.4711     25.6065   5.4230881983e+01   5.5517147850e+01    0.4386871     0.121439  42.58  0.001409952    3.798    0.737
       222  -9.8174     10.7941    207.2341   1.2176085364e+02   2.8439688229e+01    0.5017528    0.2838212  18.78  0.002756077    2.487    0.598
       223  -8.4918    107.9971    205.9162   9.9623769422e+01   1.6313273218e+01    0.1993113    0.1909704  58.78 0.0003953094    1.044    0.042
       224  -9.0557    110.3314     33.1655   5.5002154304e+01   5.2848833049e+01     0.294558    0.2286914 -53.01 0.0009031057    1.570    0.363
       225  -8.7494    156.7810     26.8533   4.3587091178e+01   4.2528831456e+01    0.2508246    0.1765448 -84.61 0.0007029765    1.560    0.359
       226  -8.3664    152.3169     29.6743   4.5147957981e+01   4.3288158987e+01    0.2294909    0.1272401 -30.54 0.0002967482    1.957    0.489
       227  -8.9083    151.4424     26.1583   4.4240412515e+01   4.3907240882e+01    0.4166723    0.2136109  83.51  0.001697579    2.582    0.613
       228  -8.5754    229.5278     28.5374   3.5331454978e+01   2.5477950986e+01    0.2028259    0.1714966 -75.71 0.0005656191    1.065    0.061
       229  -8.5776    144.1074     26.2170   4.5504483116e+01   4.5683005941e+01    0.3428178    0.1873026 -22.68  0.001238613    2.172    0.540
       230  -8.8356    192.5578    194.9351   7.8611699616e+01   4.1194627658e+00    0.8826106    0.4586468 -64.07  0.002217674    8.171    0.878
       231  -8.7815    178.7407    194.8683   8.1519938531e+01   6.5012869864e+00    0.2240756    0.1996629   8.78  0.000445478    1.032    0.031
       232  -9.2393     40.4201    194.5256   1.1423115744e+02   2.8320884208e+01    0.2251585    0.2001355 -77.23 0.0005178706    1.168    0.144
       233  -7.8150    164.0435    191.9288   8.4200265575e+01   9.6692160976e+00    0.2560036    0.1858918 -43.39  0.001289524    1.417    0.294
       234  -7.7401    222.8916    187.8526   7.1254029536e+01   4.0170897145e-01    0.1613049    0.1548012 -29.27            0    1.311    0.237
       235  -7.2026    207.4940    185.5674   7.3755419275e+01   3.3095418854e+00    0.1410815    0.1203718  -6.05 6.639012e-05    1.057    0.054
       236  -6.9336     87.2649    183.3477   1.0134086191e+02   2.4781259513e+01    0.1415772      0.10877 -33.31 0.0005859161    1.611    0.379
       237  -7.5666    105.7946    182.3995   9.6481389144e+01   2.2042848216e+01    0.1837726    0.1401387  24.47 0.0002088839    1.442    0.307
       238  -8.1468    241.7693     23.2275   3.3199130145e+01   2.3589988075e+01    0.1422157    0.1320855  85.64 0.0006497737    1.319    0.242
       239  -8.4271    139.6704     18.1575   4.3752779558e+01   4.7619770373e+01    0.2179013     0.122736 -24.52 0.0002528961    2.035    0.509
       240  -9.0245     40.8787     20.5459   7.3824446503e+01   6.7598000805e+01    0.2474238    0.1587398 -27.11 0.0008904024    1.455    0.313
       241  -8.8558     42.3703    179.0289   1.1215166138e+02   3.1821851138e+01    0.2143625    0.1887821  43.79 0.0002677118    1.232    0.188
       242  -7.4926    100.8238    176.0073   9.6671523109e+01   2.4396017296e+01    0.1860558    0.1783611  78.98  0.001038621    1.007    0.006
       243  -8.1825    230.4192    168.1518   6.5921491149e+01   2.5895218356e+00    0.3286609    0.1102721 -46.83  0.001125317    3.448    0.710
       244  -8.7136    133.5855    145.1035   8.1867784015e+01   2.5840011629e+01    0.6078014    0.1572001 -52.98  0.001504103    4.718    0.788
       245  -9.5522     66.8781    144.3965   1.0051089168e+02   3.7525109526e+01     0.540848    0.3543459  66.76  0.002437688    1.911    0.477
       246  -8.8318    111.4738     20.5526   5.0156357015e+01   5.4038966034e+01    0.2662928    0.1335623 -23.73  0.001230922    2.248    0.555
       247  -8.4902    155.2336     17.5658   4.1109634006e+01   4.3913729959e+01     0.316836    0.1425775 -48.12   0.00137251    2.507    0.601
       248  -8.2127    228.5252    145.5020   6.1485739350e+01   6.9290242365e+00    0.1406831    0.1213813 -26.93  0.000810076    1.019    0.019
       249  -8.9834    184.4347    141.3876   6.8976727220e+01   1.6209987863e+01    0.2522793    0.2440103 -57.81 0.0003567607    1.110    0.099
       250  -7.9763    189.8657    138.3412   6.7138040593e+01   1.5719163207e+01     0.204756    0.1866517  26.19 0.0003365072    1.149    0.130
       251  -7.4763     95.7045    136.3156   9.0385357933e+01   3.5101065722e+01    0.1551127     0.120577  79.67 0.0002002045    1.604    0.376
       252  -8.7209    112.5626    134.0201   8.5009428818e+01   3.2602930791e+01    0.3827446     0.277589  78.87  0.001365568    1.970    0.492
       253 -10.5224     58.2146    124.3464   9.9386476434e+01   4.3795737207e+01     1.219149    0.6425067  77.49  0.003571368    5.069    0.803
       254 -10.2660     71.2236    125.7200   9.5535571831e+01   4.1673100982e+01    0.6693878    0.4272266 -83.05  0.001356537    2.148    0.534
       255  -9.9843     67.0274    128.2980   9.7391517406e+01   4.1616859008e+01    0.4582684    0.3976508 -20.89  0.001748361    1.281    0.219
       256  -9.1078     83.7007    131.9153   9.3006599644e+01   3.8203885873e+01    0.7050071    0.4179735  73.56  0.002458598    3.202    0.688
       257  -9.7247    133.5111    131.2306   7.8614394367e+01   2.9098064743e+01    0.6385062    0.4145216  46.72  0.002733647    1.593    0.372
       258  -9.8326     98.7009    128.6742   8.7773360858e+01   3.6470845275e+01    0.7206899    0.4349445  67.71  0.002589961    2.838    0.648
       259  -8.0117    161.0287    128.5374   7.1102522304e+01   2.3860243293e+01    0.3516699     0.193881 -59.55  0.001263829    2.461    0.594
       260  -9.9680     41.9751    122.6266   1.0428343051e+02   4.6121887663e+01     0.702451    0.3567226 -87.39  0.002591059    3.120    0.679
       261  -9.9593     27.1738    122.7333   1.0904180726e+02   4.7505673920e+01    0.5774773     0.337678  71.53  0.002243991    2.274    0.560
       262  -8.7774    125.9832     83.7790   6.7682498396e+01   4.1068108784e+01    0.6331087     0.335325  27.44  0.002147414    3.031    0.670
       263  -9.6533    110.0068     90.0327   7.4085948741e+01   4.3235296126e+01     1.160002    0.3755489  40.14  0.003572179    3.288    0.696
       264 -10.4768    110.2653    115.4717   8.1100718819e+01   3.7487206620e+01     1.199971    0.6699653  63.22  0.004016825    3.158    0.683
       265 -10.4873    123.3484     91.9996   7.0845647704e+01   3.9987778945e+01    0.7263703    0.6128455 -30.99  0.002211771    1.201    0.167
       266 -11.4072    121.2525    108.9598   7.6217732959e+01   3.6759794838e+01     1.560545    0.7799604 -51.48  0.005115217    2.100    0.524
       267 -10.8613    108.7633    101.1812   7.7683687194e+01   4.1064589750e+01     1.121831    0.7587669 -64.54  0.004769481    1.880    0.468
       268 -10.4714    128.5413    100.5863   7.1893382596e+01   3.7042963810e+01     1.024847    0.5249802 -30.59  0.002380179    2.527    0.604
       269 -10.6402    131.5783    119.4186   7.6159191170e+01   3.2219261227e+01     0.843957    0.6015379  87.91  0.002078975    2.242    0.554
