#   1 NUMBER                 Running object number                                     
#   2 MAG_AUTO               Kron-like elliptical aperture magnitude                    [mag]
#   3 X_IMAGE                Object position along x                                    [pixel]
#   4 Y_IMAGE                Object position along y                                    [pixel]
#   5 X_WORLD                Barycenter position along world x axis                     [deg]
#   6 Y_WORLD                Barycenter position along world y axis                     [deg]
#   7 A_WORLD                Profile RMS along major axis (world units)                 [deg]
#   8 B_WORLD                Profile RMS along minor axis (world units)                 [deg]
#   9 THETA_WORLD            Position angle (CCW/world-x)                               [deg]
#  10 FWHM_WORLD             FWHM assuming a gaussian core                              [deg]
#  11 ELONGATION             A_IMAGE/B_IMAGE                                           
#  12 ELLIPTICITY            1 - B_IMAGE/A_IMAGE                                       
         1 -13.2731      3.1502    136.2768   1.4295107975e+02   4.6056640342e+01      1.63592    0.3804456 -79.75  0.007204591    3.526    0.716
         2 -13.5961    195.5276     24.0261   7.1774751158e+01   3.2925895523e+01     1.925722     1.482471  30.55  0.008067564    1.404    0.288
         3 -13.2895    209.9149      6.0578   6.4457378852e+01   3.0996391630e+01     1.010483    0.8572978  51.47  0.005606295    1.211    0.174
         4 -11.8593      3.5814      6.0517   1.2190453110e+02   7.3159786050e+01    0.6410044    0.2469535 -56.24  0.003456985    1.896    0.473
         5 -10.0487     81.8246    249.2717   1.3640361274e+02   1.8997444653e+01    0.1624951   0.07978286  55.96  0.001191589    1.466    0.318
         6  -9.2497    226.3253    250.3209   1.1542323352e+02  -7.3629368349e-01    0.1018923    0.0553892  24.47 0.0007046941    1.681    0.405
         7 -11.9040    174.4020    248.9365   1.2270522208e+02   6.6699036005e+00    0.3777285    0.1807605  48.04  0.002523032    1.580    0.367
         8 -12.3625    125.6456    249.6713   1.2997485639e+02   1.3348340819e+01    0.6884871    0.1371206  44.68  0.003137547    3.410    0.707
         9 -13.3772    140.6693    248.6482   1.2765787770e+02   1.1422844163e+01    0.8986205    0.3594478  48.96  0.005577016    1.830    0.454
        10 -10.3871     29.7997    249.4489   1.4384218872e+02   2.4718940558e+01    0.2118284    0.1552217  60.87  0.002068246    1.233    0.189
        11 -10.5686     19.9483    247.6010   1.4513970922e+02   2.5933419908e+01    0.3157046    0.1635485  40.71  0.002572512    1.816    0.449
        12  -8.6940      1.8670    249.1922   1.4764237044e+02   2.7382245738e+01    0.1026361   0.07728229  64.79 0.0007802087    1.328    0.247
        13 -11.3946    238.0607    247.2151   1.1341452845e+02  -2.1040614557e+00    0.2609235    0.1670243  49.02   0.00185088    1.704    0.413
        14 -11.5689     39.1466    214.1690   1.4085765282e+02   2.8868128701e+01    0.6506898    0.5103511  42.57  0.005636392    1.558    0.358
        15 -12.8186     50.1728    218.2671   1.3933508871e+02   2.7041893824e+01     0.931614    0.5583628  81.77  0.006043281    1.470    0.320
        16 -13.9646     40.7480    230.7194   1.4145492311e+02   2.6214027955e+01     0.679383    0.4033266  54.11   0.00296731    1.207    0.171
        17 -11.0445     95.8187    239.5761   1.3365772014e+02   1.8517614827e+01    0.2547449    0.1203871 -50.97  0.001622419    3.327    0.699
        18 -11.7267    183.4406    235.9071   1.1993550705e+02   6.6748910127e+00    0.3407386    0.2462558 -81.56  0.002192058    2.746    0.636
        19 -12.8037    143.4593    243.9011   1.2680332504e+02   1.1571492100e+01    0.4153916    0.2647509  50.78  0.003205485    1.167    0.143
        20  -9.5867     27.6670    242.1922   1.4386400887e+02   2.5924793496e+01    0.1493285    0.0821633  62.10 0.0004350567    1.201    0.167
        21 -13.7212    126.2025    231.9727   1.2833442153e+02   1.5424583104e+01     1.560375    0.2707366  43.86  0.006187227    4.146    0.759
        22  -9.3506      3.8386    227.7406   1.4677797209e+02   3.0234992681e+01    0.2028512   0.09523755  41.43  0.001581557    1.872    0.466
        23 -13.8567    106.0834    230.5266   1.3136059495e+02   1.8373289892e+01     2.310152          nan  46.28  0.006212247    9.361    0.893
        24  -9.1019    172.2973    222.6707   1.2009169200e+02   9.7703658283e+00    0.1016136   0.07318223  64.38 0.0005917317    1.637    0.389
        25  -9.7781     23.5890    239.5554   1.4434385121e+02   2.6694856543e+01    0.1870924   0.09828842  53.77 0.0009691277    1.286    0.223
        26  -9.3563    248.6661    231.3306   1.0985794153e+02  -2.3705543944e+00    0.0874671   0.07396045  50.43  0.000705213    1.726    0.421
        27 -11.0257     48.8538    206.2955   1.3882306030e+02   2.9055051472e+01    0.5722392    0.1504186  60.44  0.002351488    4.674    0.786
        28 -11.0369     57.3669    211.7818   1.3777410152e+02   2.7224095004e+01    0.2965083    0.1472474  61.15  0.001236925    1.601    0.375
        29  -9.9365     20.6915    211.7773   1.4365954866e+02   3.1104448499e+01    0.2354869    0.1490626  36.68  0.001876391    1.845    0.458
        30 -12.1183     10.3868    206.6178   1.4506811870e+02   3.2881606910e+01    0.4808637    0.3050756  38.79  0.002933148    1.747    0.428
        31 -12.9584     35.8614    237.0902   1.4247348770e+02   2.5811332055e+01     0.269143    0.1985127 -85.76 0.0007929092    1.487    0.328
        32 -11.6332     61.9226    202.0673   1.3633921586e+02   2.8229521621e+01    0.1964154    0.1651611  72.46 0.0004894083    1.222    0.182
        33  -9.3279    194.7439    198.7506   1.1331830485e+02   8.9584745412e+00    0.2562498    0.1632105 -66.55  0.001305775    3.579    0.721
        34  -9.1128     11.3100    196.3158   1.4450156624e+02   3.4470090298e+01   0.07952262   0.06712844 -73.26 0.0005051053    1.635    0.388
        35 -11.9362     68.1910    193.3144   1.3456893689e+02   2.8904144488e+01    0.2064926    0.1739955  75.85 0.0004678998    1.184    0.156
        36 -13.1034     65.0394    178.3491   1.3384953896e+02   3.1862107089e+01    0.3750344    0.2387051 -49.85  0.001670576    2.255    0.556
        37 -13.6784      3.5967    111.5302   1.4110064460e+02   5.1023193046e+01     1.826288    0.6391096  85.36  0.007713575    3.081    0.675
        38 -11.9127      4.3403    170.2742   1.4454534974e+02   3.9564308624e+01    0.9353399    0.2462858 -73.38   0.00494964    3.090    0.676
        39 -12.5763     10.5896    142.8298   1.4180634194e+02   4.4188304087e+01    0.6636984    0.3321393  87.24  0.004239649    1.634    0.388
        40 -13.5936      9.8580    157.1898   1.4283430249e+02   4.1502785335e+01     1.992838    0.7798696  88.50   0.01133657    2.255    0.557
        41 -11.2767      2.1746    152.0479   1.4405103934e+02   4.3092726937e+01    0.7347932     0.144831 -78.33  0.003184507    3.990    0.749
        42 -10.9278    191.4754    247.6223   1.2007304712e+02   4.3735892025e+00    0.2407472      0.17521 -87.42    0.0016448    3.027    0.670
        43 -10.9185    101.9787    151.8007   1.2343611849e+02   3.1587630245e+01    0.4898605    0.2870663  80.34  0.001145696    2.392    0.582
        44 -11.8475     86.7008    153.2921   1.2682080107e+02   3.3582757744e+01    0.2291772    0.2194913 -74.15 0.0006647861    1.303    0.233
        45  -9.6483    134.3010    147.4989   1.1610159050e+02   2.6978061662e+01    0.5131842    0.1139848 -54.36  0.001348488    7.370    0.864
        46 -10.7028     78.4089    179.8071   1.3148230061e+02   2.9898504383e+01    0.1905722    0.1536241  65.41   0.00036508    1.060    0.057
        47 -12.1742     67.1350    143.4433   1.2973890152e+02   3.8151816984e+01    0.5985141    0.3331398  64.65  0.003327505    1.836    0.455
        48  -9.9912    109.3711    138.4701   1.1979728959e+02   3.2924515014e+01      0.39171    0.2594543 -25.11  0.001559513    2.905    0.656
        49 -10.4526     96.8609    135.8107   1.2210515931e+02   3.5446068795e+01    0.1993379    0.1935662 -65.01 0.0003464246    1.245    0.197
        50  -9.1003     82.3194    133.6679   1.2503241151e+02   3.8045639320e+01     0.211373    0.1276836  55.80 0.0008269284    1.604    0.377
        51  -9.5292    116.8067    129.2128   1.1654111393e+02   3.3440216544e+01     0.392651    0.2423389 -19.83  0.001449909    4.388    0.772
        52  -9.0366    106.8976    124.6655   1.1792552249e+02   3.6025285781e+01    0.1730693    0.1483306  60.61 0.0003578913    1.112    0.101
        53 -11.7728     85.6305    170.3709   1.2910466150e+02   3.0586907625e+01    0.5053654    0.4696416 -60.04  0.003820232    1.417    0.294
        54  -8.5919    167.6183    112.8177   1.0226858457e+02   2.6494261786e+01    0.1929817    0.1290236 -50.54 0.0005356894    1.662    0.398
        55 -11.6521      2.3695     78.6105   1.3824009398e+02   5.8061210832e+01    0.5483851    0.1165114 -73.37  0.002208666    3.411    0.707
        56 -10.3569     97.9939    154.0184   1.2457542223e+02   3.1784513547e+01     0.267501    0.2367411  70.65 0.0007976842    1.070    0.066
        57 -10.1728    157.1420     75.4852   9.4679192777e+01   3.5246032575e+01    0.2748642    0.2134538 -35.15 0.0007215025    1.275    0.216
        58 -11.5989      2.2327     91.6710   1.3968127469e+02   5.5280631853e+01    0.5510485    0.1644316 -82.60  0.002402322    3.086    0.676
        59 -10.4602      2.1587     61.1755   1.3601730262e+02   6.1823318621e+01    0.2210866    0.1163614  81.66  0.001249164    2.068    0.516
        60 -11.8652      3.1588     41.0474   1.3214135289e+02   6.6073134966e+01     0.401645    0.2409956 -74.01  0.002591304    1.354    0.261
        61  -9.7816     73.9664    250.0269   1.3759257533e+02   1.9835677790e+01    0.1223946    0.1049075  38.11  0.001092074    1.672    0.402
        62 -10.4644     99.0878    249.1436   1.3386130937e+02   1.6878961309e+01    0.1435969    0.1077118  46.70 0.0009705104    1.271    0.213
        63 -11.5309      3.2896     20.1501   1.2690697559e+02   7.0403450514e+01    0.2926136    0.1948146 -53.15  0.001552678    1.129    0.114
