#   1 NUMBER                 Running object number                                     
#   2 MAG_AUTO               Kron-like elliptical aperture magnitude                    [mag]
#   3 X_IMAGE                Object position along x                                    [pixel]
#   4 Y_IMAGE                Object position along y                                    [pixel]
#   5 X_WORLD                Barycenter position along world x axis                     [deg]
#   6 Y_WORLD                Barycenter position along world y axis                     [deg]
#   7 A_WORLD                Profile RMS along major axis (world units)                 [deg]
#   8 B_WORLD                Profile RMS along minor axis (world units)                 [deg]
#   9 THETA_WORLD            Position angle (CCW/world-x)                               [deg]
#  10 FWHM_WORLD             FWHM assuming a gaussian core                              [deg]
#  11 ELONGATION             A_IMAGE/B_IMAGE                                           
#  12 ELLIPTICITY            1 - B_IMAGE/A_IMAGE                                       
         1 -11.1078     80.6294     26.5336   4.0580669892e+01   6.1301448474e+01    0.5876469     0.210435 -37.75  0.002117282    2.892    0.654
         2 -12.3194     24.2530     18.3166   6.5327058253e+01   7.3750597872e+01    0.3921507     0.255279 -20.94 0.0002579155    1.682    0.405
         3 -10.9995     25.9152     12.9075   6.0698696739e+01   7.4495999787e+01     0.281189    0.2624115 -67.84 0.0008787637    1.450    0.311
         4 -10.0135     22.8251      8.8419   6.0380819323e+01   7.5659911108e+01    0.2207927    0.1725356  22.94 0.0006477055    1.183    0.155
         5 -11.9871    125.2050     17.5353   2.6074016859e+01   5.1086707390e+01     0.396938    0.2521135 -14.18 0.0003161919    1.852    0.460
         6 -10.8537    240.1137     15.0139   1.4766873653e+01   2.5491878106e+01    0.1805937    0.1621289   1.85  0.001143621    1.423    0.297
         7  -9.5437     36.0273      8.4724   5.0570330257e+01   7.3487716857e+01    0.2009033    0.1213587  42.21  0.000397654    1.542    0.352
         8 -11.3836     35.5592     11.9549   5.3253150445e+01   7.3049984045e+01    0.4537683    0.2866806  60.12  0.001802371    2.384    0.580
         9 -11.0436     42.1181     10.1607   4.8057032947e+01   7.2074089569e+01    0.4894363    0.2449707  44.51  0.001432798    1.832    0.454
        10 -11.3426    203.3806     11.8310   1.6144827537e+01   3.2961161122e+01    0.2068107    0.1946717 -43.30 0.0002059585    1.158    0.136
        11 -10.3605     90.5910     11.1663   3.0276019044e+01   6.0667302338e+01    0.5156809    0.2445367  29.16   0.00151165    3.122    0.680
        12 -11.9379    125.5464     10.0842   2.3199968815e+01   5.1716352794e+01    0.5603774    0.2784658 -45.73  0.002484202    2.098    0.523
        13 -12.6356     55.0009      9.6989   4.1254144422e+01   6.9421555092e+01    0.5140769    0.3441715  34.36  0.002660488    1.441    0.306
        14 -10.1449     11.5038     11.0852   7.1898632855e+01   7.6691697110e+01    0.2391357    0.2018193 -82.52  0.001439317    1.711    0.415
        15 -10.2151      8.0446      8.9112   7.3966694960e+01   7.7464457561e+01     0.248009    0.1721923  51.48 0.0004400832    2.088    0.521
        16 -10.2949    164.9164     10.9493   1.8902381645e+01   4.1746645918e+01      0.21327    0.1290188 -59.17  0.000586724    1.621    0.383
        17 -10.3491    133.5142     10.9349   2.2403427193e+01   4.9584081846e+01     0.224363    0.1681392  76.44   0.00122709    1.235    0.190
        18 -10.1768     97.0081     10.4233   2.8443280148e+01   5.9094589931e+01    0.2667685    0.1792071 -45.85  0.001335603    1.640    0.390
        19  -9.7092     79.1569     10.8178   3.3158439219e+01   6.3582192084e+01    0.2063921    0.1406755  42.56 0.0006200088    1.387    0.279
        20 -10.0219    176.9257      9.9483   1.7566674351e+01   3.8997864120e+01    0.1892618    0.1622946 -58.57 0.0003146554    1.043    0.042
        21  -9.9576      3.4276      8.5524   7.8552582011e+01   7.7930010659e+01    0.3645521    0.1956096 -57.40  0.001587739    1.824    0.452
        22  -9.5844    108.6484      9.1672   2.5572751793e+01   5.6193641705e+01     0.173997    0.1312495   2.24 0.0009119275    1.580    0.367
        23  -9.6245    116.5204      8.5029   2.3959659165e+01   5.4202966311e+01    0.1382568    0.1258412  78.84 -5.576892e-06    1.010    0.010
        24 -11.1937     29.5693      7.0088   5.3893482234e+01   7.4867357480e+01    0.4346909    0.3404625 -58.05  0.002441522    1.840    0.457
        25 -10.2179    247.1476      5.9131   1.2533395145e+01   2.5056543585e+01       0.1604    0.1062565 -50.49 0.0003031807    1.179    0.152
        26 -10.8600    216.7651      5.4021   1.3815640606e+01   3.0785466596e+01    0.1450105    0.1004038  68.80 0.0003257685    1.597    0.374
        27  -9.6459    168.3262      6.3214   1.7223216024e+01   4.1339412199e+01    0.1283937   0.09162311  41.19  0.000493121    1.684    0.406
        28 -10.6849    151.6147      5.9078   1.8603604557e+01   4.5444968166e+01    0.2432539    0.1796757  78.87 0.0003610403    1.258    0.205
        29  -9.6620    112.1638      5.8814   2.3589606723e+01   5.5566556553e+01    0.1963036    0.1505747  44.33  0.001069251    1.324    0.245
        30  -9.5205     88.5449      6.4573   2.8472460290e+01   6.1641269526e+01    0.1423607    0.1217182  48.63 0.0001180058    1.088    0.081
        31  -9.0045     70.0000      5.9746   3.3319780439e+01   6.6330081811e+01    0.2060297   0.07929403 -23.11 0.0007890947    2.851    0.649
        32 -11.6143    194.4593      4.5384   1.4861846614e+01   3.5522839142e+01    0.2929172    0.1924106  63.67 -1.579445e-05    1.631    0.387
        33 -10.6432    104.5904      4.2013   2.4152015198e+01   5.7683590153e+01    0.2450075    0.1967678  84.67 0.0004064251    1.197    0.165
        34 -10.4873    224.1822      3.7793   1.3078249360e+01   2.9467142117e+01    0.1335822    0.1289669   4.48 0.0003541307    1.327    0.246
        35 -10.1324     48.5088      4.2536   4.0693424558e+01   7.1497260848e+01    0.2363609    0.1729442  50.02  0.001308143    1.258    0.205
        36  -9.7640     34.5431      3.7259   4.8073741004e+01   7.4430600568e+01    0.2329367    0.1264552 -25.38 0.0009366572    1.997    0.499
        37 -10.2014    148.5065      2.4996   1.7793583120e+01   4.6501226967e+01    0.2262161    0.2042205 -75.36 0.0006061723    1.026    0.025
        38 -12.6573     20.1816      2.2698   5.7680090855e+01   7.7134195160e+01    0.3311438    0.2525379  16.08  0.001993489    1.197    0.164
        39 -10.4910     13.6529      3.0413   6.4309566755e+01   7.7931135510e+01    0.2235596    0.1735819  30.47  0.000827613    1.324    0.245
        40 -10.7607    138.2358      2.0333   1.8672935721e+01   4.9132320108e+01    0.2293121    0.1757448  88.99 0.0003237526    1.201    0.167
        41  -9.6402    245.2530      1.3615   1.1668141530e+01   2.5778216620e+01    0.1280848   0.08517896 -71.75 0.0003509419    1.418    0.295
        42  -9.5194     84.8224      1.2943   2.6736421307e+01   6.3040109025e+01    0.1939792    0.1041085  59.37 0.0003402349    1.589    0.371
        43 -10.5988     30.0547      1.3333   4.9226203021e+01   7.5594404986e+01    0.2324792     0.111356  45.11 0.0003718959    1.947    0.486
        44  -9.9772     95.7580    134.1676   7.0197831391e+01   3.6256643832e+01    0.2574552    0.1848984 -57.19   0.00124808    1.504    0.335
        45  -9.2772    109.6795    250.7208   8.2887854654e+01   1.2095276413e+01    0.1116732   0.07398685   3.15 0.0003033171    1.582    0.368
        46 -11.0247      8.9747    250.2651   1.0412103487e+02   2.1833191370e+01    0.4437977    0.1159621  23.93  0.002096845    2.909    0.656
        47 -11.5533      1.7194    233.6966   1.0525919447e+02   2.5238117191e+01     0.274323    0.1681082 -86.35 0.0009685336    1.813    0.449
        48 -11.1056      2.5617    248.0212   1.0537932626e+02   2.2690133830e+01    0.3022785    0.2159462  46.20  0.001496398    1.058    0.055
        49 -11.9697     10.0005    245.5406   1.0379144111e+02   2.2550566233e+01    0.2715833    0.2019959 -61.85  0.002046775    1.775    0.437
        50 -12.8857      5.1572    241.9346   1.0471381588e+02   2.3536147024e+01    0.5581735    0.3853151  64.44  0.003371128    1.337    0.252
        51  -9.4513    105.0182    133.0460   6.7215200102e+01   3.4944089217e+01    0.1775463    0.1665888  19.20  0.000459816    1.004    0.004
        52 -10.6330     14.5708    129.9860   9.7178703819e+01   4.7095728496e+01    0.2593915    0.1649079  18.18 0.0005680788    1.622    0.383
        53  -9.7063     52.5210    129.5684   8.3589044719e+01   4.3634214692e+01    0.1406425    0.1364792  37.15 0.0001950846    1.018    0.017
        54 -10.1324     27.4984    128.8873   9.2443290740e+01   4.6387224601e+01    0.3433427    0.1772292  60.49 0.0008145671    2.193    0.544
        55 -10.7660    247.4830    127.0065   3.7506857216e+01   1.1658608846e+01    0.1754956   0.09010059 -30.97 0.0005340067    1.553    0.356
        56  -9.6344     78.4967    126.5335   7.4132477001e+01   4.0805638187e+01    0.1474305    0.1409175  33.61 1.542513e-05    1.015    0.015
        57  -9.4764     65.1231    125.1566   7.8419202781e+01   4.3102851125e+01    0.1941139    0.1620036  57.56  0.001011234    1.257    0.204
        58  -9.5225     30.5561    124.4880   9.0817839996e+01   4.7248593395e+01     0.136119    0.1312793 -60.86 2.648749e-05    1.065    0.061
        59 -10.1368    208.6018    123.2057   4.2147608270e+01   1.8067823822e+01    0.1791645    0.1708183  32.20 0.0006040937    1.268    0.211
        60 -11.5144     11.3818    120.6810   9.7570770923e+01   4.9686219012e+01    0.5101183    0.2855071 -18.92  0.001053098    2.266    0.559
        61 -10.1085     26.9861    121.3071   9.1766847927e+01   4.8382015026e+01    0.1926616    0.1754781  31.32  0.001131144    1.109    0.098
        62  -9.4005     82.5210    118.4268   7.1095177829e+01   4.2103938493e+01     0.148799     0.142114  27.74 0.0001128413    1.011    0.011
        63 -11.2448     69.2470    115.1144   7.4986035649e+01   4.4989091205e+01    0.3396743     0.293156 -89.60 0.0003328205    1.299    0.230
        64 -10.7087     39.6352    114.1252   8.5923408598e+01   4.9039766504e+01    0.4351029      0.20841 -50.20  0.001801391    2.087    0.521
        65 -13.0376     23.2480    113.3081   9.2247889698e+01   5.0766672651e+01     0.321908      0.29685  55.59 0.0005098503    1.078    0.072
        66 -10.0874     63.1964    110.0265   7.6127757751e+01   4.7138345179e+01    0.2746742    0.1682463  41.20  0.000781486    1.617    0.382
        67 -10.8445     13.8228    107.4842   9.5373002993e+01   5.2960663944e+01    0.3015083    0.1398601 -56.16   0.00131408    2.007    0.502
        68 -11.0266      2.7310    111.9308   1.0019684935e+02   5.2415509656e+01    0.2643746    0.2024858 -87.35 0.0003296658    1.214    0.176
        69 -10.9484      6.0791    105.9303   9.8388890930e+01   5.3808252383e+01    0.4629795    0.1696687 -85.84  0.001492114    2.778    0.640
        70 -10.6829     17.8354    105.3966   9.3485276342e+01   5.3238966373e+01    0.2624778    0.1624265  69.39 0.0004126839    1.781    0.439
        71 -10.7210    247.7431    101.9636   3.2509523654e+01   1.4686266607e+01     0.174895    0.1581309 -12.33 0.0006820282    1.164    0.141
        72  -9.8630    112.7464    102.3754   5.7615028697e+01   4.0154081939e+01    0.2053236    0.1399987  32.31 0.0002950002    1.511    0.338
        73 -11.2907     20.9705     92.4797   9.0374475665e+01   5.6397024380e+01     0.581039    0.2542365 -31.76  0.002100172    2.990    0.666
        74 -11.5790     18.5851     98.3751   9.2277960766e+01   5.5026921825e+01    0.4384206    0.2444927  40.30  0.001552955    1.826    0.452
        75  -9.6837    217.9055     98.4831   3.5398934685e+01   1.9937976338e+01    0.1614575    0.1231223  48.65 0.0005624064    1.511    0.338
        76 -11.7446     58.1060     92.5210   7.4120513035e+01   5.2233988040e+01    0.4845437    0.3922055 -66.65  0.001264155    1.301    0.231
        77 -11.0878    125.3290     93.0557   5.1557035868e+01   3.9416573304e+01    0.2581271    0.2247458  37.30 0.0002274961    1.132    0.117
        78 -10.2864     44.0166     93.9770   8.0407334661e+01   5.3745069421e+01    0.2232061     0.211935 -25.75 0.0004769476    1.057    0.054
        79  -9.9230     10.5082     94.4308   9.5345665208e+01   5.6577644984e+01    0.2327863     0.126338 -76.65 0.0006078772    1.728    0.421
        80 -10.1925      7.6741     91.2032   9.6255942586e+01   5.7575092006e+01    0.1979979     0.172644  79.37 0.0005266476    1.141    0.124
        81 -12.4970    159.9739     89.2661   4.2561738212e+01   3.2611717581e+01    0.4962048    0.2970924  34.31 0.0002720641    1.974    0.494
        82 -11.3051    113.8629     91.9475   5.4395851631e+01   4.2078203693e+01    0.2882169     0.225859  31.58  0.000250836    1.305    0.233
        83 -10.7309    105.7143     91.7074   5.6742532024e+01   4.3829349883e+01    0.2716095    0.2599318  80.87 0.0003890797    1.143    0.125
        84  -9.3923      1.3874     90.4520   9.9035545575e+01   5.8055106680e+01     0.287482   0.06223042 -63.06 0.0009622229    3.351    0.702
        85  -9.0440     44.2884     88.6393   7.9106485545e+01   5.5072422336e+01    0.1513653    0.1099817  67.41 0.0007024777    1.689    0.408
        86 -13.7743     65.4240     81.7457   6.8197078147e+01   5.3699145507e+01    0.5897966    0.4641955  56.79 0.0007978134    1.443    0.307
        87  -9.6306     17.5248     84.9586   9.0811069047e+01   5.8616164889e+01    0.2099556    0.1286846 -70.45 0.0004426832    1.533    0.348
        88 -10.4431      4.6545     83.3122   9.6780548473e+01   5.9780436788e+01    0.2864353    0.1499882  36.20 0.0009335598    1.994    0.498
        89 -10.3040     86.2495     78.5368   5.9184342414e+01   5.0596840501e+01    0.6306604    0.3924463  -3.88  0.002142712    3.345    0.701
        90 -11.0746     47.9389     79.4161   7.5169160244e+01   5.6911940669e+01    0.2842736    0.2526532 -72.44 0.0008368309    1.198    0.165
        91 -10.7526      9.2344     79.5933   9.4065527245e+01   6.0526930308e+01     0.415014    0.1705051  41.41  0.001234743    2.628    0.620
        92 -11.1479      5.1654     74.8990   9.5491757835e+01   6.1945782025e+01    0.2999852    0.1726602 -80.34  0.001028931    1.669    0.401
        93 -11.1370    179.1386     76.7137   3.5798042721e+01   3.0475304291e+01     0.494251     0.270914  54.29  0.001624495    1.918    0.479
        94 -10.0215     74.9662     76.7290   6.2829613520e+01   5.3170000035e+01    0.2020679    0.1856257  39.22  0.000201561    1.083    0.077
        95 -10.0347     53.5475     76.3117   7.1745281751e+01   5.6870848444e+01    0.3079416    0.2132107  54.37   0.00142102    1.715    0.417
        96 -10.2086     11.8461     76.5536   9.2296535126e+01   6.1171098898e+01    0.1933162    0.1345005   7.96  0.001006507    1.536    0.349
        97  -8.9151    244.5456     72.4875   2.6739039547e+01   1.8694231876e+01     0.116033   0.09177727 -35.31 0.0002816539    1.033    0.032
        98  -9.9461    117.3695     71.9311   4.7294619015e+01   4.5177029195e+01    0.3272283    0.1877994  31.09  0.001276268    2.269    0.559
        99  -9.9063    105.8168     71.8740   5.0570333900e+01   4.7801995773e+01    0.1997606    0.1733735  72.44   0.00044539    1.298    0.230
       100  -9.5393    141.9665     71.7701   4.1301409869e+01   3.9523406489e+01    0.1903376    0.1195466  53.36 0.0004646476    1.592    0.372
       101 -10.3633     75.7494     69.7898   6.0243000140e+01   5.4545771867e+01    0.3686527    0.3055187  48.22  0.001880405    1.236    0.191
       102 -12.6601     81.0326     66.9710   5.7238669332e+01   5.4094999163e+01    0.3429755    0.3065769 -21.61 0.0004686497    1.160    0.138
       103 -10.0949     83.9757     61.9441   5.4347093294e+01   5.4504583809e+01    0.2311507    0.2230912  65.83 0.0005961913    1.108    0.098
       104  -9.3852     91.2035     70.1144   5.4673870218e+01   5.1336845450e+01    0.1979857    0.1758779  83.81 0.0003441829    1.327    0.246
       105  -9.3721     39.3300     70.6713   7.6916522811e+01   6.0182937766e+01    0.1492911    0.1094386  62.85 0.0007051436    1.712    0.416
       106 -10.3913     11.3067     70.1069   9.1520434389e+01   6.2869568356e+01    0.2290636    0.1768353 -15.40 0.0007517284    1.353    0.261
       107 -10.4041    131.4565     68.7534   4.2729174150e+01   4.2470229829e+01    0.2648254    0.2283932  -0.70 0.0002480526    1.308    0.236
       108 -10.7053     45.4768     68.4270   7.3210852912e+01   5.9926083320e+01    0.3029232    0.2444747  66.52 0.0009975297    1.521    0.342
       109 -11.9507    211.9626     67.3533   2.8980169262e+01   2.5100228592e+01    0.2273949    0.1887453 -37.90 0.0003293674    1.050    0.048
       110  -9.5518    154.9800     67.2564   3.7344261694e+01   3.7236872933e+01    0.1871003    0.1828616  86.90            0    1.041    0.040
       111 -10.9538      7.5663     63.0208   9.2369442829e+01   6.4889300015e+01    0.3142701    0.2691255 -52.80 0.0007074854    1.057    0.054
       112 -11.9133     11.6964     59.6934   8.9326683345e+01   6.5502843719e+01    0.3036239    0.2574823  -5.12 0.0002761465    1.209    0.173
       113 -11.8562     17.1522     64.5806   8.7225112367e+01   6.3898065062e+01    0.3825136    0.3496352 -48.44 0.0006108574    1.015    0.015
       114 -13.6229     21.0062     58.4608   8.3552305353e+01   6.5126087740e+01    0.4422865    0.3397993 -54.24 0.0008528344    1.210    0.173
       115 -10.1545     63.9716     65.6016   6.3680870562e+01   5.7647579279e+01    0.2943622    0.1944895 -33.68 0.0009719241    1.662    0.398
       116  -9.0614     49.9232     67.0000   7.0602746515e+01   5.9626917154e+01    0.2315038   0.08216561  31.34 0.0007143226    2.811    0.644
       117  -9.2514    166.4460     64.5113   3.4535213546e+01   3.5029387876e+01    0.1369983    0.1300906 -45.75 1.837417e-05    1.011    0.011
       118 -11.0731    128.3281     63.5671   4.1798988735e+01   4.4073585851e+01    0.2419489    0.2348262   3.43 0.0002057148    1.059    0.056
       119 -10.8121     51.5095     62.9805   6.8513564483e+01   6.0319301822e+01    0.4763573    0.2957867 -79.04  0.001858567    2.778    0.640
       120  -9.7678    119.9431     62.6105   4.3539408501e+01   4.6221190627e+01    0.1972982    0.1810012  50.15  0.001063099    1.065    0.061
       121 -11.0291     97.8826     60.7513   4.9173571917e+01   5.1681071303e+01    0.2656426    0.2408677  62.26 0.0003577581    1.146    0.127
       122 -10.2130     38.4612     59.8308   7.4127021259e+01   6.2914389193e+01    0.3146472     0.210115  11.26 0.0009511358    1.660    0.398
       123 -11.4626     58.6486     58.9420   6.3697237744e+01   6.0046185829e+01    0.3230078    0.2145025  36.23 0.0006698791    1.477    0.323
       124  -9.5926    130.7187     57.2949   3.9184953686e+01   4.4510500758e+01    0.1448561    0.1122914 -70.24 0.0002730136    1.536    0.349
       125  -9.8290     71.1881     56.2956   5.7192689875e+01   5.8260942740e+01     0.271803     0.203709 -79.90 0.0008585365    2.019    0.505
       126 -10.2398      4.3095     57.2989   9.3280949405e+01   6.6495207514e+01    0.1439755   0.08401709 -40.38 0.0007010389    1.598    0.374
       127  -9.8023    229.1783     56.3711   2.4660206598e+01   2.3205672760e+01    0.1532607    0.1340778 -51.61 0.0005503578    1.108    0.097
       128 -10.6932     54.0454     55.7468   6.4693719440e+01   6.1529090148e+01    0.2265493    0.2002331 -40.06 0.0004326116    1.134    0.119
       129 -12.4833    114.9093     53.4822   4.1660457708e+01   4.8938406827e+01    0.3095426    0.3038998 -46.54 0.0003894359    1.051    0.049
       130 -11.2188     86.2315     54.2229   5.0625291461e+01   5.5496407436e+01    0.4037277    0.2471107  36.15 0.0007662065    1.712    0.416
       131  -9.7557     33.7369     55.2122   7.5226521713e+01   6.4597244172e+01     0.217648     0.113346  11.88  0.000818368    2.387    0.581
       132 -10.1951     98.4569     51.9145   4.5707687802e+01   5.3120581066e+01    0.4048359    0.2458212 -61.65 0.0005602569    2.463    0.594
       133 -10.7980     66.1385     52.8159   5.7970464648e+01   5.9954366343e+01    0.4520468    0.2036722  38.10   0.00141373    2.209    0.547
       134 -12.1927     62.0200     49.7997   5.8584164280e+01   6.1350947900e+01    0.3439407     0.254049 -45.11 0.0003671365    1.400    0.286
       135 -10.1380      1.4107     53.9891   9.4487034099e+01   6.7445506265e+01    0.1926459    0.1175987 -71.38            0    1.500    0.333
       136 -10.7413      4.3994     51.7859   9.2198535658e+01   6.7876674705e+01    0.3945922    0.1401173 -50.32   0.00138566    2.317    0.568
       137 -10.0872    225.1950     52.8469   2.4227408148e+01   2.4339958485e+01     0.186437    0.1381286 -49.24 0.0005028766    1.217    0.178
       138  -9.2387    182.4688     53.5233   2.9109348418e+01   3.2945238522e+01    0.1306769    0.1223721 -44.24 0.0002127489    1.024    0.023
       139  -9.4490    148.7069     52.3015   3.3961355008e+01   4.0912280083e+01    0.1442067    0.1053025 -65.66 0.0002463862    1.571    0.363
       140 -10.3903    138.3020     50.2522   3.5261927151e+01   4.3724736242e+01    0.2335843    0.2083958  29.72 0.0005061205    1.212    0.175
       141 -11.4156    105.1056     47.8603   4.2211026429e+01   5.2209839618e+01    0.7267102    0.3632296 -55.13  0.002519833    2.971    0.663
       142 -10.2594     78.1989     50.0244   5.1907411201e+01   5.8025239930e+01    0.2452436    0.2055497  45.92 0.0004263833    1.161    0.139
       143 -10.5169    159.0897     48.8152   3.1137951352e+01   3.8911582955e+01    0.2413487    0.1719471 -50.27  0.000262061    1.408    0.290
       144  -9.5995    155.3020     47.3128   3.1285696216e+01   4.0013146042e+01    0.2585769    0.1628267  59.76  0.001258466    1.573    0.364
       145 -10.2366     83.0127     48.7582   4.9602036563e+01   5.7203707669e+01    0.3008788    0.1809614 -62.10  0.001001702    2.638    0.621
       146  -9.6650     13.9959     48.6724   8.5273749530e+01   6.8087005591e+01    0.1832052    0.1699131  -7.02 0.0004038335    1.091    0.083
       147  -9.9737     65.7907     46.4632   5.5501322666e+01   6.1272468766e+01    0.3077527    0.2595144  77.81  0.001383141    1.539    0.350
       148  -9.8542     54.0248     46.8709   6.1171479069e+01   6.3410466313e+01    0.2389145    0.1706353  -9.68  0.000895816    1.767    0.434
       149 -10.1022    129.5846     45.9504   3.5578801377e+01   4.6484359407e+01    0.2261068     0.186755  48.00  0.001197962    1.206    0.171
       150  -9.5581     79.4185     45.4849   4.9565485594e+01   5.8581443895e+01    0.1462322    0.1395456  24.32 0.0008047489    1.013    0.013
       151 -10.1639     17.0617     44.2059   8.1940316949e+01   6.8923246435e+01    0.3887351    0.2257379  62.08   0.00166509    2.714    0.632
       152  -9.8331      1.7585     45.4003   9.2656241547e+01   6.9571728065e+01     0.184635    0.1137723 -15.09  0.000947826    1.665    0.399
       153 -10.3409     26.2147     43.1567   7.5554637726e+01   6.8273448850e+01    0.4721573    0.2439924   6.32  0.001652994    2.527    0.604
       154 -10.5551    116.7122     41.3043   3.6755065433e+01   5.0347541779e+01     0.373734    0.1898009 -42.47  0.001203392    2.057    0.514
       155 -11.4501     37.3050     41.4377   6.7980748359e+01   6.7238656960e+01    0.4508981    0.2852183  39.45   0.00193184    1.643    0.391
       156 -11.8416    183.1769     39.9248   2.5314906835e+01   3.4456228078e+01    0.4550031    0.2806949 -77.99  0.002266073    1.962    0.490
       157 -11.5414    141.5431     41.0826   3.1620645423e+01   4.4186106007e+01    0.2675492    0.2165076  70.99  0.000375843    1.219    0.180
       158  -9.8272    110.7899     41.2692   3.8176701699e+01   5.1825418835e+01      0.23052    0.1834501 -87.40  0.001153797    1.476    0.322
       159 -11.4087     90.9230     39.8875   4.3228206132e+01   5.6872714690e+01    0.2469561    0.2440488  50.18  0.001416738    1.055    0.052
       160  -9.9215     58.3334     41.1686   5.6583827800e+01   6.3742698507e+01     0.284674    0.1901764  17.86  0.001137429    1.837    0.456
       161 -10.6627     64.9828     39.6243   5.2837236727e+01   6.2707492461e+01    0.4893574    0.2340537  55.26  0.001550679    2.615    0.618
       162 -11.0466     81.8729     38.5285   4.5671549292e+01   5.9205419266e+01    0.3248494    0.2693408  41.10 0.0009892486    1.141    0.124
       163 -10.6514     51.5704     38.6577   5.8790008656e+01   6.5484188658e+01    0.3019841     0.231736  52.97 0.0008366056    1.493    0.330
       164 -11.7053    121.5118     36.5124   3.3897981277e+01   4.9802649782e+01    0.4470156    0.2947212 -36.19  0.001830115    1.551    0.355
       165  -9.7155    102.8768     36.1576   3.8198040984e+01   5.4523210765e+01    0.2089804    0.1873036 -83.44   0.00027054    1.216    0.178
       166 -10.0829     67.3424     36.1473   5.0207924669e+01   6.2824112901e+01    0.2002332    0.1319649 -46.95 0.0004773509    1.698    0.411
       167  -9.8314      3.1371     35.8138   8.9418099534e+01   7.1840606141e+01    0.1811267    0.1279983 -36.10 0.0002247834    1.269    0.212
       168 -10.2587     45.4933     34.0149   5.9844909900e+01   6.7452226745e+01    0.3466251    0.1367879 -45.01  0.001133165    2.587    0.614
       169  -9.2403     27.9521     33.7235   7.0551609005e+01   7.0153436281e+01    0.2249566    0.1548885 -36.39  0.000561957    1.402    0.287
       170  -9.2236      6.9687     34.7484   8.6199464948e+01   7.1888890751e+01    0.1684731    0.1087765   7.82 0.0008571319    1.579    0.367
       171 -12.0112    212.9708     31.9272   2.0371894159e+01   2.9004675457e+01    0.2230285    0.1885299 -47.93 0.0003110487    1.005    0.005
       172 -10.1462    127.5626     32.7846   3.1308717839e+01   4.8751749454e+01    0.2545431    0.1833871  66.65 0.0005411365    1.332    0.249
       173  -9.5139     55.1633     32.8528   5.4183343504e+01   6.5885301865e+01    0.1864259    0.1543042   8.60 0.0002374506    1.251    0.201
       174  -9.6846    191.9515     38.2393   2.3898937777e+01   3.2714714315e+01    0.1631536    0.1496598 -85.48 0.0001952405    1.112    0.101
       175 -11.4555    144.4268     31.0352   2.7797524052e+01   4.4714401846e+01    0.3431104    0.2337578 -41.79 3.507913e-05    1.450    0.310
       176  -9.5577     89.3581     31.3055   3.9990453857e+01   5.8531209998e+01    0.1559039    0.1053949  28.46 0.0007040223    1.724    0.420
       177 -12.3423     11.1422     29.8678   8.1285520190e+01   7.2731072829e+01    0.3106784    0.2340566  31.91  0.001784246    1.450    0.310
       178 -10.2323      1.3235     30.5147   8.9376437785e+01   7.3178934581e+01      0.21776    0.1105806 -68.58  0.000722228    1.864    0.464
       179 -11.1500    135.7010     29.0913   2.8536222575e+01   4.7135135507e+01    0.2406077    0.2052519  75.49 0.0002966294    1.122    0.109
       180 -10.4655    131.9207     26.2784   2.8174408354e+01   4.8419309725e+01    0.2308719    0.1952258 -37.64 0.0005900471    1.216    0.178
       181 -10.3643    130.0194     22.5314   2.7136196652e+01   4.9321950445e+01    0.2724453     0.219391  39.73  0.001280964    1.337    0.252
       182  -9.8400     39.0674     30.0121   6.1595429104e+01   6.9297031892e+01     0.215127    0.1558249  -3.79 0.0004961906    1.594    0.372
       183 -10.0086    152.0362     29.0099   2.6018731617e+01   4.3059086670e+01    0.2002575    0.1863073 -74.56 0.0003890705    1.014    0.014
       184 -12.1407     18.1694    248.3722   1.0217180929e+02   2.1427407796e+01    0.4207958    0.2172213   9.55  0.002092659    2.315    0.568
       185  -9.5843    162.7628     27.8387   2.4253209070e+01   4.0575182002e+01    0.1885005    0.1420351 -64.30  0.001040251    1.320    0.243
       186 -10.1194    216.8717     25.6500   1.8574572460e+01   2.8869102317e+01     0.180125    0.1431511 -28.43  0.000271832    1.219    0.179
       187 -10.2520     90.4747     25.1244   3.6865059776e+01   5.9094836363e+01    0.3216792    0.1989209 -50.80  0.001362615    1.942    0.485
       188 -10.0138     59.5867     24.7070   4.7873344097e+01   6.6337483527e+01    0.3514268    0.1329127 -38.10  0.001319791    2.762    0.638
       189  -9.4319    103.9569     24.9922   3.3282550173e+01   5.5723038852e+01    0.1722527    0.1600213  59.88 0.0003179164    1.002    0.002
       190 -10.5902     41.3491     22.1352   5.5949845323e+01   7.0343338260e+01    0.3467195     0.260446 -86.34 0.0009083264    2.560    0.609
       191 -10.2306     52.1562     23.8395   5.0966531421e+01   6.8008364446e+01    0.2477071    0.2144137 -42.08  0.001141276    1.291    0.225
       192 -11.5121     47.8010     23.3815   5.2992736699e+01   6.8936684584e+01    0.2762303    0.2436373  13.30 0.0002808189    1.053    0.051
       193 -11.0058     33.2929     23.9777   6.2076196762e+01   7.1359749499e+01    0.2647649    0.2140218  31.46 0.0002876564    1.219    0.180
       194 -10.8066     32.6446     20.3046   6.0427142736e+01   7.2138306782e+01    0.2753636    0.2086198  -2.75 0.0006257721    1.388    0.279
       195 -10.0749     25.8583     24.5930   6.7597754284e+01   7.2311578587e+01    0.3283386    0.1286406 -47.19  0.001159146    2.443    0.591
       196 -10.6203    212.5522     23.3737   1.8342374255e+01   2.9962044984e+01    0.2444782    0.1104037 -64.64  0.001107541    2.565    0.610
       197 -10.2869     14.2897     15.8924   7.2152149786e+01   7.5442987812e+01    0.2371013    0.2087436 -29.92 0.0009221357    1.106    0.096
       198 -11.4147     16.7287     20.8300   7.2724451291e+01   7.4175895696e+01    0.4530231     0.331463  19.72  0.001258002    1.332    0.249
       199 -10.2422    131.3654    247.1045   7.8041094480e+01   1.0201587717e+01    0.1522605    0.1245121  12.68  0.000788886    1.125    0.111
       200 -10.3258    116.0029    246.9203   8.1195569576e+01   1.1953010155e+01    0.1778363    0.1372153  20.73 0.0006537154    1.035    0.034
       201  -9.4982    230.2053    247.3895   6.0128559286e+01  -2.7720441787e-01    0.1245926   0.07394388  23.41 0.0004860028    1.498    0.333
       202 -10.0407    200.5722     21.7792   1.8849324983e+01   3.2607557199e+01    0.1717887   0.09576989 -39.98  0.000432032    1.530    0.346
       203  -9.7553    100.3949     22.2020   3.2939305059e+01   5.6962918098e+01     0.205573    0.1950829 -43.31 0.0007221671    1.129    0.114
       204  -9.7579     97.2489     22.0268   3.3640703525e+01   5.7781929162e+01    0.1857329    0.1799575  62.14  0.001088165    1.047    0.045
       205 -10.8272      2.4369     20.4025   8.5056461626e+01   7.5446255867e+01    0.2623617    0.2109981  48.08 0.0008649259    1.544    0.353
       206  -9.9494    113.7859     20.9802   2.9484184990e+01   5.3668737386e+01    0.1811023    0.1164747 -24.81 0.0005871031    1.680    0.405
       207  -9.8277    106.3251     21.5255   3.1275484787e+01   5.5526457468e+01    0.2003676    0.1200529  51.88 0.0009254673    1.548    0.354
       208  -9.9787     84.1148     21.0977   3.6848934998e+01   6.1173973573e+01    0.2284991    0.1809528  30.15  0.001209563    1.304    0.233
       209 -10.6795    163.4777     19.9678   2.1777078580e+01   4.1229861286e+01    0.2298185    0.1843559  80.29 0.0003564105    1.202    0.168
       210 -10.0788     41.2345    245.7784   9.7176431999e+01   1.9882326815e+01    0.1971041    0.1027435 -65.08  0.001204428    2.377    0.579
       211 -10.7199     70.6625     18.5659   4.0048948150e+01   6.4727382289e+01    0.2410837    0.2335654 -67.71 0.0007254054    1.174    0.149
       212 -10.4358    225.5950     18.1564   1.6261582818e+01   2.7896461572e+01    0.1515625    0.1016547 -15.84 0.0004317241    1.651    0.394
       213 -10.3069     37.8181     18.1451   5.5754230790e+01   7.1647307514e+01    0.1895989    0.1860812  31.55 0.0004675125    1.229    0.186
       214  -9.4421    147.8265     16.7804   2.2584159151e+01   4.5397298879e+01    0.1829904    0.1401126 -60.44 0.0003074868    1.284    0.221
       215 -10.7519    159.6162     15.9466   2.0960311261e+01   4.2563063006e+01    0.2312531    0.1816534  76.87 0.0003518251    1.218    0.179
       216 -10.2465     38.8266    242.2693   9.7524869690e+01   2.0697779351e+01    0.2435363   0.07574517  55.71 0.0007233433    3.555    0.719
       217 -10.7745     52.1095    244.4214   9.4748583882e+01   1.9093851382e+01    0.2196386    0.1531329 -40.04  0.001466044    1.942    0.485
       218  -9.7972    147.4893    243.4936   7.4376372454e+01   8.8761864103e+00    0.1167344   0.08559345  14.56 0.0008104404    1.025    0.024
       219  -9.1006    194.5262    242.5915   6.5411548975e+01   3.7965388904e+00    0.1094008   0.07708104   9.08  0.000535074    1.032    0.031
       220  -9.0289    202.6527    241.6902   6.3875298774e+01   3.0477970250e+00    0.1143753   0.06239749   1.26 0.0007044884    1.708    0.414
       221 -10.3400     26.6894    237.2956   9.9952968472e+01   2.2630550919e+01    0.1192274   0.05964714  47.80 0.0001979207    1.594    0.373
       222 -10.2228    153.2909     12.7724   2.0642357258e+01   4.4418983671e+01    0.2200577    0.1633323 -85.55 0.0003177928    1.300    0.231
       223  -9.8893    185.4648     12.4605   1.7584753483e+01   3.6814690144e+01    0.1269183    0.1067896 -60.64 8.075905e-05    1.045    0.043
       224  -9.5472     59.1512    236.0929   9.2667534089e+01   1.9825173651e+01    0.1563406    0.1058662  44.72 0.0003451742    1.264    0.209
       225  -8.9869    204.2692    235.6471   6.2764622714e+01   3.5669680676e+00   0.08956834   0.07919439  13.13 0.0004097539    1.630    0.387
       226  -9.4293    239.2881    234.3229   5.6904619185e+01   1.8752450668e-01    0.1058767   0.05644275  -2.85 0.0007008418    1.604    0.377
       227 -10.8029     31.6124    232.9472   9.8673449007e+01   2.2979988171e+01    0.3112976    0.1121797  30.00   0.00120875    1.999    0.500
       228  -9.9442    245.5759    230.4887   5.5407966712e+01  -1.8071004708e-02    0.1665406   0.08011895  28.55 0.0006339308    1.962    0.490
       229 -10.7983      7.3107    228.9608   1.0393071126e+02   2.5684589439e+01    0.1527109    0.1263752  56.40  0.001167595    1.131    0.116
       230  -9.7567    140.0091    227.8432   7.3987683704e+01   1.1984753417e+01    0.1967971     0.116055  44.54  0.001099201    2.006    0.502
       231  -9.8137    223.5666    226.1987   5.8189349334e+01   2.6113235068e+00    0.1465669   0.07850771 -18.17 0.0004934177    1.639    0.390
       232  -9.3806    215.2672     10.6608   1.5132259976e+01   3.0619407532e+01    0.1254399   0.06685479 -51.50 0.0002319408    1.597    0.374
       233 -11.4783      2.5244    220.0148   1.0476905494e+02   2.7703067373e+01     0.372897    0.1161268  57.62  0.001779285    2.705    0.630
       234 -10.3293    170.2171     10.3703   1.8252173423e+01   4.0533287377e+01     0.181279    0.1101248 -85.62 0.0002627739    1.657    0.396
       235  -9.5323     86.0038     10.4499   3.1081517982e+01   6.1904326305e+01    0.2079513    0.1256257  61.58 0.0003253215    1.485    0.327
       236 -10.1244     19.1175    220.9114   1.0100146766e+02   2.6266114840e+01    0.3249619    0.1228578  56.50  0.001239455    2.419    0.587
       237 -10.6056      7.6441    220.9660   1.0363395646e+02   2.7149248116e+01    0.2145843    0.1000063 -84.71  0.001092221    2.339    0.572
       238  -9.6503    210.1526    215.8397   5.8861759835e+01   5.2624096379e+00    0.1599482    0.1013799  -3.02 0.0006439129    1.331    0.249
       239  -9.0701     85.6637    215.2236   8.4754536447e+01   2.0673672656e+01    0.1259732   0.07547652  43.27 0.0001624743    1.526    0.345
       240  -9.7712    111.3243    214.6680   7.8663845478e+01   1.7652936316e+01     0.125584   0.08543732  50.38 0.0004063475    1.706    0.414
       241 -10.0780    229.8278    208.9908   5.4575800395e+01   3.8905816525e+00    0.1467309     0.115699 -36.87  0.001067005    1.892    0.472
       242 -11.4928      4.3043    206.3554   1.0399119596e+02   3.0243968761e+01    0.3594593    0.2203318  48.92  0.002277023    1.310    0.237
       243 -10.3507     39.2501    207.1936   9.5462714912e+01   2.7187756269e+01    0.1925297    0.1463644  22.04 0.0004386666    1.237    0.191
       244  -9.4743    237.4163    186.7479   4.9788042974e+01   5.6389527453e+00    0.1562371   0.08206648 -20.06 0.0009425887    1.641    0.391
       245  -9.4510     21.9540    180.4495   9.8347709626e+01   3.4402706118e+01    0.1987569   0.06088041  42.47 0.0008084112    2.569    0.611
       246  -9.2048     37.6902    172.2700   9.3317824677e+01   3.4862652810e+01    0.1372255   0.08355086  51.25 0.0002185121    1.544    0.352
       247  -9.5096    229.4928    165.5421   4.7274144808e+01   9.2201118028e+00     0.117453   0.08954395  -8.29 0.0001089278    1.020    0.020
       248  -9.4511    240.6387    162.6952   4.5118799166e+01   8.1574069035e+00    0.1185912   0.07138412  -0.19 0.0007038548    1.731    0.422
       249  -9.3367     10.3507    161.3170   1.0060786572e+02   3.9675912958e+01    0.1287706   0.08969806 -38.11 0.0007047408    1.735    0.424
       250 -10.4211     29.5176    155.1889   9.4322282803e+01   3.9647596365e+01    0.2202732    0.1734029  29.94  0.000408555    1.209    0.173
       251  -9.1655     39.3022    151.6740   9.0889959580e+01   3.9585356343e+01    0.1463529   0.09133118  56.91 0.0004022649    1.640    0.390
       252 -10.2777     22.3485    149.8603   9.6153742961e+01   4.1547861098e+01    0.1950254    0.1535002  42.50 0.0009104992    1.177    0.151
       253 -10.5268      6.3498    145.0756   1.0097781965e+02   4.3845542611e+01    0.2254803     0.167446  36.77  0.000280779    1.273    0.214
       254 -11.5050     29.0741    139.2141   9.2977786530e+01   4.3630132146e+01    0.3173032    0.2271213 -83.34  0.000456691    1.404    0.288
       255 -10.1254      1.9786    140.0965   1.0213891962e+02   4.5322054006e+01    0.1929143    0.1667505  67.80 0.0003769729    1.047    0.045
       256 -10.7998     21.4872    135.9402   9.5267701584e+01   4.5082173070e+01    0.2209373    0.1652369  55.01 0.0003881817    1.289    0.224
       257  -9.5491    235.5176    137.5251   4.1119653570e+01   1.2005417479e+01     0.117927   0.09302493 -15.85 0.0008098928    1.003    0.003
