#   1 NUMBER                 Running object number                                     
#   2 MAG_AUTO               Kron-like elliptical aperture magnitude                    [mag]
#   3 X_IMAGE                Object position along x                                    [pixel]
#   4 Y_IMAGE                Object position along y                                    [pixel]
#   5 X_WORLD                Barycenter position along world x axis                     [deg]
#   6 Y_WORLD                Barycenter position along world y axis                     [deg]
#   7 A_WORLD                Profile RMS along major axis (world units)                 [deg]
#   8 B_WORLD                Profile RMS along minor axis (world units)                 [deg]
#   9 THETA_WORLD            Position angle (CCW/world-x)                               [deg]
#  10 FWHM_WORLD             FWHM assuming a gaussian core                              [deg]
#  11 ELONGATION             A_IMAGE/B_IMAGE                                           
#  12 ELLIPTICITY            1 - B_IMAGE/A_IMAGE                                       
         1 -14.7536     68.5295    144.3391   1.0676063758e+02   3.7386304314e+01     5.462199     2.701834  70.35   0.01572979    3.902    0.744
         2 -13.6273    194.7748     41.5657   4.8615985623e+01   3.1354683639e+01     1.160718     0.874517  56.73  0.002120933    1.338    0.253
         3 -14.3593    203.7752     35.1555   4.5686421951e+01   2.9976255387e+01     2.037187     1.513431  13.93  0.009492137    1.971    0.493
         4 -12.5356    212.3500     26.7009   4.2495083720e+01   2.8954229625e+01    0.4697087    0.3975757  48.96  0.001212574    1.371    0.270
         5 -14.1653    218.3550     20.2295   4.0264814376e+01   2.8294501573e+01     1.313647      1.06463  39.26  0.003689254    1.581    0.368
         6 -11.4069      2.5524      3.4613   9.3963495866e+01   7.4135083726e+01    0.4267055    0.1395258 -44.92  0.002193481    2.402    0.584
         7 -10.6246     55.1714      5.3297   6.8076906941e+01   6.7562129213e+01    0.2550325    0.1563459  63.78  0.001206718    3.253    0.693
         8 -11.4197    241.2649      1.8581   3.4163448796e+01   2.5114660014e+01      0.57882    0.1787015  75.58  0.002326627    3.069    0.674
         9  -9.1213    113.4770    207.9915   1.0547662315e+02   1.5930294298e+01    0.1871754    0.1310666 -65.40 0.0007708255    1.566    0.361
        10 -10.7898    139.8902    249.3859   1.0542757700e+02   4.2835357450e+00    0.1920451    0.1657363  78.40  0.001329503    1.364    0.267
        11 -14.4934     48.0382    221.0179   1.2036337584e+02   2.2657079659e+01      1.97564     1.320516  77.74   0.01275466    1.280    0.219
        12 -14.7867     85.0162    227.2444   1.1366576935e+02   1.6511426751e+01     3.894657     1.438384  45.69   0.01788858    2.211    0.548
        13 -15.6748      5.3803    159.1744   1.2449997236e+02   4.0424736491e+01     5.540249     1.353492 -74.81   0.02218056    3.123    0.680
        14 -14.1190     31.5997    247.6608   1.2508612404e+02   1.9513990954e+01      0.90116    0.8608894 -27.53  0.007385346    1.818    0.450
        15 -16.0091      9.1248    240.2833   1.2847491004e+02   2.3226452095e+01     2.267816     1.365435 -75.21     0.016313    1.657    0.397
        16 -13.3529     39.2848    206.0768   1.2091337089e+02   2.6762270303e+01    0.4749306    0.3832071  63.24  0.001576946    1.130    0.115
        17 -15.0723     47.8224    196.2986   1.1830718355e+02   2.7862262347e+01     2.040586     1.292671  58.90   0.01201683    1.395    0.283
        18  -9.6834    112.1621    197.6770   1.0431553548e+02   1.8265610995e+01     0.223839    0.1511344  56.35 0.0007655519    1.433    0.302
        19 -10.1615    147.1527    183.8247   9.4159381180e+01   1.4930847927e+01    0.2259976    0.1959019  68.74   0.00123637    1.256    0.204
        20  -9.8729     99.4259    180.8446   1.0474299570e+02   2.4032956097e+01    0.2514902    0.1977728  33.78 0.0006074046    1.364    0.267
        21 -12.1675     65.5885    178.2408   1.1238268181e+02   2.9672691127e+01    0.4110883    0.2858021 -41.98  0.001468855    1.893    0.472
        22 -12.0753     70.1219    173.1004   1.1064200835e+02   3.0249733628e+01    0.3495131    0.2948071 -30.68 0.0005342491    1.595    0.373
        23 -10.9396     41.6889    179.0483   1.1799311677e+02   3.2436345285e+01    0.2532203    0.1837015  49.35 0.0004930902    1.347    0.258
        24 -10.8262     45.2456    176.7629   1.1694731812e+02   3.2555246019e+01    0.2753628    0.2059748  39.52  0.001110792    1.446    0.308
        25 -10.8855    140.5148    172.9160   9.3661497378e+01   1.8473152418e+01    0.5780655    0.3081747  63.37  0.002014922    3.182    0.686
        26 -13.6492     66.8838    159.3206   1.0952397760e+02   3.3966529091e+01    0.5760812    0.4774489 -47.36   0.00171823    1.366    0.268
        27 -12.6986     86.3936    156.5866   1.0408021443e+02   3.1781752037e+01     1.169888    0.6206602 -54.68  0.005196845    1.820    0.451
        28 -12.2320     79.3996    163.3865   1.0696180576e+02   3.1216470637e+01    0.5419322     0.396742  66.23 0.0006941488    1.392    0.282
        29 -13.0859     28.0219    215.9207   1.2382055559e+02   2.5975218991e+01    0.9851601    0.3656571  87.83  0.002706075    3.094    0.677
        30 -11.0207    134.1146    146.3633   8.9804496326e+01   2.5618952511e+01    0.9713502    0.1866848 -51.53  0.002188227    6.065    0.835
        31 -10.3234    174.9083    148.8474   8.0722923087e+01   1.6594297966e+01    0.2774042    0.2337489 -61.22 0.0008647977    1.345    0.257
        32 -11.8805     54.6618    144.5061   1.1053775973e+02   3.9139215270e+01    0.4403596    0.2781915 -52.26  0.002263176    1.563    0.360
        33  -9.7760     95.6556    147.3127   9.9983555288e+01   3.2520770350e+01    0.1553021    0.1099711  74.15 0.0005430377    1.708    0.414
        34 -15.1884      9.5489    207.9709   1.2680895214e+02   2.9450410992e+01      2.46766     1.109259 -55.62   0.01306947    2.911    0.656
        35 -10.3617     99.9775    142.5094   9.7886943165e+01   3.2944427449e+01    0.3256372    0.3078156  40.30 0.0008320357    1.127    0.113
        36  -9.9948    102.3135    139.3873   9.6618108717e+01   3.3288754846e+01    0.3326953     0.237752 -23.61  0.001031182    1.961    0.490
        37 -12.2994     88.1197    141.2589   1.0086088586e+02   3.5224700125e+01    0.2947715    0.2578422 -50.92  0.000464917    1.161    0.139
        38 -10.4437     81.4236    141.3626   1.0271550766e+02   3.6246991853e+01    0.2820252    0.2229833  74.95 0.0002916018    1.356    0.262
        39  -9.8875     31.6319    137.7976   1.1581621660e+02   4.3259123359e+01    0.2191125    0.1706082  50.97 0.0005177439    1.378    0.274
        40  -9.4459     39.8190    134.3204   1.1310279840e+02   4.3298667456e+01    0.1637243    0.1263669  11.36 0.0005105473    1.714    0.416
        41 -10.3618    110.5509    131.1189   9.2578752003e+01   3.3771109693e+01    0.3588963    0.2833599  10.12  0.001125285    1.644    0.392
        42 -10.1212    106.1101    130.8891   9.3747264450e+01   3.4648391277e+01    0.3543461    0.2868153 -68.75  0.001311089    1.271    0.213
        43 -10.8509     34.9329    130.7544   1.1395934658e+02   4.4656706942e+01     0.328578    0.2086121 -83.91  0.001191838    1.497    0.332
        44  -8.9484    115.6748    203.3291   1.0434990507e+02   1.6511625017e+01    0.1425772   0.09617683  68.84 0.0004924588    1.701    0.412
        45 -10.6284    135.6093    123.7987   8.4145237680e+01   3.0444836685e+01    0.3076357    0.1592254 -51.77  0.001158161    2.005    0.501
        46 -10.1960    160.8326    127.2566   7.8795990504e+01   2.4174009460e+01    0.3181548    0.1837492 -56.33  0.001209777    2.072    0.517
        47 -10.8404     97.8990    127.3277   9.5248386849e+01   3.6973659586e+01    0.3230866    0.2657115 -19.42   0.00161324    1.490    0.329
        48 -10.3884    116.8312    125.6663   8.9593747411e+01   3.3856294913e+01    0.3746382    0.2708184 -55.12  0.001735886    1.373    0.272
        49  -9.3007     91.0705    123.8468   9.6428667830e+01   3.8984204721e+01     0.228476    0.1886507  76.02 0.0006387815    1.365    0.267
        50  -9.8848    107.2044    119.8095   9.0860638157e+01   3.7084820116e+01    0.2127774    0.1996462 -78.73 0.0003483601    1.082    0.076
        51  -9.9262    168.4079    113.0919   7.3425416695e+01   2.5419412482e+01    0.3443506    0.2582393 -76.67  0.001092328    1.809    0.447
        52 -10.4877     40.0599    113.6905   1.0975990984e+02   4.8318074954e+01    0.1811258    0.1665327 -70.66 0.0006350587    1.085    0.079
        53 -10.1172    205.4583    110.1813   6.5093681805e+01   1.7455995903e+01    0.3207402    0.2174053  40.91  0.001035515    1.605    0.377
        54  -9.4422    114.5452    110.2156   8.6357781453e+01   3.7900483281e+01    0.2279676    0.1426833 -36.69 0.0009472324    1.715    0.417
        55  -9.7675    230.3212    166.6458   7.3536680188e+01   2.3710303213e+00    0.1311108    0.1100299 -67.69 0.0007046736    1.755    0.430
        56 -10.5542    134.6006    105.4904   7.9607764310e+01   3.4735241813e+01    0.4510714    0.1510577 -44.06   0.00138588    2.937    0.659
        57 -11.2173     33.6276    156.4110   1.1751875063e+02   3.8588985624e+01    0.3034832    0.2533587  66.60  0.001117118    1.171    0.146
        58 -10.0647     42.2821    103.8000   1.0721973430e+02   5.0489025698e+01    0.2088581    0.1768702  49.65 0.0006666971    1.355    0.262
        59 -10.8685     36.2517    101.2844   1.0870048434e+02   5.1686065698e+01    0.2512546    0.1947689 -67.62 0.0009787931    1.130    0.115
        60  -9.9808    128.4551     95.3090   7.8373941976e+01   3.8282797612e+01    0.2810368    0.1933269  66.31  0.001175282    1.887    0.470
        61 -10.2226     41.7525     91.9456   1.0492414121e+02   5.3365674726e+01    0.2000804    0.1887184 -21.82 0.0004221521    1.166    0.142
        62 -10.1978     52.9730     90.4916   1.0070587072e+02   5.2468334723e+01    0.2838762    0.1623408 -43.84  0.001364861    1.605    0.377
        63  -8.7922     74.7020     85.2724   9.1858237547e+01   5.0698812806e+01    0.1337282      0.11304  83.03 0.0002422864    1.526    0.345
        64  -9.3668    114.7782     83.8977   7.8796349062e+01   4.3630261365e+01    0.2515317    0.1768385 -68.39 0.0009626205    1.976    0.494
        65  -9.8591    159.1564     81.1842   6.6602776266e+01   3.3920801702e+01    0.2167956    0.1867003 -79.74 0.0005289292    1.317    0.241
        66  -9.0815    184.5150     77.4676   6.0329079041e+01   2.8337290938e+01    0.1498529    0.1484777  -4.11 7.639536e-05    1.065    0.061
        67  -9.1170    105.9431     76.4923   7.9089084921e+01   4.6974407168e+01    0.2136855    0.1343852  68.01 0.0008084942    2.668    0.625
        68 -10.2820     51.9322     64.2986   9.3842471102e+01   5.8409639067e+01    0.3164462    0.2037773  52.85  0.001548733    2.294    0.564
        69 -10.5506     13.5506     59.8643   1.0809500898e+02   6.2898154422e+01    0.2286872    0.1788079 -56.00 0.0004286359    1.107    0.096
        70 -11.2918    170.4171    232.9436   9.7306138043e+01   1.9705610460e+00    0.3223043    0.2352818  50.76 0.0009796828    1.421    0.296
        71 -13.5156      7.8839    188.5626   1.2599308868e+02   3.3680470508e+01      1.23402    0.4898911 -50.87    0.0055501    3.782    0.736
        72 -10.3496    209.9794    199.9645   8.3998419427e+01   5.2577075015e-01    0.1990048    0.1762657   8.64 0.0003856764    1.056    0.053
        73 -15.6472     67.4091    247.6580   1.1881606781e+02   1.5150813722e+01     9.687511     2.952642  29.82  0.009627543   10.954    0.909
        74 -11.1261    140.6985     46.0800   5.9663406524e+01   4.4372056786e+01    0.3756642     0.282196 -83.32 0.0008712901    1.740    0.425
        75 -10.1359    144.0118     41.0124   5.7248873840e+01   4.4274748238e+01    0.2168626     0.208552  68.48 0.0004133249    1.043    0.042
        76  -9.7843      1.5988     37.8042   1.0755863679e+02   6.8099073446e+01     0.154992   0.09519959 -66.54 0.0005515568    1.644    0.392
        77 -10.0919    189.7014     15.0109   4.1994041950e+01   3.5860235050e+01    0.1873554    0.1697289 -59.84 0.0007603795    1.115    0.103
        78 -11.5526    193.3323    195.1448   8.6378887115e+01   4.2343428420e+00    0.9008369    0.4924938 -64.22  0.002842037    5.520    0.819
        79  -8.8524    130.5261    213.0222   1.0253378546e+02   1.2105676646e+01    0.1723909    0.1330718 -59.59 0.0003123231    1.463    0.316
