#   1 NUMBER                 Running object number                                     
#   2 MAG_AUTO               Kron-like elliptical aperture magnitude                    [mag]
#   3 X_IMAGE                Object position along x                                    [pixel]
#   4 Y_IMAGE                Object position along y                                    [pixel]
#   5 X_WORLD                Barycenter position along world x axis                     [deg]
#   6 Y_WORLD                Barycenter position along world y axis                     [deg]
#   7 A_WORLD                Profile RMS along major axis (world units)                 [deg]
#   8 B_WORLD                Profile RMS along minor axis (world units)                 [deg]
#   9 THETA_WORLD            Position angle (CCW/world-x)                               [deg]
#  10 FWHM_WORLD             FWHM assuming a gaussian core                              [deg]
#  11 ELONGATION             A_IMAGE/B_IMAGE                                           
#  12 ELLIPTICITY            1 - B_IMAGE/A_IMAGE                                       
         1 -16.2733    227.1880    193.0038   5.7254699594e+01   7.7243352463e-01     2.866035     2.133932 -45.32    0.0172124    1.828    0.453
         2 -14.6524    247.5942     51.5527   2.1121814323e+01   1.6209947177e+01      1.48093      0.82121 -32.26  0.006803799    1.645    0.392
         3 -15.8360    242.7681     17.4970   1.2831805622e+01   2.1472171883e+01     2.201761     1.345235 -25.79   0.01096913    1.621    0.383
         4 -12.3626     25.5190     17.1167   6.4006464160e+01   6.8134624630e+01    0.2929909    0.1439338 -32.31 0.0009679176    1.761    0.432
         5 -12.0084     34.8116     16.1262   5.9614703225e+01   6.7393178122e+01    0.2696173    0.1625873 -28.16 0.0008949381    1.389    0.280
         6 -12.6585     19.0143     14.9151   6.5987068915e+01   6.9064703362e+01    0.2848992    0.1623608 -29.27  0.001011238    1.504    0.335
         7 -12.1094     12.6375     13.1040   6.8156500777e+01   6.9862249882e+01    0.2264089    0.1403639 -25.43  0.001037017    1.428    0.300
         8 -13.3375      4.1331     11.8827   7.1630533285e+01   7.0633534686e+01    0.4146586    0.2624675 -40.87  0.001445469    1.118    0.106
         9 -12.8507     14.4942      7.4237   6.4953454393e+01   7.0676425716e+01    0.3338408    0.1965551 -14.75  0.001591884    1.755    0.430
        10 -13.5723      7.1545      3.2263   6.6680964192e+01   7.1902301222e+01     0.570767    0.4368953   9.45  0.004469058    1.511    0.338
        11 -12.1937     41.5030     10.7256   5.4408094465e+01   6.7487026155e+01    0.2425362    0.1576008 -19.22 0.0009338321    1.338    0.253
        12 -11.8414     29.0962     10.1591   5.9474742704e+01   6.8936477474e+01    0.1872924    0.1227941 -20.72 0.0007069591    1.311    0.237
        13 -13.7014     24.6790      3.9944   5.8625161356e+01   7.0325397418e+01    0.5015135    0.3036322 -19.32  0.002370399    1.474    0.322
        14 -12.2594     33.5275      8.0117   5.6544534700e+01   6.8806580881e+01    0.2130277    0.1405067  -1.14 0.0008372868    1.562    0.360
        15 -13.6447      9.7449     25.8154   7.3929341777e+01   6.7776195699e+01    0.5103006    0.2432145 -31.68  0.002132871    2.023    0.506
        16 -12.6369     49.5813      5.8876   4.8817251875e+01   6.7145736774e+01    0.3104671    0.1686729  16.57  0.001604013    2.258    0.557
        17 -12.6300     41.3385      2.8488   5.0689803502e+01   6.8637424997e+01    0.3371415    0.2069083  -7.14  0.001998537    1.639    0.390
        18 -11.8991     54.9460      1.8305   4.4712212227e+01   6.6911828077e+01    0.1975137    0.1377864   4.05  0.001226234    1.309    0.236
        19 -11.7877     34.0469      1.4985   5.3160353865e+01   6.9698408840e+01    0.1562176     0.104642  22.69  0.001017094    1.576    0.366
        20 -14.4254      3.5010    243.9429   9.9904989218e+01   2.6144128876e+01    0.7574314    0.3423869  72.30   0.00583744    1.586    0.369
        21 -16.6521     97.9565    226.4820   8.4610041633e+01   1.7824729532e+01      3.17502     1.447136 -68.42   0.01804158    2.584    0.613
        22 -12.2759     21.4158     23.4502   6.8189030016e+01   6.7376777290e+01    0.2443373    0.1668749 -22.18  0.001007079    1.382    0.276
        23 -14.9494      3.4235    225.3702   9.9200721264e+01   2.9043420530e+01     2.031271    0.5426917  79.62  0.008487858    5.466    0.817
        24 -15.3754      2.8715    209.7388   9.8610870128e+01   3.1672560801e+01    0.8297539    0.2510605 -82.43  0.004704637    2.790    0.642
        25 -14.7149    238.1833     48.0574   2.1382291373e+01   1.8922718990e+01    0.7526993    0.5617045  55.27  0.003907816    1.385    0.278
        26 -14.6434      3.6708    197.5890   9.7912910496e+01   3.3699304351e+01    0.6435896    0.2132501  76.84  0.003296139    3.160    0.684
        27 -13.5222      3.3530     50.1483   8.2734518406e+01   6.3379656834e+01    0.5702225    0.1610484 -54.41  0.002836568    2.230    0.552
        28 -12.9016    111.5196     96.5124   6.0794529314e+01   4.0834225000e+01    0.4650305    0.2238883 -38.19  0.001844054    2.268    0.559
        29 -11.3121    128.0000     70.9863   4.9190890878e+01   4.2620423455e+01    0.2544597   0.08250133 -38.93  0.000807618    2.978    0.664
        30 -11.3561     31.0901     29.1745   6.6259497265e+01   6.5507695117e+01    0.1912964    0.1279637 -29.40 0.0008050727    1.299    0.230
        31 -13.3252     10.6214     40.1236   7.7711714141e+01   6.4979362010e+01    0.4389322    0.1493064 -41.12  0.002142238    2.545    0.607
        32 -11.4958     24.8668     37.9112   7.1613037071e+01   6.4409282692e+01    0.1870512    0.1247496 -36.05 0.0007074813    1.270    0.213
        33 -12.5811     17.3266     32.2500   7.2833249505e+01   6.6061163427e+01    0.2847925    0.1654181 -37.16  0.001015862    1.432    0.302
        34 -16.3911      3.4705    147.4348   9.4915239871e+01   4.3161076724e+01     4.103186     0.169778 -74.18    0.0100766   10.830    0.908
        35 -11.6072    180.5083    123.9822   5.1639453546e+01   2.0876254621e+01    0.2275363    0.1473763 -38.06  0.000964259    1.583    0.368
        36 -12.3868    199.1441    135.6590   5.0662869551e+01   1.4723444218e+01    0.2572696    0.1997356 -43.40  0.001318607    1.403    0.287
        37 -12.0994    122.3907    110.1960   6.1446820249e+01   3.5922410503e+01    0.2119706    0.1326379 -57.61 0.0009541402    1.709    0.415
        38 -15.1699    206.5298    120.0054   4.5522305653e+01   1.5669132623e+01     1.127832    0.8723846  37.26  0.005720186    1.259    0.206
        39 -10.7275     37.7571     23.9835   6.1617903372e+01   6.5766800007e+01     0.159156   0.08230764 -42.89 0.0005650647    1.562    0.360
