#   1 NUMBER                 Running object number                                     
#   2 MAG_AUTO               Kron-like elliptical aperture magnitude                    [mag]
#   3 X_IMAGE                Object position along x                                    [pixel]
#   4 Y_IMAGE                Object position along y                                    [pixel]
#   5 X_WORLD                Barycenter position along world x axis                     [deg]
#   6 Y_WORLD                Barycenter position along world y axis                     [deg]
#   7 A_WORLD                Profile RMS along major axis (world units)                 [deg]
#   8 B_WORLD                Profile RMS along minor axis (world units)                 [deg]
#   9 THETA_WORLD            Position angle (CCW/world-x)                               [deg]
#  10 FWHM_WORLD             FWHM assuming a gaussian core                              [deg]
#  11 ELONGATION             A_IMAGE/B_IMAGE                                           
#  12 ELLIPTICITY            1 - B_IMAGE/A_IMAGE                                       
         1 -12.4441    196.3393     37.6372   4.9169685901e+01   3.1406381682e+01     1.136528     1.046283 -12.43  0.006574994    1.244    0.196
         2 -12.4514    206.4948     26.8402   4.4937655649e+01   3.0246246422e+01    0.8708617     0.771258  20.44  0.002033043    1.410    0.291
         3 -10.0980     28.9859     31.5013   9.4200842843e+01   6.6983060062e+01    0.2044898    0.1371773 -40.63  0.001266664    1.251    0.201
         4  -8.9280     37.6569      9.3346   8.0152478978e+01   6.9518695565e+01    0.1020852   0.09613089 -51.76 0.0007050366    1.761    0.432
         5  -9.3453     29.5166      8.9579   8.3932351634e+01   7.0562241344e+01    0.1764297   0.09630292 -33.67 0.0007413701    1.583    0.368
         6 -10.7175    231.4339      2.7282   3.6589049406e+01   2.7009880940e+01    0.5672415    0.3115797  63.02  0.002826059    1.824    0.452
         7 -10.1499    227.2144      2.3857   3.6839278208e+01   2.8016859216e+01    0.3434586    0.2351888  88.27   0.00133525    1.319    0.242
         8  -9.6749     60.1057      2.2843   6.6977560586e+01   6.6962206676e+01    0.2766615    0.1041993  50.51  0.001216188    2.824    0.646
         9 -10.4309     48.0716    224.2581   1.2182117642e+02   2.2251700169e+01    0.4991745    0.1907029  41.33 0.0003822195    2.216    0.549
        10  -9.6065    117.4940    250.3345   1.1128359879e+02   7.9850590178e+00     0.252654    0.1226661  44.16  0.001094449    1.604    0.377
        11 -16.0068     51.9858    198.8071   1.1895482013e+02   2.6926765667e+01     20.38912     7.816406 -83.32   0.08304548    3.290    0.696
        12 -10.3086     75.8873    171.0907   1.1050425996e+02   2.9901696144e+01    0.2976671    0.2931034 -47.34 0.0008648676    1.267    0.211
        13  -8.9779     93.3174    219.1984   1.1259852976e+02   1.7118030425e+01    0.2430378    0.1993542  89.90  0.001093683    1.213    0.176
        14 -10.7568     93.8229    168.2919   1.0579162160e+02   2.7831078674e+01     0.825919    0.2245049  49.90  0.002344314    4.795    0.791
        15 -10.8994     83.7139    162.1724   1.0730538999e+02   3.0819761481e+01    0.5964957    0.3563929  63.06  0.000433009    1.906    0.475
        16 -12.0022     72.2403    157.2336   1.0940978721e+02   3.3652747436e+01    0.5663954    0.4332163 -48.32   0.00113375    1.450    0.310
        17 -13.5369     68.4447    144.3045   1.0837924634e+02   3.7267911613e+01     2.609208      1.63408  78.10   0.01044198    1.977    0.494
        18  -9.0134    133.5933    143.7409   9.1317777587e+01   2.6290643896e+01    0.6539316    0.1515035 -53.47  0.001525298    5.795    0.827
        19  -9.2138    103.8491    140.2075   9.8216824589e+01   3.2724465555e+01     0.557065    0.3145708 -25.88   0.00184802    3.785    0.736
        20 -10.6737     91.3792    140.1217   1.0152087587e+02   3.4853945203e+01    0.2895393    0.2625759 -40.71 0.0005401904    1.211    0.174
        21 -10.6360     90.4214    155.1215   1.0448068571e+02   3.1436996957e+01    0.5974668    0.4279244 -20.22  0.002159419    2.243    0.554
        22  -8.7746    105.9208    130.8528   9.5690608125e+01   3.4570928680e+01    0.2740957    0.2271194 -70.49  0.001402877    1.228    0.185
        23  -9.3488    112.9012    130.0668   9.3632559003e+01   3.3468562277e+01    0.3198718    0.2167812  10.32   0.00119391    2.410    0.585
        24 -11.4570     41.9242    126.0647   1.1274582027e+02   4.4867260155e+01    0.5204022    0.3131004  71.66  0.002561385    2.035    0.509
        25 -13.0477     20.3090    192.9210   1.2489246167e+02   3.1663335536e+01     1.392356    0.8566111  47.41 0.0004695889    1.524    0.344
        26  -9.5300     99.3730    126.9545   9.6632471862e+01   3.6659402426e+01    0.4186639    0.2984436   7.54  0.001472743    2.126    0.530
        27  -8.5503    135.0000    119.9766   8.5389481099e+01   3.1348849983e+01    0.2630991   0.08822928 -46.25  0.000637815    2.946    0.661
        28  -8.2812    108.4976    119.1394   9.2298468504e+01   3.6855655401e+01    0.2152817    0.1995691  45.57 0.0003926834    1.118    0.105
        29  -8.2693    113.5873    207.4859   1.0700114514e+02   1.6235317291e+01    0.2002495    0.1270571 -61.43 0.0006513515    1.732    0.423
        30  -7.8965    167.2972    112.6124   7.5644163269e+01   2.5711337935e+01    0.1656081    0.1244053 -74.33 0.0007014711    1.780    0.438
        31  -8.4076    205.7534    110.3501   6.7127725014e+01   1.7263304658e+01    0.2648095    0.1907948  40.63  0.001056123    1.479    0.324
        32 -10.1893    118.3268    108.7379   8.6952188589e+01   3.7337713319e+01    0.5021588    0.3231689 -82.04  0.001812497    2.886    0.654
        33  -8.5121    114.8180    110.2073   8.8309924543e+01   3.7704916138e+01      0.21703    0.1843631 -15.89  0.001071402    1.358    0.263
        34  -9.8195     53.5820    109.1938   1.0634602330e+02   4.7661084333e+01    0.3604078    0.1070839 -58.20  0.001302929    2.729    0.634
        35  -9.5455     65.8616    204.3493   1.1662686077e+02   2.3987857767e+01    0.2828639    0.2033053 -58.37 0.0008531403    1.595    0.373
        36  -7.8448    134.5108    104.5103   8.1457428411e+01   3.4862109088e+01    0.1558258    0.1532456 -42.25 0.0003838293    1.005    0.005
        37  -8.6283     58.2315     96.4284   1.0213228983e+02   5.0139512850e+01    0.1844337    0.1258673  46.52  0.000802416    1.702    0.412
        38 -10.7709     45.2501    220.8327   1.2209274930e+02   2.3254641331e+01    0.2544767      0.17826  58.10 0.0009298758    1.163    0.140
        39  -9.4321     41.6265     91.9148   1.0663540692e+02   5.3063438090e+01    0.2061562    0.1754944 -22.33 0.0004852863    1.297    0.229
        40  -8.8955     73.6790    188.2229   1.1320126643e+02   2.6365164123e+01    0.2661282    0.1688025  71.14 0.0007600037    1.611    0.379
        41  -8.3081    156.6916     81.2920   6.9304002572e+01   3.4426280614e+01    0.1565827    0.1239316 -77.52 0.0003416019    1.582    0.368
        42 -12.9574     85.3598    229.8006   1.1525260733e+02   1.6275323255e+01     1.847341     1.316229  88.48  0.009888415    1.420    0.296
        43  -9.0174     60.7863     68.5857   9.3826940967e+01   5.6067921104e+01    0.2529658      0.21514 -62.13  0.001448523    1.303    0.233
        44  -8.8644     99.8337    180.8098   1.0628388145e+02   2.4049069251e+01    0.1952737    0.1878869  41.97 0.0006423451    1.192    0.161
        45  -8.9313    150.6178     54.1854   6.2246754213e+01   4.0636690036e+01    0.2705235    0.2247732 -83.70 0.0006589884    1.413    0.292
        46 -14.5917     58.1485    246.8434   1.2163862325e+02   1.6847991940e+01     6.887219      2.09265  30.75   0.01095917    8.186    0.878
        47 -11.8779    186.6327     45.2768   5.2778309295e+01   3.2817812444e+01     0.837128    0.6284358  14.69  0.002810256    1.792    0.442
        48 -14.8339      5.2286    249.0623   1.3044651843e+02   2.2365510657e+01     1.184315    0.7756646  34.71  0.002835719    1.912    0.477
        49  -8.0963     43.5287    236.4538   1.2348818048e+02   2.0498080646e+01    0.1113347   0.08357172  67.89 5.177427e-05    1.035    0.034
        50  -9.1390    152.0369     47.4636   5.9763837734e+01   4.1311897497e+01    0.3388246    0.2427594 -80.91  0.001002308    1.872    0.466
        51 -10.6913     71.5641    176.2874   1.1220818616e+02   2.9323242087e+01    0.4556664    0.2795462 -40.79  0.002197189    2.325    0.570
        52 -15.6167      1.7173    234.2067   1.3041445764e+02   2.5330739964e+01     18.32387          nan -76.93    0.0268187   38.372    0.974
        53  -9.6588    157.2572    226.0220   1.0065322717e+02   5.5896707718e+00    0.2600919     0.214337 -27.24  0.001637181    1.467    0.318
        54 -10.3643    162.4427    224.9996   9.9480944738e+01   4.8855349763e+00    0.3419661    0.2104657  47.40  0.001856699    1.484    0.326
        55 -10.1565     49.5159    219.0019   1.2115176537e+02   2.3101000545e+01    0.4082496    0.2676459  79.21  0.001368242    1.316    0.240
