#   1 NUMBER                 Running object number                                     
#   2 MAG_AUTO               Kron-like elliptical aperture magnitude                    [mag]
#   3 X_IMAGE                Object position along x                                    [pixel]
#   4 Y_IMAGE                Object position along y                                    [pixel]
#   5 X_WORLD                Barycenter position along world x axis                     [deg]
#   6 Y_WORLD                Barycenter position along world y axis                     [deg]
#   7 A_WORLD                Profile RMS along major axis (world units)                 [deg]
#   8 B_WORLD                Profile RMS along minor axis (world units)                 [deg]
#   9 THETA_WORLD            Position angle (CCW/world-x)                               [deg]
#  10 FWHM_WORLD             FWHM assuming a gaussian core                              [deg]
#  11 ELONGATION             A_IMAGE/B_IMAGE                                           
#  12 ELLIPTICITY            1 - B_IMAGE/A_IMAGE                                       
         1 -12.0529    193.0665     37.0566   5.2385723271e+01   3.2147914642e+01     1.017399    0.9361804 -49.74  0.003536463    1.081    0.075
         2 -12.4853    201.6216     26.9926   4.8351006003e+01   3.1235588624e+01    0.9201866    0.7850806   4.06  0.001449587    1.443    0.307
         3  -9.9950     43.9976      6.8021   7.8682476766e+01   6.9021028400e+01    0.1664864    0.1237859 -39.12  0.001057305    1.621    0.383
         4 -11.0942    224.5625      2.6780   3.9578200220e+01   2.8254903490e+01    0.7883055     0.321858  74.87  0.003434322    2.301    0.565
         5  -9.8052     62.5584    236.4055   1.2210794404e+02   1.8721822931e+01    0.2649478    0.2017408  88.39  0.001339047    1.243    0.196
         6 -18.6938      8.1525    142.0643   1.2533836014e+02   4.4113110418e+01     17.98655     3.236925 -76.78   0.05722735    5.042    0.802
         7  -8.8794     96.1936    200.9827   1.1231785424e+02   2.0631925447e+01    0.2029362    0.2018504 -29.10   0.00111719    1.361    0.265
         8  -9.3818    193.6806    195.3827   9.1595184614e+01   4.4409343398e+00    0.4695417    0.2088379 -56.26  0.001534595    5.048    0.802
         9  -8.6874    208.4946    197.4561   8.9149361614e+01   1.4382368001e+00    0.1325173    0.1138354  20.58  0.000133154    1.005    0.005
        10 -11.9614     61.9204    191.2980   1.1828172688e+02   2.7561355737e+01    0.6535667    0.5291342  74.44  0.002715583    1.027    0.026
        11  -7.8375     75.3014    231.6729   1.1948203293e+02   1.7862337887e+01    0.1821167   0.06732187  56.74 0.0006269276    2.526    0.604
        12  -8.4131    113.7765    195.2240   1.0791359402e+02   1.8940747174e+01    0.1694423    0.1580111  16.89 0.0006590749    1.364    0.267
        13  -8.5132     96.6287    192.3276   1.1114024821e+02   2.2322251000e+01    0.2740777    0.2054868 -18.13  0.001095213    2.503    0.601
        14  -8.5657     44.9511    189.5209   1.2157452856e+02   3.0050000430e+01     0.227048    0.1332679  86.95 0.0007381043    1.537    0.349
        15  -9.5449     68.5490    183.4611   1.1604154045e+02   2.8345924022e+01    0.5413966    0.1795048  49.64  0.002208745    2.835    0.647
        16  -8.1684     99.3318    180.9477   1.0900708435e+02   2.4283096293e+01    0.1836471    0.1631018  85.69 0.0007069203    1.063    0.059
        17 -10.1642     74.5050    176.9615   1.1396507749e+02   2.8933110605e+01    0.2852021    0.2453678 -62.89 0.0005971501    1.304    0.233
        18 -10.7780     78.7334    171.4875   1.1230456069e+02   2.9536941788e+01    0.4684076    0.2959639 -40.44  0.002054244    2.301    0.565
        19  -8.8510     58.0771    175.9723   1.1746167763e+02   3.1368210636e+01    0.2400277     0.161555  47.58 0.0009563016    1.442    0.306
        20  -9.4387    104.4766    172.8495   1.0664643740e+02   2.5184237495e+01    0.3414523    0.2154221 -89.71  0.001580586    2.040    0.510
        21 -10.4150     45.7872    172.7280   1.1979389234e+02   3.3586788053e+01    0.3592746    0.2920044  64.26  0.002405309    1.164    0.141
        22  -9.5807    113.9625    172.3746   1.0441595745e+02   2.3658905910e+01     0.243402     0.125842  42.42 0.0002325438    1.844    0.458
        23  -9.5345     97.0152    168.5021   1.0768169723e+02   2.7376639228e+01    0.3225489    0.1689258  66.31  0.001296409    2.621    0.618
        24  -7.6764    163.2775    168.6330   9.2756400035e+01   1.5064810174e+01    0.1443341     0.113982  89.83 0.0007009257    1.679    0.404
        25  -8.1062     72.2978    230.6594   1.1993490449e+02   1.8454960910e+01    0.1229281   0.06806174  67.96 0.0003536897    1.664    0.399
        26  -7.9851    192.6178    165.1915   8.5928442664e+01   9.7829606735e+00    0.2022977     0.133288 -26.86 0.0009455623    1.695    0.410
        27 -10.5984     92.8122    155.2480   1.0655036277e+02   3.1059292138e+01    0.6029823    0.3836053 -35.61  0.002735557    2.297    0.565
        28  -8.6436     58.5259    227.5669   1.2214605961e+02   2.0836830509e+01    0.1760051    0.1120492  67.16 0.0005922081    1.252    0.201
        29  -9.5212    133.4993    143.7732   9.4444399674e+01   2.6271961022e+01    0.5931029    0.1803888 -55.61  0.001633829    4.369    0.771
        30  -9.7055    105.3054    140.2403   1.0070336190e+02   3.2420480298e+01    0.5073264    0.2997811 -33.48  0.002047843    2.513    0.602
        31 -10.5720     93.1480    140.3057   1.0382291693e+02   3.4483115977e+01    0.3058527    0.2456106 -50.40 0.0003565513    1.285    0.222
        32  -9.1360     76.8018    133.6194   1.0685745126e+02   3.8613361512e+01    0.1858995    0.1232966  51.48 0.0004565504    1.579    0.367
        33  -9.1326    105.9081    130.4939   9.8538734634e+01   3.4583623464e+01    0.4112902    0.2541234 -55.81  0.001869888    1.559    0.359
        34  -9.9914    113.7649    130.3424   9.6459857409e+01   3.3167225532e+01    0.3628808    0.2684026 -40.38  0.001274024    1.458    0.314
        35  -9.2957    100.8947    126.6826   9.9045795145e+01   3.6370311185e+01    0.2839748    0.2308499 -31.61  0.000791576    1.452    0.311
        36  -9.9948     67.3434    127.1718   1.0823837530e+02   4.1489674491e+01     0.575509    0.2054958 -65.81  0.002079622    2.868    0.651
        37  -9.0552    178.3295    222.5726   9.9059187491e+01   2.9466998184e+00      0.19241    0.1189384 -42.20 0.0006713328    1.926    0.481
        38  -8.4587    109.2126    119.2088   9.5128083754e+01   3.6602538123e+01    0.2156392    0.2003013 -29.92  0.000471455    1.177    0.150
        39  -8.6416    167.6314    112.5968   7.8922640623e+01   2.5493777434e+01    0.3334711    0.2338407 -77.44  0.001341095    2.145    0.534
        40  -8.6724    135.0000    112.9816   8.6821000719e+01   3.2795505993e+01    0.2629373   0.08756831 -45.53  0.000803395    2.949    0.661
        41 -10.3247     58.6595    110.9180   1.0764007020e+02   4.6508199053e+01    0.2579332    0.2295888 -35.87  0.001569496    1.261    0.207
        42  -9.7960    118.8943    110.1558   9.0296367856e+01   3.6790998412e+01    0.2477956    0.2151688 -89.87  0.001255107    1.278    0.218
        43  -8.8584     61.6012    220.3217   1.2101336891e+02   2.1791804827e+01     0.232156    0.1758473 -54.54  0.001556324    1.815    0.449
        44  -8.0760    205.5233    110.4414   7.0587160099e+01   1.7022290151e+01    0.1511475    0.1454356 -37.48 0.0002525156    1.033    0.032
        45  -8.9866    164.0000    220.4777   1.0146434189e+02   5.7305111357e+00    0.2432892   0.07411528 -47.16 0.0009331457    3.922    0.745
        46  -9.5868     74.3238    218.9877   1.1853401074e+02   2.0334161978e+01    0.4532395    0.1735795  56.32  0.002095092    2.473    0.596
        47  -9.6453     41.4997     91.9527   1.0908095925e+02   5.2918464869e+01     0.180522    0.1738015 -52.45 0.0005798837    1.162    0.139
        48  -7.7093    155.6927     80.3545   7.2546534963e+01   3.4742264323e+01     0.165299    0.1233115 -71.35  0.000704226    1.719    0.418
        49  -7.7419     64.6572     70.2623   9.5753586333e+01   5.5040456023e+01    0.1270884    0.1065986  79.60 0.0002010841    1.596    0.373
        50  -8.9836    157.4012     59.4652   6.5662634496e+01   3.8036390971e+01    0.3064465    0.2555059 -71.24 0.0007500742    1.366    0.268
        51  -8.6343    111.7954    217.8013   1.1122730305e+02   1.4953139854e+01    0.1764048    0.1254454  65.25 0.0005035445    1.309    0.236
        52  -8.0882    159.4654     53.4588   6.3301136881e+01   3.8483683228e+01    0.1504934    0.1483254  72.29 0.0001027951    1.009    0.009
        53 -11.6327    182.5743     45.6614   5.6575107637e+01   3.3678432672e+01    0.7845662    0.5594434  37.88   0.00260932    1.593    0.372
        54  -8.3507    130.5346    213.0297   1.0693819902e+02   1.2733974340e+01    0.1703055    0.1270671 -60.08 0.0004463018    1.532    0.347
        55  -8.5356    105.6451    247.3243   1.1551014443e+02   1.0847989921e+01    0.1240935   0.06940009  63.94 0.0007046359    1.765    0.434
        56  -9.4335     72.9243    205.1028   1.1746362231e+02   2.3232935137e+01    0.3396324    0.2416487  82.80   0.00150073    1.265    0.210
