#   1 NUMBER                 Running object number                                     
#   2 MAG_AUTO               Kron-like elliptical aperture magnitude                    [mag]
#   3 X_IMAGE                Object position along x                                    [pixel]
#   4 Y_IMAGE                Object position along y                                    [pixel]
#   5 X_WORLD                Barycenter position along world x axis                     [deg]
#   6 Y_WORLD                Barycenter position along world y axis                     [deg]
#   7 A_WORLD                Profile RMS along major axis (world units)                 [deg]
#   8 B_WORLD                Profile RMS along minor axis (world units)                 [deg]
#   9 THETA_WORLD            Position angle (CCW/world-x)                               [deg]
#  10 FWHM_WORLD             FWHM assuming a gaussian core                              [deg]
#  11 ELONGATION             A_IMAGE/B_IMAGE                                           
#  12 ELLIPTICITY            1 - B_IMAGE/A_IMAGE                                       
         1 -16.2846      8.0083    136.0138   1.2559660868e+02   4.5593940179e+01     3.683625     1.755166 -75.50   0.01507151    1.639    0.390
         2 -13.7275    230.9072     19.2803   4.3654779056e+01   2.4782951961e+01    0.8233172    0.4193624 -31.67  0.003846426    1.748    0.428
         3 -13.0483    249.1468      6.7902   3.9087999469e+01   2.1898586805e+01     1.409891    0.2298071 -27.63  0.004440954    4.438    0.775
         4 -13.7598    234.3313      5.0259   3.9671154106e+01   2.5484503334e+01     1.139515    0.8384871  64.30  0.006579104    1.460    0.315
         5 -13.5072    145.6295     15.6527   5.3041446826e+01   4.7269464120e+01    0.6075861    0.4175943 -10.93  0.002924399    1.588    0.370
         6 -13.1697    154.6046     11.5815   5.0077362478e+01   4.5318600959e+01      0.58604    0.3043888 -28.55  0.002536827    1.910    0.476
         7 -13.4877      4.0988      4.6980   1.0030790268e+02   7.5104655350e+01    0.6556692    0.3704676 -39.66  0.004170178    1.311    0.237
         8 -13.4708    167.0828      3.8353   4.5639632140e+01   4.2732605367e+01    0.8127643    0.4181269  66.68  0.003586784    1.789    0.441
         9 -12.1335    177.8315    217.0309   9.8712517636e+01   5.7038887143e+00    0.4834027    0.3389279  24.93  0.002575387    1.353    0.261
        10 -14.9603    242.3855    241.4877   9.1420133540e+01  -6.7751018723e+00     1.523546    0.9195771  11.12   0.01038594    1.489    0.328
        11 -11.2003    141.6533    249.8121   1.0925761910e+02   6.8052535020e+00    0.3358991    0.1201728  42.32  0.001721865    2.082    0.520
        12 -14.5880    105.7718    246.6832   1.1511773146e+02   1.2362072517e+01     2.759681    0.5581779  39.25   0.01054527    4.045    0.753
        13 -14.7665     96.9708    148.0706   1.0482181417e+02   3.2238741857e+01     1.741685     1.167186  83.43  0.008434555    1.826    0.452
        14 -16.4371     92.2270    175.9080   1.1012776638e+02   2.6947975376e+01     5.508241     3.132299  88.76   0.02545527    2.397    0.583
        15 -15.9202     70.6078    232.2923   1.2007202296e+02   1.9339261276e+01     2.894734     1.207617  53.82   0.01626244    1.919    0.479
        16 -14.8911     71.8789    215.5610   1.1851771407e+02   2.2088798870e+01     2.078684    0.7930353  60.49  0.009445005    2.901    0.655
        17 -15.3763     78.3192    196.4637   1.1548313109e+02   2.4812113839e+01     3.556367     1.647994  84.08   0.01440869    3.679    0.728
        18  99.0000     13.6495    240.6754   1.3003712243e+02   2.4344794220e+01    0.4996854    0.1550463  52.07  0.003027434    2.077    0.519
        19  99.0000     26.7832    247.5805   1.2824817671e+02   2.1895878867e+01    0.6016116    0.3421459  58.88    0.0046205    1.199    0.166
        20  99.0000     31.6092    238.0189   1.2705017782e+02   2.2947279657e+01     1.246304    0.3840244  61.87  0.006395283    2.834    0.647
        21 -11.0861     31.9775    228.3864   1.2651568971e+02   2.4545969063e+01    0.6853044    0.2997563  54.42  0.004334114    1.670    0.401
        22 -14.4427      7.7258    221.7395   1.3029456123e+02   2.8141711097e+01     1.510225    0.4320785  67.06  0.007461482    3.100    0.677
        23 -13.8681     15.5539    220.0415   1.2891103977e+02   2.7697416527e+01     1.018981    0.2913983  73.14  0.004344258    4.155    0.759
        24 -15.0103      6.9059    205.1672   1.2977859333e+02   3.1236250288e+01       1.3187    0.3915527  34.20  0.006870198    3.178    0.685
        25 -15.8372      6.8030    194.6203   1.2933820731e+02   3.3261134891e+01     1.259629     0.853891  72.69   0.00720712    1.050    0.048
        26 -11.9569      1.8891    249.1589   1.3210449707e+02   2.4094983768e+01    0.3141504    0.1134711  86.75  0.001992553    2.426    0.588
        27 -14.1907     64.4482    246.5806   1.2210832561e+02   1.7783931925e+01     1.779912    0.3712428  47.49  0.008205079    3.056    0.673
        28 -12.8158    140.6187    226.7697   1.0684162793e+02   1.0220661133e+01    0.5207338    0.4023909  40.19  0.002452635    1.087    0.080
        29 -10.9944     34.5509    213.5530   1.2525606035e+02   2.6923443687e+01    0.3702381    0.1579542  62.17  0.002110499    1.963    0.491
        30 -12.1202    142.3654    208.4037   1.0415089642e+02   1.2823521764e+01    0.5388341    0.2666823  47.93  0.002724434    1.778    0.438
        31 -11.4122    137.1099    212.7390   1.0574123532e+02   1.2968873819e+01    0.4139934    0.1802592  53.02  0.001877862    2.422    0.587
        32 -12.5697    126.0568    206.8096   1.0711915046e+02   1.5732927227e+01    0.7525358    0.3221658  46.69  0.003584399    1.993    0.498
        33 -14.7602    235.5163    189.4436   8.3892796321e+01  -7.4767022254e-02     1.985191    0.8922413 -20.93  0.009118856    2.626    0.619
        34 -13.3572    247.7482    179.8660   8.0071468286e+01  -8.4603210811e-01    0.7821977    0.4198198 -30.39   0.00424783    1.801    0.445
        35 -14.3193    201.7502    175.9071   8.7300484342e+01   7.5965013450e+00     1.456425     1.199852 -67.52  0.008297638    1.828    0.453
        36 -13.9160    214.2775    163.2462   8.2476190331e+01   7.2096645159e+00     1.195236     1.061843 -82.19  0.007026447    1.682    0.405
        37 -14.0977    225.6535    152.9636   7.8296266876e+01   6.6279185680e+00     1.210702    0.5014058 -28.93  0.004946169    2.478    0.596
        38 -14.4227    182.6322    199.1081   9.5034487223e+01   7.4844482082e+00     2.122395    0.9681409  36.27  0.009967929    1.990    0.497
        39 -11.7722     30.5192    201.9920   1.2530884397e+02   2.9534248050e+01    0.2957852    0.2305548 -82.41  0.001398731    1.318    0.241
        40 -11.1819     28.4767    198.5217   1.2548355444e+02   3.0420001742e+01    0.2504616    0.1811261  75.19 0.0009297144    1.040    0.038
        41 -11.4508     31.8228    194.8241   1.2460908689e+02   3.0796990139e+01    0.4177839    0.3178155 -73.95  0.002442768    1.411    0.291
        42 -11.9494     27.4796    193.4951   1.2536526830e+02   3.1511506068e+01    0.3144858    0.1873628  57.52  0.001565536    1.348    0.258
        43 -11.2171     46.0958    197.6657   1.2202813796e+02   2.8659022746e+01    0.4074569    0.1985475  56.50    0.0023309    1.716    0.417
        44 -11.6720    139.4423    195.0419   1.0283045693e+02   1.5574148796e+01    0.5463846    0.2441358  55.57  0.002244998    2.770    0.639
        45 -12.2600     45.3218    171.0252   1.1995904432e+02   3.4244207480e+01    0.5474681    0.3614497 -45.86  0.002621022    2.138    0.532
        46 -12.0601     34.0688    181.8145   1.2325283981e+02   3.3196408068e+01    0.6962265    0.4433654  53.88  0.003357306    1.353    0.261
        47 -11.4968     37.6585    175.3821   1.2199766609e+02   3.4161952264e+01    0.2980222     0.172989 -73.72  0.001151954    1.550    0.355
        48 -13.0438    197.9472    191.0856   9.0808604110e+01   6.0177726582e+00    0.8048626    0.6542441  84.91  0.004586423    2.085    0.520
        49 -10.9551     17.2531    180.3150   1.2657390428e+02   3.5177373771e+01    0.2484087    0.1288052  71.68  0.001433298    1.606    0.378
        50 -12.7022      6.5196    242.5377   1.3120662645e+02   2.4725081768e+01    0.6711345    0.1909132  78.84  0.003332734    3.650    0.726
        51 -11.0298     52.0553    162.3193   1.1757402203e+02   3.5363991456e+01    0.2292011    0.1869799 -71.61  0.000961583    1.243    0.195
        52 -12.1215    116.8385    160.8350   1.0227702830e+02   2.6093646600e+01    0.5736269    0.2231951  43.63  0.002258859    2.405    0.584
        53 -12.6677    120.9515    152.7536   9.9887603986e+01   2.7073257805e+01    0.4781986     0.267213  62.29  0.001978674    2.340    0.573
        54 -13.9679    231.0934    134.4322   7.3256484081e+01   8.3641228666e+00     1.641096    0.7635354 -49.19   0.00613254    3.224    0.690
        55 -12.5537     85.8922    115.1937   1.0145994830e+02   4.1670889675e+01      1.15031    0.7665333 -29.07  0.005195708    2.156    0.536
        56 -12.3962     75.8572    131.2646   1.0733651653e+02   3.9388523715e+01    0.3648426    0.2433162 -51.97  0.001764301    1.511    0.338
        57 -13.0203     77.7289    126.0613   1.0589824620e+02   4.0347034795e+01    0.7268533    0.4989809  56.79  0.003747533    1.531    0.347
        58 -12.3943     96.4916    127.9994   1.0121626439e+02   3.6914036082e+01    0.7458297    0.4817622 -79.46  0.003379552    1.900    0.474
        59 -12.1661     93.0628    120.1836   1.0052426566e+02   3.9317127263e+01    0.5835816    0.3715903 -67.82  0.002669224    1.634    0.388
        60 -14.5330    241.4075    107.3367   6.5212085674e+01   1.0375050100e+01     2.687425    0.5829922 -34.67  0.008222289    3.756    0.734
        61 -11.5167     59.2710    163.9267   1.1609098294e+02   3.4123365770e+01     0.428728    0.2338535  23.96  0.002052225    2.675    0.626
        62 -15.7469     27.1393    134.8981   1.2070081657e+02   4.4268475833e+01     1.426825     1.273542 -44.39  0.007159476    1.448    0.310
        63 -12.3083      2.4407    239.4615   1.3173814521e+02   2.5608987507e+01    0.4058745    0.1169431  72.59  0.002124608    3.115    0.679
        64 -12.3237      2.2538    232.6851   1.3155770373e+02   2.6755746910e+01    0.5470695    0.1844831  86.33  0.003148781    2.633    0.620
        65 -10.8636     40.1077    231.1209   1.2528027169e+02   2.3185428961e+01    0.2222538    0.1120679  47.39  0.001162318    1.523    0.344
        66 -12.7324    130.0044    223.2385   1.0838140778e+02   1.2405830532e+01    0.6919591    0.2670966  48.51  0.002740042    2.250    0.556
        67 -13.1985    148.9317    223.6349   1.0492417402e+02   9.3888351948e+00    0.6850825    0.4889149  27.39  0.003299826    1.427    0.299
        68 -12.9637    169.0318    218.4753   1.0052962078e+02   6.9256739174e+00    0.7040877    0.4013969  22.42  0.003600432    2.198    0.545
