#   1 NUMBER                 Running object number                                     
#   2 MAG_AUTO               Kron-like elliptical aperture magnitude                    [mag]
#   3 X_IMAGE                Object position along x                                    [pixel]
#   4 Y_IMAGE                Object position along y                                    [pixel]
#   5 X_WORLD                Barycenter position along world x axis                     [deg]
#   6 Y_WORLD                Barycenter position along world y axis                     [deg]
#   7 A_WORLD                Profile RMS along major axis (world units)                 [deg]
#   8 B_WORLD                Profile RMS along minor axis (world units)                 [deg]
#   9 THETA_WORLD            Position angle (CCW/world-x)                               [deg]
#  10 FWHM_WORLD             FWHM assuming a gaussian core                              [deg]
#  11 ELONGATION             A_IMAGE/B_IMAGE                                           
#  12 ELLIPTICITY            1 - B_IMAGE/A_IMAGE                                       
         1 -14.8722    214.2327      6.2904   4.1128116668e+01   3.0340077496e+01     2.870547     1.901243  48.79    0.0110781    1.726    0.421
         2 -13.9575    174.8860     51.2650   5.9257954942e+01   3.4870901155e+01     1.495249     1.282329  37.45  0.003562807    1.242    0.195
         3 -14.3669    189.3888     37.8263   5.2818388489e+01   3.2988708464e+01     1.190029     1.137585   9.83  0.004268095    1.172    0.147
         4 -11.6156     57.6499      3.8315   7.0766770699e+01   6.7355626271e+01     0.251455    0.1364623  30.53   0.00135425    1.760    0.432
         5 -13.7947    194.2275     31.6023   5.0314481878e+01   3.2538490347e+01    0.8218833      0.76108  18.32  0.001188913    1.248    0.199
         6  -9.8368      1.3525    210.4101   1.3094872430e+02   3.0642366273e+01    0.1064246   0.06920637  75.97 0.0001669148    1.069    0.065
         7 -11.7979    249.0143    248.4954   9.0474782868e+01  -1.1178631328e+01    0.3957706     0.187142 -23.68  0.002322112    2.298    0.565
         8 -16.5956     71.5025    145.8904   1.1005259622e+02   3.6736239504e+01     7.995397     4.102227  72.85   0.01932783    3.195    0.687
         9 -18.5918     35.5969    240.7183   1.2682595781e+02   2.1522926738e+01     6.775933     3.447975  39.15    0.0322555    1.981    0.495
        10 -11.5955     97.2146    200.5239   1.1186859343e+02   2.0810111704e+01    0.3990797    0.3410078 -25.75  0.001210203    1.770    0.435
        11  -9.7619     93.5042    205.5135   1.1322750397e+02   2.0394494529e+01    0.2025524    0.1663514  70.65  0.001301329    1.034    0.033
        12 -10.3314     87.4445    202.7621   1.1413543499e+02   2.1862389436e+01    0.2197513    0.1883931  39.96 0.0008929989    1.354    0.262
        13 -19.1979     15.6173    102.8565   1.1872834471e+02   5.2871329891e+01     16.30265    0.7340145 -69.32   0.02703378   16.591    0.940
        14 -11.0382    153.6261    185.0025   9.7622528110e+01   1.3972636556e+01    0.3072367    0.2136425 -57.62 0.0009826948    1.647    0.393
        15  -9.5213     60.1464    185.9492   1.1792721787e+02   2.9209914198e+01    0.1850303    0.1387542 -50.05   0.00111597    1.723    0.420
        16  -9.8787     42.7282    194.8799   1.2234014532e+02   2.9475137888e+01    0.2357017    0.1067694  52.09   0.00125465    1.917    0.478
        17 -12.4749    146.4215    183.1839   9.8838294072e+01   1.5691594232e+01    0.5420722    0.3709314  73.99  0.002249125    1.977    0.494
        18 -12.3940    141.8882    174.2514   9.8235055353e+01   1.8334468268e+01    0.6957502    0.5657558  70.57  0.003518295    1.315    0.240
        19 -10.1427     78.8706    193.6701   1.1485291343e+02   2.4989902733e+01    0.2223395    0.1749424  68.59 0.0005664457    1.073    0.068
        20 -11.4581     99.3495    180.6767   1.0875064975e+02   2.4586885164e+01    0.2716613    0.2336015  46.23 0.0006033318    1.209    0.173
        21 -10.5713    188.6382    175.3508   8.8543462907e+01   8.9077615521e+00    0.3964407    0.2546082 -54.07  0.001489008    1.956    0.489
        22 -10.5406    196.8174    175.6397   8.6971013753e+01   7.2486908912e+00    0.3390802    0.2494492  53.64  0.001760719    1.489    0.328
        23 -10.5252     67.1926    174.5770   1.1509879296e+02   3.0753815575e+01    0.4327754    0.1920866 -54.41  0.001970185    2.394    0.582
        24 -11.3718    230.2148    167.0484   7.8909230458e+01   2.2342006309e+00     0.406282    0.1669935 -44.15  0.001583798    2.852    0.649
        25 -10.1326    161.1220    199.6602   9.8574052183e+01   9.8871795186e+00    0.1997782    0.1816436 -74.48 0.0005833616    1.279    0.218
        26 -10.8925    204.4671    175.8510   8.5520489317e+01   5.7249230023e+00    0.3261687    0.3035191 -61.25 0.0009534973    1.335    0.251
        27 -11.7235    133.9415    145.9544   9.4507208973e+01   2.5904896842e+01     1.288039    0.3297259 -55.09  0.003073348    5.916    0.831
        28  -9.7713    191.5047    151.4901   8.2923980483e+01   1.2641368064e+01    0.2682339    0.1349899 -50.62  0.001028453    2.402    0.584
        29 -10.3029    113.4355    151.3107   1.0055487129e+02   2.8650268645e+01    0.3197314      0.21602  84.75 0.0009866435    1.983    0.496
        30 -10.5666    174.4576    148.8281   8.5900106357e+01   1.6793438420e+01    0.3129573    0.2733245  71.85 0.0008313828    1.296    0.229
        31 -11.5829    144.2340    146.8642   9.2264182602e+01   2.3606506860e+01    0.5148935    0.2633269 -61.17   0.00187622    2.647    0.622
        32 -10.6373     82.2457    194.9819   1.1430178193e+02   2.4223117341e+01    0.3779864    0.2641357  81.91  0.002206861    1.381    0.276
        33 -11.9133    107.9921    138.9136   9.9458699878e+01   3.2481131868e+01    0.5965163     0.412685 -36.94  0.002796226    1.737    0.424
        34 -12.3718    152.2372    195.0085   9.9621711870e+01   1.2363181637e+01    0.4880252    0.3854544  14.59  0.001940326    1.567    0.362
        35 -12.4850     96.4073    138.1137   1.0227666955e+02   3.4702081908e+01    0.3133756    0.2728521  58.22 0.0004354206    1.153    0.133
        36 -11.5125    105.9839    130.8361   9.8280859839e+01   3.4720798376e+01    0.4143164    0.3190484 -67.56  0.001280592    1.303    0.233
        37 -11.3253    135.7474    127.6221   8.9934753657e+01   2.9584874470e+01    0.7893603    0.2042261 -50.79  0.002083001    4.360    0.771
        38 -11.0784    115.3358    129.1802   9.5476619370e+01   3.3354787781e+01    0.3738471    0.3124582   7.47  0.000915701    1.558    0.358
        39 -11.1887    120.7040    122.7564   9.2591294631e+01   3.3770913204e+01    0.5205629    0.3144467 -22.96  0.001860794    2.997    0.666
        40 -10.5166    161.4529    128.2914   8.3976781506e+01   2.3821641423e+01     0.475186    0.3413671  77.28   0.00202858    1.931    0.482
        41 -11.2275    102.9293    125.1181   9.7838607911e+01   3.6606663966e+01    0.3209804    0.2628392 -17.67  0.001118835    1.592    0.372
        42  -9.7452    152.5515    119.7351   8.3907729745e+01   2.7621963062e+01    0.3076367    0.2340024 -76.19  0.001298791    1.689    0.408
        43 -10.1889    110.3430    118.5261   9.4322512634e+01   3.6762548403e+01    0.2431206    0.2315184 -74.52 0.0002373717    1.011    0.011
        44 -10.4313    167.6980    112.6733   7.8590184645e+01   2.5590718030e+01    0.3795934    0.2877947 -78.76   0.00122966    1.766    0.434
        45 -10.4535    134.5988    105.5993   8.4606299867e+01   3.4662018760e+01    0.5405549    0.1474597 -46.18  0.001508663    3.653    0.726
        46 -11.8730    119.1155    109.8352   8.9793716209e+01   3.7012138855e+01     0.603516    0.4971344  73.80  0.002983935    1.393    0.282
        47 -10.4061    205.4070    110.1053   7.0215520498e+01   1.7188475746e+01    0.3203415     0.229844  46.15 0.0008385751    1.441    0.306
        48 -11.3916     96.8296    192.3256   1.1090287776e+02   2.2539465186e+01    0.3461314    0.2678016 -31.71 0.0008448638    1.976    0.494
        49 -10.1492    185.3978     85.3805   6.7374717800e+01   2.6507892885e+01    0.3003013    0.2760674 -78.95  0.001000523    1.145    0.127
        50  -9.6172     70.2637     72.2501   9.3968828477e+01   5.4014966293e+01    0.1741432    0.1582023 -83.00 0.0004760327    1.315    0.240
        51 -12.9779    163.7889     63.3550   6.5160791594e+01   3.5821421400e+01     1.113587    0.9581974  45.55  0.001131252    1.172    0.146
        52 -10.8855    158.1273    235.4657   1.0448237842e+02   4.5833244305e+00    0.2169335    0.2023134  32.04 0.0007833272    1.173    0.148
        53  -9.4456    167.0984    232.9689   1.0248055505e+02   3.4584512667e+00    0.2886707    0.1432607  58.79  0.001251295    2.971    0.663
        54 -10.5294     72.0041    231.2637   1.1990890505e+02   1.8638603982e+01    0.2255144    0.1299226 -89.79 0.0009595815    1.802    0.445
        55 -10.5085     58.0651    227.1309   1.2207253437e+02   2.1239936828e+01    0.1868278    0.1270016  81.34 0.0005994189    1.256    0.204
