#   1 NUMBER                 Running object number                                     
#   2 MAG_AUTO               Kron-like elliptical aperture magnitude                    [mag]
#   3 X_IMAGE                Object position along x                                    [pixel]
#   4 Y_IMAGE                Object position along y                                    [pixel]
#   5 X_WORLD                Barycenter position along world x axis                     [deg]
#   6 Y_WORLD                Barycenter position along world y axis                     [deg]
#   7 A_WORLD                Profile RMS along major axis (world units)                 [deg]
#   8 B_WORLD                Profile RMS along minor axis (world units)                 [deg]
#   9 THETA_WORLD            Position angle (CCW/world-x)                               [deg]
#  10 FWHM_WORLD             FWHM assuming a gaussian core                              [deg]
#  11 ELONGATION             A_IMAGE/B_IMAGE                                           
#  12 ELLIPTICITY            1 - B_IMAGE/A_IMAGE                                       
         1 -14.8187    164.8093     50.1969   7.1743089366e+01   3.7742710184e+01     1.013449    0.8744426  -7.80  0.003785225    1.479    0.324
         2 -14.9443    179.8336     20.8310   6.2012754929e+01   3.7852205374e+01    0.8239371     0.698073  88.14  0.004503286    1.036    0.034
         3 -11.9806     97.0197    239.3077   1.2863849722e+02   1.1187783816e+01    0.3874467    0.1972902 -57.29  0.001773596    2.119    0.528
         4 -11.1307    115.2456    249.6965   1.2614491380e+02   6.1764745467e+00     0.156536    0.1091778 -53.49 0.0005028879    1.655    0.396
         5 -19.8740     71.7922    165.2006   1.2399042270e+02   3.2445161021e+01     18.49388     6.654547 -63.37    0.0654664    2.710    0.631
         6 -11.0182    133.2527    195.0287   1.1384878279e+02   1.4642768887e+01      0.20416    0.1910274 -87.91 0.0004006667    1.076    0.071
         7 -11.2032     99.5620    247.5300   1.2909373325e+02   9.1154810140e+00    0.1447582    0.1227082 -61.49 0.0002723639    1.357    0.263
         8 -13.9177    163.2956    181.2524   1.0419204420e+02   1.1915165762e+01    0.4571376    0.3117559  62.15  0.001412379    1.817    0.450
         9 -14.4733    125.5987    172.2562   1.1139612915e+02   2.1453584903e+01    0.7665769    0.4742069  43.51  0.001901356    1.607    0.378
        10 -15.2480    138.6994    168.8659   1.0746455472e+02   1.9686421877e+01     1.134348    0.5025077  32.97  0.003778737    2.823    0.646
        11 -13.8570    150.0262    173.3001   1.0565057813e+02   1.6373725426e+01    0.4650207    0.3300294 -85.61  0.001476947    2.034    0.508
        12 -14.5950    186.3972    174.2159   9.7618761532e+01   8.8285836880e+00    0.7884439    0.4601161 -50.20  0.001752239    1.751    0.429
        13 -15.4588    142.9995    175.5689   1.0779492157e+02   1.7256718928e+01    0.9751604    0.7668847 -44.89  0.004303935    1.300    0.231
        14 -11.6984     26.0199    172.5273   1.3662329357e+02   3.6234778043e+01    0.3404467    0.2145675  40.95  0.001576662    1.715    0.417
        15 -12.8921    193.3671    170.3798   9.5335124674e+01   8.2490724334e+00    0.2782266    0.2630925 -68.13 0.0006678291    1.136    0.120
        16 -11.5855     19.9669    167.0612   1.3746163107e+02   3.8135716204e+01    0.2175613    0.1544061 -61.61 0.0005873989    1.277    0.217
        17 -14.5116    176.9206    169.6189   9.8702886504e+01   1.1722196888e+01    0.7255653    0.3596971 -41.79  0.002822084    2.032    0.508
        18 -11.9955    117.3420    232.4053   1.2341608829e+02   9.2901512218e+00    0.2177189    0.1948324 -80.11 0.0006881708    1.174    0.148
        19 -11.2594    150.5601    229.7696   1.1583502056e+02   4.0789966570e+00     0.324387    0.1403057 -55.31  0.001295166    2.736    0.634
        20 -15.5506    133.7095    145.8535   1.0369678462e+02   2.6160559198e+01     1.812008    0.6080667 -57.52  0.004704552    4.442    0.775
        21 -14.5516    144.5065    146.4419   1.0112414736e+02   2.3762151899e+01    0.7165186    0.4488501 -72.55   0.00268619    2.374    0.579
        22 -11.3845    101.7440    242.8691   1.2808744145e+02   9.7059170892e+00    0.3271311    0.1604903 -63.44  0.001289636    2.248    0.555
        23 -12.7871    187.2483    153.4487   9.2934004166e+01   1.3077005477e+01    0.3938243    0.2553393  31.28  0.001694679    1.851    0.460
        24 -10.9940    127.4129    227.5015   1.2051809965e+02   8.5856911769e+00     0.303741    0.1245952  40.83  0.001053138    2.194    0.544
        25 -12.8605    207.6176    224.0142   1.0294387150e+02  -4.6393667724e+00     0.379059    0.1247683 -46.05  0.001395004    3.332    0.700
        26 -13.1032    161.6828    149.3752   9.7683084523e+01   1.9419226115e+01    0.3340615     0.255907 -87.97 0.0008319892    1.708    0.414
        27 -12.1011    139.9692    218.2173   1.1629077721e+02   8.3103653553e+00     0.526103    0.2123005 -59.60  0.001827013    3.204    0.688
        28 -10.5054     26.3484    221.2570   1.4127149664e+02   2.4840277546e+01    0.1052845   0.09171718 -49.52 0.0006963448    1.598    0.374
        29 -13.2808     27.6060    145.8037   1.3279821488e+02   4.2583570868e+01    0.3511187    0.2563801 -50.39  0.001177016    1.320    0.242
        30 -11.7170    151.9866    218.6000   1.1369166690e+02   6.0645452208e+00    0.2567861     0.212689 -65.96 0.0009965244    1.366    0.268
        31 -12.8653    174.5770    149.4352   9.4770399005e+01   1.6636273882e+01    0.2818446    0.2771809 -72.32 0.0008140741    1.017    0.017
        32  -9.7696     24.4442    215.4240   1.4116912024e+02   2.6349849438e+01    0.1224981   0.09737152  84.89 0.0003184976    1.044    0.042
        33 -11.4089    135.6008    237.8764   1.2027963824e+02   5.0804512576e+00    0.2442744    0.1970281  15.31 0.0006126005    1.476    0.322
        34 -13.3000    160.3973    127.9750   9.2922023471e+01   2.4475364569e+01    0.4202823    0.2926344 -60.02  0.001840399    1.568    0.362
        35 -12.0358     11.6597    205.9504   1.4297521303e+02   2.9807017299e+01    0.3485861     0.297168  14.61  0.002403163    1.747    0.428
        36 -10.9922    231.1469    113.8390   7.6001549248e+01   1.1842528129e+01    0.2150478    0.1774542 -67.59 0.0007918515    1.178    0.151
        37 -14.9653    150.9888    150.3205   1.0043073806e+02   2.1488213370e+01    0.9851797    0.6077234 -89.04  0.003109416    3.668    0.727
        38 -14.9502    136.0528    128.5348   9.8984807465e+01   2.9700188188e+01     2.005881    0.3957781 -50.96  0.004180322    6.638    0.849
        39 -11.2075    205.7999    110.1930   7.9382509431e+01   1.7914687344e+01    0.1933441    0.1797252   1.40 0.0005695216    1.318    0.241
        40 -12.4227    168.5294    113.6184   8.7541770794e+01   2.5689217788e+01    0.3865848    0.2835713 -74.66 0.0008314454    1.686    0.407
        41 -10.9234     24.7065    202.7417   1.4000887972e+02   2.9207178949e+01    0.1101191   0.08922201 -54.20 0.0002561519    1.496    0.331
        42 -13.6960    153.1067     63.6996   7.7633402560e+01   3.8516217527e+01    0.4357191    0.3572477  56.16 0.0008562569    1.147    0.128
        43 -11.2481     20.2801    196.3090   1.4036380114e+02   3.1159522271e+01    0.1172874   0.08465442 -54.89 0.0004013955    1.561    0.359
        44 -14.6770    188.3172    248.5434   1.1099173645e+02  -5.6526391814e+00      1.06633    0.3659522  33.74  0.004164986    2.829    0.647
        45 -13.2687    169.7427     41.7691   6.8703391036e+01   3.7712674193e+01    0.3807218    0.3618068  38.55 0.0008929039    1.239    0.193
