#   1 NUMBER                 Running object number                                     
#   2 MAG_AUTO               Kron-like elliptical aperture magnitude                    [mag]
#   3 X_IMAGE                Object position along x                                    [pixel]
#   4 Y_IMAGE                Object position along y                                    [pixel]
#   5 X_WORLD                Barycenter position along world x axis                     [deg]
#   6 Y_WORLD                Barycenter position along world y axis                     [deg]
#   7 A_WORLD                Profile RMS along major axis (world units)                 [deg]
#   8 B_WORLD                Profile RMS along minor axis (world units)                 [deg]
#   9 THETA_WORLD            Position angle (CCW/world-x)                               [deg]
#  10 FWHM_WORLD             FWHM assuming a gaussian core                              [deg]
#  11 ELONGATION             A_IMAGE/B_IMAGE                                           
#  12 ELLIPTICITY            1 - B_IMAGE/A_IMAGE                                       
         1 -14.5754     68.3590    144.5403   9.7775524054e+01   3.7397376381e+01     4.972023     2.637875  75.28  0.005317427    4.060    0.754
         2 -13.8632    225.3060     25.2621   3.4242930643e+01   2.7298337002e+01    0.8169077     0.730331 -49.11  0.002649677    1.223    0.182
         3 -14.4455    206.8171     41.6247   3.9570133627e+01   2.9137643753e+01     1.806383     1.364521  29.59   0.01042369    1.962    0.490
         4 -12.8417    247.3668      4.6164   2.8704164271e+01   2.5301044194e+01     0.566254    0.3596675 -62.95  0.003998594    1.222    0.182
         5  -9.2614     89.2596    211.0405   1.0180920089e+02   1.8570071285e+01    0.1769181    0.1665886  68.77 0.0004072564    1.104    0.094
         6 -15.1470      5.6479    185.7533   1.2033352047e+02   3.3621813262e+01      5.64787     1.029521 -76.35  0.006536017    4.563    0.781
         7 -12.9479     83.5817    217.0717   1.0389617191e+02   1.8053536875e+01    0.8413808    0.5605696  80.08  0.001292289    1.932    0.482
         8 -16.9151     20.5456    242.9849   1.2008076004e+02   1.9930260101e+01     8.940109     6.326701  33.48   0.03262582    1.336    0.251
         9 -13.2091     32.3981    200.5174   1.1475181699e+02   2.7797225269e+01    0.4830713    0.3782132 -30.87  0.001426187    1.678    0.404
        10 -15.5153     41.4359    191.3568   1.1168367989e+02   2.8995009893e+01     4.208794     1.883739  68.95   0.01629923    3.076    0.675
        11  -9.9849    204.6836    199.6644   7.4203927205e+01   3.6393818760e+00     0.135883   0.08675525  -6.93  0.000704787    1.695    0.410
        12  -9.3361    121.4547    196.9426   9.1918536056e+01   1.6862314058e+01    0.1871611    0.1268073 -89.58 0.0008084296    2.517    0.603
        13 -10.4825    111.5929    204.5361   9.5482216308e+01   1.6756512218e+01    0.3009552    0.2129769 -88.75 0.0008593188    2.056    0.514
        14  -9.2608    147.3881    186.8227   8.3978574645e+01   1.4812916592e+01    0.2037208    0.1256892 -35.27 0.0009460353    1.717    0.418
        15  -9.6069     99.4696    180.9290   9.4954991584e+01   2.3830642568e+01    0.2143931    0.1886462  31.08 0.0005442127    1.090    0.083
        16 -10.0018    187.9267    176.1546   7.3095390072e+01   1.0218680787e+01    0.3208911    0.2499403 -78.48   0.00160193    2.283    0.562
        17 -12.1034     60.5539    174.5197   1.0465436384e+02   3.0855110039e+01    0.4803535     0.305885 -29.53  0.001299528    2.159    0.537
        18 -11.9922     65.7211    169.5956   1.0252776096e+02   3.1412787804e+01    0.3446282    0.2645849 -36.51  0.001543897    1.488    0.328
        19  -9.2509     86.4435    175.4935   9.7608440582e+01   2.7077693309e+01    0.1980817    0.1406609 -74.03 0.0001263701    1.576    0.365
        20  -9.7452     89.2955    173.6740   9.6538029543e+01   2.7090872828e+01    0.2334731    0.1420537  34.40 0.0005175626    1.574    0.365
        21 -11.2496    119.0463    173.4924   8.8538469313e+01   2.2394007504e+01    0.5090315     0.140629  34.77  0.001544714    3.488    0.713
        22 -13.5223     62.8748    156.0907   1.0136582720e+02   3.5185973929e+01    0.5373057    0.3588892 -38.53  0.001548158    1.708    0.415
        23 -12.5125     83.2059    153.9814   9.4940225609e+01   3.2842615670e+01     0.913052    0.5662349 -39.82   0.00141147    1.806    0.446
        24 -12.6528     75.7801    159.8764   9.8137730603e+01   3.2462893617e+01    0.7892585    0.6023008  52.53 0.0009195904    1.353    0.261
        25 -10.3287    139.5760    249.2599   9.5219324384e+01   4.4543191576e+00    0.1604796    0.1101016 -31.52 0.0009559405    1.667    0.400
        26 -10.7205    133.7232    144.7412   7.8928867708e+01   2.6288996327e+01     1.047991    0.2600672 -54.05  0.002316423    6.623    0.849
        27  -9.8482    174.6527    148.9407   7.0249713550e+01   1.7683437077e+01    0.2560095    0.2277343 -69.47 0.0008376378    1.383    0.277
        28 -10.0380    230.4621    166.4901   6.3430053468e+01   5.3213273232e+00    0.1275073    0.1049045 -22.00 5.482632e-05    1.032    0.031
        29 -11.4465    193.7388    196.0635   7.5672723721e+01   5.8111382755e+00     0.929709    0.5161222 -63.34  0.002933485    6.268    0.840
        30 -11.0465     29.4658    143.5541   1.0993712964e+02   4.2147817460e+01    0.4006259    0.3422294 -13.75  0.001664016    1.364    0.267
        31 -10.2298     97.5179    140.5236   8.8066309545e+01   3.3866439831e+01    0.2952132    0.2705212 -60.53 0.0008100689    1.110    0.099
        32  -9.8781    100.4962    137.9792   8.6641000052e+01   3.3972313949e+01    0.3953668    0.2512687 -25.43   0.00118224    2.153    0.536
        33 -12.4423     85.6137    139.1751   9.1389844517e+01   3.6172586071e+01    0.3149562     0.286256 -42.55 0.0004967391    1.100    0.091
        34 -11.0135    107.3234    130.5783   8.2976170355e+01   3.4527250381e+01    0.5491635    0.3399068  28.10  0.002308798    1.776    0.437
        35 -10.6311     20.1820    131.7672   1.1148921376e+02   4.5989300799e+01    0.3476201    0.2345949  34.29  0.001209819    1.574    0.364
        36 -10.4789    135.5980    129.1028   7.4846631754e+01   2.9401385105e+01    0.4822033    0.1470286 -46.57  0.001460091    3.246    0.692
        37 -11.0049     67.5144    127.4349   9.4811726268e+01   4.1893991871e+01    0.5351381    0.2740929 -66.71  0.002098033    2.153    0.535
        38  -9.6344    148.7597    146.6721   7.5610677758e+01   2.3011509912e+01    0.3284019    0.2291392 -82.23  0.001130119    2.567    0.610
        39  -9.5251     96.6875    125.7659   8.5052530095e+01   3.7609945516e+01    0.2531114    0.2074705   8.22 0.0007907902    1.384    0.278
        40  -9.4090    115.7864    124.4043   7.9070258304e+01   3.4373890161e+01    0.2197041    0.1481476  26.51 0.0009428012    1.663    0.399
        41  -9.8695    106.1125    118.9380   8.0547907449e+01   3.7503557084e+01     0.220158     0.213801  -4.35 0.0003135628    1.021    0.021
        42 -11.1216    247.7788    114.4630   5.0564621450e+01   1.0879741692e+01    0.3213227    0.1263402  53.66  0.001470025    3.236    0.691
        43  -9.3696    134.6859    112.4938   7.0942977829e+01   3.3192390311e+01    0.2835242    0.1393358 -44.46  0.001080125    2.011    0.503
        44 -10.1377    205.3101    110.4591   5.5818394529e+01   1.8993353686e+01    0.3007864    0.2372418  23.01  0.001036218    1.554    0.357
        45 -11.8032    246.0967    107.9700   4.9465065987e+01   1.2137683413e+01    0.3629122    0.1174598 -45.67  0.001466453    2.814    0.645
        46  -8.7867     78.5571    113.5564   8.8018211333e+01   4.3688498887e+01    0.1489156    0.1463049 -81.86 0.0001019414    1.069    0.064
        47 -12.4535    242.4409     94.5599   4.7165710357e+01   1.4769794128e+01    0.3889064    0.2251953 -32.75  0.001903297    1.557    0.358
        48 -11.2771     53.0435     91.9266   9.1974785988e+01   5.2759451096e+01    0.4674538    0.2057442 -54.40  0.001684804    2.105    0.525
        49  -9.3361     44.0184    165.0810   1.0817082677e+02   3.5161991662e+01    0.2293626    0.1456589  62.70 0.0006138645    1.701    0.412
        50 -10.5397     33.1779    159.6042   1.1069340282e+02   3.7674335384e+01    0.2871806    0.1796506 -41.33 0.0009576232    1.842    0.457
        51 -11.2817     32.2489    156.0338   1.1056509696e+02   3.8674831524e+01    0.5359339    0.3105644  36.29   0.00201328    1.715    0.417
        52  -8.7943     26.4617     68.4611   9.7274652337e+01   6.1292941400e+01    0.1334457    0.1198844 -34.99 0.0001046276    1.047    0.045
        53 -11.5382     13.2728     59.8540   1.0146964954e+02   6.4317082249e+01    0.2884915     0.255296  59.81 0.0004923595    1.449    0.310
        54 -12.3580    218.2426     31.8740   3.6257380494e+01   2.7954779574e+01    0.3606033    0.3117414  41.99  0.001073517    1.552    0.356
        55 -15.2720      9.7322    208.5272   1.2064098720e+02   2.8093303273e+01     2.947127     1.220349 -76.12  0.006012553    2.254    0.556
        56 -10.6850     42.3567     59.4700   8.7007991500e+01   6.1502291220e+01    0.3117636    0.2159987  43.93  0.001043255    1.722    0.419
        57  -9.5522     23.9512     57.6318   9.5398761111e+01   6.3946244739e+01    0.1786853    0.1531486   6.95 0.0005038435    1.190    0.160
        58 -12.5037    177.0081    217.6400   8.2774148822e+01   4.5751891861e+00    0.5758199    0.2109139  27.55  0.002285004    2.847    0.649
        59  -8.9872      6.6324     50.3242   1.0243685864e+02   6.6856609641e+01    0.1213661   0.09344497  56.40 0.0007036427    1.801    0.445
        60 -10.2801    132.8023     39.6842   4.9843720172e+01   4.6545913453e+01    0.2709506    0.2174781 -83.02 0.0005158129    1.375    0.273
        61 -10.7100    198.0951     23.9124   3.6275092537e+01   3.3143879890e+01    0.2630143    0.1997218 -17.57   0.00106813    1.681    0.405
        62  -9.4305    189.5014     15.0147   3.4934852811e+01   3.6005851542e+01    0.1743833    0.1149506 -34.95  0.000621714    1.546    0.353
