#   1 NUMBER                 Running object number                                     
#   2 MAG_AUTO               Kron-like elliptical aperture magnitude                    [mag]
#   3 X_IMAGE                Object position along x                                    [pixel]
#   4 Y_IMAGE                Object position along y                                    [pixel]
#   5 X_WORLD                Barycenter position along world x axis                     [deg]
#   6 Y_WORLD                Barycenter position along world y axis                     [deg]
#   7 A_WORLD                Profile RMS along major axis (world units)                 [deg]
#   8 B_WORLD                Profile RMS along minor axis (world units)                 [deg]
#   9 THETA_WORLD            Position angle (CCW/world-x)                               [deg]
#  10 FWHM_WORLD             FWHM assuming a gaussian core                              [deg]
#  11 ELONGATION             A_IMAGE/B_IMAGE                                           
#  12 ELLIPTICITY            1 - B_IMAGE/A_IMAGE                                       
         1 -11.7141      6.0013     30.2140   1.1270953475e+02   6.8791936567e+01    0.4830747    0.3194004  68.86  0.001910573    2.366    0.577
         2 -12.1251     21.2820     18.9198   1.0130849759e+02   6.9930959875e+01     0.509739    0.4571127 -85.20  0.001333361    1.570    0.363
         3 -11.9176    129.5496     24.5305   6.4786494787e+01   4.9979784441e+01    0.5963826    0.4370302 -35.13  0.002043947    1.400    0.286
         4 -12.1467     85.7198     21.9976   7.5671917453e+01   6.0149995192e+01    0.7051711    0.5240033 -51.95  0.003747141    1.696    0.410
         5 -11.2900     63.8713     14.8946   8.0132158351e+01   6.5168844917e+01    0.6283666    0.3238668  14.70  0.002357517    3.759    0.734
         6 -11.8218     60.7276     23.0107   8.5188061473e+01   6.4411055905e+01    0.5381442    0.3214766 -57.69  0.002456957    2.699    0.629
         7 -11.4171     74.1582      7.0722   7.2436538740e+01   6.4391802691e+01    0.2983093    0.2045574 -18.74 0.0003358368    1.359    0.264
         8 -11.3614     75.9024     15.2943   7.5884566473e+01   6.2983092126e+01    0.4773508    0.3060367 -12.39   0.00162885    1.646    0.393
         9 -12.1326     70.4466     14.5663   7.7488063333e+01   6.4080070157e+01    0.3784607    0.2242677 -21.71 0.0009751828    1.653    0.395
        10 -12.2525     81.2043      6.8471   6.9973415438e+01   6.3046130653e+01    0.5821863    0.3507944  24.27  0.002885617    1.805    0.446
        11 -10.9713     10.0946     15.5149   1.0577201646e+02   7.1437862594e+01    0.2384895    0.1484906 -31.39 0.0007338446    1.424    0.298
        12 -11.4921      3.9055     18.0138   1.0997037487e+02   7.1341880286e+01    0.3213142     0.242892  -8.69  0.001722553    1.464    0.317
        13  -9.7728     15.1685     14.1882   1.0253174213e+02   7.1313479069e+01    0.1784481    0.1258016 -65.06 0.0007916024    1.688    0.408
        14  -9.3910     34.8598     16.0675   9.3356114686e+01   6.9078865188e+01    0.4016497    0.1890405 -31.97  0.001981883    2.062    0.515
        15 -11.0416    167.9434     14.9301   5.4138442058e+01   4.1117918767e+01    0.4537284     0.286023 -19.19  0.002098305    1.685    0.406
        16  -9.7521     50.9478     11.0311   8.3514490943e+01   6.7781744426e+01    0.2391633    0.1419397 -11.90 0.0008555455    1.986    0.496
        17 -10.3726    100.3515     12.9328   6.7170740166e+01   5.8280351669e+01    0.3096187     0.208554   0.82  0.001143461    1.634    0.388
        18 -10.5644     26.4405     13.8935   9.6525049239e+01   7.0360300387e+01    0.2061923    0.1375191 -24.29 0.0003009347    1.372    0.271
        19 -11.4512    117.7052     10.5029   6.1752836168e+01   5.4528652988e+01    0.6150504    0.2412225 -37.24  0.002348129    2.677    0.626
        20 -11.2791    115.9623      3.1086   5.8960922217e+01   5.5698921430e+01    0.2969769    0.1977768  -8.52 0.0004054325    1.573    0.364
        21 -10.5491     59.5707     10.2673   7.9522836236e+01   6.6548647879e+01    0.2630191    0.1814552  37.25 0.0008546924    1.509    0.337
        22  -9.7480      5.2830     11.6859   1.0691062883e+02   7.2471156187e+01    0.1599591   0.09502755 -37.19  0.001029916    1.356    0.263
        23  -9.8414    185.8153     11.0426   5.0418547253e+01   3.6744861713e+01    0.2123169    0.1783606 -62.11 0.0004315842    1.217    0.179
        24  -9.8391     10.8392      9.8218   1.0304213825e+02   7.2441373235e+01     0.256429    0.2235497  27.18  0.001657534    1.501    0.334
        25 -13.0952     31.9899      2.0566   8.7696594544e+01   7.1686136570e+01    0.6894622    0.3673747   0.44 0.0006084893    3.079    0.675
        26 -12.1244     27.0230      3.4747   9.1067980124e+01   7.2042449790e+01    0.8593229    0.4397258   2.27  0.003839177    3.465    0.711
        27 -12.4038     11.8946      2.4240   9.9005537026e+01   7.3664865351e+01    0.5750982    0.3988556 -16.80   0.00398113    1.342    0.255
        28 -11.0711     16.6456      1.7197   9.5883675746e+01   7.3373176218e+01    0.3363833    0.1567631 -50.45  0.001265726    2.081    0.519
        29  -9.9468    107.6011      9.5801   6.3765221046e+01   5.7020282318e+01    0.3055035     0.189154  48.19  0.001499639    1.505    0.336
        30 -10.1211    178.3195      9.0282   5.0720762068e+01   3.8942945860e+01    0.1956081    0.1888767  -2.28 0.0006915166    1.098    0.089
        31 -10.2049    127.2163      8.1936   5.8736626199e+01   5.2429749088e+01    0.1922322    0.1645807 -55.39 0.0004137323    1.346    0.257
        32 -10.4616    123.1103      7.7556   5.9407809688e+01   5.3494894156e+01    0.3217376    0.1700554  31.66  0.001347181    2.133    0.531
        33 -10.2958     91.5556      7.1380   6.6956884216e+01   6.0869440591e+01    0.3563615    0.2490042  19.93  0.001783931    1.450    0.310
        34 -10.0745    228.8446      5.7360   4.4474267753e+01   2.6189799766e+01    0.2467439    0.1627021 -74.73 0.0006602753    1.570    0.363
        35  -9.6986    172.0206      5.5255   5.0383012078e+01   4.0960644146e+01    0.2165504    0.1321759  66.18 0.0004978181    1.523    0.343
        36  -9.8436     59.6051      5.5157   7.7032004744e+01   6.7192765437e+01    0.2610699    0.1199137  44.91  0.001243206    2.281    0.562
        37  -9.9850    176.7514      4.0281   4.9283373055e+01   3.9834444812e+01    0.1883959    0.1855648  28.20 0.0003169356    1.071    0.066
        38  -9.3854    167.7634      2.0720   4.9774117830e+01   4.2411772172e+01     0.177276     0.119137 -22.66  0.000476032    1.560    0.359
        39  -9.8016     73.0258      2.0681   7.0239766892e+01   6.5202277004e+01    0.1805054     0.157242 -58.75 0.0004572951    1.606    0.377
        40  -9.2370    139.4568      1.5684   5.3808342992e+01   4.9932853046e+01     0.140591    0.1309133  50.74  0.000131351    1.019    0.018
        41 -11.3490    236.2983    213.6868   9.1408932710e+01  -1.8057781434e+00    0.1969922    0.1364327  37.48 0.0004818479    1.299    0.230
        42 -10.8301    250.3599    246.0743   9.4106744888e+01  -6.8223834935e+00    0.2898051    0.1293317 -20.58  0.001776218    2.608    0.617
        43 -10.0218     72.6007    250.0975   1.2321423024e+02   1.7929314525e+01    0.1540851    0.1263328  33.00  0.001264029    1.654    0.395
        44 -12.0272     27.9054    246.9581   1.2999360441e+02   2.3462973017e+01     0.364336     0.199248  82.98  0.002732704    1.591    0.371
        45 -12.8205     20.0848    248.4300   1.3122313391e+02   2.4032941432e+01    0.8096618    0.1540965  42.89  0.004423008    2.971    0.663
        46 -13.4273      5.9821    244.5283   1.3317088506e+02   2.5973265072e+01    0.9500589    0.6992078  31.20  0.006812734    1.979    0.495
        47 -10.8279      9.5095    216.9833   1.3166473296e+02   3.0047424111e+01    0.2629677    0.1183006  55.64  0.001048241    1.583    0.368
        48  -9.6487    191.7585    217.0169   9.9374732146e+01   4.9022389057e+00    0.1554918    0.1175235  34.52  0.001048037    1.035    0.033
        49  -9.5152    194.5324    215.4930   9.8671005630e+01   4.6373306912e+00    0.1198002   0.09379295  32.20 -2.931399e-05    1.003    0.003
        50  -9.5863     38.0406    217.4931   1.2692176926e+02   2.7102025244e+01    0.1466198   0.08193832  44.30  0.000579411    1.531    0.347
        51 -10.5216     31.0618    215.8488   1.2802132824e+02   2.8123969073e+01    0.2263245    0.1232944  43.47  0.001413241    1.593    0.372
        52  -9.1129    201.5435    215.5337   9.7470619711e+01   3.4917579626e+00    0.1204749   0.09165145  27.57 0.0003053648    1.068    0.063
        53  -9.3769    136.9577    216.0000   1.0902636887e+02   1.3932555567e+01    0.1983878   0.05467216  42.08 0.0007953238    2.893    0.654
        54  -9.6675    170.3108    213.3246   1.0262893438e+02   8.9036742019e+00    0.1183088     0.083532  17.71 0.0004935817    1.656    0.396
        55 -11.1012     21.4252    212.4204   1.2948412825e+02   2.9688521670e+01    0.2851489    0.1155298  58.23  0.001777543    1.867    0.464
        56 -10.1785    208.9813    212.0645   9.5671925587e+01   2.6943443507e+00     0.180974    0.1397797  27.25 0.0004548746    1.021    0.020
        57  -9.1697     76.3267    212.3131   1.1977321957e+02   2.3395677151e+01   0.09404892   0.08784265   7.02  0.000704233    1.666    0.400
        58  -9.7456      2.2945    212.3302   1.3266640178e+02   3.1482487863e+01     0.138295    0.1050937  76.18 0.0004828103    1.185    0.156
        59 -12.0524      4.8511    207.5826   1.3206535762e+02   3.2072398639e+01    0.4567282    0.2010846  80.23  0.002996174    1.859    0.462
        60 -10.2620     10.8917    208.2510   1.3107714943e+02   3.1412169529e+01     0.164141    0.1063106 -61.26  0.001098767    2.047    0.511
        61  -9.2743    184.2997    208.3927   9.9411266995e+01   7.2349741454e+00    0.1235585   0.08398037  12.61 0.0007009202    1.801    0.445
        62 -11.5065     18.7500    202.9435   1.2947973376e+02   3.1606356691e+01    0.2970071     0.209944 -78.50  0.001009089    1.444    0.307
        63  -9.0925     67.7159    203.6943   1.2063066350e+02   2.6009175833e+01   0.09104791    0.0883792 -40.47  0.000299204    1.562    0.360
        64  -9.8497    223.0703    201.2198   9.1539592858e+01   1.6567977554e+00    0.2610368     0.195485 -77.68  0.001309875    3.620    0.724
        65 -10.1817    175.2922    202.6804   1.0017836243e+02   9.5383725603e+00    0.2020719    0.1613974  51.04 0.0005646082    1.236    0.191
        66  -9.1593    238.6801    201.2958   8.8978028113e+01  -8.6868545803e-01    0.1007805   0.09156588  51.29 0.0006930961    1.613    0.380
        67  -9.5713     34.4818    201.0639   1.2657038830e+02   3.0356182050e+01    0.1406498   0.08726486 -84.01 0.0004627307    1.460    0.315
        68  -9.4101    227.1028    196.8591   9.0125322853e+01   1.4988870621e+00    0.1736621    0.1172379  18.53 0.0007135753    1.349    0.258
        69  -9.3495      7.3242    196.6348   1.3118707631e+02   3.3787665773e+01    0.1139181   0.04963842  64.91  0.000703872    1.794    0.443
        70 -10.0666    215.4068    194.7392   9.1747681416e+01   3.7104010668e+00    0.1542155     0.108584 -10.37 0.0002963941    1.548    0.354
        71  -9.6873    204.1992    195.4275   9.3818099869e+01   5.5410502612e+00    0.3016644   0.09218111  37.69  0.001159469    3.043    0.671
        72  -9.3284    145.4214    190.2494   1.0397317598e+02   1.6575254165e+01    0.1276549   0.08990117  22.46 0.0003557213    1.744    0.427
        73  -9.2035      1.5339    188.4400   1.3185945482e+02   3.5774373275e+01    0.1019636   0.07194396  73.69 0.0001929198    1.011    0.011
        74  -9.5314     61.6516    184.8340   1.2013470793e+02   3.0252815558e+01    0.1616579   0.09330872 -87.38  0.000943271    1.741    0.426
        75  -9.0999      8.6491    184.3112   1.3037195509e+02   3.5936461670e+01    0.1141878   0.05301169  63.64 0.0007045133    1.720    0.419
        76  -9.8515    167.1957    183.5949   9.8686426029e+01   1.3795128601e+01    0.1850242     0.107816  35.85 0.0005102508    1.586    0.370
        77 -11.1371     16.0319    182.6736   1.2890200166e+02   3.5587244932e+01    0.3607946    0.1576209  77.35   0.00207503    2.078    0.519
        78  -9.6536      1.9782    180.3008   1.3141883035e+02   3.7252288996e+01    0.1433139    0.1026226  68.96 0.0006173759    1.077    0.072
        79 -10.0685    244.2673    178.3539   8.3971957126e+01   7.9456274708e-01    0.2196425    0.1320337 -11.88  0.001121084    1.734    0.423
        80 -10.7937    224.2146    178.3407   8.7306049005e+01   4.2382784641e+00    0.2194252    0.1989701  18.08 0.0005514994    1.179    0.152
        81  -9.6576     70.0661    177.6891   1.1770907657e+02   3.0557347858e+01    0.1581131    0.1309015  55.29 0.0004846445    1.159    0.137
        82  -9.1077     36.4538    178.4664   1.2464877652e+02   3.4387209425e+01    0.1116555   0.08612648  75.25 0.0002462134    1.014    0.014
        83 -10.0832    200.1661    176.8312   9.1286123477e+01   8.7719067490e+00     0.182916    0.1381235  15.58 0.0005572405    1.333    0.250
        84  -9.9441     46.0252    177.4685   1.2263885916e+02   3.3537208192e+01    0.1630232    0.1002089  41.23 0.0006933667    1.587    0.370
        85 -11.0096     18.6196    173.4449   1.2785245148e+02   3.7128204936e+01    0.3013095    0.1107246  59.36   0.00152806    2.437    0.590
        86  -9.4056     75.0396    170.9655   1.1591689780e+02   3.1219517009e+01     0.173198    0.1484367 -29.78  0.001118829    1.738    0.425
        87 -11.9467     36.8307    159.3280   1.2299973202e+02   3.8189430095e+01    0.6377228     0.150401 -70.34 0.0008622195    3.610    0.723
        88  -9.7577     67.0153    164.9956   1.1697108844e+02   3.3491709985e+01    0.1975256      0.12152  69.07 0.0007770698    1.605    0.377
        89 -10.7582     51.4645    163.9365   1.2025088810e+02   3.5626618975e+01     0.359398     0.205647 -70.76  0.002121512    1.623    0.384
        90 -10.9145     44.3263    162.8932   1.2169780845e+02   3.6651821942e+01    0.3021649    0.1384581 -72.69  0.001345331    1.984    0.496
        91 -10.2645     48.0175    159.9759   1.2060942437e+02   3.6839028647e+01     0.231857    0.1981005  45.28  0.001158226    1.325    0.245
        92  -9.4604    200.4952    162.5629   8.8516642182e+01   1.0777063727e+01    0.1339786    0.1184669  28.00  0.000218473    1.042    0.040
        93 -10.0617    238.3893    158.7238   8.1103593700e+01   4.2064053908e+00    0.2389189     0.136427  26.14 0.0009695009    1.796    0.443
        94  -9.0833    147.6722    156.3354   9.7880100851e+01   2.2066211138e+01    0.1402196    0.1053515  78.35 0.0007051843    1.723    0.420
        95 -11.3569     22.4195    156.4745   1.2588938763e+02   4.0185634272e+01    0.3753743     0.267924  46.18  0.002664811    1.418    0.295
        96 -10.2364     12.0392    153.2247   1.2788995857e+02   4.1756440376e+01    0.2281242    0.1489256  15.95  0.001389834    2.332    0.571
        97 -10.3270    178.2329    151.5453   9.0605527647e+01   1.6899692389e+01    0.2314925    0.1958125 -34.79 0.0005584707    1.274    0.215
        98  -9.9899     41.2239    146.4238   1.2076137010e+02   4.0438498051e+01    0.1836564    0.1277189  77.22 0.0003396456    1.277    0.217
        99 -10.3969     17.8954    146.6329   1.2612193012e+02   4.2630625501e+01    0.2072779    0.1543479 -31.66  0.000892964    2.125    0.529
       100 -10.2268     12.8283    146.8726   1.2727101204e+02   4.3004478647e+01    0.2038034    0.1443684  65.98  0.000556166    1.218    0.179
       101 -10.5113     11.6899    143.7095   1.2729369118e+02   4.3757005350e+01     0.182564    0.1335289 -70.27 0.0007399417    1.324    0.245
       102 -10.0886    207.0277    146.0736   8.3924409649e+01   1.1962123005e+01    0.2135335    0.1898869  21.23 0.0007036767    1.014    0.014
       103  -9.7658     49.7843    141.4843   1.1818006519e+02   4.0558349374e+01    0.2147056      0.13777 -40.63 0.0009505324    2.219    0.549
       104  -9.7658    239.9659    140.7402   7.7081113094e+01   6.2579981426e+00    0.1872418    0.1565427  23.00 0.0005004169    1.104    0.094
       105 -10.5766     15.8398    139.8130   1.2604518542e+02   4.4241784744e+01    0.2597979    0.1115956  17.93  0.001233544    3.883    0.742
       106  -9.8108     57.3831    139.2695   1.1605949237e+02   4.0144078839e+01    0.1870348    0.1459638 -83.12 0.0004989851    1.128    0.114
       107  -9.5563    236.5517    138.5152   7.7153811669e+01   7.2093612008e+00    0.1360282    0.1160874   6.53 0.0001395471    1.032    0.031
       108  -9.5475     88.0609    137.8793   1.0831460732e+02   3.6230789684e+01    0.1603628    0.1559799 -11.11  0.000404472    1.279    0.218
       109 -10.8096      2.8248    136.3161   1.2878034030e+02   4.5975217504e+01    0.2821368    0.1079318 -74.93  0.001398979    2.038    0.509
       110  -9.1149    143.6960    137.3249   9.5011286885e+01   2.6427433488e+01    0.1431722    0.1112991  84.40 0.0007032528    1.642    0.391
       111 -10.2672      9.1070    136.8813   1.2737384574e+02   4.5395923691e+01    0.1656903    0.1258305 -87.59 0.0004228134    1.060    0.057
       112 -10.7140     20.7826    135.8549   1.2454475849e+02   4.4671697454e+01    0.2018691    0.1734846 -74.88 0.0007186259    1.228    0.185
       113  -9.1854    138.3224    135.3303   9.5815901654e+01   2.7881660784e+01    0.1427073    0.1137365   2.61 0.0007049524    1.697    0.411
       114 -10.2033    106.9960    133.2515   1.0283905155e+02   3.4131707845e+01    0.2331779    0.2006921 -63.13 0.0009449018    1.161    0.139
       115  -9.8050     33.3542    133.3211   1.2124652580e+02   4.4072386988e+01    0.2545674   0.09490241 -71.78 0.0007277243    2.295    0.564
       116 -11.4976     37.3472    130.4042   1.1992485833e+02   4.4317308056e+01     0.435302    0.2315253 -67.14  0.002426744    1.619    0.382
       117 -11.3970     33.2140    125.9988   1.2045762660e+02   4.5695342797e+01    0.2641664    0.1853985  59.60 0.0008734685    1.392    0.281
       118  -9.4352     53.1768    132.8819   1.1625612020e+02   4.2047330181e+01    0.1704735    0.1302866 -57.00  0.001027871    1.366    0.268
       119 -10.2770     74.0029    129.6166   1.1047950203e+02   4.0096068965e+01    0.2429314    0.1761688 -59.92 0.0007717541    1.327    0.246
       120  -9.1621    243.4218    128.4928   7.3833714465e+01   7.2301834108e+00    0.1344836    0.1172866  -2.04 0.0001063227    1.019    0.019
       121 -10.4338      1.5849    125.2655   1.2828234568e+02   4.8401641279e+01    0.2644469    0.1357879 -81.02  0.001395824    1.514    0.339
       122  -9.9074      3.3176    121.3254   1.2755224290e+02   4.9132183324e+01     0.225144    0.0793663 -72.34  0.001144358    2.150    0.535
       123  -9.9970    226.0145    124.2346   7.5695746142e+01   1.1318726169e+01    0.1820434    0.1126288  47.28 0.0007866584    1.618    0.382
       124  -9.5567    219.5684    124.4920   7.6857038025e+01   1.2624216568e+01    0.1405692    0.1277868   3.96 0.0002108189    1.011    0.011
       125 -11.3176     10.5853    122.3937   1.2582719812e+02   4.8394145412e+01    0.2380938    0.1944972 -78.09   0.00107774    1.142    0.124
       126  -9.7017     20.4877    121.5060   1.2322516616e+02   4.7819478009e+01    0.1667411    0.1162283   1.84  0.001020615    2.266    0.559
       127 -11.9082     16.9743    115.8964   1.2355313334e+02   4.9336770614e+01    0.3559937    0.2227692 -73.70  0.002255671    1.288    0.224
       128  -9.5580     12.5979    113.7565   1.2448862244e+02   5.0137216432e+01    0.1649248    0.1116341  73.95 0.0004566209    1.368    0.269
       129  -9.6419    220.4560    117.0021   7.4940750491e+01   1.3552324273e+01    0.2113619    0.1329637 -32.10 0.0004892757    1.548    0.354
       130 -10.1073     86.0448    116.4996   1.0495908916e+02   4.1228434253e+01    0.2033441    0.1704534 -65.53 -0.0006823702    1.125    0.111
       131 -10.1736     51.1174    115.8040   1.1433515272e+02   4.6099998141e+01    0.3018853    0.1462645 -62.02 0.0008234155    1.792    0.442
       132  -9.7686     72.1719    116.3702   1.0868178630e+02   4.3303483251e+01    0.1894883    0.1127828  49.87 0.0009477275    1.752    0.429
       133  -9.3144    214.4314    115.5140   7.5627279759e+01   1.5077286892e+01    0.1444511    0.1308499   5.21 0.0001213872    1.036    0.035
       134  -9.0479    166.2897    115.6592   8.5071758778e+01   2.5766435241e+01    0.1485057    0.1187795 -78.61 0.0003218691    1.646    0.392
       135 -10.1270     35.1270    114.2058   1.1847593218e+02   4.8141761308e+01    0.2172817    0.1501569 -73.88 0.0006173387    1.214    0.176
       136 -11.9493     35.4553    108.3739   1.1757537807e+02   4.9424133908e+01    0.4078746     0.234458  81.76  0.001040095    1.976    0.494
       137 -10.8526    249.0502    112.0095   6.9208795903e+01   8.3312173360e+00    0.2118143     0.184566 -11.98  0.000623977    1.033    0.032
       138  -9.1003    223.3708    111.7423   7.3184839994e+01   1.3707507206e+01    0.1350651    0.1131873 -78.91 0.0006972174    1.646    0.392
       139 -12.5188     15.1921    108.7568   1.2326229034e+02   5.1052710569e+01    0.6373563    0.3656085  70.25  0.003723745    1.797    0.443
       140 -11.0225      6.3709    106.1953   1.2540545019e+02   5.2229723396e+01    0.2991419    0.1701671 -66.75  0.001118107    1.429    0.300
       141 -10.8361      2.5060    105.1356   1.2635698549e+02   5.2704325764e+01    0.2051548    0.1460135 -80.16 0.0005807479    1.079    0.073
       142 -12.6774      2.8828    100.4355   1.2579692217e+02   5.3713930454e+01    0.2673876    0.2016488  88.81 0.0004142429    1.107    0.096
       143 -11.0329      1.4727     95.1498   1.2566027697e+02   5.4959605105e+01    0.3728505      0.11372 -67.92  0.001377532    2.318    0.569
       144 -10.2914     56.0860    109.2917   1.1188585012e+02   4.6990622137e+01    0.1761083    0.1589575  88.48 0.0006561463    1.068    0.063
       145 -11.4600     23.5438    107.3768   1.2078771122e+02   5.0708359432e+01    0.3542457    0.2181791  59.06  0.001889936    1.714    0.417
       146  -9.2653     91.3274    107.6985   1.0168962814e+02   4.2334180060e+01    0.1420867     0.105017  79.33 0.0007031329    1.642    0.391
       147 -10.9214    243.4942    104.9084   6.8360350312e+01   1.0421355645e+01    0.2098814    0.1259915 -26.89 0.0006092435    1.543    0.352
       148 -10.0427    223.2346    103.9429   7.1298982474e+01   1.4891200472e+01    0.2110481    0.1851293 -41.21 0.0004447087    1.212    0.175
       149 -10.9610    247.6622    102.1553   6.7091768261e+01   9.9362593731e+00    0.2204141    0.1949842  66.06 0.0008106827    1.372    0.271
       150 -10.6826     35.3753    101.2244   1.1653309870e+02   5.1049624261e+01    0.2668032    0.1876159  52.44  0.001321664    1.535    0.349
       151  -9.7522    119.7484    101.4157   9.2555785824e+01   3.8514167781e+01     0.206169    0.1390741  32.69 0.0009414948    1.691    0.409
       152  -9.4523    145.4826    100.4914   8.5911476617e+01   3.3269893453e+01    0.1483731     0.147151  55.74 0.0008103473    1.012    0.012
       153 -10.7989     61.8947     98.8132   1.0824404641e+02   4.8645968536e+01    0.2801096    0.2459816 -61.41  0.000698556    1.068    0.064
       154 -10.6795     66.3552     97.8274   1.0671558864e+02   4.8282968156e+01    0.3740618    0.1715174 -46.12  0.001615899    2.258    0.557
       155  -9.2739     43.7034    100.6915   1.1399288616e+02   5.0338956703e+01    0.1241193   0.08656892 -42.79 0.0002553962    1.591    0.372
       156 -11.3543     20.3433     97.0939   1.2036624904e+02   5.3271858593e+01    0.4130963    0.1761238 -83.59  0.001898414    2.474    0.596
       157  -9.2707     50.5394     99.4436   1.1174462729e+02   4.9875998225e+01     0.127724    0.1103782 -68.44 2.754168e-05    1.038    0.037
       158  -9.6909     30.5463     98.2165   1.1749894211e+02   5.2174214428e+01    0.1617181   0.09448054 -59.99 0.0002710081    1.451    0.311
       159  -9.5626     57.7642     96.5768   1.0903159321e+02   4.9672477879e+01    0.1746965    0.1169205  49.70  0.000946541    1.638    0.390
       160  -9.4509    249.5162     95.5048   6.5234805880e+01   1.0447768299e+01    0.1374036    0.1223828 -12.03 -7.582452e-05    1.003    0.003
       161 -10.7482     22.9588     86.8214   1.1806147413e+02   5.5382104070e+01    0.2594527    0.1803416 -65.25  0.000430204    1.168    0.144
       162 -10.3992     31.2281     92.6975   1.1642525679e+02   5.3363227970e+01    0.3423796      0.18312 -82.90  0.001739129    1.949    0.487
       163 -11.3035     25.6227     91.6104   1.1797817115e+02   5.4088388927e+01    0.2317012    0.2022434 -64.54 0.0003359485    1.127    0.113
       164 -10.6566    103.9828     92.0174   9.4385291869e+01   4.3538460391e+01    0.2428517    0.1976713 -46.46            0    1.190    0.160
       165 -11.3595     10.8107     90.9206   1.2240913587e+02   5.5330706033e+01    0.3325865     0.217627  28.99  0.002161583    1.861    0.463
       166 -11.0619      4.5020     85.9775   1.2372208192e+02   5.6815206377e+01    0.4015451    0.2096165 -73.29   0.00237589    1.470    0.320
       167 -12.3080     13.0391     77.7085   1.1984714534e+02   5.8135660460e+01    0.5319107    0.2287979 -50.07  0.002108963    2.086    0.521
       168 -10.9606      3.1338     79.1234   1.2328983165e+02   5.8408970595e+01    0.2729881    0.2101809  66.90  0.001068484    1.399    0.285
       169 -11.6375      7.2407     73.8602   1.2120105472e+02   5.9345953462e+01    0.4268492    0.2854435   6.10  0.002775837    2.030    0.507
       170 -11.0172    157.8396     90.1371   8.0232666208e+01   3.2412650172e+01    0.2666695    0.2635469 -14.79  0.001081765    1.017    0.017
       171 -10.5688     96.0733     90.4642   9.6227261942e+01   4.5303119937e+01    0.4011147    0.2490233   9.22  0.001474369    3.481    0.713
       172 -11.3440     30.6603     66.2271   1.1155871186e+02   5.9358755825e+01    0.5287933    0.2694344 -43.26  0.001717269    1.904    0.475
       173 -12.6017     44.7255     75.3252   1.0867433510e+02   5.5967395626e+01     0.365072    0.2673014  79.07  0.000367331    1.685    0.407
       174 -11.0908     36.1179     68.6323   1.1014255612e+02   5.8327454405e+01    0.4709966    0.3744077  69.69   0.00283881    1.501    0.334
       175 -10.6303     48.5194     90.0502   1.1057040128e+02   5.2236487725e+01    0.4536995    0.2040263 -50.77  0.002115303    2.017    0.504
       176 -11.3985     43.4760     82.6309   1.1067875064e+02   5.4459244079e+01    0.8865135    0.3569002  52.28  0.003425206    3.841    0.740
       177  -9.2745     21.3018     91.3314   1.1926497629e+02   5.4494712181e+01    0.1223852   0.07472608 -47.88   0.00040917    1.652    0.394
       178 -10.4849    112.1064     85.7885   9.0429476889e+01   4.3289367278e+01    0.3742438     0.264403  80.21  0.001646277    2.123    0.529
       179 -10.6146     66.8397     85.3980   1.0378604950e+02   5.1011402973e+01    0.2873299    0.1923672 -41.94 0.0008924185    1.517    0.341
       180 -10.1599    167.4093     84.5548   7.6561405879e+01   3.1138105049e+01    0.3797653    0.2325498  88.27  0.001243156    3.581    0.721
       181 -10.0040     15.1104     84.0071   1.2012519707e+02   5.6589707066e+01    0.1829826    0.1688426  21.22  0.001368098    1.381    0.276
       182 -10.3540    117.9338     82.8836   8.8006970817e+01   4.2704823334e+01     0.275103    0.2088383 -39.91  0.001362436    1.299    0.230
       183  -9.4933     87.8572     83.5731   9.6829540193e+01   4.8206597100e+01    0.1798203    0.1324103  55.52 0.0004774868    1.532    0.347
       184  -9.1693     62.3027     82.6236   1.0456551903e+02   5.2240351182e+01    0.1371304   0.09905933  85.81 0.0007027843    1.765    0.433
       185 -10.2057     29.6775     81.8324   1.1504788821e+02   5.5955099537e+01    0.2038964    0.1739262  46.74 0.0009775644    1.359    0.264
       186 -12.3712     21.4052     77.7507   1.1706518206e+02   5.7540241927e+01     0.435182     0.296331 -71.85  0.001077324    1.215    0.177
       187  -9.8199     70.8058     79.2151   1.0098439692e+02   5.1822374716e+01    0.1831535    0.1493172 -32.34 0.0004484088    1.307    0.235
       188 -10.3523    150.6348     77.7324   7.8269816690e+01   3.6382811037e+01    0.2879209    0.2508025 -54.77  0.001466121    1.220    0.180
       189 -10.9846     90.7082     76.6814   9.4045147695e+01   4.9192728305e+01    0.4234347    0.3337104  89.01  0.002072974    1.659    0.397
       190 -12.0734     57.8903     74.1909   1.0393686872e+02   5.4681632897e+01    0.4907913    0.3315835  64.56 0.0004333034    2.010    0.503
       191 -12.1138     62.4963     71.6145   1.0170804626e+02   5.4645818157e+01     0.322768    0.2815962 -59.82 0.0006911032    1.070    0.065
       192  -9.8113    122.2342     76.2314   8.4872865830e+01   4.3124103296e+01    0.2035717    0.1781166  89.64 0.0007068874    1.340    0.254
       193  -9.5603     33.3268     75.8784   1.1268044210e+02   5.6971114283e+01    0.1757742    0.1325781 -61.61 0.0005348956    1.096    0.087
       194 -10.9999    138.8198     74.9137   8.0221769478e+01   3.9672903481e+01    0.2541994    0.2421918 -78.82 0.0003513941    1.126    0.112
       195 -10.8462    109.0587     74.7291   8.8047789115e+01   4.6156298276e+01    0.2841335    0.2495486 -61.60  0.001206953    1.201    0.167
       196  -9.7324    145.5336     73.4751   7.8164551757e+01   3.8364829870e+01    0.2551672    0.2007128 -45.90 0.0009411716    1.300    0.231
       197  -9.8563    144.9597     69.7073   7.7127874652e+01   3.9177563393e+01    0.2961252    0.2104158  -2.52  0.001271503    1.913    0.477
       198 -10.6681    102.6439     73.1467   8.9418762395e+01   4.7735411890e+01    0.2576247    0.1971586  55.04  0.001306211    1.443    0.307
       199  -9.5952    150.6503     72.2852   7.6609087109e+01   3.7355091736e+01     0.155558    0.1223169 -80.04 0.0007020155    1.656    0.396
       200  -9.6625    128.8249     71.7845   8.1765633101e+01   4.2533507452e+01    0.2005085    0.1746348 -71.83 0.0002157602    1.318    0.241
       201 -10.1403     83.9781     72.3136   9.4865173245e+01   5.1262542013e+01     0.179703    0.1781966   2.43 0.0003044486    1.082    0.076
       202 -11.6167     76.5677     71.1056   9.6892565368e+01   5.2713556699e+01     0.536069    0.3706051  55.82  0.002278807    1.766    0.434
       203 -10.6173     81.4784     66.9384   9.4052741503e+01   5.2803257620e+01    0.2073618     0.176984 -44.60 0.0007489271    1.078    0.072
       204 -10.7279     77.2368     63.7242   9.4453075941e+01   5.4159510323e+01    0.4025017    0.2905741 -45.87  0.000920638    1.263    0.208
       205  -9.0790    167.9940     70.2094   7.2209495183e+01   3.3451220894e+01    0.2039718    0.1231509  55.16 0.0004757199    1.658    0.397
       206 -10.3253    160.9174     69.8256   7.3577295807e+01   3.5273627439e+01     0.230033    0.2006245  16.56 0.0003658277    1.232    0.189
       207 -11.8587     61.8112     60.5033   9.8771302544e+01   5.7122363453e+01    0.7314111     0.439712  26.48  0.003135948    2.008    0.502
       208 -10.8141     51.1455     63.3606   1.0341735602e+02   5.7876206271e+01    0.3656842    0.1813854 -44.76  0.001265887    1.836    0.455
       209 -10.4154    123.0298     68.4700   8.2234986159e+01   4.4444145136e+01     0.279923    0.2072139 -45.83  0.000559586    1.356    0.262
       210  -9.9271    120.3064     65.0347   8.1852671697e+01   4.5686138895e+01     0.210261    0.1900038 -35.27  0.000399265    1.081    0.075
       211 -12.3058     17.5026     67.2192   1.1650980531e+02   6.0169840002e+01    0.4775963    0.3000648 -10.37  0.001223043    2.244    0.554
       212 -10.7892     19.9892     61.5619   1.1446991390e+02   6.1241651452e+01    0.4742644    0.2211242  51.44   0.00224365    3.127    0.680
       213 -10.5372    103.0043     68.0053   8.7710586527e+01   4.8699356628e+01    0.2317614    0.1785051  -1.40 0.0008574208    1.670    0.401
       214 -12.1106      4.0139     64.9533   1.2094648832e+02   6.1487422040e+01    0.4312849     0.256987  73.11  0.001547721    2.016    0.504
       215 -10.1947     42.0002     64.7835   1.0710040817e+02   5.8588316297e+01    0.3072702      0.16963 -72.31 0.0009763755    2.078    0.519
       216 -11.8205     94.4512     68.1874   9.0343425321e+01   5.0284179201e+01    0.4451295    0.2621551 -39.26  0.002033149    1.655    0.396
       217  -9.5495    128.5210     66.5601   8.0179212673e+01   4.3575526852e+01    0.1490977    0.1454413  -2.03 4.747045e-05    1.010    0.010
       218 -11.4344     55.6802     66.8230   1.0275529534e+02   5.6572708682e+01    0.5117497    0.2155554  32.06  0.002229004    2.748    0.636
       219  -8.8776    135.3299     65.3428   7.8061661826e+01   4.2231244311e+01     0.160574    0.1187567  11.98 0.0003614968    1.748    0.428
       220  -9.5309     68.6719     69.9806   9.9179023791e+01   5.4139672973e+01    0.1883911    0.1538587 -54.03 0.0002793386    1.116    0.104
       221  -9.6069    215.9707     64.4939   6.2104937127e+01   2.2338682216e+01    0.2173059    0.1453303  60.13 0.0006068623    1.555    0.357
       222 -10.3940     82.3758     50.1785   8.8187826314e+01   5.5999670372e+01    0.3168907    0.1747704  36.88  0.001033781    1.985    0.496
       223 -10.9602     84.9254     61.7919   9.1309243849e+01   5.3276414316e+01    0.4273679     0.270175  42.22  0.002093156    1.704    0.413
       224 -11.8298     87.0920     53.8414   8.7923637463e+01   5.4462717051e+01    0.6925519    0.2573209 -40.60  0.001872957    2.562    0.610
       225 -10.6076     11.1761     62.7327   1.1796748530e+02   6.1571601097e+01    0.1852481    0.1553797 -61.98 0.0003278458    1.078    0.073
       226  -9.8039    201.2551     61.9885   6.3682456978e+01   2.6342075249e+01    0.2066207    0.1849206 -28.44 0.0002980365    1.093    0.085
       227 -10.4895     45.3263     50.8379   1.0194463819e+02   6.1212974374e+01    0.3098555    0.2011909 -34.56  0.001177592    1.523    0.343
       228 -11.3381     29.8195     60.8651   1.1063214097e+02   6.0611448769e+01    0.6124782    0.2484667  14.76   0.00255426    3.993    0.750
       229 -12.8045     37.2923     51.2173   1.0521156525e+02   6.1991994495e+01    0.7697424    0.5204887 -42.02  0.003503801    1.305    0.234
       230 -10.5266      4.6677     47.0070   1.1740126400e+02   6.5348126824e+01    0.2991522     0.144467 -46.21  0.001715106    1.747    0.428
       231 -10.4991      6.9986     41.2618   1.1512926235e+02   6.6444174356e+01    0.2766151    0.1145316 -58.50 0.0007881721    1.737    0.424
       232 -11.1152      5.5786     57.7391   1.1914094497e+02   6.2983251710e+01    0.3685122    0.2219592 -80.81   0.00224806    1.542    0.351
       233 -11.7310      5.1931     51.6609   1.1813839426e+02   6.4321387083e+01    0.3689924    0.2213538 -48.36 0.0007239066    1.414    0.293
       234 -10.5206     47.8173     58.2705   1.0320592917e+02   5.9359379032e+01    0.2489668    0.2121494 -83.51  0.001556889    1.359    0.264
       235 -10.2755     43.8746     57.1407   1.0436266898e+02   6.0043093383e+01    0.2169084    0.1594719 -54.55 0.0003080124    1.163    0.140
       236 -10.7150    129.0122     56.6010   7.6736745166e+01   4.5243827825e+01    0.3445559    0.2351656   1.15  0.001450388    2.093    0.522
       237 -10.2004    123.0835     56.5719   7.8264864193e+01   4.6607130681e+01    0.2647186    0.1994043 -51.43  0.001278499    1.447    0.309
       238 -12.2321    128.3516     50.6103   7.4821123738e+01   4.6415532823e+01    0.6039965    0.3927563  -2.02  0.000606859    2.245    0.555
       239  -9.6087     22.7054     57.7668   1.1260672476e+02   6.1869548651e+01    0.1640049   0.08512305  38.92  0.000875713    2.330    0.571
       240 -10.7685     99.5108     55.5023   8.4590954472e+01   5.1804480809e+01    0.3671178    0.2227602  51.44  0.001676522    1.824    0.452
       241  -9.6030     96.2091     53.0074   8.4727198681e+01   5.2916661807e+01    0.1980163    0.1672128 -58.45  0.000369861    1.329    0.247
       242 -10.3725     75.2399     55.9038   9.2601622819e+01   5.6074081186e+01    0.1980993    0.1731449 -50.78 0.0004044264    1.131    0.116
       243 -11.5546     50.6132     68.1889   1.0489804833e+02   5.6888175379e+01    0.4207436     0.255768 -34.67  0.001913409    1.844    0.458
       244 -11.3052    118.2081     53.2235   7.8403705839e+01   4.8288270134e+01    0.4668153    0.2641999  48.16   0.00201725    1.785    0.440
       245 -10.7643     12.6419     51.6801   1.1517591923e+02   6.3889974913e+01    0.2797691    0.1755442 -74.30  0.001704335    1.470    0.320
       246 -11.0810     70.0166     50.3897   9.2548765244e+01   5.7993514629e+01    0.4006081    0.3076144 -82.95  0.002087254    1.958    0.489
       247 -10.5452    103.8606     45.8877   7.9806090273e+01   5.2657707203e+01    0.3039571    0.2061756 -29.59 0.0008627817    1.456    0.313
       248 -10.3298    220.9199     48.9524   5.7118124216e+01   2.3228299954e+01    0.2107303    0.1981573 -42.59            0    1.024    0.023
       249 -11.2916    153.1056     47.8156   6.8128171333e+01   4.0786003888e+01    0.5938442    0.2996552  53.72   0.00174241    1.912    0.477
       250  -9.3950     94.3869     49.5218   8.4041970486e+01   5.3913283960e+01    0.1421431    0.1290333 -23.37 4.217889e-06    1.030    0.029
       251 -10.0426    114.0281     48.2057   7.7749876164e+01   5.0080064941e+01    0.2353991     0.176514  86.39   0.00107821    1.982    0.495
       252  -8.9886    120.2823     47.3122   7.5727716940e+01   4.8829616296e+01     0.149622    0.1133616  10.71 0.0006984872    1.571    0.363
       253  -9.2112     78.5047     47.4454   8.8516309663e+01   5.7185291503e+01    0.1379821    0.1242817 -23.20 0.0001080712    1.024    0.023
       254  -9.5110     62.2923     47.3373   9.4301429154e+01   5.9747122305e+01    0.1814679    0.1715328 -20.48 0.0004239679    1.095    0.087
       255 -10.8307     59.5146     45.4494   9.4681895492e+01   6.0512640677e+01     0.262518    0.2080722  -5.11  0.001535705    1.413    0.292
       256 -11.1270     11.3609     44.3896   1.1401792929e+02   6.5529068616e+01    0.4354794    0.1706062 -48.86  0.001555446    1.979    0.495
       257 -10.2597    142.6825     45.7331   6.9678709717e+01   4.3726461087e+01    0.3088703    0.2423322 -65.91 0.0008391633    1.561    0.359
       258 -10.5994     86.2447     44.7961   8.4915391685e+01   5.6308249568e+01    0.3749253    0.1803786 -31.00   0.00151882    2.283    0.562
       259  -9.5599     18.4072     46.2076   1.1151516939e+02   6.4675448332e+01    0.1602737   0.09860452 -71.40   0.00029985    1.579    0.367
       260  -9.2800    233.4307     45.4930   5.4616206640e+01   2.0636148709e+01    0.1390496    0.1300174 -33.69   7.2274e-05    1.020    0.020
       261  -9.9460     51.2760     44.9838   9.7705758643e+01   6.1699022607e+01    0.1830527    0.1445474 -41.29  0.000317974    1.084    0.078
       262 -11.1692     51.9044     40.7685   9.5969855962e+01   6.2453484106e+01     0.342369    0.2638527  46.64 0.0005033859    1.611    0.379
       263 -10.9256    184.7723     42.6642   6.0564470978e+01   3.3296514656e+01    0.4459483    0.2388301 -51.54  0.001746463    2.209    0.547
       264 -10.5397    122.2655     43.0606   7.3645632251e+01   4.9065384658e+01    0.3877465    0.2526934 -51.14  0.001735435    1.804    0.446
       265  -9.9741    110.4572     41.8925   7.6393760016e+01   5.1919772188e+01    0.2389495    0.1995984  63.38 0.0003810818    1.368    0.269
       266 -11.3093     97.4931     41.0151   7.9871514648e+01   5.4800154286e+01    0.3956787    0.2675094  34.92 0.0007156861    1.561    0.359
       267 -11.7489    101.8195     36.8550   7.6929783387e+01   5.4593656853e+01    0.6038406    0.3337181  26.92  0.002423899    2.490    0.598
       268 -11.5179     97.0254     36.9246   7.8405061405e+01   5.5576614919e+01    0.2902934    0.2887957  68.63 0.0003387931    1.164    0.141
       269 -11.2855     98.0248     31.7967   7.6019500912e+01   5.6186915110e+01    0.3151241    0.2493056  21.62 0.0003669168    1.305    0.234
       270 -10.3700    101.0386     28.5006   7.3754793725e+01   5.6048005606e+01     0.251409    0.2196518 -70.65  0.000369558    1.473    0.321
       271 -10.0648     84.9764     35.0000   8.1491132514e+01   5.8255245465e+01    0.2567494    0.1599312  54.85 0.0006275879    1.964    0.491
       272 -12.2984     81.5555     38.0811   8.3891261200e+01   5.8356594523e+01    0.5854241    0.3565032 -45.03  0.001453214    1.644    0.392
       273 -11.2893     78.1483     32.2034   8.2673550496e+01   5.9973411021e+01    0.5229012    0.2754389 -18.89  0.002094916    2.722    0.633
       274 -11.1273     67.5176     39.7512   8.9560827988e+01   6.0419115630e+01    0.6989436    0.3659307 -14.90  0.002253609    4.797    0.792
       275 -10.1985     34.1841     34.2225   1.0104892009e+02   6.5782255564e+01     0.461242    0.1392662  39.43  0.001804941    4.260    0.765
       276 -12.7795     25.2130     35.9081   1.0559744055e+02   6.6283173183e+01    0.5105047    0.4235233 -84.10  0.002561184    1.521    0.342
       277 -11.9797     20.5443     37.5350   1.0818008384e+02   6.6329982205e+01    0.3843843    0.2471966 -71.66  0.001907521    1.691    0.409
       278  -9.3825    220.4323     41.5183   5.5120462221e+01   2.4296045629e+01    0.1414957    0.1348259 -40.34 8.418062e-05    1.011    0.011
       279 -10.7042     42.3981     39.0492   9.9238555300e+01   6.3944972456e+01    0.5739714    0.3748529 -57.72  0.002304489    1.524    0.344
       280  -9.8560    226.1915     40.1536   5.4039332368e+01   2.3045535855e+01    0.1985515    0.1547162 -53.44 0.0006377729    1.284    0.221
       281  -9.3078    215.5414     40.5433   5.5469358108e+01   2.5639742151e+01    0.1424963    0.1367359 -49.02 0.0001211969    1.006    0.006
       282 -10.9026     89.3784     39.1549   8.1708607944e+01   5.6716183275e+01    0.3424037    0.2124264 -40.97  0.001220879    1.559    0.358
       283  -9.5708    249.5713     38.4887   5.1033289035e+01   1.7724507837e+01    0.1360227    0.1193285 -43.46 0.0001345151    1.038    0.036
       284  -9.6339     61.9480     37.7654   9.0898466851e+01   6.1635308542e+01    0.1733662    0.1550458 -22.56 0.0002962009    1.038    0.036
       285 -10.7661      2.9644     36.8313   1.1583796416e+02   6.7584757888e+01    0.3745002    0.1610769 -56.83  0.001484602    1.651    0.394
       286 -11.0231     10.2422     34.7481   1.1200882298e+02   6.7615026336e+01    0.3056915    0.2070331 -13.96  0.001132051    1.720    0.418
       287 -12.0094    232.4849    246.0711   9.6828686484e+01  -4.3580791824e+00     0.575152    0.2410959 -20.14  0.003114803    3.361    0.703
       288  -9.1837    127.4922     36.4431   6.9854147693e+01   4.8843882080e+01    0.1476628    0.1401291  17.59 8.777263e-05    1.010    0.010
       289 -11.0071     59.3527     34.0055   9.0424265500e+01   6.2709271821e+01    0.3561084    0.2015758  11.62  0.001068886    2.984    0.665
       290 -10.2008    206.0326     33.7291   5.4744192263e+01   2.8902423147e+01    0.1984048    0.1826802  72.82 0.0003022173    1.091    0.083
       291  -9.9510    150.5131     34.5022   6.4041181424e+01   4.3362330414e+01    0.1487893    0.1449791  32.96   0.00081053    1.009    0.009
       292 -10.3332    129.8238     32.6636   6.7863365635e+01   4.8822111133e+01     0.246144    0.1963257 -11.73 0.0006343894    1.302    0.232
       293 -10.9622     18.5270     31.6513   1.0726272902e+02   6.7680974454e+01     0.331114    0.2457971  37.63   0.00220964    1.722    0.419
       294  -9.4677     21.4064     28.3137   1.0479109931e+02   6.8118791242e+01    0.1577281    0.0990106 -60.67 0.0009312543    1.522    0.343
       295 -10.3880    181.0177    248.5188   1.0533752381e+02   2.9050655217e+00     0.214245    0.1113961 -24.39  0.001189738    3.337    0.700
       296  -9.7019    179.5294     32.4752   5.8172643810e+01   3.6003611122e+01     0.146707    0.1444283  63.48  6.06334e-05    1.003    0.003
       297 -10.5868    177.0000     30.0602   5.7789976684e+01   3.6973873963e+01    0.3659457    0.1456165 -37.33  0.001333415    2.424    0.588
       298  -9.9077    145.0474     32.0451   6.4273383369e+01   4.5096569463e+01    0.2176693    0.2110938  29.91 0.0003306845    1.010    0.010
       299  -9.7397    125.0331     33.0000   6.9140812409e+01   4.9933537552e+01    0.2463392   0.08250437  56.47 0.0008071396    2.975    0.664
       300  -9.7891     56.2881     30.9856   9.0419022652e+01   6.3698234589e+01    0.2838396    0.1380439 -37.01  0.001337005    1.870    0.465
       301 -10.6574     42.4668     31.7722   9.6521374444e+01   6.5349460918e+01    0.1887824    0.1655644   3.71 0.0004269755    1.220    0.180
       302 -10.2688     49.6810     31.3118   9.3270164423e+01   6.4540766612e+01    0.2228473    0.1718071  57.11 0.0009190292    1.874    0.467
       303 -10.9669     50.8609     28.0135   9.1420230612e+01   6.4984499643e+01    0.2354563    0.1897829 -18.64 0.0003279357    1.141    0.123
       304 -10.0803    140.0660     29.0219   6.4203696962e+01   4.6765138467e+01    0.4031783    0.2009722 -10.21  0.001430783    2.885    0.653
       305 -10.0192    153.6852     28.9444   6.1447649484e+01   4.3267890668e+01    0.2105962    0.1901764 -24.31 0.0004936419    1.129    0.114
       306 -11.4067    214.0797     26.7674   5.1738269694e+01   2.7663429570e+01    0.4550642    0.2623612 -60.63  0.001095284    2.020    0.505
       307  -9.7186    120.2005     27.9774   6.8364461734e+01   5.1788640956e+01    0.1907225    0.1762869  -4.28            0    1.051    0.048
       308 -11.2927     70.2927     26.2418   8.2950157775e+01   6.2326086511e+01    0.4126133     0.288437  39.26  0.001747382    1.522    0.343
       309  -9.8568    247.9664     27.3072   4.8365609688e+01   1.9371517276e+01    0.1797909    0.1635893 -75.15 0.0003428103    1.105    0.095
       310 -10.0125    134.9119     22.2666   6.2733802577e+01   4.8923845755e+01     0.329927    0.2144626  50.48  0.001156563    1.453    0.312
       311 -12.2071     74.1951    238.3132   1.2216203095e+02   1.9479165929e+01    0.5066376    0.3145885 -72.53  0.003714669    1.832    0.454
       312 -10.3332    129.2351     19.0374   6.2689419524e+01   5.0734530749e+01    0.2603206     0.170481 -19.87 0.0006990407    1.575    0.365
       313  -9.8361     24.9149     26.9759   1.0265042009e+02   6.8080492678e+01    0.1807876    0.1446593 -41.48 0.0004992947    1.028    0.027
       314  -9.8388    146.0320     26.0512   6.1882526241e+01   4.5618443499e+01    0.2126779    0.2074821  42.89            0    1.029    0.028
       315 -11.2971     37.6884    243.0050   1.2831567374e+02   2.3031472336e+01    0.3408599     0.136668  44.68   0.00224265    1.824    0.452
       316 -10.8602     35.6915    239.6647   1.2846794596e+02   2.3759916040e+01    0.2163457    0.1735492 -26.33  0.001600636    2.943    0.660
       317  -9.4138    115.5211    244.5212   1.1577331624e+02   1.3029147518e+01    0.1085486   0.08001494  50.04 0.0002815398    1.029    0.028
       318 -10.7803     65.1528     21.1453   8.2600344163e+01   6.4002585562e+01     0.278154    0.2240964  26.81 0.0009619519    1.273    0.215
       319 -10.3474     88.8803    241.2122   1.1993724708e+02   1.7148056798e+01    0.1602719    0.1351027 -31.42  0.001224971    2.086    0.521
       320 -10.7077    156.3378    240.8862   1.0854075645e+02   7.5127304288e+00    0.1768792    0.1361831 -83.60  0.001252251    1.941    0.485
       321  -9.5236     46.9750    241.4822   1.2677845151e+02   2.2241611109e+01    0.1392008    0.0750918  44.89 8.125067e-05    1.483    0.326
       322  -9.2717     50.3298    240.3056   1.2617931375e+02   2.2041990127e+01   0.08090347   0.07609852  41.67 0.0005851319    1.656    0.396
       323 -10.8666     10.1709     25.1784   1.0916177730e+02   6.9557976805e+01     0.237842    0.1942782 -13.23 0.0008222402    1.329    0.248
       324 -10.3775    195.7297    238.3838   1.0165953712e+02   1.7999946679e+00    0.2529351     0.149685  29.43  0.001588738    1.433    0.302
       325 -10.1592      8.1437     20.8682   1.0874128388e+02   7.0535040827e+01    0.2533469    0.1215547 -53.74 0.0009379772    1.559    0.359
       326 -10.6940     31.4979    237.4504   1.2902277220e+02   2.4548860181e+01    0.2070938    0.1304184  72.27 0.0009703832    1.206    0.171
       327  -9.7086    237.4731     25.4901   4.8895147246e+01   2.2032662153e+01    0.1353718    0.1250923 -49.69  5.52895e-05    1.009    0.009
       328 -10.4581    197.1548     25.1537   5.3347770837e+01   3.2226048143e+01    0.2124448    0.1929035  30.00 0.0004399881    1.178    0.151
       329  -9.2140    112.0000     24.9591   6.9236612373e+01   5.4114147028e+01    0.2253587   0.07961366 -28.84 0.0005518159    2.809    0.644
       330 -10.1379    173.5786     24.2329   5.6409530230e+01   3.8581720570e+01    0.2667427    0.1946885  65.21 0.0002715136    1.332    0.249
       331 -10.6308     93.7586     24.0159   7.4021008076e+01   5.8235166639e+01    0.2101292    0.1902261 -46.64  0.001015554    1.276    0.216
       332  -9.9123     54.3726     23.8231   8.8140601720e+01   6.5227607818e+01    0.1929537    0.1498029  17.53 0.0008404115    1.353    0.261
       333  -9.3869     35.8483     22.7821   9.5852046392e+01   6.7776691176e+01    0.2391298    0.1325619  11.37  0.001199595    2.498    0.600
       334  -9.8381    120.3053     21.4927   6.5723183980e+01   5.2617027301e+01    0.2814544    0.1722227  -6.13  0.001055645    1.967    0.492
       335 -10.4343     29.1795    232.8889   1.2917852123e+02   2.5510886002e+01    0.2381894    0.1175362  57.47  0.001146557    1.434    0.303
       336 -10.3107     45.8806     20.7879   9.0425133121e+01   6.6914371654e+01    0.2376975      0.17898  24.78 0.0008724729    1.439    0.305
       337 -10.6472    162.2077     19.6497   5.6666997928e+01   4.2132287740e+01    0.2481651    0.1747359  14.64 0.0007584228    1.693    0.409
       338 -10.3449    226.6487     18.9554   4.8218102976e+01   2.5377267599e+01    0.2472832     0.190027  85.88 0.0005226325    1.330    0.248
       339  -9.4873    243.5000    237.4733   9.3913395734e+01  -5.1424123395e+00    0.1087385   0.07776912  23.62 4.184312e-05    1.031    0.030
       340 -10.1674    217.5576     16.4933   4.8455921078e+01   2.7912290366e+01    0.2519108    0.1087949  57.46  0.001027279    2.245    0.555
       341 -10.2236    159.8946    235.8929   1.0736028034e+02   7.5983037458e+00    0.1731159    0.1271957  31.48 0.0006341294    1.248    0.199
       342  -9.8370     49.8250     15.2909   8.6118012342e+01   6.7285218709e+01     0.175306    0.1639485  42.60    0.0011851    1.420    0.296
       343 -11.9006    224.6511    247.5088   9.8239827865e+01  -3.3794804432e+00    0.3901016    0.1933212 -18.68  0.002352195    2.709    0.631
       344  -9.5714    140.0602     13.7208   5.8404592662e+01   4.8591005199e+01    0.1993171    0.1762409  58.55 0.0004077937    1.097    0.088
       345 -11.1641    153.5031    234.1535   1.0825049438e+02   8.8054044695e+00    0.2055823    0.1757154   3.02  0.001014827    1.509    0.337
       346  -9.6307    142.3239    232.2795   1.0996717229e+02   1.0769814331e+01    0.1071039    0.0772697  25.10 0.0002459353    1.589    0.371
       347  -9.9809     30.6770     12.9724   9.3960916612e+01   7.0077497255e+01    0.1724107    0.1403795 -21.43 0.0004409906    1.053    0.051
       348  -9.0218     38.4898    232.5538   1.2766747938e+02   2.4576442151e+01    0.1006232   0.07067563  63.62 0.0003706639    1.026    0.025
       349  -9.9666     79.9305    231.4929   1.2069421437e+02   1.9796105700e+01    0.1604072   0.08101891  45.26 0.0004554888    1.526    0.345
       350 -10.5402     55.1189     13.1418   8.2799494613e+01   6.6834639177e+01    0.1941085    0.1626752  -9.65 0.0003508677    1.022    0.022
       351 -10.0675    177.5439    234.9467   1.0424816438e+02   4.9868448393e+00    0.2173446    0.1259667  31.54   0.00103584    1.519    0.342
       352 -10.8411      5.5103    227.1758   1.3267671138e+02   2.8733089975e+01    0.3872825    0.1158388  69.16  0.002108622    2.939    0.660
       353 -10.3999     66.7318    226.9337   1.2261377071e+02   2.2196720284e+01    0.2839396    0.1220369  55.50  0.001205952    1.859    0.462
       354  -9.5202    249.3080    227.3138   9.1500917911e+01  -5.0509256272e+00    0.1139238   0.06422476  16.53  0.000420487    1.626    0.385
       355  -9.9983    190.5183    226.4316   1.0092226451e+02   3.9655271927e+00    0.1818546    0.1143098 -34.78 0.0006084397    2.002    0.500
       356 -10.0216    129.7952    226.8624   1.1156239278e+02   1.3440069762e+01    0.2392377    0.1143954  57.34  0.001245385    2.225    0.551
       357 -10.9818    120.1352    226.6290   1.1324637832e+02   1.4924701743e+01    0.1823942    0.1078584  52.46 0.0006015316    1.369    0.270
       358 -10.1104     87.8146    227.1759   1.1898536251e+02   1.9429370884e+01    0.1373853     0.119188  45.26  0.001075831    1.337    0.252
       359  -9.8382    181.0000    224.9708   1.0235195483e+02   5.6551152208e+00    0.1536888   0.06735188 -41.49 0.0007987984    2.917    0.657
       360 -10.0084    108.3493     17.6552   6.7110543670e+01   5.5901738989e+01    0.2363079    0.1696787  65.84 0.0006679443    1.596    0.373
       361  -9.8370     24.0237    232.4510   1.2997688501e+02   2.6108183128e+01     0.145142   0.09823047  78.16 0.0006709184    1.192    0.161
       362 -10.7348    123.7452    221.4538   1.1205029279e+02   1.5158577710e+01    0.4530965    0.1882381  48.11  0.002355651    1.927    0.481
       363  -9.9445    109.6440    243.0062   1.1662032786e+02   1.4065311747e+01    0.2408539    0.1182957  59.48  0.001335716    1.993    0.498
       364  -9.7490     13.3836    221.7737   1.3122770435e+02   2.8886173924e+01    0.1194484    0.0743115 -80.29 0.0005688852    1.576    0.365
       365  -9.7673    141.9706    220.7429   1.0869072695e+02   1.2444170468e+01    0.1766622    0.1222773  43.76   0.00110892    1.139    0.122
       366  -9.0557     73.2965    221.2631   1.2104919223e+02   2.2291824123e+01   0.08940971   0.08059493  36.13 0.0002143323    1.508    0.337
       367  -9.4016    250.4912    219.4694   9.0093760582e+01  -4.4947590024e+00    0.1140213   0.08174258  19.05 5.261714e-05    1.029    0.028
       368 -10.0756    174.4638    219.3026   1.0271862035e+02   7.4270829791e+00    0.2595508    0.1164616  34.06  0.001186213    2.091    0.522
       369 -11.0319    241.3964    211.7552   9.0281296474e+01  -2.3870384445e+00    0.3465058    0.2401763  26.29  0.002374628    1.113    0.102
       370 -10.8922    235.3154    216.6918   9.2045400371e+01  -1.9638365447e+00    0.2212707    0.1536833   6.15  0.001456221    1.351    0.260
