#   1 NUMBER                 Running object number                                     
#   2 MAG_AUTO               Kron-like elliptical aperture magnitude                    [mag]
#   3 X_IMAGE                Object position along x                                    [pixel]
#   4 Y_IMAGE                Object position along y                                    [pixel]
#   5 X_WORLD                Barycenter position along world x axis                     [deg]
#   6 Y_WORLD                Barycenter position along world y axis                     [deg]
#   7 A_WORLD                Profile RMS along major axis (world units)                 [deg]
#   8 B_WORLD                Profile RMS along minor axis (world units)                 [deg]
#   9 THETA_WORLD            Position angle (CCW/world-x)                               [deg]
#  10 FWHM_WORLD             FWHM assuming a gaussian core                              [deg]
#  11 ELONGATION             A_IMAGE/B_IMAGE                                           
#  12 ELLIPTICITY            1 - B_IMAGE/A_IMAGE                                       
         1 -13.3686    223.1117      7.1178   3.5284996193e+01   2.9010789802e+01     1.172382    0.8779792  61.01  0.004315501    1.446    0.309
         2 -14.2785    196.3077     37.8645   4.5755712893e+01   3.1726286786e+01     2.861651     1.702234  26.01   0.01175327    2.951    0.661
         3 -10.8778     74.6065     13.1851   6.2890128829e+01   6.3065865544e+01     0.385638    0.2473709  62.83  0.001986043    2.144    0.534
         4 -10.5328     45.9156     11.2165   7.3001249841e+01   6.8170386976e+01    0.2469676    0.1368645  -4.36  0.001251331    2.132    0.531
         5 -11.3750     64.7844      2.4965   6.1172995001e+01   6.5980714422e+01    0.5359264    0.1849977  54.18  0.002214908    3.134    0.681
         6  -9.7808    250.2574    236.2818   8.1227856030e+01  -1.0161570318e+01     0.148991    0.1428876  77.94 0.0009402631    2.118    0.528
         7  -9.5419    249.6128    249.7900   8.3555325867e+01  -1.1649931785e+01    0.1389349   0.09571175 -30.74 0.0009477004    1.672    0.402
         8 -19.4535     11.9355    147.2098   1.2057455597e+02   4.2569563040e+01     19.17757     4.454501 -77.01   0.06446447    4.071    0.754
         9  -9.0864     81.2291    220.4453   1.1224730630e+02   1.8219438726e+01     0.219378    0.1154387  33.39  0.001098214    1.953    0.488
        10 -10.8711    160.4861    214.3008   9.4667798357e+01   6.8281442977e+00    0.3570564    0.1855026  38.04   0.00168574    1.712    0.416
        11 -10.6530    164.5886    212.7794   9.3562451056e+01   6.4015585508e+00     0.253742    0.2228966 -71.68 0.0009755506    1.456    0.313
        12 -10.2726    184.3457    212.3553   8.9423905715e+01   3.1288484903e+00    0.2338223      0.17613 -34.47  0.001340248    1.419    0.295
        13  -9.6564    168.1952    233.1001   9.6007470364e+01   2.3855753750e+00    0.2625815    0.1722448  45.80  0.000943315    1.471    0.320
        14  -9.9318     56.4717    209.1625   1.1627404463e+02   2.3845306564e+01     0.443588     0.212986  82.61  0.001272145    2.673    0.626
        15 -10.0976     42.3864    208.4687   1.1912540541e+02   2.5677249376e+01    0.2820229    0.1465289  64.72  0.001254957    1.837    0.455
        16 -10.1172     35.6955    208.6932   1.2050164585e+02   2.6379684202e+01    0.1588188    0.1025241  66.18 0.0006376232    1.320    0.242
        17 -10.9526     66.0129    207.0432   1.1404965290e+02   2.3073969690e+01    0.2423864    0.1929035  87.30 0.0003220855    1.146    0.127
        18 -11.3820     64.4149    202.9924   1.1397303146e+02   2.4155076927e+01     0.239358    0.1946357  87.80 0.0005413475    1.113    0.101
        19  -8.0315    224.2557    206.6392   8.0633638539e+01  -2.4690946001e+00    0.1120908    0.1026188 -55.48 0.0002523233    1.621    0.383
        20  -8.5578     93.6801    205.4466   1.0785220536e+02   1.9505080771e+01    0.2018297    0.1566425   1.51  0.001081666    1.959    0.490
        21  -8.7588     96.5089    202.0703   1.0678874810e+02   1.9792010120e+01    0.2427587     0.124482 -56.85  0.001137982    2.036    0.509
        22 -10.9210    193.2837    195.4693   8.4561969764e+01   4.4733220605e+00     1.028128    0.5573205 -63.76  0.003161066    5.781    0.827
        23 -10.3344     26.3766    203.5098   1.2199433585e+02   2.8468333370e+01       0.3662    0.1083304  48.99  0.001444356    2.854    0.650
        24 -12.5502     52.9640    197.6347   1.1591429355e+02   2.6772729847e+01    0.4659335    0.2854543 -46.93  0.001675777    2.140    0.533
        25 -10.0745     38.9614    199.8019   1.1911015743e+02   2.7927016159e+01    0.2045627    0.1529066  71.54  0.001062779    1.119    0.107
        26 -10.4976    204.1507    199.3095   8.3111352624e+01   1.9540524433e+00     0.223926    0.1556218  17.66  0.001192685    1.438    0.305
        27  -9.6356     58.5751    228.9099   1.1759188994e+02   1.9544655297e+01    0.1561724    0.1161313  88.01  0.000466466    1.243    0.195
        28  -9.1863     32.6109    196.1583   1.2014389528e+02   2.9411910462e+01    0.1181625   0.06660327  52.92 0.0006531586    1.595    0.373
        29 -10.9055    133.4798    195.0205   9.7400149352e+01   1.5196685118e+01    0.3003979    0.2053257  40.11 0.0009635685    1.357    0.263
        30  -9.1165     81.5803    194.0119   1.0911638809e+02   2.3769556678e+01    0.3127321    0.1876167  71.10  0.001496539    1.959    0.489
        31 -10.8542    127.1492    191.5078   9.8263955384e+01   1.7028832262e+01    0.2581515    0.2097561 -56.31  0.001419705    1.308    0.235
        32 -11.6721     73.9704    188.6337   1.1018816932e+02   2.6053515626e+01    0.8776497     0.429343  62.52  0.003279043    2.554    0.608
        33 -11.8410     61.2902    187.0236   1.1292136251e+02   2.8113320419e+01    0.6764214    0.5230528 -89.81  0.003148083    1.177    0.150
        34 -11.7309     66.5285    181.4919   1.1103800879e+02   2.8701123278e+01     0.457507    0.4357341 -87.06  0.002277306    1.161    0.139
        35  -8.2666    195.7255    190.2904   8.3077570233e+01   4.9464032013e+00    0.1226591     0.112205  83.26 0.0001763924    1.516    0.341
        36 -10.8404    149.3947    187.7775   9.2553330172e+01   1.3840282485e+01    0.4029248    0.3162865 -76.37  0.001144639    1.646    0.393
        37 -11.1919    122.7468    186.7515   9.8496912478e+01   1.8807217330e+01    0.4366976    0.1546202  43.96  0.001572104    2.673    0.626
        38  -9.0662     92.7880    185.1788   1.0531094995e+02   2.4078756793e+01    0.2468483    0.1669894  51.55 0.0008947224    1.418    0.295
        39 -10.7793     98.7650    181.2115   1.0329227354e+02   2.4041145192e+01    0.4021401    0.3068721   7.37  0.001720663    1.853    0.460
        40 -10.0889    188.5584    176.9115   8.1900232285e+01   8.6754644814e+00    0.4090643    0.3495979 -50.23  0.001827026    1.333    0.250
        41  -9.2578    149.2381    176.8501   9.0553897651e+01   1.6125455500e+01    0.2099717    0.1951485  79.65  0.000456419    1.194    0.163
        42 -10.3119     54.0082    173.2214   1.1301700054e+02   3.2226568147e+01    0.3585537    0.2225104  74.38 0.0004902963    1.719    0.418
        43  -9.6221     47.0816    173.2870   1.1468760101e+02   3.3027460964e+01     0.530368    0.3064354 -34.98  0.002190924    2.875    0.652
        44  -9.3624    233.6749    174.6548   7.2670547029e+01   1.0016167483e+00     0.143389   0.09487422  -1.48 3.759843e-05    1.742    0.426
        45  -9.4648     84.1636    173.8233   1.0572450394e+02   2.8007007022e+01     0.204853    0.1741065  75.59  0.000417245    1.126    0.112
        46  -8.7359    194.5099    171.9780   7.9649602885e+01   8.4765244749e+00    0.2144238    0.1374371 -38.05 0.0007962172    1.544    0.352
        47  -9.5937    146.4281    172.2141   9.0308157407e+01   1.7637229212e+01    0.2087779    0.1433447 -61.97  0.000954633    1.718    0.418
        48 -10.2359    143.2098    178.9241   9.2341525247e+01   1.6812837062e+01    0.2668549    0.1990584 -29.58 0.0008074243    1.559    0.359
        49 -10.2174    138.0784    169.6423   9.1781274980e+01   1.9770613707e+01    0.3695371    0.2714731  39.53 0.0009906202    1.325    0.245
        50 -10.0991     56.6290    166.1411   1.1148970993e+02   3.3590425403e+01    0.3838466    0.1708805 -48.73  0.001609951    2.558    0.609
        51  -9.3091    187.9559    162.7410   7.9056707524e+01   1.1487442470e+01    0.2045353    0.1950472  10.31 0.0006138232    1.057    0.054
        52 -11.5806     93.6284    151.4949   9.9564692097e+01   3.1875129212e+01     0.716665    0.5668694 -31.00  0.003651561    1.513    0.339
        53 -10.7641    133.8342    145.5936   8.7831120936e+01   2.5989672402e+01     1.220714    0.3152559 -54.27  0.002914069    5.476    0.817
        54  -8.8431    187.3055    151.6712   7.6752861791e+01   1.3778994017e+01    0.1464891    0.1215688 -80.77 0.0003934627    1.654    0.395
        55  -9.0416    112.7252    150.7523   9.4370562306e+01   2.8782140048e+01    0.2064704    0.1734912  78.43 0.0007037407    1.323    0.244
        56  -9.6950    174.5513    149.3002   7.8979979719e+01   1.6868170987e+01    0.2754614    0.2422188  27.83 0.0007241738    1.140    0.123
        57  -8.6717    109.5203    147.8919   9.4632872080e+01   3.0035810205e+01    0.2188223    0.1452136 -55.20 0.0003390392    1.479    0.324
        58 -10.6419    105.6871    138.0598   9.3605664546e+01   3.3073593811e+01    0.5340133      0.35099 -24.72  0.002209181    2.198    0.545
        59 -10.5208    105.9426    130.7786   9.1927111768e+01   3.4776030559e+01    0.4176506    0.3235426 -61.65  0.001237667    1.301    0.231
        60 -11.6357     93.7052    137.6069   9.6826933761e+01   3.5240987572e+01      0.29628    0.2675935 -42.23 0.0005186737    1.138    0.121
        61 -10.7653    114.0350    129.3185   8.9347371540e+01   3.3626488954e+01    0.4452215    0.4034652 -60.51  0.002015964    1.092    0.084
        62 -10.1979    135.8423    128.7536   8.3393498802e+01   2.9422160205e+01    0.5241374    0.2047813 -50.64  0.001723855    2.675    0.626
        63  -9.0530    160.6222    127.8469   7.7059162708e+01   2.4331888040e+01    0.2336522    0.1437838 -53.05 0.0009495307    1.774    0.436
        64 -10.3050    101.1492    124.9572   9.1947455023e+01   3.7030453559e+01    0.3107067    0.2516904 -18.22 0.0006029852    1.480    0.324
        65 -10.8197    119.6756    123.0274   8.6285617978e+01   3.4011639988e+01    0.5069786    0.3426746  -1.36  0.001946038    2.537    0.606
        66  -9.5968     72.0763    250.1354   1.1678039706e+02   1.3832460585e+01    0.1576241    0.1231092  68.47 0.0003303431    1.096    0.087
        67  -9.3488    109.2287    118.3879   8.8056753360e+01   3.7112501017e+01    0.2585304    0.2030727 -48.75 0.0003540254    1.224    0.183
        68 -10.0603    231.3124    113.7370   5.9632419502e+01   1.1797595077e+01    0.2864982    0.2611837 -16.38   0.00078869    1.098    0.089
        69  -8.9381    167.6307    112.6265   7.1547249807e+01   2.5949727008e+01    0.3139313    0.2261934 -77.44  0.001301252    2.055    0.513
        70  -9.8823    134.5719    104.6960   7.7458505444e+01   3.5035845338e+01    0.6509261    0.1486803 -45.06  0.001658094    4.333    0.769
        71 -11.4503    118.4903    110.0403   8.3285318434e+01   3.7232338785e+01    0.6651324    0.4977713  78.63  0.002427434    1.891    0.471
        72  -9.4186    205.4841    110.1914   6.3207330066e+01   1.7887416801e+01    0.3093298    0.2150407  41.31 0.0009150644    1.564    0.361
        73  -8.6149     76.3977    222.1811   1.1341912192e+02   1.8540531367e+01     0.300842    0.1002853 -60.04  0.000743736    3.058    0.673
        74  -8.8464     59.6174    220.2346   1.1663948305e+02   2.1148303113e+01    0.3051456    0.1876449  23.66  0.001648685    2.225    0.551
        75  99.0000     52.7019    220.3806   1.1803543811e+02   2.1978971595e+01    0.3608173    0.1398398  58.13 0.0008977731    2.641    0.621
        76  -8.7696    184.6016     77.1684   5.8394760867e+01   2.8643756043e+01    0.2119519     0.143928 -22.24 0.0005841295    1.704    0.413
        77  -9.4814     65.1368     70.1541   8.8806290145e+01   5.5392343987e+01    0.2226321    0.2019646  41.83 0.0006083849    1.300    0.231
        78  -9.9287    242.8199    249.5988   8.4685207126e+01  -1.0769539428e+01    0.1541454   0.09124596  36.58 0.0009551926    1.714    0.417
        79 -12.7422    180.5504     51.9760   5.2022479791e+01   3.3650035549e+01    0.8421914    0.7613397  11.84 0.0008151082    1.283    0.220
        80 -10.0538     72.6020    245.4678   1.1629860099e+02   1.4602130594e+01    0.3507294    0.1579531  60.55  0.001760359    2.270    0.559
        81  -7.8757     84.2433    245.6783   1.1412289777e+02   1.2997223810e+01    0.1166027   0.07443078  67.36            0    1.524    0.344
        82  -9.5470     48.8656    216.9995   1.1851950810e+02   2.3134888846e+01    0.2534414    0.2299989 -11.43  0.001758297    1.682    0.405
        83  -9.3616    189.7872     15.0789   4.0476206479e+01   3.6006298016e+01    0.2054209    0.1610898 -66.45 0.0005975938    1.230    0.187
