#   1 NUMBER                 Running object number                                     
#   2 MAG_AUTO               Kron-like elliptical aperture magnitude                    [mag]
#   3 X_IMAGE                Object position along x                                    [pixel]
#   4 Y_IMAGE                Object position along y                                    [pixel]
#   5 X_WORLD                Barycenter position along world x axis                     [deg]
#   6 Y_WORLD                Barycenter position along world y axis                     [deg]
#   7 A_WORLD                Profile RMS along major axis (world units)                 [deg]
#   8 B_WORLD                Profile RMS along minor axis (world units)                 [deg]
#   9 THETA_WORLD            Position angle (CCW/world-x)                               [deg]
#  10 FWHM_WORLD             FWHM assuming a gaussian core                              [deg]
#  11 ELONGATION             A_IMAGE/B_IMAGE                                           
#  12 ELLIPTICITY            1 - B_IMAGE/A_IMAGE                                       
         1 -11.3215     38.8483     86.7053   1.1775473687e+02   5.5157210303e+01     2.616963    0.8565931 -36.58  0.008786531    4.054    0.753
         2 -12.6578    127.3585     68.2904   8.4485419011e+01   4.3774014043e+01     2.696785      1.72677  47.75   0.01295029    1.479    0.324
         3 -10.3546      4.6676     83.1122   1.2915389166e+02   5.8606072194e+01     2.970429    0.2923462 -60.06  0.009685633    4.589    0.782
         4 -12.8757     52.1406     91.7355   1.1438782357e+02   5.2592617098e+01     5.192357     1.191332 -40.84   0.01325382    6.237    0.840
         5 -11.3353     69.3658     19.4263   8.4414218319e+01   6.1930644904e+01     1.006209     0.515767  27.89  0.005223922    1.997    0.499
         6 -11.7689     42.0665     48.0638   1.0512241874e+02   6.2089404959e+01     1.189819    0.9684727  80.37  0.006881615    2.553    0.608
         7 -11.4343     87.9477     35.9812   8.4756903811e+01   5.6649473410e+01     1.293193    0.5825684 -22.62   0.00521551    2.829    0.646
         8 -12.1680     86.3586     55.5769   9.1952683219e+01   5.4172955982e+01      1.21606     1.008086  83.88  0.006785463    1.854    0.461
         9 -11.9926     78.0089     31.5905   8.6219881176e+01   5.9025365394e+01      1.40236    0.6559634 -23.51  0.006605286    2.490    0.598
        10  99.0000      7.1440     49.2967   1.2002540120e+02   6.5072659648e+01    0.9165826    0.5443989 -51.36  0.004426969    1.488    0.328
        11 -10.7703     89.7315     21.4378   7.9087156232e+01   5.7974599361e+01    0.3160795    0.2154727  14.88 0.0007508256    1.592    0.372
        12 -10.7711     98.7298     40.4904   8.3220216942e+01   5.3968604058e+01     1.046872    0.5690698 -13.45  0.004619228    2.688    0.628
        13 -11.5641    129.4843     20.3421   6.9543160422e+01   4.9675077786e+01     1.267248    0.4055052  54.24  0.004625228    2.449    0.592
        14 -10.8702    128.5991     14.4776   6.7948537893e+01   5.0440599679e+01     1.010471    0.2497062  49.82  0.003735987    3.255    0.693
        15  -9.9867    122.6997     10.2167   6.7762801708e+01   5.2133235738e+01    0.4191106    0.2079915  46.62  0.001857466    1.768    0.434
        16 -11.5200    113.0695      8.3903   6.9083436093e+01   5.4384020872e+01     1.274845    0.4690135  54.40  0.005718505    2.084    0.520
        17 -10.7556    112.2961     22.3212   7.3758024347e+01   5.3254801263e+01    0.9846213    0.7549106  69.14  0.005968756    1.369    0.269
        18 -10.3354    117.4383     15.3051   7.0392369657e+01   5.2828211479e+01    0.3448189    0.2316226  71.13  0.000940885    1.527    0.345
        19 -13.0642     99.8179      5.9624   7.1128272205e+01   5.7368904536e+01    0.4235694    0.3619666  10.34 0.0006535379    1.255    0.203
        20 -11.6478     93.5122      7.7767   7.3242623423e+01   5.8500359978e+01     0.612239     0.310313  40.62  0.003317747    1.700    0.412
        21 -10.4558     69.3952      3.7564   7.8262293693e+01   6.3398581389e+01     0.589579    0.2729155  36.04  0.003199609    1.861    0.463
        22 -11.2457     16.7082     37.2994   1.1205654235e+02   6.6403215832e+01      1.03116    0.6603702 -45.58  0.006757722    1.531    0.347
        23  99.0000     42.1892     14.8548   9.2362042219e+01   6.6647715894e+01     1.259281    0.5368061  47.85  0.005946594    3.308    0.698
        24 -11.4539     50.2267      9.8008   8.7145146972e+01   6.6018548625e+01    0.3116806    0.2365304  -0.45 0.0009568354    1.172    0.147
        25 -11.9403     56.6218      3.7834   8.2350346763e+01   6.5572225290e+01    0.5591046    0.3661199  39.08  0.001766619    1.289    0.224
        26 -11.4443     22.1744      4.6777   9.6484980874e+01   7.0278023788e+01    0.9854986     0.424314  36.24  0.005733681    2.304    0.566
        27 -10.7184     23.8360     31.2226   1.0671590626e+02   6.6689068603e+01    0.9587303    0.2066623 -45.09  0.003632195    4.438    0.775
        28 -11.9203     29.9992     25.1300   1.0166993782e+02   6.6901812301e+01    0.8133047     0.326732 -30.60   0.00300736    2.414    0.586
        29 -12.1191      8.8736     26.3142   1.1172915006e+02   6.8733891134e+01    0.8927054    0.5455847  -9.38  0.006033025    1.450    0.310
        30 -11.8768     19.8258     13.7087   1.0154792388e+02   6.9479449365e+01    0.7529163      0.29704  30.42  0.004168821    2.414    0.586
        31 -11.9540     12.9567      8.3006   1.0247766118e+02   7.0826722688e+01    0.3107894     0.268957   1.70  0.001635144    1.462    0.316
        32 -12.5255      3.3855     17.4092   1.1100209803e+02   7.0440917491e+01    0.3810072     0.227406 -17.00  0.001025182    1.357    0.263
        33 -13.6177      4.1984      9.3946   1.0731720314e+02   7.1461662971e+01    0.5065457    0.2771949 -34.96 0.0005377019    1.577    0.366
        34 -11.9769    118.4575     49.3121   8.0919074320e+01   4.8646735528e+01     1.328023    0.6663341 -36.83  0.006039878    2.138    0.532
        35  -9.8551    185.1288     13.9766   5.9456577883e+01   3.7505887272e+01    0.4074293     0.180913  64.46  0.002006286    1.878    0.468
        36 -10.4363    186.0653     18.8802   6.0484325577e+01   3.6763643246e+01    0.5077806    0.3734498 -64.53  0.002121185    1.328    0.247
        37 -10.8216    175.6648     15.4401   6.0955402769e+01   3.9533491596e+01    0.3805405    0.2296505 -52.28    0.0011924    1.747    0.428
        38 -10.9185    177.6060     28.2014   6.3810682318e+01   3.7667682016e+01    0.5031766    0.4417144 -24.69  0.002043855    1.432    0.302
        39 -10.1242    176.4565     22.9141   6.2671214122e+01   3.8543186143e+01    0.5137593    0.2966588  24.41  0.002133757    3.767    0.735
        40 -10.4685    167.1357     24.9306   6.4482974732e+01   4.0495178435e+01    0.5955546    0.3234006  43.75  0.002020039    2.150    0.535
        41 -10.1129    163.2208     17.0007   6.3016421862e+01   4.2259254409e+01    0.6856474    0.3050455  52.37  0.003237163    2.083    0.520
        42 -10.8259    166.3937     11.8423   6.1272598181e+01   4.2040576375e+01     0.936599    0.3304577  77.20  0.003454155    3.439    0.709
        43  -9.3089    168.0960      8.0476   6.0108773988e+01   4.2012766470e+01    0.2557508    0.1698846 -67.39  0.001490878    1.602    0.376
        44 -11.0184    163.8403      4.9882   5.9889651682e+01   4.3271909382e+01     0.471915    0.4032454  64.46  0.002767874    1.148    0.129
        45 -10.3819    156.2829     16.1028   6.3792089735e+01   4.3960139768e+01    0.4154073    0.3987265  77.99  0.002391564    1.166    0.142
        46 -10.8280    146.8515     19.6845   6.6246467774e+01   4.5780485828e+01    0.4609536    0.3239944  24.38  0.001496544    1.872    0.466
        47 -11.1692    151.0476     13.7730   6.3959876615e+01   4.5398347774e+01    0.4187304    0.3983434  59.54 0.0008502973    1.171    0.146
        48  -9.7200    231.2886     16.1859   5.5310398699e+01   2.7042519970e+01    0.6206381     0.307255 -50.90  0.003468299    1.788    0.441
        49 -10.4784    220.4309     10.8740   5.5213120562e+01   2.9963388774e+01    0.6141173    0.4221017  61.41  0.003057923    1.564    0.361
        50  -9.8499    226.4186      8.5232   5.4243632023e+01   2.8944670438e+01    0.2440296    0.1829553 -76.49 0.0006822328    1.054    0.051
        51 -10.9414    243.4632     10.7352   5.3314772530e+01   2.5161147897e+01    0.5317292    0.2616869 -36.35  0.002775325    2.254    0.556
        52 -10.1089    239.5529     16.5641   5.4693397144e+01   2.5276538046e+01    0.4756076    0.1743621 -52.60  0.001889596    2.367    0.578
        53 -10.3931    212.0259     14.5648   5.6734349316e+01   3.1382474512e+01    0.4271781    0.2494536 -36.48  0.001689191    1.906    0.475
        54 -10.2898    233.6412     10.8302   5.4095348677e+01   2.7168520872e+01    0.3385416    0.2120739 -84.78  0.001581933    1.323    0.244
        55  -9.8265    233.7097      7.1120   5.3392742658e+01   2.7571924048e+01     0.237979    0.1744509  67.69  0.000875423    1.463    0.316
        56 -12.4938     66.3362     30.9126   8.9809325727e+01   6.1110998552e+01    0.9369909    0.3977529  42.83  0.004514538    2.187    0.543
        57 -10.7050    201.3168     19.2886   5.8833044567e+01   3.3237134066e+01    0.5544949    0.3001332  61.01  0.002546511    1.720    0.419
        58  -9.4616    141.6051     11.4715   6.4813106270e+01   4.7778806765e+01    0.1829744    0.1680096  43.58  0.001252998    1.186    0.157
        59 -10.0410    249.8172      8.1055   5.2382214497e+01   2.4190033712e+01    0.3848594    0.1484754 -57.35  0.001990172    2.228    0.551
        60 -10.0290     78.6780      3.9833   7.5688609215e+01   6.1686045028e+01    0.4401229    0.1655473  41.11  0.001661602    2.208    0.547
        61 -10.3062    221.4299      2.6622   5.3518994525e+01   3.0634962916e+01    0.6000614    0.1947411  57.36  0.002643995    3.305    0.697
        62  -9.0139    189.8134      8.0218   5.7577560196e+01   3.7049888622e+01     0.651974    0.1124694  60.50  0.002285379    3.992    0.750
        63 -10.9225    210.3601      4.2624   5.4773999366e+01   3.2856623731e+01    0.5490979     0.290488  82.14   0.00108941    1.608    0.378
        64  -9.9317    201.0147      1.4851   5.5046254725e+01   3.5190538066e+01    0.2043993   0.09384071  70.14 0.0003749669    1.785    0.440
        65 -11.0303    200.3524      6.5140   5.6173172332e+01   3.4833922800e+01    0.5784994    0.3477812 -78.14  0.002009437    1.562    0.360
        66  -9.5107    204.3913      6.2524   5.5730765222e+01   3.3963753224e+01    0.2072895    0.1454359 -68.42 0.0005031458    1.277    0.217
        67  -8.6018    174.0000      8.0122   5.9370708976e+01   4.0659663897e+01    0.2209322   0.08883187 -29.19 0.0006412076    2.947    0.661
        68 -10.6158    181.8895      4.8738   5.7722911986e+01   3.9157153306e+01    0.7054001    0.3321635  84.36  0.003416535    2.120    0.528
        69  -9.2287    175.2370      4.0372   5.8277490138e+01   4.0751282127e+01    0.3120882    0.2126947  56.87  0.001595877    1.413    0.292
        70  -8.4584    145.1711      8.3268   6.3376469279e+01   4.7249025386e+01     0.182725    0.1000246  75.86 0.0009342368    1.745    0.427
        71  -8.9481    138.3258      8.1140   6.4397321973e+01   4.8822950777e+01    0.1638711    0.1474882  69.47  0.001055358    1.089    0.082
        72  -8.9485     83.4640      7.2088   7.5603112714e+01   6.0516030826e+01    0.1945214    0.1129217 -11.73  0.001113894    1.993    0.498
        73 -11.1881    132.7656      4.5887   6.4297448198e+01   5.0371353150e+01    0.5605984    0.2580169  56.13  0.002041752    1.717    0.418
        74 -11.0366    139.5823      1.7541   6.2410618558e+01   4.9070314198e+01    0.3700031    0.2004965  71.13 0.0009836085    1.594    0.373
        75 -10.1156     41.9705      3.0113   8.7340569064e+01   6.7891027771e+01    0.2511231    0.1749529 -19.55 0.0009451351    1.460    0.315
        76  -9.6767     37.7282      1.5533   8.8365169977e+01   6.8626692295e+01    0.3137785    0.1102512  35.69  0.001454101    2.429    0.588
        77  -8.9285    156.5390      5.4894   6.0977798866e+01   4.4900345482e+01    0.2650095    0.1014809  67.65  0.001201812    2.134    0.531
        78  -8.8773    122.4561      3.7768   6.5836833834e+01   5.2721178850e+01    0.2143431    0.1619182  88.55  0.001167091    1.482    0.325
        79  -9.2569     31.5488     11.9820   9.5550455855e+01   6.8357772491e+01    0.5304468    0.2326813 -15.50  0.002507961    3.144    0.682
        80  -8.9366    230.9137      2.5446   5.2754838813e+01   2.8650556322e+01    0.1662166   0.09212922  77.27 0.0003224327    1.519    0.342
        81 -10.4751     77.3018      9.1853   7.8053186030e+01   6.1504875299e+01     0.240734     0.207098  31.78 0.0006500844    1.105    0.095
        82 -11.6584     24.0769     70.4422   1.1902034609e+02   5.9855674376e+01    0.7519163    0.5238932 -31.96  0.002682269    1.224    0.183
        83 -12.2674     38.6478     65.2097   1.1195200232e+02   5.9471738581e+01      1.17819     1.020441  35.68  0.007829833    1.435    0.303
        84 -11.8124     78.7120     60.9027   9.6170077255e+01   5.4656122673e+01     1.218995    0.5278431 -31.05  0.003170251    2.713    0.631
        85  -8.8407    202.3900    229.1543   1.0443801341e+02  -4.6160246760e+00     0.169478    0.1247561 -51.16 0.0002642828    1.633    0.388
        86  -9.2932     52.4186    223.7962   1.3587497247e+02   2.0956763043e+01    0.1780884    0.1068899 -62.22 0.0008038585    1.683    0.406
        87  -9.8006    104.5503    117.2404   1.0438970043e+02   3.8685096755e+01    0.4705551    0.3853722  72.51  0.002320311    1.467    0.318
        88  -9.8454     98.4342    114.5187   1.0547943384e+02   4.0442010245e+01    0.4480115    0.2977409  39.20  0.002065664    1.558    0.358
        89 -10.3312     51.1205    118.5747   1.2093359447e+02   4.6626924218e+01    0.3147951    0.2259767  67.14  0.001603132    1.844    0.458
        90  -9.1619     99.0070    224.0000   1.2586858663e+02   1.4045006593e+01    0.2310976   0.07288355  37.88  0.000807765    2.979    0.664
        91 -11.8486    101.5744     54.2223   8.6965583202e+01   5.1467357839e+01     1.228071    0.5162954  38.10  0.003087926    2.512    0.602
        92  -9.8961     82.5324    114.6216   1.1027444118e+02   4.3154843024e+01    0.3731113    0.2660708  17.48   0.00101103    1.694    0.410
        93  -8.8282     77.7553     93.4789   1.0629827418e+02   4.8616577411e+01    0.3581875    0.1768187  24.11  0.001390084    2.703    0.630
        94 -10.9039     82.0951     86.2381   1.0286223481e+02   4.9403516844e+01     1.323359    0.3169038 -47.80  0.003935997    4.153    0.759
        95 -11.2825     67.7815    107.4235   1.1312929245e+02   4.7054250688e+01     1.044756    0.4097115 -35.41  0.003271501    3.971    0.748
        96 -10.2242     74.3126    107.7605   1.1113648520e+02   4.6017250687e+01    0.4080266    0.3399868 -57.75  0.001483502    1.195    0.163
        97 -11.1037     77.2916    101.9526   1.0871328003e+02   4.6858316200e+01    0.8162213    0.3758948  33.90   0.00254224    2.322    0.569
        98 -10.3291     86.7782     99.9378   1.0519659567e+02   4.5746642349e+01    0.4507696    0.3495172 -62.61  0.001564114    1.448    0.309
        99 -10.8403     88.7630     91.9292   1.0237427977e+02   4.7100523509e+01    0.9294201    0.5814289 -52.22    0.0028408    1.671    0.401
       100  -9.3237     26.4948    212.4929   1.4018893915e+02   2.6640689188e+01    0.1263534   0.09897941  83.02 0.0008106318    1.001    0.001
       101  -9.8788    132.8726    111.9072   9.5258399127e+01   3.4119116077e+01     0.397167    0.3296524 -49.10  0.001583997    1.198    0.165
       102  -9.1752     33.1439    109.6957   1.2483195536e+02   5.0613722729e+01    0.3190016    0.1382487 -37.77  0.001058237    2.581    0.613
       103  -9.0307     37.6577    108.4901   1.2312700759e+02   5.0454482451e+01    0.2686321    0.1555451 -24.64  0.001266016    2.201    0.546
       104  -8.8562    104.4771    109.0622   1.0230840627e+02   4.0546233985e+01    0.2299911    0.1450475 -46.41 0.0005861294    1.544    0.352
       105  -9.5227     53.1478    104.5848   1.1719715839e+02   4.9632778913e+01    0.3263214    0.1805914 -58.06  0.001537728    1.698    0.411
       106 -10.2146    133.3808    103.3709   9.2870572460e+01   3.5826745710e+01    0.4485194    0.2680867 -40.46  0.001898313    1.710    0.415
       107  -8.7637    141.4787    101.4791   9.0329738519e+01   3.4422419644e+01    0.2186892    0.2128581 -67.29 0.0006967431    1.024    0.023
       108  -9.1725    105.7854    102.7558   1.0024894658e+02   4.1674201394e+01    0.2220225    0.1958979 -12.69  0.001163408    1.217    0.179
       109  -8.3997     96.6559    103.1258   1.0303901476e+02   4.3310798466e+01     0.196727    0.1302483 -37.41  0.000895661    1.537    0.349
       110 -11.1681     15.2859     88.0002   1.2640450850e+02   5.6903275209e+01     0.457885    0.3761943  26.25  0.003099507    1.467    0.319
       111  -9.9882    116.5165     99.8295   9.6408639742e+01   4.0152691085e+01    0.4099561     0.276371  -4.91  0.001622796    2.498    0.600
       112 -10.2019     64.6854     98.2616   1.1184132670e+02   4.9538165873e+01    0.4769425    0.3320819 -38.06  0.002486519    1.356    0.262
       113  -9.3793     34.9076     98.9784   1.2200500094e+02   5.2879902249e+01    0.2638493    0.2554533  26.44 0.0006161193    1.218    0.179
       114  -9.3659     38.9546     97.0352   1.2019468275e+02   5.2910828435e+01    0.2717271    0.1785252 -24.99  0.001428165    1.658    0.397
       115  -9.1908    159.5156     97.2184   8.4991629637e+01   3.1149498539e+01    0.2982058    0.2188366  60.51 0.0007420658    1.390    0.281
       116  -8.2076    141.7154    104.3589   9.1037346182e+01   3.3776223872e+01    0.2272013    0.1586989 -60.95 0.0009975104    1.636    0.389
       117  -9.9652    114.7785     95.4721   9.5686445759e+01   4.1411304474e+01    0.2953925    0.2109165  51.42 0.0008757887    1.461    0.316
       118  -9.3549    121.7469     91.6011   9.2692832631e+01   4.0736022417e+01    0.2047039    0.1414918  55.40 0.0009364561    1.541    0.351
       119  -8.4857    194.7542     89.8985   7.6191329631e+01   2.4325662667e+01    0.1848455    0.1208997 -40.34 0.0006690884    1.533    0.348
       120  -8.1952    187.3073     89.6953   7.7474290092e+01   2.6084764760e+01    0.1519894    0.1098013 -77.00  0.000286372    1.605    0.377
       121  -8.7498    188.4804     94.4811   7.8429225440e+01   2.4930683875e+01    0.1476395    0.1391045 -77.53 0.0001192359    1.031    0.030
       122  -9.6034     74.8118     89.4401   1.0613655481e+02   4.9926055984e+01    0.4560252    0.1171853  41.15  0.001412947    4.167    0.760
       123  -8.7081    153.0085     87.4665   8.3852539175e+01   3.4526818324e+01    0.2316915    0.1437846  50.63 0.0008270182    1.574    0.365
       124  -9.6184    145.9951     86.7398   8.5255853574e+01   3.6284825089e+01    0.2774159    0.2254865 -27.83 0.0005747546    1.369    0.270
       125  -9.5527    140.6448     84.8979   8.6010014649e+01   3.7852862015e+01    0.3487981    0.2585142 -57.93  0.001678294    1.497    0.332
       126  -8.8151    186.2895     84.4052   7.6357882790e+01   2.7274368582e+01    0.2065196    0.1358041  71.43  0.000945194    1.648    0.393
       127  -9.6083    159.6353     81.6346   8.0848198333e+01   3.4042399428e+01    0.3701252     0.269394 -62.70  0.001774699    1.536    0.349
       128  -8.9680     76.8800     84.1729   1.0395886049e+02   5.0672485570e+01    0.1987772     0.189339  71.18  0.000492849    1.276    0.216
       129  -8.3289    196.5397     83.3862   7.4325070679e+01   2.5074191188e+01    0.1420497    0.1306764 -87.42 -1.208534e-06    1.040    0.038
       130  -9.4357    217.0092     81.0373   7.0567606103e+01   2.0856426422e+01    0.3862312    0.1757442 -29.46  0.001391244    3.349    0.701
       131 -10.5686    134.4478     79.7378   8.6058657347e+01   4.0201579528e+01    0.5929921    0.2745986 -50.01   0.00223284    2.512    0.602
       132  -9.0978    179.4666     80.3614   7.6595748016e+01   2.9588300027e+01    0.2792408    0.1751491  63.02 0.0009660321    1.597    0.374
       133  -9.1109    148.3240     78.6804   8.2506770308e+01   3.7214181826e+01    0.2445736    0.1486873  56.51 0.0008964327    1.617    0.382
       134  -9.6849    151.5256     76.4142   8.1174944090e+01   3.6865527940e+01    0.3618605    0.3015897 -43.74 0.0009701661    1.241    0.194
       135  -9.7550    149.7847     72.0010   8.0336881658e+01   3.8028062656e+01    0.3323759    0.2077939  67.24  0.001480578    1.777    0.437
       136  -9.5351    144.7125     76.4521   8.2704350934e+01   3.8443089237e+01    0.3510012    0.2153035 -27.85  0.001526737    1.984    0.496
       137 -11.6613     97.9680     71.6221   9.3538346229e+01   4.9319755553e+01     1.694341     1.042262   2.82  0.006156069    2.946    0.661
       138 -10.1332    138.7370     76.1372   8.4002404176e+01   3.9870585906e+01    0.4432146    0.2326969 -32.52  0.001536619    2.186    0.543
       139  -8.8299     36.6687     75.8657   1.1572526345e+02   5.7612391032e+01    0.2916644    0.1153781 -43.36  0.001304221    2.159    0.537
       140  -9.3360    247.5114     75.0345   6.5290378545e+01   1.5421429072e+01    0.2023715   0.08322164 -57.68 0.0008100852    2.654    0.623
       141  -9.3197    213.6281     74.8297   6.9666775975e+01   2.2647509670e+01    0.2701591    0.1867302 -49.16 0.0006285988    1.346    0.257
       142  -9.1962    215.4837     71.4782   6.8650464923e+01   2.2783037607e+01    0.2221787    0.1955815 -26.90 0.0006603946    1.431    0.301
       143  -8.9948    191.5712     73.2345   7.2710561592e+01   2.7960860704e+01    0.3608586    0.2167021 -81.55  0.001104708    2.370    0.578
       144  -8.7261     85.1512     74.1740   9.8288786128e+01   5.1211257642e+01    0.2179349    0.1756246   0.31  0.001194812    1.312    0.238
       145  -8.6277    169.1301     70.6534   7.6042039155e+01   3.3686093073e+01    0.2057603      0.12265  48.53 0.0005180644    1.700    0.412
       146  -9.3635     84.8922     68.0860   9.6474587345e+01   5.2353927088e+01    0.3286355    0.2194789 -16.47  0.001612378    1.789    0.441
       147  -9.9396    250.4194     65.0496   6.2978401671e+01   1.6410938611e+01    0.5013428    0.1233822 -40.28  0.001790435    3.612    0.723
       148 -10.3842    159.6810     50.4732   7.2444900472e+01   3.9026821960e+01    0.4950113    0.3639283  75.92  0.001851849    1.355    0.262
       149  -9.5327    152.7181     44.6104   7.2131453619e+01   4.1476730081e+01    0.3351969    0.2033548 -33.07  0.001660364    1.841    0.457
       150  -9.6389    156.8736     43.8840   7.1169138671e+01   4.0594292052e+01    0.2469327    0.1797018  62.43 0.0004776921    1.234    0.189
       151  -9.6605    165.5138     55.3949   7.2698573263e+01   3.6932353532e+01    0.5551142    0.3185332 -31.55  0.002569298    2.007    0.502
       152 -10.2923    162.6125     66.1491   7.6104180488e+01   3.5966257399e+01     0.367361    0.2735695 -71.51 0.0006440725    1.532    0.347
       153 -10.4893    165.5956     62.7230   7.4623247007e+01   3.5800380795e+01    0.4305725    0.4108903 -58.88  0.002556236    1.115    0.103
       154  -9.8812    151.5694     66.8650   7.8532739046e+01   3.8458715845e+01    0.3222436    0.2691848  47.42  0.000924881    1.185    0.156
       155  -8.7976    202.8139     55.3993   6.6776102583e+01   2.8158287814e+01    0.2025889    0.1682477 -80.18 0.0007778562    1.070    0.066
       156  -9.3158    199.0052     63.2830   6.9160986197e+01   2.7835702349e+01    0.2059429    0.1811966 -81.62  0.000196431    1.007    0.007
       157  -9.3991    201.0227     59.2038   6.7910432891e+01   2.7998515597e+01    0.2788248    0.2421734  59.50  0.001168088    1.257    0.204
       158 -12.8255     22.4698     82.0659   1.2251609726e+02   5.7625104218e+01     1.115079    0.6471217  29.25  0.003639277    1.985    0.496
       159  -9.4839    186.1788     61.2157   7.0656131231e+01   3.1153617652e+01    0.3275725    0.1984231  86.98  0.001456754    2.056    0.514
       160  -9.3602    171.3518     48.5608   6.9899089199e+01   3.6526636078e+01    0.3321615    0.2297226  62.59  0.001073927    1.317    0.241
       161  -9.5967    178.6075     59.4168   7.1455273330e+01   3.3219227503e+01    0.4725278    0.3221411  -4.36  0.001300357    2.675    0.626
       162  -9.7430    189.0800     49.2363   6.7289925820e+01   3.2244045997e+01    0.3041468    0.1935654 -52.54 0.0004807991    1.570    0.363
       163 -10.1669    174.4472     56.5334   7.1426769753e+01   3.4640842357e+01    0.6490307    0.3577794 -14.36  0.002321005    3.969    0.748
       164 -11.0733    181.4353     50.6945   6.8809123701e+01   3.3836411026e+01    0.6679373    0.4200754  79.55   0.00249316    1.664    0.399
       165  -9.4193    152.1685     59.0729   7.6249248869e+01   3.9541072083e+01    0.5385599    0.3020946 -34.19  0.002448597    1.959    0.490
       166 -10.3633    134.8061     52.1702   7.7954215084e+01   4.4592526933e+01    0.6316524     0.379819  -4.59  0.002527854    3.109    0.678
       167 -11.0520    142.1591     51.1940   7.6083106502e+01   4.3039120195e+01    0.8622797    0.3390057  42.85  0.003151411    2.911    0.656
       168 -10.8127    147.5038     53.7886   7.5718152106e+01   4.1421374292e+01    0.3955733    0.3496728  74.18  0.000243093    1.090    0.083
       169 -10.0453    151.3006     50.2114   7.3957532939e+01   4.1042098451e+01    0.2630853    0.2127253  53.52 0.0004398508    1.158    0.137
       170 -11.1370     67.4939     62.1282   1.0037354469e+02   5.6261738262e+01    0.3078408     0.281498  14.94 0.0006583334    1.136    0.120
       171 -10.0754    222.4297     57.0106   6.4565226647e+01   2.3506801247e+01     0.380066    0.2582765  87.71  0.001546706    1.445    0.308
       172  -8.9658    158.8618     58.1114   7.4665683799e+01   3.8105864979e+01    0.2870826    0.2030032  32.34  0.001154206    1.781    0.439
       173  -9.3746     54.8440     49.8199   1.0081241297e+02   6.0155269914e+01    0.5241814    0.2167455 -44.53  0.002375355    2.513    0.602
       174 -10.6099     60.7371     52.1651   9.9452919593e+01   5.8937670395e+01    0.7005315    0.4440315 -54.98  0.003589274    2.279    0.561
       175 -10.0509     58.6126     45.7813   9.8005122658e+01   6.0247248595e+01    0.2972234    0.2151454 -25.19  0.001322494    1.295    0.228
       176  -9.0151    235.2763     55.0186   6.2638751736e+01   2.1037898228e+01    0.1829304    0.1497504 -68.41  0.000631283    1.043    0.042
       177  -8.4692    193.3611     54.1469   6.7836113988e+01   3.0533362249e+01    0.1867364    0.1139728 -51.55 0.0008023625    1.618    0.382
       178  -8.9039    225.9340     49.2511   6.2503033758e+01   2.3880922955e+01    0.1783128     0.142999  89.22 0.0002877023    1.108    0.097
       179  -8.5842    197.1949     49.6111   6.6215958409e+01   3.0298493939e+01    0.1881462    0.1130073  56.79 0.0007157339    1.645    0.392
       180  -9.4471    154.9903     33.9418   6.8793216503e+01   4.2297917575e+01    0.2682286    0.2152957 -20.46 0.0008513308    1.527    0.345
       181  -9.6307    125.3853     45.4888   7.8077880620e+01   4.7647121095e+01    0.3444728    0.2226752 -46.61  0.001352241    1.780    0.438
       182  -9.5417    129.6463     46.2617   7.7342455947e+01   4.6587456384e+01      0.28549    0.2097685  26.71 0.0008816795    1.567    0.362
       183  -9.5035    130.5255     40.3416   7.5362421343e+01   4.7166296190e+01    0.2534906    0.2276985 -40.46  0.001556726    1.238    0.192
       184  -9.6557    134.9114     40.2716   7.4408533138e+01   4.6177942797e+01    0.7168297    0.2961905 -51.44  0.002575785    3.775    0.735
       185  -9.6931    145.5560     30.5690   6.9521797049e+01   4.4898177712e+01    0.4425465    0.2186783  52.23  0.002099279    1.782    0.439
       186 -10.1934    142.9311     42.7670   7.3500142296e+01   4.4008506651e+01    0.6299845    0.2567081  61.62  0.002524884    2.358    0.576
       187  -9.4150    142.7098     38.8828   7.2427524640e+01   4.4557691922e+01    0.2386524    0.2061393 -20.93 0.0005339719    1.346    0.257
       188 -10.6145    147.8642     34.8081   7.0295979101e+01   4.3860882772e+01    0.7817507    0.3379306  67.02  0.003046453    2.357    0.576
       189  -8.9430    229.0461     45.5275   6.1381471164e+01   2.3737361512e+01    0.2374567    0.1507878  77.31  0.000481522    1.480    0.324
       190  -8.9528    206.4187     45.8926   6.4133170247e+01   2.8703602712e+01    0.2671277    0.1431252  54.59 0.0008186278    1.949    0.487
       191  -8.5258    133.6568     46.2898   7.6463859495e+01   4.5674385749e+01    0.1367032    0.1042939 -84.96 0.0007024641    1.652    0.395
       192 -10.4013     18.8389    184.0594   1.3923597137e+02   3.4048983488e+01    0.2977652    0.1807427  30.45  0.001675635    1.959    0.489
       193  -9.7820     12.0194    184.0008   1.4075587441e+02   3.4696769119e+01    0.1940982     0.155098 -80.63  0.001283261    1.083    0.076
       194  -9.8979      1.8442    178.2617   1.4250066060e+02   3.6903819917e+01     0.300981    0.1448079 -78.56  0.001590729    1.658    0.397
       195  -8.6720     37.0195    179.5031   1.3451225806e+02   3.3264632474e+01    0.1853089    0.1294799  36.09  0.001036976    1.602    0.376
       196  -9.5819    110.0151     38.0431   7.9428462694e+01   5.1954817004e+01    0.3448779    0.1736958 -36.28   0.00107932    2.173    0.540
       197  -8.4594     80.3035    176.3382   1.2329754385e+02   2.8309432887e+01    0.1454959    0.1108162 -33.34 0.0007038927    1.671    0.402
       198  -8.9044     26.8504    176.0249   1.3654123555e+02   3.5188670348e+01    0.2531053    0.1319831  40.34  0.001288797    2.010    0.502
       199  -9.0289     10.1753    157.7943   1.3857684543e+02   4.1086117614e+01    0.2826821    0.1140246 -51.29  0.001291231    2.395    0.583
       200 -10.8511    105.9402     33.2407   7.8878116772e+01   5.3395473349e+01    0.2970318     0.290907  -8.46 0.0003793616    1.167    0.143
       201 -10.3224    113.5020     32.1046   7.6649588406e+01   5.1927138812e+01    0.2326189    0.2004801  14.85 0.0004263689    1.217    0.179
       202 -10.9895    110.0899     30.0086   7.6784340775e+01   5.2896661010e+01    0.3314979    0.1897268  56.03 0.0007046827    1.589    0.370
       203 -10.1453     18.3403    165.0600   1.3737079403e+02   3.8650879873e+01    0.3516356    0.2035412  75.13  0.001048485    1.872    0.466
       204 -10.0127     13.1023    165.1203   1.3864952201e+02   3.9091562760e+01    0.2481675    0.2159194  31.74  0.001143911    1.434    0.303
       205 -10.6949     66.9850     43.8626   9.4328142838e+01   5.9251825429e+01    0.3111952    0.2222833 -18.67 0.0007868189    1.371    0.270
       206  -9.1613    232.6951     43.4482   6.0565871691e+01   2.3247459756e+01    0.1769791    0.1538521 -20.67  0.000555589    1.684    0.406
       207  -9.3891    105.7665     44.3387   8.2586476809e+01   5.2025186395e+01    0.3596616    0.2896015  52.88  0.002108782    1.219    0.180
       208 -10.4396      8.7359    162.7722   1.3945634963e+02   4.0011271071e+01    0.3299507    0.2099198  38.80  0.001381141    1.775    0.437
       209 -10.1123      2.3865    161.2558   1.4082513717e+02   4.0857147664e+01    0.3391209    0.1804749 -61.85  0.001508495    1.557    0.358
       210 -10.9683     50.6058     25.0445   9.3234309044e+01   6.4265016792e+01    0.3941914    0.1873156  33.46            0    1.923    0.480
       211  -9.4083     76.7105    155.7017   1.2069300035e+02   3.4031184660e+01    0.3084316    0.1987164  73.49  0.001329503    2.071    0.517
       212  -9.3452     33.2470    155.8109   1.3243884257e+02   3.9486704814e+01    0.1826568    0.1356628 -49.73 0.0004380133    1.362    0.266
       213  -8.2363     83.6636    154.6642   1.1859886215e+02   3.3215226411e+01    0.1536909    0.1136986 -27.29 0.0007051845    1.747    0.427
       214  -9.2444      6.5682    125.2719   1.3555355481e+02   4.9067627984e+01    0.2007423    0.1717464  46.42 0.0006116441    1.406    0.289
       215 -11.0594     37.6105     25.9659   9.8772135270e+01   6.5891163208e+01    0.3867963    0.2862798  26.40  0.001597294    1.344    0.256
       216 -10.3858     40.7951     21.4285   9.5642150944e+01   6.6063184579e+01     0.250882    0.1742006 -21.61 0.0005022775    1.330    0.248
       217 -10.1113     13.4623    118.7372   1.3257412611e+02   5.0125132913e+01    0.4057725    0.2378782 -66.23  0.002199093    1.390    0.281
       218  -9.8536     18.0886    123.2922   1.3190621279e+02   4.8715029171e+01     0.290461    0.1946778 -77.31 0.0005561786    1.403    0.287
       219  -9.5451     19.8116    118.4006   1.3060023544e+02   4.9730889295e+01    0.3937173    0.2345776 -79.50   0.00161047    1.756    0.430
       220 -12.1851     20.2483    147.6507   1.3478198116e+02   4.2700763408e+01    0.7016225    0.6532166  88.92  0.003403277    1.158    0.137
       221 -11.8349     13.3737    129.6917   1.3422962664e+02   4.7556605282e+01    0.7083234    0.4231442 -82.14  0.002070223    1.637    0.389
       222  -9.8256      4.9974    147.3015   1.3871878726e+02   4.3975625173e+01    0.2975897    0.1931272  34.01  0.001750447    1.825    0.452
       223 -11.2405      6.2239    142.4073   1.3783611701e+02   4.5050970081e+01    0.5498463    0.3963731  44.78   0.00246414    1.606    0.377
       224 -12.6339    101.6202     77.7557   9.4324755639e+01   4.7501593176e+01     2.318488     1.735703  82.74   0.01090627    2.129    0.530
       225  -8.6871    219.5164     42.8884   6.1894399800e+01   2.6182658367e+01     0.176712    0.1182164 -44.22 0.0004122803    1.485    0.327
       226  -9.0118    214.3395     42.1081   6.2327550538e+01   2.7439782007e+01    0.2619368    0.1675754 -24.61  0.001337579    2.239    0.553
       227  -9.5436    161.2878     40.9794   6.9609969688e+01   3.9933234727e+01    0.5726594    0.2978435  81.25  0.002328511    2.635    0.621
       228  -8.9198    162.1730     37.4002   6.8508186190e+01   4.0181339039e+01    0.2047156    0.1197686  62.97 0.0005999146    1.512    0.339
       229 -10.2833    202.3651     38.2473   6.2923963321e+01   3.0667828639e+01    0.3999138    0.2740142 -56.74  0.001627272    1.392    0.281
       230  -8.8307    196.9276     41.5291   6.4371947708e+01   3.1480820324e+01    0.1994608    0.1174869  68.57    0.0010164    1.546    0.353
       231  -9.9232    194.4584     31.2640   6.2319959315e+01   3.3378577400e+01    0.2988446    0.2325825  -5.91  0.000924621    2.009    0.502
       232  -9.7612    191.1694     40.0214   6.4793252331e+01   3.3018445507e+01    0.2205223    0.1868677  69.47 0.0003017112    1.150    0.131
       233  -9.3490    193.0891     36.1579   6.3629223108e+01   3.3076731448e+01     0.300923    0.2149444  53.63  0.001383355    1.493    0.330
       234  -9.0544     61.5255     40.5446   9.5067883222e+01   6.0582663770e+01    0.2333661    0.1116855  38.33  0.001053326    1.997    0.499
       235  -9.9109     35.1607    150.9004   1.3123797899e+02   4.0500996553e+01    0.3263141    0.2153831  48.69   0.00175927    1.668    0.400
       236  -9.7303    180.5126     38.2261   6.5863142475e+01   3.5748584133e+01    0.4170991    0.2365145 -76.15  0.001859464    2.306    0.566
       237  -9.7622    173.2477     38.4826   6.7015887077e+01   3.7427992400e+01    0.2876165    0.2006391 -83.82 0.0003979581    1.534    0.348
       238  -8.8389    169.3397     36.7147   6.7171652872e+01   3.8575420097e+01    0.2079797    0.1520507  68.92 0.0008426217    1.210    0.173
       239 -10.1783    124.4803     35.9268   7.5339145784e+01   4.9071082582e+01     0.501748    0.3245569 -24.54  0.002656815    1.793    0.442
       240 -10.9631    236.0777     32.5884   5.8064996770e+01   2.3998079377e+01    0.4789473    0.3882611  76.87   0.00271085    1.269    0.212
       241  -9.7334    246.2707     33.2718   5.7258957422e+01   2.1801915196e+01    0.4554991    0.1382293  59.37  0.001933616    3.391    0.705
       242 -11.0118    211.5497     33.0477   6.0691178350e+01   2.9265981220e+01    0.5833304    0.3319395 -85.89 0.0008622279    1.847    0.458
       243 -10.0421    135.9565     33.0692   7.2065759040e+01   4.6820184703e+01    0.4622609    0.2421679  33.04  0.001296869    2.612    0.617
       244  -8.8834     32.3268     33.3926   1.0385434973e+02   6.5478618892e+01    0.2095039    0.1082266 -29.39  0.001175714    1.772    0.436
       245  -9.8636    202.9373     30.2396   6.1063419006e+01   3.1564405074e+01    0.3607236    0.1964126 -36.71  0.001544061    1.983    0.496
       246  -8.6796    198.8225     31.3825   6.1809277430e+01   3.2360808664e+01    0.1826769    0.1019855  59.55 0.0009372667    1.697    0.411
       247  -9.5213    228.1079     31.0559   5.8531910804e+01   2.5889250939e+01    0.2977905    0.1885873 -71.85  0.001029292    1.423    0.297
       248  -9.3562    225.6671     26.9544   5.7945091670e+01   2.6935192438e+01    0.2810639    0.1805955 -74.90 0.0009860137    1.389    0.280
       249  -9.4958    221.2454     31.1837   5.9251991427e+01   2.7359577944e+01    0.1898694    0.1607297 -43.01  0.001053109    1.395    0.283
       250 -11.1715     39.3304    147.4482   1.2958804836e+02   4.0916204001e+01    0.4434365    0.4056198 -86.93  0.001807263    1.094    0.086
       251  -8.5325      8.2903    151.0241   1.3829844741e+02   4.2849773170e+01    0.1824098    0.1278474 -74.27 0.0004481556    1.133    0.117
       252  -9.1987    186.2678     25.6466   6.2045168966e+01   3.5949499643e+01    0.2506394    0.1356831 -59.05  0.000654346    2.005    0.501
       253  -9.8473    182.9638     27.4854   6.2911318819e+01   3.6501269476e+01    0.3225139      0.22667  65.32 0.0008093682    1.269    0.212
       254  -9.8182     66.5307    148.2566   1.2215076059e+02   3.7375011354e+01    0.2578993    0.2065852  36.16  0.001025689    1.367    0.268
       255  -9.1856     61.0668    147.3877   1.2352652465e+02   3.8333931055e+01    0.2383067    0.1759172 -50.25 0.0005060776    1.295    0.228
       256 -10.1394     38.3381    143.0929   1.2918612849e+02   4.2094892382e+01    0.2225701    0.2013991  -3.51 0.0003435152    1.347    0.258
       257 -10.0468    216.0426     26.5647   5.8830329649e+01   2.9083255885e+01    0.2908581    0.2601555 -34.61  0.001444479    1.469    0.319
       258  -9.1947    212.2407     24.9974   5.8896833160e+01   3.0117007509e+01    0.1857859    0.1746753 -24.30 0.0007714024    1.487    0.328
       259  -9.5987    216.1584     21.2024   5.7703935817e+01   2.9706873873e+01    0.3780572    0.1566685  75.77  0.001375588    2.259    0.557
       260 -10.8972      7.6730    135.1712   1.3655734593e+02   4.6665118451e+01    0.6525287     0.306438  19.78  0.002261758    2.703    0.630
       261  -9.1488    159.6803     24.0689   6.5380651168e+01   4.2334868575e+01    0.8036681    0.3195793  57.56   0.00357229    2.096    0.523
       262 -10.1997     22.8427    137.2430   1.3264089534e+02   4.4996740792e+01    0.2999953    0.2296316   9.09  0.001808026    1.673    0.402
       263 -10.7756     31.9273    141.2611   1.3069610411e+02   4.3190714193e+01    0.3098694    0.2847687  71.69  0.002000372    1.184    0.156
       264  -8.5585     80.3681    140.3184   1.1668600906e+02   3.7312752233e+01    0.1547021    0.1127203 -23.42 0.0007037195    1.786    0.440
       265  -9.1962     58.9632    139.5154   1.2269425444e+02   4.0567698100e+01    0.1917426    0.1421615  32.40 0.0003311774    1.503    0.335
       266  -9.9227    148.7627     23.8970   6.7094915546e+01   4.4896769320e+01    0.6701198    0.1585329  58.23   0.00239142    3.167    0.684
       267  -9.4789     49.2973    138.5499   1.2531048687e+02   4.1998550017e+01    0.4394075     0.186317  49.33  0.001683606    3.064    0.674
       268 -10.0124     54.6801    137.3245   1.2353004629e+02   4.1651622887e+01    0.3140014    0.1792078 -66.50  0.001451548    1.654    0.396
       269  -8.9844     86.5904    134.2043   1.1359663621e+02   3.7821433584e+01    0.2167748     0.131012 -46.02 0.0005521435    1.611    0.379
       270  -8.4999    158.5171     29.4804   6.7001101148e+01   4.1997430003e+01    0.1326007    0.1140392  77.57 -2.88421e-05    1.038    0.036
       271 -10.1561     46.3474    131.1546   1.2484455141e+02   4.4150572691e+01    0.4316182    0.2815792 -46.95   0.00223614    1.433    0.302
       272  -9.9726    239.4878     24.2545   5.6147586523e+01   2.4352337596e+01    0.3097953    0.2505968  70.32  0.002133387    1.393    0.282
       273 -10.6672     72.0077    129.4777   1.1685720558e+02   4.1238753608e+01    0.3255603    0.2970222 -24.79 0.0009322324    1.171    0.146
       274  -9.5213     28.0188    119.7773   1.2832898631e+02   4.8724298388e+01    0.4293943    0.1748311 -67.54  0.001372854    2.281    0.562
       275 -11.3992     30.1968    126.7248   1.2886747664e+02   4.6875084381e+01    0.6683906    0.3458129 -27.40  0.002888224    2.856    0.650
       276 -10.6198    245.6017     18.8976   5.4638768843e+01   2.3760851090e+01    0.5152742    0.2115558  76.82  0.002611015    2.275    0.560
       277  -9.6391     22.4182    128.2357   1.3140570922e+02   4.7195120885e+01    0.2552331    0.2017211  72.14  0.001554571    1.431    0.301
       278  -8.7960    209.5305     18.4336   5.7789397560e+01   3.1495030921e+01    0.1975376    0.1410814 -74.13 0.0005096126    1.222    0.181
       279  -9.4922     25.4975    126.5294   1.3022921025e+02   4.7341233881e+01     0.324398    0.1885482 -45.16  0.001700863    1.624    0.384
       280 -10.4124     55.8324    125.7281   1.2094844586e+02   4.4340935320e+01    0.4486826    0.2182282 -52.39  0.001309937    1.790    0.441
       281  -9.7695     59.8245    125.9067   1.1977236764e+02   4.3788725143e+01    0.2344344    0.2060459   0.33 0.0002549869    1.302    0.232
       282  -9.1848     97.7553     22.1571   7.7211200074e+01   5.6305958204e+01    0.1738077      0.16445  50.11 0.0006509667    1.185    0.156
       283 -10.3601     39.2258    126.9340   1.2620376562e+02   4.5942897633e+01    0.2250306    0.1720084 -16.54  0.001258959    1.592    0.372
       284 -10.9993     48.3363    124.6082   1.2300845338e+02   4.5509547998e+01    0.4167421     0.251688  58.76  0.001917457    2.267    0.559
       285  -9.1706    198.5068     16.5346   5.8532867250e+01   3.4181534934e+01    0.2098725    0.1568956  57.39 0.0006806418    1.441    0.306
       286  -8.7417     92.1828     15.4970   7.6314789954e+01   5.8080204955e+01    0.1839116    0.1033594  51.34  0.001007604    1.516    0.340
       287  -9.0608     83.0682     12.9960   7.7855728564e+01   6.0081981839e+01    0.1799738    0.1272359  32.05 0.0005133086    1.213    0.175
       288  -9.1980     68.9881    116.1748   1.1482501279e+02   4.4857975951e+01      0.38087    0.2062858 -70.99  0.001061929    2.595    0.615
       289 -10.5562     66.4235    124.0713   1.1737828825e+02   4.3342843871e+01    0.4447945    0.3068951 -14.91  0.001638926    1.998    0.500
       290  -9.2529     69.3066    120.6729   1.1574926073e+02   4.3748991982e+01    0.2626075     0.205869 -86.86 0.0008930991    1.549    0.354
       291  -9.1101     74.9317    124.3188   1.1485352288e+02   4.2051828889e+01    0.1934089     0.192212  39.88 0.0004913738    1.086    0.079
       292  -9.6234     92.4030    119.7705   1.0856084498e+02   4.0299078395e+01    0.3708585    0.2372757 -38.49  0.001312049    1.633    0.388
       293  -9.8537     92.2726    113.3184   1.0700351164e+02   4.1815790177e+01    0.5817644    0.3257801 -57.86  0.001858298    1.912    0.477
       294  -9.4206     59.1097    120.4968   1.1885478233e+02   4.5180191776e+01     0.285281    0.2068089 -30.97  0.001470849    1.504    0.335
       295  -9.8531    235.5793    249.6133   1.0158361558e+02  -1.2719144202e+01    0.2860185    0.1005306  39.20  0.001262664    2.895    0.655
       296  -9.3155    125.1307    249.1046   1.2360311059e+02   4.6035419993e+00     0.199005    0.1788627   9.56  0.001240561    1.342    0.255
       297 -11.3857      4.4242     98.8101   1.3214438099e+02   5.5229518569e+01    0.6872713    0.3275703 -52.64  0.002888917    1.587    0.370
       298  -9.4085    189.2221    244.8200   1.0973826776e+02  -5.1584385346e+00    0.2051144    0.1449853  74.74   0.00095871    2.868    0.651
       299 -10.0138    142.1676    243.3329   1.1924476806e+02   2.8726120673e+00    0.3618902    0.1950991  22.00  0.001489994    2.720    0.632
       300 -12.0555     54.3754     37.0545   9.6412381849e+01   6.2137790970e+01     1.264716    0.3996053  37.54  0.005308848    3.034    0.670
       301 -10.8703     53.1523     30.2126   9.4286092600e+01   6.3240775058e+01    0.5841538     0.192711  33.40  0.001624417    3.094    0.677
       302  -8.6306    180.4730    234.5016   1.0982798843e+02  -1.9535239004e+00     0.135182    0.1193345  16.39 -1.041386e-05    1.043    0.042
       303 -12.9050     17.3101    100.9108   1.2829133137e+02   5.3928961100e+01     2.384831    0.7519661 -41.81  0.009468751    3.083    0.676
       304 -11.1680     68.1464     75.9691   1.0446981394e+02   5.3635731146e+01    0.6067896    0.4088296 -31.32  0.002211871    1.445    0.308
       305 -12.1016     56.6522     70.0736   1.0672526785e+02   5.6386043485e+01     1.349916    0.5211247  29.42  0.005554853    2.838    0.648
       306 -12.8611     19.6071     58.4483   1.1748045043e+02   6.2513042618e+01     0.759111    0.4244426  -3.24   0.00379368    2.052    0.513
       307 -11.3314     25.6918     53.0986   1.1339766100e+02   6.2959555783e+01    0.5446453    0.2708623 -20.53  0.002693198    2.373    0.579
       308  -9.4625     12.6423    232.2405   1.4437190755e+02   2.3791470322e+01    0.2444975    0.1344521  65.49  0.001098429    1.525    0.344
       309 -10.8576     31.8330     43.1644   1.0758506806e+02   6.4032149108e+01    0.4241427    0.3126564 -30.12  0.001927896    1.181    0.154
       310  -8.7822    227.4936    231.4978   9.9964739106e+01  -8.8670737762e+00    0.1285526    0.1067312  -1.30 0.0008104733    1.030    0.029
