#   1 NUMBER                 Running object number                                     
#   2 MAG_AUTO               Kron-like elliptical aperture magnitude                    [mag]
#   3 X_IMAGE                Object position along x                                    [pixel]
#   4 Y_IMAGE                Object position along y                                    [pixel]
#   5 X_WORLD                Barycenter position along world x axis                     [deg]
#   6 Y_WORLD                Barycenter position along world y axis                     [deg]
#   7 A_WORLD                Profile RMS along major axis (world units)                 [deg]
#   8 B_WORLD                Profile RMS along minor axis (world units)                 [deg]
#   9 THETA_WORLD            Position angle (CCW/world-x)                               [deg]
#  10 FWHM_WORLD             FWHM assuming a gaussian core                              [deg]
#  11 ELONGATION             A_IMAGE/B_IMAGE                                           
#  12 ELLIPTICITY            1 - B_IMAGE/A_IMAGE                                       
         1  -7.6541    155.4691     18.9656   2.9014332513e+02   6.6241268301e+00   0.00973157  0.006438192 -60.19 -2.568488e-05    1.494    0.331
         2  -9.1980     67.2390    245.7629   2.9256245604e+02   4.5430241200e+00   0.01192085    0.0109936 -56.31 0.0003217378    1.074    0.069
         3  -7.3612    249.3388    246.6952   2.9046808860e+02   3.4405436804e+00  0.006996478  0.004961913  61.04 -9.008348e-06    1.675    0.403
         4  -7.3768    176.9598    241.0215   2.9126724364e+02   3.9404290212e+00   0.01090849  0.007675023 -27.10 0.0009903343    1.662    0.398
         5  -7.1272     92.4169    241.5201   2.9224576102e+02   4.4413106553e+00  0.006560019  0.006349304  76.37 0.0001558587    1.067    0.062
         6  -8.2193      1.9764    234.8078   2.9324888253e+02   5.0587961947e+00   0.01096182  0.009246553 -54.24 0.0004259203    1.167    0.143
         7  -8.0261    133.9261    231.8531   2.9170724766e+02   4.3040465917e+00  0.009999713  0.008757326 -25.34 0.0004471767    1.197    0.165
         8  -7.0816     59.7255    230.3452   2.9255457968e+02   4.7655356488e+00  0.006800086  0.005055147  69.20 0.0002168376    1.624    0.384
         9  -7.4205    138.9945    226.6255   2.9161658749e+02   4.3338576507e+00  0.009144866  0.008550051  24.51   0.00111638    1.074    0.069
        10  -8.5209     44.9038    224.5879   2.9269041892e+02   4.9204162992e+00   0.01174554   0.01006812 -48.45 0.0004144406    1.155    0.134
        11  -7.6056     63.7283    201.0464   2.9232837242e+02   5.0791208670e+00  0.009165652  0.008303609 -58.36 0.0002652382    1.095    0.087
        12  -9.9958    187.7248    192.1004   2.9084154240e+02   4.4388580737e+00   0.01155091   0.01115824 -61.24 0.0003036429    1.035    0.034
        13  -6.8701    218.6180    188.7529   2.9046456914e+02   4.2917109037e+00  0.006830191  0.004992146 -16.29  0.000694628    1.650    0.394
        14  -6.8440      2.4964    182.5565   2.9292250688e+02   5.6577377090e+00  0.006506389  0.006450775 -16.16  0.000183033    1.007    0.006
        15  -7.5312    188.0042    177.4659   2.9074800807e+02   4.6056024419e+00   0.00972026  0.006465063  28.85 0.0003063338    1.500    0.333
        16  -7.2761     62.9135    160.0801   2.9208579074e+02   5.5558715099e+00  0.007637023  0.007436446 -66.67 0.0002951171    1.033    0.032
        17  -8.7553     15.6759    152.2762   2.9258407218e+02   5.9279672968e+00   0.01387047   0.01014284  62.73 0.0005135605    1.613    0.380
        18  -7.2235    174.4651    152.3858   2.9074942461e+02   4.9755889303e+00  0.006524882  0.006297158  45.16 8.749624e-05    1.053    0.050
        19  -7.4185     17.2471    146.3405   2.9252939550e+02   5.9869628587e+00  0.009481913  0.005834229  35.82 0.0009383457    1.604    0.376
        20  -7.9158    201.5065    141.0392   2.9036718751e+02   4.9435618293e+00   0.00991306  0.006464903 -60.68 0.0004082242    1.518    0.341
        21  -7.3644    160.2996    140.6707   2.9084064489e+02   5.1955213852e+00  0.006884448  0.005038283  65.61 0.0005395241    1.642    0.391
        22  -8.5092    132.1349    139.0676   2.9115611995e+02   5.3830827716e+00   0.01010301  0.009225767  26.21 0.0002610644    1.100    0.091
        23  -8.3904    197.0057    128.1180   2.9033924708e+02   5.1192812540e+00   0.01051548  0.009236327 -51.79 0.0002826606    1.124    0.110
        24  -8.7421    129.3298    124.0266   2.9109567297e+02   5.5730424918e+00   0.01131806  0.009382332  27.95  0.000284557    1.209    0.173
        25 -10.3903    242.7768    119.5371   2.8975809035e+02   4.9423862006e+00   0.01356485   0.01236165  26.34 0.0005434538    1.102    0.093
        26  -6.6635     52.3302    116.3137   2.9193859203e+02   6.1231691611e+00  0.007036672  0.004946402 -26.10 0.0007044474    1.676    0.403
        27  -7.3122    171.8250    113.0825   2.9053703031e+02   5.4436968531e+00  0.008918596  0.007474271 -28.33 0.0003823119    1.266    0.210
        28  -7.1747     53.2664    112.0149   2.9190125733e+02   6.1670616883e+00  0.008101076  0.005716725 -60.63 0.0002853661    1.403    0.287
        29  -7.4073     31.5854    108.7953   2.9213233705e+02   6.3337215046e+00  0.008778602  0.006440698 -78.68 0.0004145344    1.534    0.348
        30  -7.7565    188.9257    106.0009   2.9029573273e+02   5.4222981102e+00   0.00956768  0.009396876  17.30 0.0003522068    1.022    0.022
        31  -8.6806    245.6489    100.6772   2.8960819759e+02   5.1418776910e+00   0.01568224   0.01020012 -85.56  0.001222582    2.001    0.500
        32  -6.9884    144.7104     98.2780   2.9075878974e+02   5.7769812650e+00  0.006604484  0.005003879  62.11  0.000693549    1.521    0.342
        33  -7.3630    212.9045     79.1539   2.8985268113e+02   5.5866117930e+00  0.008925752  0.007499277 -26.65 0.0002874191    1.269    0.212
        34  -7.0061     18.5819     71.4358   2.9205257710e+02   6.8414030391e+00    0.0065973  0.006255819 -30.89 0.0001147219    1.058    0.055
        35  -7.2038     44.6114     66.8280   2.9172265443e+02   6.7388952733e+00  0.008559908  0.006376517 -78.04 0.0001315184    1.495    0.331
        36  -7.8100    158.1203     62.2706   2.9038098500e+02   6.1104969102e+00  0.009631617  0.008492223 -28.48  0.001139333    1.177    0.150
        37  -8.8091    195.5143     57.9289   2.8992198685e+02   5.9353277310e+00   0.01148182  0.009468604  20.61 0.0003605798    1.240    0.193
        38  -7.4265    155.5411     53.5087   2.9035654434e+02   6.2267385373e+00  0.006667573   0.00631291 -29.36 0.0001716191    1.063    0.059
        39  -8.8686    135.7694     48.0529   2.9055140659e+02   6.4083252773e+00   0.01105907  0.009523906  12.16 0.0002298728    1.208    0.172
        40  -9.7336    250.1780     43.5467   2.8920183092e+02   5.7709126835e+00   0.01227363  0.009276723 -54.12 0.0004691456    1.298    0.229
        41  -7.2621    244.2945     33.6754   2.8920845972e+02   5.9197718027e+00  0.006827584  0.005041731  65.94 0.0001968843    1.621    0.383
        42  -7.6289    250.2537     32.6182   2.8913315173e+02   5.8959327748e+00  0.009300943  0.006383754  11.82 0.0009426381    1.658    0.397
        43  -7.6090    191.2767     31.5584   2.8980747219e+02   6.2638500652e+00  0.008468677  0.006465214   8.57  0.000426281    1.451    0.311
        44  -8.1783    234.2679     25.9963   2.8927650837e+02   6.0684588237e+00   0.01456927  0.005639092  37.99  0.001164172    2.495    0.599
        45  -8.1155    163.2957     24.2078   2.9008531757e+02   6.5168031465e+00   0.01598392   0.00964278 -37.87  0.001232216    1.856    0.461
        46 -10.4105    144.8777     24.0448   2.9029731891e+02   6.6294909400e+00   0.01188949   0.01112935 -58.86 0.0002824839    1.063    0.060
