#   1 NUMBER                 Running object number                                     
#   2 MAG_AUTO               Kron-like elliptical aperture magnitude                    [mag]
#   3 X_IMAGE                Object position along x                                    [pixel]
#   4 Y_IMAGE                Object position along y                                    [pixel]
#   5 X_WORLD                Barycenter position along world x axis                     [deg]
#   6 Y_WORLD                Barycenter position along world y axis                     [deg]
#   7 A_WORLD                Profile RMS along major axis (world units)                 [deg]
#   8 B_WORLD                Profile RMS along minor axis (world units)                 [deg]
#   9 THETA_WORLD            Position angle (CCW/world-x)                               [deg]
#  10 FWHM_WORLD             FWHM assuming a gaussian core                              [deg]
#  11 ELONGATION             A_IMAGE/B_IMAGE                                           
#  12 ELLIPTICITY            1 - B_IMAGE/A_IMAGE                                       
         1 -13.3346     66.8679    143.5299   1.2588180955e+02   3.8271816954e+01     2.513247     1.256895 -87.18  0.002847104    5.384    0.814
         2 -14.1567    202.0457     19.1128   6.3118427943e+01   3.2082074513e+01       1.9535     1.360054   5.25  0.009839321    2.458    0.593
         3 -13.9135    208.4969     12.5303   6.0918843237e+01   3.1293009210e+01     2.887123     1.321333  38.41   0.00141623    4.605    0.783
         4 -12.6538      3.1606      8.3830   1.1223403812e+02   7.0762783319e+01     1.176131    0.2710424 -40.46  0.005518323    3.338    0.700
         5 -11.5193    189.9364     15.4997   6.3712572227e+01   3.5339162354e+01    0.2938165    0.2096895  71.89 0.0009782903    1.194    0.162
         6 -11.0757    246.6854    249.5302   1.0528239268e+02  -1.3482583821e+01    0.3431427    0.1896697  40.74  0.001961512    1.876    0.467
         7 -10.5963    190.5038    249.5108   1.1573019137e+02  -4.8416948349e+00    0.2390807    0.1022757  31.39  0.001037311    2.336    0.572
         8 -13.1192    137.9088    247.4116   1.2572128981e+02   4.3860587467e+00    0.9112719    0.5018261  48.89  0.004723864    1.577    0.366
         9 -12.4606    126.2770    249.5545   1.2827557950e+02   5.9599421486e+00    0.5751981    0.3740963  35.60  0.002574261    1.475    0.322
        10 -13.8613    108.2369    246.4458   1.3140170972e+02   9.4597212310e+00     1.532247    0.6803516  44.02  0.007410657    1.874    0.466
        11 -12.2683     99.6455    237.7779   1.3206414450e+02   1.2452686290e+01    0.4874227     0.384611  84.14 0.0009802533    1.258    0.205
        12 -13.9907     82.0506    246.3799   1.3638926148e+02   1.3511524240e+01     1.407901    0.7757661  44.32  0.007899286    1.571    0.363
        13 -11.4877     93.0754    249.8428   1.3467591970e+02   1.1211739440e+01    0.5131519    0.3405095  30.63  0.001452184    1.832    0.454
        14 -12.7528     88.5889    244.0780   1.3491467365e+02   1.2967308049e+01    0.6695523    0.4002496  71.41  0.001904306    1.791    0.442
        15 -14.9356     34.7986    245.8741   1.4483685119e+02   1.9923600321e+01     10.29897     3.542498  28.81   0.03282174    7.988    0.875
        16 -16.0011     10.0418    204.1790   1.4621785935e+02   3.0943449673e+01     8.430683     2.616667 -73.72   0.02209781    2.638    0.621
        17 -11.6523     75.3291    228.7443   1.3584461148e+02   1.7936281690e+01    0.3483574    0.2160119  60.37 0.0009941311    1.450    0.311
        18 -10.8253    227.4621    203.5105   1.0052536537e+02  -3.9124876116e+00    0.3048922    0.2281336 -54.28 0.0009805396    1.795    0.443
        19 -11.3763     69.5231    228.4868   1.3695670477e+02   1.8820965436e+01    0.2993634    0.1763344  63.35    0.0010066    1.588    0.370
        20 -10.3955    191.7201    192.7561   1.0551832202e+02   4.4894535519e+00    0.5601147    0.3271087 -72.92  0.001587811    6.088    0.836
        21 -11.7837     66.2640    192.6459   1.3350852766e+02   2.6950331061e+01    0.4374722    0.2548458 -47.16  0.002162165    2.082    0.520
        22 -11.6813     71.4602    185.6246   1.3140398328e+02   2.7806301100e+01    0.2951804    0.2443137 -49.25 0.0007277767    1.381    0.276
        23  -8.7082    181.5229    192.4770   1.0760567023e+02   6.5212686506e+00    0.1445443    0.1346098  24.42 6.166163e-05    1.006    0.006
        24 -11.0743     80.5798    173.9733   1.2753850390e+02   2.9144179070e+01    0.2476717    0.2233842 -73.06 0.0004619374    1.077    0.072
        25 -13.3637     67.9315    171.2408   1.3016435812e+02   3.1619875342e+01    0.5213732    0.2825859 -43.69  0.001730444    2.261    0.558
        26  -9.7707    104.9722    173.4749   1.2155278971e+02   2.5276319457e+01     0.221805    0.1389666  41.38  0.001028744    1.581    0.368
        27 -12.0850     87.2575    165.7006   1.2454102885e+02   3.0036497747e+01    0.6546454     0.527472  53.84   0.00269017    1.241    0.194
        28 -12.6422     63.1684    218.2661   1.3714383091e+02   2.1811355295e+01    0.8012837    0.2609611  45.44  0.002251273    2.662    0.624
        29  -9.8836     99.9960    149.4836   1.1826915948e+02   3.1719805641e+01    0.3259253    0.2167243 -48.82 0.0007404994    1.486    0.327
        30  -9.3368    102.8240    145.5672   1.1672887429e+02   3.2137034178e+01    0.3316269    0.1808425 -34.67  0.001268356    2.507    0.601
        31 -12.2114     88.7485    148.6642   1.2104692890e+02   3.3798214596e+01    0.2953209    0.2526109 -36.80 0.0005437777    1.277    0.217
        32 -12.7926     40.9123    225.0309   1.4210690233e+02   2.3285230418e+01    0.3634086    0.2829408 -58.44  0.001014605    1.584    0.369
        33 -10.4889     57.8977    145.1247   1.2854081577e+02   3.9075401096e+01    0.2094861    0.1735763  80.96 0.0005725702    1.258    0.205
        34  -9.4989    110.8796    135.2941   1.1237147562e+02   3.3040126041e+01    0.2876691    0.1911098 -25.03  0.001164331    2.090    0.521
        35 -10.7221     69.0738    134.9182   1.2367169532e+02   3.9985952059e+01    0.2308157    0.2033765  40.79 0.0006368787    1.230    0.187
        36 -10.5914     98.2524    132.5139   1.1514560675e+02   3.5966919002e+01    0.2809981    0.2235714 -27.30 0.0005432777    1.441    0.306
        37 -14.9159     49.6468    213.7992   1.3938677085e+02   2.4534635767e+01     2.146749     1.434241  49.30   0.01317681    1.400    0.286
        38 -10.0553    226.0133    238.2310   1.0712028415e+02  -8.9325287900e+00    0.1695211   0.09051871  35.77 0.0008837813    1.659    0.397
        39  -9.2509    107.6269    122.8523   1.1034941105e+02   3.6469674830e+01    0.1995355    0.1738037 -50.81 0.0003623093    1.125    0.111
        40 -10.9118    167.9144    113.0006   9.2768868712e+01   2.5643656752e+01    0.3772295    0.3040475 -81.77  0.001000271    1.520    0.342
        41  -9.6406    204.7076    110.9146   8.4777794617e+01   1.7515081208e+01    0.3881048    0.1811626  37.48  0.001346803    2.988    0.665
        42 -13.6601      5.0373    242.3186   1.4954705756e+02   2.3858639284e+01      2.02447    0.6981878 -77.56    0.0109796    2.470    0.595
        43 -10.8210      1.9236     89.1673   1.3498349311e+02   5.6612824841e+01    0.3324334    0.1279564 -65.26  0.001659683    2.113    0.527
        44 -10.6123      2.2074     80.4550   1.3329336340e+02   5.8388294346e+01    0.2746914    0.1011799 -59.61  0.001104042    2.008    0.502
        45 -10.7659    111.2481     43.9149   8.6510196348e+01   5.0401862746e+01    0.3987691    0.2690472  74.13  0.001877812    2.264    0.558
        46 -10.3665    161.9792    249.4926   1.2127956471e+02  -4.7699933884e-02    0.2082535    0.1077823  40.33 0.0008167822    1.608    0.378
        47 -10.7450    198.7246    246.4638   1.1366620159e+02  -5.7443787695e+00    0.2359945    0.1589745 -54.88  0.001300211    2.159    0.537
        48 -13.0069     15.8915    241.3695   1.4772072207e+02   2.2914476080e+01     1.270077    0.4408889  58.10  0.006549946    2.505    0.601
