#   1 NUMBER                 Running object number                                     
#   2 MAG_AUTO               Kron-like elliptical aperture magnitude                    [mag]
#   3 X_IMAGE                Object position along x                                    [pixel]
#   4 Y_IMAGE                Object position along y                                    [pixel]
#   5 X_WORLD                Barycenter position along world x axis                     [deg]
#   6 Y_WORLD                Barycenter position along world y axis                     [deg]
#   7 A_WORLD                Profile RMS along major axis (world units)                 [deg]
#   8 B_WORLD                Profile RMS along minor axis (world units)                 [deg]
#   9 THETA_WORLD            Position angle (CCW/world-x)                               [deg]
#  10 FWHM_WORLD             FWHM assuming a gaussian core                              [deg]
#  11 ELONGATION             A_IMAGE/B_IMAGE                                           
#  12 ELLIPTICITY            1 - B_IMAGE/A_IMAGE                                       
         1 -12.8055    190.0635     14.7915   5.1995808445e+01   3.5609665883e+01    0.5172016    0.4968639 -71.77  0.001625886    1.028    0.028
         2 -14.3259    209.0605      5.1455   4.6919908598e+01   3.1545629434e+01     1.509343     1.110176  43.18  0.006516675    1.490    0.329
         3 -15.0331    187.0383     33.9660   5.8512335316e+01   3.4181694120e+01     2.605853     1.452349  22.32  0.009552767    2.809    0.644
         4 -13.7065    172.5727     48.7765   6.5738844364e+01   3.5975427617e+01    0.9678365      0.76517   0.98 0.0008349954    1.458    0.314
         5 -18.5013     44.9911    246.5008   1.2795110927e+02   2.1965833320e+01     6.050622     3.207616  37.86    0.0430656    1.865    0.464
         6 -10.7212    153.0247    194.0141   1.0391433179e+02   1.4920622753e+01    0.3387235      0.16437  54.56  0.001263855    2.174    0.540
         7 -10.7895     95.1985    200.2535   1.1586133320e+02   2.3109069083e+01    0.2253453    0.1528079  71.19 0.0002167873    1.411    0.291
         8 -10.0234     75.9270    200.8064   1.1959172804e+02   2.5674162886e+01    0.1891792    0.1478118  37.08 0.0008928804    1.471    0.320
         9 -12.0876    192.9188    194.4326   9.6542567163e+01   7.8950848272e+00    0.7671944    0.4270928 -62.98  0.002928449    5.179    0.807
        10 -11.0795    141.0307    197.9577   1.0676454024e+02   1.6330018206e+01    0.2368424    0.1789996 -72.96 0.0007105386    1.662    0.398
        11 -19.2390     21.1356     99.7912   1.2173446482e+02   5.2655344571e+01     17.09735     1.799101 -72.07   0.04055477    8.845    0.887
        12 -10.2017    121.0228    197.6056   1.1057583082e+02   1.9647637712e+01    0.1727966    0.1291931  50.66  0.001110009    1.093    0.085
        13 -11.4855    101.0393    197.5824   1.1445041359e+02   2.2720957280e+01    0.2671468    0.2029174  14.60  0.001611916    2.114    0.527
        14 -11.2900    208.2784    196.5196   9.4159651284e+01   4.9663430324e+00    0.2022393    0.1679939 -17.16 0.0008486095    1.338    0.253
        15 -11.8658    113.0480    195.9142   1.1192218609e+02   2.1187501558e+01    0.3919155    0.2752655   8.82  0.002034145    2.827    0.646
        16 -10.1710     65.9381    194.6435   1.2096170788e+02   2.8073916467e+01    0.3694828    0.1081921  51.07  0.001156306    2.874    0.652
        17 -13.5210     73.2413    187.9381   1.1892474260e+02   2.8370137484e+01    0.7306861    0.6399213 -62.91  0.004557943    1.451    0.311
        18 -11.7502    129.8048    211.5960   1.1059246318e+02   1.6004477184e+01    0.3183252     0.187542 -89.54  0.001588239    3.050    0.672
        19  -9.8549     97.9705    190.8697   1.1430837176e+02   2.4365038205e+01    0.1724293    0.1496885  44.70 0.0008320646    1.252    0.201
        20 -10.7310     58.8201    188.3119   1.2180776593e+02   3.0128058676e+01    0.2777487    0.2018543 -49.01   0.00183472    1.987    0.497
        21 -10.9717     85.9691    201.2833   1.1772813866e+02   2.4232337013e+01     0.522411    0.1810909  58.24  0.002125391    3.528    0.717
        22 -10.5250    151.8653    183.8797   1.0262511220e+02   1.6745040041e+01    0.1998343    0.1445908  71.08  0.001112877    1.705    0.414
        23 -10.6546     99.4119    180.7328   1.1282629389e+02   2.6009039806e+01    0.2126243    0.1824556  54.36 0.0005376296    1.120    0.107
        24  -9.3666     53.3093    181.2509   1.2230723096e+02   3.2128715601e+01   0.09094025   0.08912028 -52.24 0.0003327205    1.513    0.339
        25 -10.1500    207.3472    178.3322   9.1184383775e+01   7.4972585949e+00    0.2052733    0.1343087  17.30 0.0007650713    1.694    0.410
        26 -11.0050     82.2170    195.1371   1.1785561844e+02   2.5841236779e+01    0.3318395    0.2212874  43.13  0.001791111    1.380    0.275
        27 -10.0232    168.1866    176.4354   9.8207953938e+01   1.4996411991e+01    0.1897133    0.1690454  57.67  0.000397262    1.168    0.144
        28 -10.2176    165.9900    173.1977   9.8087942134e+01   1.5925159053e+01    0.2768156    0.2007887  85.00 0.0007564356    2.171    0.539
        29 -12.2962    113.7888    208.5740   1.1322585603e+02   1.8956686573e+01    0.2815295    0.2181016  47.93  0.001946988    1.110    0.099
        30 -10.5684    202.2501    170.0244   9.0581095711e+01   9.5927352084e+00    0.3449699    0.2849279  42.70  0.001828611    1.170    0.145
        31 -10.3211    204.0268    165.2388   8.9347034580e+01   9.9427263487e+00    0.4325714    0.2297969 -47.45  0.001994659    2.487    0.598
        32 -11.7652    194.4415    167.6448   9.1584816662e+01   1.1415560221e+01    0.3300744    0.3181134  37.37  0.000853462    1.179    0.151
        33 -10.8219    190.0322    160.8102   9.1119195762e+01   1.3302390179e+01     0.281914    0.2533657 -73.24  0.001004111    1.447    0.309
        34 -11.3274    189.1123    155.1024   9.0175359367e+01   1.4376756236e+01     0.391439    0.3593666  53.59    0.0017778    1.182    0.154
        35  -9.6175     64.5321    170.5500   1.1899487535e+02   3.2854965492e+01    0.2095717   0.08331814  48.11  0.001021047    2.173    0.540
        36 -11.1693    230.3775    167.1192   8.5058831543e+01   4.7919981359e+00    0.3902651    0.1336563 -43.89  0.001355935    4.670    0.786
        37 -10.2505    161.2385    166.3853   9.7852154386e+01   1.7947828656e+01    0.2105803    0.1639817 -77.92 0.0007284508    1.737    0.424
        38  -9.6600     72.3841    166.7809   1.1690521318e+02   3.2588799914e+01    0.1578976    0.1033015 -60.66 0.0004528162    1.626    0.385
        39 -12.0597    106.8947    210.4837   1.1471321481e+02   1.9676528641e+01    0.3758268    0.2814331  87.25  0.001880364    1.432    0.302
        40 -11.8796    107.5334    203.5269   1.1385292784e+02   2.0734432448e+01    0.2566079    0.1774601 -73.03 0.0008926188    1.646    0.392
        41 -12.4377     98.4995    153.9611   1.0939654967e+02   3.1396497509e+01    0.5471839    0.4060793 -38.09  0.003057283    1.816    0.449
        42 -11.5978    133.8095    145.0992   9.9835079757e+01   2.7045293800e+01     1.061169    0.2757519 -55.51  0.002820857    6.061    0.835
        43  -9.8063    113.3874    151.1760   1.0555474000e+02   2.9512213244e+01    0.1917585    0.1229262 -72.57 0.0009512277    1.830    0.454
        44  -9.9478    146.1371    150.1576   9.8057477600e+01   2.3726745881e+01     0.188629    0.1591199  76.88 0.0004380768    1.310    0.237
        45 -10.5823    174.6099    149.1711   9.1863774591e+01   1.8259448020e+01    0.2657321     0.185574  45.39  0.000697786    1.313    0.239
        46 -12.2723    108.8087    139.8923   1.0469011368e+02   3.2609487818e+01    0.5756496    0.3421517 -36.64  0.002600315    2.403    0.584
        47 -12.5154     97.5744    139.4001   1.0730459201e+02   3.4579618002e+01    0.2563938    0.2354967  77.15 0.0003478109    1.040    0.039
        48 -11.3744    135.6863    128.3418   9.6042396663e+01   3.0007423855e+01    0.7070308    0.1326031 -49.80  0.001737766    6.156    0.838
        49 -11.6241    105.9752    130.3052   1.0362593162e+02   3.5117964195e+01    0.4317728    0.2905628 -62.29  0.002219383    1.511    0.338
        50 -11.4381    103.5747    126.0450   1.0341218002e+02   3.6442224437e+01    0.2827714    0.2483656 -20.64  0.000857573    1.458    0.314
        51 -11.3122    115.8889    130.0335   1.0113549338e+02   3.3424020608e+01    0.2963028     0.265354 -14.26 0.0008646073    1.404    0.288
        52 -10.7365    160.5267    127.6757   9.0254554551e+01   2.5020188656e+01    0.3197133    0.2368772 -82.36  0.001482764    1.963    0.491
        53 -11.1894    120.5098    124.0716   9.8787599570e+01   3.3819206579e+01    0.3359751    0.2265866 -35.53  0.001462703    1.811    0.448
        54 -10.3287    110.9613    119.0264   1.0011666549e+02   3.6650866553e+01     0.208632    0.1945461  79.25 0.0003854731    1.022    0.022
        55 -10.5247    167.9441    112.9830   8.5173915483e+01   2.6122358268e+01    0.3201218    0.2555973  84.96 0.0008927642    1.622    0.384
        56 -11.0532    135.0000    111.5309   9.2404236950e+01   3.3549366563e+01    0.5746559   0.08372819 -45.65  0.001258139    6.995    0.857
        57 -10.2318    134.5949    105.7496   9.1090537216e+01   3.4809706370e+01    0.2873276    0.1425923 -41.26  0.001137162    2.106    0.525
        58 -11.6915    118.6955    110.3936   9.6220258949e+01   3.7045929380e+01    0.5660424    0.2364126  54.92  0.001948048    3.092    0.677
        59 -10.4364    205.6282    110.1121   7.6939404903e+01   1.8074727356e+01    0.2795531     0.203574  40.97 0.0006100638    1.344    0.256
        60  -9.7502     73.1240    102.8232   1.0703494780e+02   4.6362748513e+01    0.1750026     0.153133 -38.11 0.0004113578    1.299    0.230
        61  -9.6875    128.7444     95.5113   8.9930008198e+01   3.8127054079e+01    0.2030923    0.1419276  60.44 0.0004915254    1.593    0.372
        62  -9.9795     41.5347     91.9246   1.1443543386e+02   5.2644778787e+01    0.1703481    0.1588875 -87.64 0.0003837046    1.127    0.112
        63 -11.5043    104.5735    202.7987   1.1433722830e+02   2.1299397367e+01    0.3002717    0.1950531  86.09  0.001811376    1.813    0.448
        64  -9.5565    152.5545     80.4676   7.9858001310e+01   3.5714894434e+01    0.1522384    0.1486325  11.83 0.0001043752    1.028    0.027
        65 -12.3460    167.4288     67.1933   7.2576369047e+01   3.4399675540e+01     1.092625    0.5439335 -59.92  0.002250099    3.932    0.746
        66  -9.6068    169.2469    237.0154   1.0664305530e+02   6.3328972503e+00    0.1469798     0.118299  38.92 0.0003212431    1.089    0.082
        67 -11.3964    156.5761    200.0952   1.0411144385e+02   1.3380296078e+01    0.4460113      0.28078  76.06   0.00215807    2.856    0.650
        68 -11.6625    111.6346    217.5070   1.1456550768e+02   1.7852799961e+01    0.2077262    0.1898229  65.51 0.0006045861    1.228    0.186
