#   1 NUMBER                 Running object number                                     
#   2 MAG_AUTO               Kron-like elliptical aperture magnitude                    [mag]
#   3 X_IMAGE                Object position along x                                    [pixel]
#   4 Y_IMAGE                Object position along y                                    [pixel]
#   5 X_WORLD                Barycenter position along world x axis                     [deg]
#   6 Y_WORLD                Barycenter position along world y axis                     [deg]
#   7 A_WORLD                Profile RMS along major axis (world units)                 [deg]
#   8 B_WORLD                Profile RMS along minor axis (world units)                 [deg]
#   9 THETA_WORLD            Position angle (CCW/world-x)                               [deg]
#  10 FWHM_WORLD             FWHM assuming a gaussian core                              [deg]
#  11 ELONGATION             A_IMAGE/B_IMAGE                                           
#  12 ELLIPTICITY            1 - B_IMAGE/A_IMAGE                                       
         1 -14.8325      5.7720    146.8111   1.5131259100e+02   4.3302788849e+01      7.38983     1.291467 -86.03   0.02330559    5.622    0.822
         2 -13.2923    193.6408     27.7199   7.0883033195e+01   3.2787173975e+01     1.612898     1.447459  18.89  0.007152611    1.236    0.191
         3 -13.3346    209.5047      7.4698   6.3369995716e+01   3.0818008116e+01     1.216467    0.9670752  30.17  0.004242254    1.509    0.337
         4 -12.7851      3.7047     12.5720   1.3766958134e+02   7.5361411424e+01     1.894188    0.2797062 -65.74  0.006566479    3.935    0.746
         5  -9.8505     81.3238    248.5567   1.4008817230e+02   1.6639180958e+01    0.2217842    0.1216074  58.16  0.001455477    1.737    0.424
         6 -12.2492    140.6547    250.0081   1.2896142538e+02   8.9403403742e+00    0.8177528    0.3018947  26.31   0.00369032    2.992    0.666
         7 -13.5107     50.2422    206.3249   1.4372456653e+02   2.7141196369e+01     9.869903          nan  41.89   0.02380071    9.132    0.890
         8 -10.1194    184.3580    238.3025   1.1952637927e+02   4.4431869207e+00    0.1826631    0.1072308  12.28  0.001120306    1.739    0.425
         9 -10.5248    151.1070    229.7769   1.2475910475e+02   1.0115892273e+01    0.2835684    0.1054816  38.00   0.00140021    1.976    0.494
        10  -9.5863    177.4363    227.2146   1.1936970318e+02   6.6999833206e+00    0.2019143    0.1601672  80.97  0.001225334    2.810    0.644
        11 -10.1880    173.1236    221.8231   1.1947127720e+02   7.9899358856e+00    0.3591552    0.2207401  39.57  0.001552089    1.408    0.290
        12 -12.2695      4.6821    170.3548   1.5236865693e+02   3.8353033908e+01    0.9271217    0.4237049 -79.33  0.005270539    2.067    0.516
        13  -8.8654     94.3758    216.6604   1.3500340783e+02   1.9971126252e+01     0.183474     0.107379  56.25 0.0007064898    1.669    0.401
        14  -8.8846     28.7280    214.8474   1.4866679613e+02   2.7793550155e+01     0.235893   0.07212287  49.26  0.001226469    2.217    0.549
        15 -12.3325      9.7550    207.0041   1.5226532441e+02   3.0877705159e+01    0.6623208    0.4020942  23.10  0.003185263    1.809    0.447
        16  -8.8573    152.6384    213.0360   1.2235844891e+02   1.2206565977e+01    0.1551829    0.1325526  21.91 0.0003669563    1.138    0.122
        17  -9.3413    215.4766    248.5125   1.1540319217e+02  -6.5757105188e-01    0.1100717   0.07205092  19.32 6.665977e-05    1.024    0.024
        18 -11.4783     62.6028    200.4229   1.4060018061e+02   2.6834691706e+01    0.2475211    0.2255055 -40.81 0.0005730036    1.496    0.332
        19 -10.6334     19.0134    199.3831   1.5011180303e+02   3.1496546143e+01    0.2983763    0.1324792  48.59   0.00154786    1.631    0.387
        20  -9.6258    193.0467    194.8741   1.1159678278e+02   8.4778187347e+00     0.576928    0.3298007 -61.24  0.001606299   10.734    0.907
        21 -11.7604     68.7030    192.0418   1.3853415688e+02   2.7690519748e+01    0.2372302    0.2354081   9.37 0.0004539925    1.303    0.232
        22 -12.6635     36.5246    235.1031   1.4792434228e+02   2.3611822964e+01    0.3243278    0.2333881 -75.71 0.0007863342    1.713    0.416
        23 -10.7486     78.6864    178.8946   1.3488460980e+02   2.9003879507e+01    0.2217519    0.2030087  46.23 0.0003758747    1.127    0.112
        24 -13.0314     65.5066    177.2011   1.3797289021e+02   3.1036886008e+01     0.449271    0.2717653 -43.90  0.001576497    2.305    0.566
        25  -8.9084    102.0254    178.3517   1.2909321288e+02   2.5800371337e+01    0.2288911    0.1541776  61.50  0.001228876    1.616    0.381
        26 -11.5875     86.0252    169.5923   1.3198234558e+02   2.9895317460e+01    0.5577329    0.5186263 -12.97  0.003584109    1.327    0.246
        27 -13.7796     41.9331    227.8258   1.4656997089e+02   2.4260248450e+01    0.8459812    0.6667505  63.05  0.003059703    1.168    0.144
        28  -9.8309     98.4328    153.3155   1.2647900105e+02   3.1469026162e+01    0.2855089    0.2766039 -28.97  0.000880415    1.185    0.156
        29  -9.0392    101.2641    148.9889   1.2502599676e+02   3.1944731167e+01     0.204689    0.1852634   4.72 0.0003370008    1.259    0.206
        30 -11.7770     87.0474    152.6100   1.2946336474e+02   3.3364030732e+01    0.2725469    0.2538466 -26.58 0.0004952116    1.279    0.218
        31 -10.6180    238.4753    247.0276   1.1144239557e+02  -3.3090509941e+00    0.1728863    0.1008286  22.99 0.0009438635    1.172    0.146
        32  -8.8686    183.5739    146.8562   1.0458267195e+02   1.7171806900e+01    0.2058449    0.1840548  50.38 0.0004239687    1.337    0.252
        33  -8.8380    134.0000    145.4565   1.1575995434e+02   2.6930916473e+01    0.3026359   0.08449982 -48.67 0.0009412323    3.987    0.749
        34 -10.5584    198.5039    246.0128   1.1798603094e+02   1.7422044783e+00    0.1857277    0.1057783  28.90  0.001105818    1.224    0.183
        35  -9.7761    109.9818    137.6282   1.2063037749e+02   3.2931143386e+01    0.4285689    0.2787791 -18.80  0.001478981    2.563    0.610
        36 -10.3495     97.1577    135.3385   1.2384182841e+02   3.5624318369e+01    0.2470641    0.2253953 -22.47 0.0003784622    1.263    0.208
        37  -9.3867     82.1324    133.4836   1.2793882406e+02   3.8411257443e+01    0.2532829    0.1878271  63.49 0.0006450362    1.408    0.290
        38 -12.2079     67.1846    143.7447   1.3383898983e+02   3.8118980623e+01    0.7470486    0.4188692  53.83   0.00331986    1.766    0.434
        39  -8.0857    116.3125    130.0131   1.1736259413e+02   3.3438254468e+01    0.2365573    0.1076199 -32.66 0.0007041255    4.206    0.762
        40  -9.0026    106.9782    124.3435   1.1885474652e+02   3.6398292226e+01    0.2031855    0.1718241  37.42 0.0003329026    1.120    0.107
        41  -9.6559     54.4944    122.9981   1.3493075252e+02   4.4592544915e+01    0.2008411    0.1052929  78.16 0.0008105666    2.569    0.611
        42 -11.0516    172.4803    248.0031   1.2286605534e+02   4.9504422504e+00     0.357157    0.1779679  47.98  0.001977765    2.474    0.596
        43  -9.5526    167.8885    112.9056   1.0020399502e+02   2.6201135526e+01    0.2973286    0.2640924 -87.44  0.000983233    1.462    0.316
        44  -9.3835    203.3898    111.7569   9.2677678488e+01   1.8724751762e+01    0.2552375    0.1731987 -18.11  0.001069026    1.501    0.334
        45  -9.5797    157.2772     75.9956   9.2375304074e+01   3.5300379033e+01    0.2259919    0.2063378 -25.68 0.0006658793    1.111    0.100
        46  -9.3667     27.2686     60.3710   1.3509269992e+02   6.2819233578e+01    0.1771021    0.1179238  32.68 0.0006074727    1.646    0.392
        47 -12.3706     50.6722    217.3012   1.4427138597e+02   2.5134012399e+01     1.048808    0.5474176  63.27  0.006400551    1.764    0.433
        48  -9.3086      2.5962    249.1900   1.5442373235e+02   2.4480681867e+01     0.138759   0.08010373  49.33 0.0008433787    1.111    0.100
        49  -8.4526     17.3137    250.3103   1.5190149309e+02   2.3045759110e+01   0.07803596   0.07211395  16.80 0.0007029762    1.631    0.387
        50 -10.9097    102.4154    247.9901   1.3603042782e+02   1.4151383694e+01    0.3630163    0.1697098  56.57  0.001754232    2.450    0.592
