#   1 NUMBER                 Running object number                                     
#   2 MAG_AUTO               Kron-like elliptical aperture magnitude                    [mag]
#   3 X_IMAGE                Object position along x                                    [pixel]
#   4 Y_IMAGE                Object position along y                                    [pixel]
#   5 X_WORLD                Barycenter position along world x axis                     [deg]
#   6 Y_WORLD                Barycenter position along world y axis                     [deg]
#   7 A_WORLD                Profile RMS along major axis (world units)                 [deg]
#   8 B_WORLD                Profile RMS along minor axis (world units)                 [deg]
#   9 THETA_WORLD            Position angle (CCW/world-x)                               [deg]
#  10 FWHM_WORLD             FWHM assuming a gaussian core                              [deg]
#  11 ELONGATION             A_IMAGE/B_IMAGE                                           
#  12 ELLIPTICITY            1 - B_IMAGE/A_IMAGE                                       
         1 -13.6377    244.3196     70.6745   1.3405205000e+01   1.6806437261e+01     1.765835    0.5740271 -55.43  0.005950738    4.157    0.759
         2 -13.9338    242.7243     48.2148   9.0463718373e+00   2.0404634359e+01      1.74406    0.6491194 -52.28  0.006606347    2.463    0.594
         3 -13.5754    215.1270     62.2532   1.5195067194e+01   2.4176895409e+01     1.158442     1.111445 -25.65  0.007392678    1.312    0.238
         4 -13.0375    158.4009     29.5911   1.5408244215e+01   4.1922484996e+01     1.202644    0.7348947 -84.10  0.005700579    2.050    0.512
         5 -11.7791      2.4817     36.0936   6.9939016698e+01   6.8174505597e+01    0.9793082    0.1642081 -54.78  0.003806698    3.864    0.741
         6 -12.0638      6.5512     19.5311   6.2176417586e+01   7.0747086536e+01    0.4727476    0.2748765  20.87  0.003004373    1.743    0.426
         7 -12.0498     47.2800     14.1810   3.9779247000e+01   6.6915479030e+01    0.6243647    0.4197176 -10.34   0.00337303    1.464    0.317
         8 -12.7352     38.4474     11.6895   4.2551763350e+01   6.8491566000e+01    0.8604748    0.4635191  30.21  0.005031412    1.651    0.394
         9 -12.3362    116.9392     11.5337   1.7565947694e+01   5.3601318187e+01    0.5157697    0.3812999 -26.75  0.003113668    1.577    0.366
        10 -12.7509     12.7295     38.0165   6.5460241346e+01   6.7169567703e+01    0.8810334    0.5680556   3.47  0.004752997    1.522    0.343
        11 -12.1170    107.0915      5.6109   1.7643981914e+01   5.6341699625e+01     0.625695    0.4413176  72.30  0.003510593    1.439    0.305
        12 -11.7157     18.7003      4.8753   4.9191280753e+01   7.1766594750e+01    0.4798401    0.2338102  37.37  0.002758436    2.348    0.574
        13 -11.9787    148.1616    208.4663   6.0040645115e+01   9.3361706263e+00    0.6830179    0.3260852 -45.94  0.002899732    2.271    0.560
        14 -13.7147    128.4555    222.6341   6.6678574342e+01   9.7988158706e+00     1.108011    0.7047338  48.54  0.005493945    1.488    0.328
        15 -14.2765    143.5007    241.6200   6.6065782933e+01   3.7702026510e+00     1.485231     0.964672  40.86  0.006111922    1.329    0.248
        16 -13.3632    133.4761    233.1536   6.7051767140e+01   6.9272272720e+00     0.807326    0.6828969  33.18  0.002895901    1.071    0.066
        17 -12.6870    102.8023    248.2316   7.5488282790e+01   8.8148271297e+00    0.9517212    0.5040736  52.80  0.004207235    1.787    0.441
        18 -13.7604     84.5801    245.3567   7.8988084140e+01   1.2017807006e+01     1.217412    0.7572055  52.93  0.006204581    1.386    0.278
        19 -11.1656     53.0735    241.4203   8.5105115873e+01   1.7043381715e+01     0.751539    0.5670553 -86.49  0.004932223    1.295    0.228
        20 -12.1257     60.5584    227.1845   8.2312352125e+01   1.9035163546e+01     1.027564    0.3230458 -56.20  0.004077663    3.486    0.713
        21 -13.1823     69.7021    237.9206   8.1376328281e+01   1.5573946916e+01     1.055738    0.5652042  47.44  0.004873914    1.561    0.359
        22 -12.3860     75.0484    229.5335   7.9412004112e+01   1.6571508022e+01     1.017138    0.3039455  37.31  0.003978462    2.808    0.644
        23 -11.2223     68.3188    249.6054   8.2712000054e+01   1.3435338854e+01     0.405596    0.2249721  37.75   0.00189875    1.594    0.373
        24  -9.7233     56.0032    250.5345   8.5239724184e+01   1.4863999825e+01    0.1810144   0.09934414  40.25 0.0008421738    1.560    0.359
        25 -12.4651     37.6854    245.8214   8.8471988285e+01   1.8033580462e+01    0.9002061    0.7263594  77.40  0.006414317    1.116    0.104
        26 -13.3645     56.9729    211.8626   8.1619587967e+01   2.2855578108e+01     1.918351    0.6080617  52.97  0.006833614    3.512    0.715
        27 -12.8754      2.7776    189.9734   9.1921516954e+01   3.3593613095e+01    0.6624722    0.2726187 -80.05  0.002578109    2.054    0.513
        28 -12.8758     48.3265    226.5295   8.4861104144e+01   2.0731710125e+01    0.9942649    0.5910655 -46.73  0.005046812    2.374    0.579
        29 -13.2311     40.9777    223.5954   8.6169453655e+01   2.2247511495e+01     1.322166    0.6288654 -46.99  0.005900181    3.292    0.696
        30 -13.9122     11.9601    202.7676   9.0785792581e+01   2.9906813485e+01     1.102961    0.6845232  88.60  0.005815621    1.366    0.268
        31 -13.8143     32.0164    218.1601   8.7633329554e+01   2.4452611683e+01     1.120527    0.7231859 -64.88  0.005158274    1.607    0.378
        32 -13.7634     23.1924    209.8773   8.8887271981e+01   2.7221632700e+01     1.307822    0.5170963 -76.49   0.00540184    2.304    0.566
        33 -12.3251     21.8351    245.4305   9.1460859899e+01   1.9893133192e+01    0.7273079    0.3405805  69.37   0.00372274    1.948    0.487
        34 -13.2080     21.0922    234.6128   9.0965184546e+01   2.2152199527e+01    0.9008694    0.4002545  72.92  0.003536907    2.231    0.552
        35 -14.4104      5.2141    236.6065   9.4080568190e+01   2.3350651512e+01     1.368085    0.4263759 -83.39  0.006288352    3.037    0.671
        36 -14.0810      5.9856    220.2971   9.3082045247e+01   2.6646083450e+01     1.248165    0.5765469  66.98  0.006777975    1.918    0.478
        37 -12.9426    140.0978    202.9568   6.0976019896e+01   1.1875683313e+01    0.7826549    0.6389382  69.87  0.003333789    1.427    0.299
        38 -11.0492    249.6740    207.5358   3.9519504423e+01  -6.6308758092e+00    0.2205977   0.09846149 -37.89  0.001094853    2.025    0.506
        39 -10.4769     40.3804    203.0353   8.4532515657e+01   2.6890384572e+01    0.2844339    0.1960909 -89.31  0.001088857    1.325    0.245
        40 -13.0046    127.0223    196.7744   6.3032359289e+01   1.5492336789e+01     0.878997    0.5950218 -74.91  0.004093612    1.903    0.474
        41 -12.2559     31.5080    192.7322   8.5633070909e+01   3.0259421833e+01     1.042305    0.5077063  61.20  0.004730598    2.108    0.526
        42 -13.7688     13.6821    181.6525   8.8845403790e+01   3.4586903153e+01     1.276438    0.5296467  86.49  0.004912994    2.645    0.622
        43 -12.2722      4.1526    169.9583   9.0175885152e+01   3.8112845236e+01    0.6445414    0.3352029 -71.06  0.003524818    1.597    0.374
        44 -10.6719     93.2186    197.0265   7.1268126452e+01   2.1066972677e+01    0.2982062    0.2266107  85.19  0.001258483    1.429    0.300
        45 -10.8205     49.3732    195.6925   8.1719666174e+01   2.7525332828e+01     0.391453    0.1966678  45.99  0.001592071    1.838    0.456
        46 -12.8877     89.4523    129.4378   6.0375894146e+01   3.8103820741e+01     1.838718     1.087665  78.36  0.006160049    3.580    0.721
        47 -13.6081    113.0768    184.0002   6.4320370277e+01   2.0814625381e+01     1.545526     1.090425  85.22  0.007107747    1.857    0.462
        48 -13.0425     88.1931    144.4575   6.3840130966e+01   3.4620963328e+01     1.207773    0.8773909 -57.09  0.005284061    1.338    0.253
        49 -12.5045    105.8882    169.3522   6.3623857113e+01   2.5531445536e+01    0.7707435    0.7301309  30.18  0.003937364    1.113    0.102
        50 -13.3706     97.5710    159.9627   6.4147934310e+01   2.9237710836e+01     1.988489     1.220457 -49.30  0.008872356    1.660    0.398
        51 -11.0639     97.9012    191.3368   6.9283462382e+01   2.1642722040e+01    0.3842144    0.2688817  21.10  0.001850282    1.729    0.422
        52 -12.3481     36.0271    179.1915   8.3226979772e+01   3.2988792018e+01     1.012986    0.4702878  56.16  0.004530544    2.296    0.564
        53 -10.7753     38.8829    165.9839   8.1020700308e+01   3.5895713578e+01    0.2591023    0.2360544 -62.31 0.0005720829    1.170    0.146
        54 -12.5456     32.8396    160.0906   8.1927697551e+01   3.7975196425e+01    0.7319027    0.4759838  55.24   0.00259017    1.577    0.366
        55 -13.8320     28.8347    147.0276   8.1438267579e+01   4.1582112884e+01     1.258394     1.037902 -32.15  0.006162268    1.427    0.299
        56 -13.9256     19.3437    166.6238   8.6141376634e+01   3.7658632857e+01     1.278165    0.7035826  81.20  0.004902596    1.871    0.465
        57 -14.0507     11.6814    153.2837   8.6820299912e+01   4.1511080913e+01     1.254458    0.7927026  59.04  0.005238191    1.631    0.387
        58 -12.5889    148.8452    168.0385   5.2501094687e+01   1.7863867562e+01     1.316753    0.8714315  52.81  0.005909112    1.629    0.386
        59 -13.3111    153.3313    157.5532   4.9262262135e+01   1.9313927672e+01    0.9783458    0.7915989 -87.67  0.004714437    1.564    0.361
        60  -9.9297     47.0629    160.9459   7.8194264679e+01   3.6224588178e+01     0.197537    0.1517088 -38.64 0.0003487636    1.531    0.347
        61 -10.9441    231.1996    159.5961   3.3644651863e+01   4.0843719799e+00    0.1857882    0.1245526  28.79 0.0009596505    1.722    0.419
        62 -10.1607     60.0856    153.0479   7.3428748448e+01   3.6594397860e+01    0.2124619    0.1974058 -75.32 0.0004981629    1.037    0.036
        63 -11.2574    179.6656    150.0747   4.1643262142e+01   1.5603630451e+01    0.2968825    0.2693383  73.26  0.001589439    1.234    0.190
        64 -12.5925    146.0833    147.9004   4.8947293466e+01   2.2943653248e+01    0.9787815     0.605864 -52.08  0.004199823    1.660    0.398
        65 -13.9343     50.6849    122.7499   7.1085842038e+01   4.5300705347e+01     1.569823      1.29817 -67.66  0.006302241    1.137    0.120
        66 -14.0485     73.5297    131.3593   6.5601819789e+01   4.0144702077e+01     1.472728     1.017054 -72.20  0.007035889    1.558    0.358
        67 -13.4418     70.3244    114.6286   6.3077865182e+01   4.4690345241e+01     1.002817     0.732807  66.93  0.004238347    1.758    0.431
        68 -14.2033     51.8018     90.3739   6.3744101245e+01   5.2809058534e+01     1.848974    0.9938132  35.65  0.007233244    1.978    0.495
        69 -12.2768     51.7100    101.3063   6.6350482842e+01   5.0320939757e+01    0.6865016    0.5287311  23.52  0.002791101    1.398    0.285
        70 -12.2524     44.6618    148.2877   7.7109739180e+01   3.9649077716e+01    0.3999901    0.3316748 -15.59  0.001092822    1.506    0.336
        71 -11.6870     59.3724    143.2395   7.2043927455e+01   3.9142263148e+01    0.4644175    0.3600779 -81.59  0.002471478    1.299    0.230
        72 -12.7414     74.1517    146.3098   6.8253062357e+01   3.6335319443e+01     1.103473    0.7555651  19.96  0.005232089    1.762    0.432
        73 -11.3189     21.9087    134.5799   8.1842722406e+01   4.5248595260e+01    0.4077781    0.2493436  70.79  0.002076132    1.910    0.477
        74 -14.5212      5.9015    123.6395   8.5248967505e+01   4.9042490893e+01     1.523978     1.191569  88.99  0.007774797    1.222    0.182
        75 -12.6940      4.7796    106.6742   8.3434455942e+01   5.3115650962e+01    0.9213881    0.3812322 -72.45  0.004314435    2.093    0.522
        76 -12.9495    117.6692    115.9155   4.8955338359e+01   3.6060736081e+01    0.9407963    0.7866756 -89.16  0.004613543    1.428    0.300
        77 -12.7040    240.2261    122.1793   2.4550005252e+01   9.1045036246e+00     0.700582     0.332761 -60.46  0.002549481    3.583    0.721
        78 -13.1531    157.4419    117.9483   3.9224681643e+01   2.7112286638e+01    0.6358672    0.5235937 -71.89   0.00311785    1.368    0.269
        79 -10.5760     29.9221    117.6286   7.6880011007e+01   4.8694557367e+01    0.2876762    0.2515073  -4.49  0.001735003    1.309    0.236
        80 -12.5789    145.0312    110.6813   4.0393191902e+01   3.1394067061e+01    0.4859391    0.4466769  68.80   0.00254309    1.111    0.100
        81 -11.2776     28.2705    110.0454   7.6145283271e+01   5.0662453132e+01    0.5182702    0.2523479 -54.30  0.002489208    1.719    0.418
        82 -13.1819     61.9159    102.6491   6.3135195716e+01   4.8702270986e+01     0.764654    0.7142885 -54.89  0.003214045    1.065    0.061
        83 -12.7475    131.1912     99.7661   4.1078149274e+01   3.6733068634e+01    0.7238943    0.5861302 -18.99  0.003520251    1.466    0.318
        84 -13.9295    109.6646     91.5386   4.4814537369e+01   4.2994057965e+01     1.533149     1.118606 -79.55  0.006815101    2.025    0.506
        85 -11.7194     91.6808     97.8795   5.2061647052e+01   4.5082726334e+01    0.6069515    0.3736286 -50.29   0.00274001    1.624    0.384
        86 -10.5568     21.7973     95.9721   7.5860201913e+01   5.4492468349e+01    0.3492966    0.2219799  84.83  0.001766319    2.150    0.535
        87 -12.5949     15.5489     85.3429   7.6130533019e+01   5.7354453948e+01    0.7668206    0.6106042  69.82  0.003338142    1.600    0.375
        88 -10.7177    222.9965    248.4846   5.1193714788e+01  -9.0343753971e+00    0.1878935    0.1442003 -18.47  0.001273712    1.238    0.192
        89 -12.2011    171.3441    247.4771   6.1104817935e+01  -1.5405877690e+00    0.5568722    0.3229775  26.43  0.002953083    1.590    0.371
        90 -10.0921      2.2361     84.2775   8.0916015483e+01   5.8359267905e+01     0.244081    0.1478381 -76.45  0.001351564    1.623    0.384
        91 -12.2525     90.2415     77.0189   4.6606782809e+01   4.9706431152e+01    0.8530093      0.56912  51.70  0.004076719    1.681    0.405
        92 -13.6062     52.4047     73.0371   5.8908507523e+01   5.6462631551e+01     1.718558     1.059173  45.52  0.008572907    1.995    0.499
        93 -11.5989     55.1081     58.7698   5.3504734282e+01   5.8901534110e+01    0.4471869    0.4154379  65.74  0.002828301    1.449    0.310
        94 -14.0785    129.0799     84.8968   3.7543119803e+01   4.0185487952e+01     1.678043     1.010231  73.38  0.006167124    2.855    0.650
        95 -12.1243    166.8645    240.5293   6.1004518186e+01   2.9594867974e-01    0.6454027    0.4246528 -35.65  0.003592502    1.728    0.421
        96 -12.4744    209.6247     52.9410   1.3814222668e+01   2.6781380202e+01    0.8936098    0.5281252  83.75   0.00438516    1.869    0.465
        97 -13.1208      9.5307     55.0142   7.1837086264e+01   6.4162218029e+01     0.903796    0.6421238  26.76  0.005130794    1.648    0.393
        98 -12.2496      5.1413     50.3875   7.2633434064e+01   6.5330138968e+01    0.4806942    0.3130747 -20.00  0.003088295    1.428    0.300
        99 -11.6959     29.0624     49.6241   6.1528605100e+01   6.3665719885e+01    0.5896769    0.2965846 -53.98  0.003023789    2.025    0.506
       100 -14.2917    117.5858    236.6436   7.0969571170e+01   8.7760063203e+00      1.99065     1.139969 -70.45   0.00968377    2.309    0.567
       101 -13.2642    103.4286    224.3278   7.2533606845e+01   1.3461306550e+01     1.388758    0.8912057 -28.32  0.006395374    2.607    0.616
       102 -10.9936     64.1208     32.0884   4.0440419562e+01   6.1909793810e+01    0.4106818    0.1768891  41.78  0.001895746    2.174    0.540
       103 -10.7055     80.9755     27.6385   3.2815588677e+01   5.9476579339e+01    0.3260878     0.214648  51.31  0.001800083    1.506    0.336
       104 -13.0785    150.6937    224.4805   6.2025210746e+01   5.7689563988e+00     1.125618    0.6399994  35.73  0.004864515    1.569    0.363
       105 -12.0508    155.1349    213.3188   5.9276076339e+01   7.1730073013e+00    0.5941778    0.3976321 -27.52  0.002914025    1.858    0.462
       106 -11.7237     87.7536    222.3039   7.5810082414e+01   1.6272340937e+01    0.6797539    0.3852372  85.44  0.003028493    2.495    0.599
       107 -12.3241     78.1019    211.4481   7.6736466732e+01   2.0059998980e+01    0.7148924    0.5605952  86.63  0.002702424    1.264    0.209
       108 -11.1647     84.9039    211.3100   7.5141195693e+01   1.9094852159e+01    0.4270018    0.3192681  72.14  0.002033697    1.347    0.257
       109 -11.7211    246.5167    212.5155   4.0940903204e+01  -6.9564154752e+00    0.2385415    0.2000174 -83.42  0.001414886    2.450    0.592
