#   1 NUMBER                 Running object number                                     
#   2 MAG_AUTO               Kron-like elliptical aperture magnitude                    [mag]
#   3 X_IMAGE                Object position along x                                    [pixel]
#   4 Y_IMAGE                Object position along y                                    [pixel]
#   5 X_WORLD                Barycenter position along world x axis                     [deg]
#   6 Y_WORLD                Barycenter position along world y axis                     [deg]
#   7 A_WORLD                Profile RMS along major axis (world units)                 [deg]
#   8 B_WORLD                Profile RMS along minor axis (world units)                 [deg]
#   9 THETA_WORLD            Position angle (CCW/world-x)                               [deg]
#  10 FWHM_WORLD             FWHM assuming a gaussian core                              [deg]
#  11 ELONGATION             A_IMAGE/B_IMAGE                                           
#  12 ELLIPTICITY            1 - B_IMAGE/A_IMAGE                                       
         1 -13.0266    195.8106     31.8386   6.5940995691e+01   3.2766344412e+01     1.022797    0.7826459  43.10  0.005807955    1.571    0.363
         2 -13.8604    209.7526     14.8212   6.0335202001e+01   3.1524190533e+01     1.339194    0.9352967  42.29  0.007638978    1.918    0.479
         3 -12.4592      2.6513      4.6415   1.0982436473e+02   7.1860793090e+01    0.9755921    0.2826771 -39.08  0.005093974    2.763    0.638
         4  -9.5175    189.5084     15.5078   6.2761765171e+01   3.6172416673e+01     0.130319    0.1089963  87.08 0.0001690165    1.017    0.016
         5  -9.7595    193.0950    249.8362   1.1461077259e+02  -6.1386465484e+00    0.1833901     0.154524  40.38 0.0003422554    1.183    0.155
         6 -10.1076    184.1877    250.3676   1.1640817294e+02  -4.7726823106e+00    0.2117887    0.1439558  29.13            0    1.330    0.248
         7 -10.6346    169.7087    248.5968   1.1895742781e+02  -2.0927511609e+00    0.3238882      0.22596   8.88 0.0008408317    1.920    0.479
         8 -11.2674    149.7789    248.3547   1.2283607512e+02   1.3004417622e+00     0.387602    0.2927098 -72.77  0.002284283    1.685    0.407
         9 -10.1787    143.4974    249.4820   1.2422462018e+02   2.1614610983e+00    0.2269605    0.1288224 -53.67 0.0009242253    2.067    0.516
        10 -11.5202    133.8058    248.6620   1.2601622928e+02   3.9267687238e+00    0.5749536    0.2924442  42.29  0.002650496    1.671    0.401
        11 -10.1382    121.4622    244.7189   1.2793686644e+02   6.6954599808e+00    0.2910949    0.1983083  66.85 0.0008655894    1.532    0.347
        12 -11.4448    125.3761    249.1016   1.2772103407e+02   5.2455317322e+00    0.6754905    0.2758635  40.71  0.003034621    2.121    0.529
        13 -12.4772    125.2599    240.8908   1.2669048430e+02   6.7792620928e+00    0.9071332     0.547474  31.70  0.004609312    1.829    0.453
        14 -10.8788    115.7351    250.3650   1.2974643674e+02   6.5902697581e+00    0.4399487    0.2337587  42.49  0.000990467    1.618    0.382
        15 -11.2517    109.6093    247.0551   1.3054024669e+02   8.1911064374e+00    0.5073404    0.3596272 -74.78  0.002194464    1.553    0.356
        16 -10.4606     84.3892    240.7322   1.3470958691e+02   1.3346081103e+01    0.4210599    0.2709705 -83.80  0.002408733    1.608    0.378
        17 -11.1923    104.8940    237.9293   1.3037813930e+02   1.0702995365e+01    0.5932796    0.3429946  20.33  0.002421404    3.539    0.717
        18 -10.1758     84.8097    229.6672   1.3341458892e+02   1.5525944662e+01    0.2181351    0.2127645 -75.23  0.001473173    1.349    0.259
        19 -10.6954     84.9422    234.5607   1.3393551801e+02   1.4501620010e+01    0.3885013     0.238931  62.93  0.001082284    1.505    0.335
        20 -11.4491     98.8258    232.6935   1.3095865113e+02   1.2720449681e+01    0.7257808    0.3248108 -73.27  0.003004839    3.013    0.668
        21 -11.5024     96.9242    239.7408   1.3216514342e+02   1.1614556383e+01    0.5310148    0.3977261 -31.75  0.002955495    2.202    0.546
        22 -10.8723     99.2135    223.3033   1.2971226226e+02   1.4593800361e+01     0.447783    0.2423685  48.75  0.001183602    1.653    0.395
        23 -10.9531    113.1058    230.3458   1.2776299146e+02   1.0863886380e+01    0.3412873    0.3361027 -60.28  0.001944485    1.260    0.206
        24 -11.6121    105.6710    228.6039   1.2906003246e+02   1.2445453398e+01    0.6636204    0.3957491  56.52   0.00340409    1.571    0.364
        25 -10.0398    102.9382    247.4751   1.3187784430e+02   9.1747731655e+00    0.2342874    0.1778864  65.29 0.0005564863    1.150    0.130
        26 -10.9325     98.7868    246.9237   1.3261396507e+02   9.9316916921e+00    0.5580311    0.3062068  72.03  0.002698055    2.274    0.560
        27 -10.5049     91.2174    241.6072   1.3348620679e+02   1.2134517750e+01    0.2603607    0.2148087  71.32  0.000818913    1.040    0.038
        28 -10.8947     89.8181    238.2243   1.3338508262e+02   1.3019407468e+01    0.2970147    0.2090857 -68.94  0.001123497    1.478    0.323
        29 -10.8716     87.3933    247.8462   1.3488120171e+02   1.1505497050e+01    0.3397919    0.2902934  24.85  0.001080675    1.619    0.382
        30 -11.1536     74.4669    242.3079   1.3676028170e+02   1.4497715036e+01    0.4651874    0.3698908 -21.18  0.002698979    2.423    0.587
        31 -11.5978     60.2047    245.7284   1.3971779059e+02   1.5824797642e+01    0.4460609    0.3633094  65.17  0.001806685    1.136    0.120
        32 -12.5835     15.9496    168.4947   1.4132470810e+02   3.7889577737e+01     1.658168    0.6869122  56.27  0.007676943    2.765    0.638
        33 -14.4107      8.3413    148.0525   1.4090770898e+02   4.3259940282e+01     3.076993    0.9402593 -71.75  0.003892762    2.571    0.611
        34 -14.4746     41.9538    218.6767   1.4073789306e+02   2.3778511883e+01     1.724125     1.522128  -2.75   0.01149287    1.904    0.475
        35 -12.2084    135.6944    241.0150   1.2461919120e+02   4.9942323187e+00    0.5664343    0.4355847  58.93  0.002482109    1.225    0.184
        36 -10.9492    135.1310    236.8748   1.2415966138e+02   5.8603399527e+00    0.4124943    0.2917573  -7.14  0.001768761    2.642    0.622
        37 -11.4854    134.0000    232.9302   1.2383396958e+02   6.8033561269e+00    0.5522264    0.2770976 -42.98  0.002474148    2.558    0.609
        38 -11.2190    176.1795    242.3829   1.1674154402e+02  -2.1610930109e+00    0.3685037    0.2340266  47.02  0.001364983    1.487    0.328
        39 -10.0298    157.9895    242.5878   1.2038362953e+02   9.0276787237e-01    0.2205524    0.1927215 -37.70  0.000649398    1.330    0.248
        40 -11.9015    245.1731    240.8968   1.0343597032e+02  -1.2776588512e+01    0.5751892     0.303299  -0.89  0.002600073    2.980    0.664
        41 -11.0298    165.3784    241.8199   1.1879707152e+02  -2.2883120821e-01    0.4376851    0.2073412  50.23  0.001957081    2.171    0.539
        42 -10.6366    116.6008    238.5046   1.2811340012e+02   8.6771377524e+00    0.3880607    0.2732972 -37.06  0.001869341    2.032    0.508
        43 -10.1867     66.9412    243.8427   1.3831282196e+02   1.5265789746e+01    0.2631556    0.1661516  31.58   0.00106829    2.037    0.509
        44  -9.6371    172.9766    235.9632   1.1637043366e+02  -5.3092927757e-01     0.190858    0.1726388  37.74  0.001202082    1.050    0.048
        45  -9.8728     55.1346    235.3654   1.3973469966e+02   1.8584841856e+01    0.3485635    0.1696208  72.94  0.001696818    2.260    0.558
        46  -9.7645    165.5607    234.4777   1.1762963150e+02   1.0154299636e+00    0.1325326    0.1176768  36.25 3.445004e-05    1.014    0.014
        47 -10.6720    156.8150    231.6855   1.1897333883e+02   3.0501975499e+00    0.2338761     0.225138 -57.57 0.0003412784    1.169    0.145
        48 -10.4910     62.9243    232.9707   1.3804140718e+02   1.8020415193e+01    0.1883259    0.1495273  65.26  0.000312587    1.085    0.078
        49  -9.6766     89.6243    250.7170   1.3475784892e+02   1.0621454439e+01    0.2749858    0.1628031  29.76 0.0009407654    2.242    0.554
        50 -10.6946    142.3426    229.7995   1.2166178149e+02   5.9493334154e+00     0.397478     0.268965 -32.95  0.002019118    2.000    0.500
        51  -9.9996    222.9874    244.5016   1.0809015769e+02  -1.0038599659e+01    0.1840903    0.1061595  34.06  0.001016164    1.541    0.351
        52  -8.9217    180.2478    229.2099   1.1380879082e+02  -6.2583542695e-01    0.2099697    0.1527973  72.33  0.001055816    2.079    0.519
        53  -9.9693    128.3129    229.1233   1.2446384995e+02   8.5249875668e+00    0.2046191    0.1707465 -32.30  0.001182653    1.547    0.354
        54 -10.8130     79.4733    225.7245   1.3403924135e+02   1.7154586879e+01    0.4757874    0.2860405 -72.00  0.001500682    1.652    0.395
        55  -9.6924     77.2753    220.9272   1.3394040637e+02   1.8502273102e+01    0.2107948     0.161889  60.31 0.0004356536    1.140    0.123
        56  -9.4577     45.6662    230.5841   1.4108038443e+02   2.0798847250e+01    0.3295656    0.1547887  86.22  0.001581635    2.374    0.579
        57 -10.3459     92.4551    225.9349   1.3143142189e+02   1.5119985709e+01    0.2844572    0.1641618  52.33 0.0008343687    1.548    0.354
        58  -9.7740    132.4705    224.5245   1.2293178183e+02   8.7122734821e+00    0.2293963    0.1897281  -5.82  0.001147336    1.698    0.411
        59 -10.1555    117.3227    224.2493   1.2606497044e+02   1.1389038817e+01    0.2420397    0.2093475  59.00 0.0002473791    1.023    0.023
        60  -9.9488     64.0044    223.3224   1.3686979719e+02   1.9894956493e+01    0.5198891    0.2635896  72.78   0.00242599    2.296    0.564
        61 -10.9836    141.9646    221.6641   1.2050140933e+02   7.5976287305e+00    0.3466742    0.2457297  32.94 0.0003536605    1.438    0.305
        62  -9.4860    110.7593    221.3696   1.2704373868e+02   1.3094795683e+01    0.3392468   0.09719632 -52.72  0.001180333    3.701    0.730
        63 -11.0079    245.9088    219.8564   9.9548904236e+01  -9.8927240581e+00    0.3516029    0.1457296 -29.47  0.001539903    2.580    0.612
        64 -10.8157     69.8056    217.3206   1.3505851000e+02   2.0370307384e+01     0.709164    0.3249635 -82.73  0.002961934    2.801    0.643
        65 -10.3621    160.6679    223.6149   1.1689557874e+02   3.8623060124e+00    0.2675223    0.2098579   3.87 0.0007344343    1.629    0.386
        66  -9.4656    104.8609    218.6856   1.2792165047e+02   1.4644444786e+01    0.2044917    0.1758252 -63.36 0.0002630324    1.265    0.209
        67  -9.0749     99.3193    218.0026   1.2900070445e+02   1.5700029881e+01     0.182662    0.1637344  87.42 0.0004940875    1.095    0.087
        68  -9.0158     94.0069    218.1591   1.3013937692e+02   1.6522221686e+01    0.1895717     0.138198 -50.41   0.00103897    1.623    0.384
        69 -10.7317    137.3472    214.4220   1.2034556739e+02   9.8879134785e+00    0.2796667    0.2316136 -70.94  0.001192758    1.307    0.235
        70  -9.0583    159.9928    213.7377   1.1538884582e+02   5.8810711797e+00    0.1901848    0.1714739  41.45 0.0003527157    1.025    0.025
        71 -12.9262    129.0756    234.8106   1.2510289054e+02   7.2885352346e+00      1.71045    0.6139725  53.96  0.005908416    3.575    0.720
        72  -9.3857    101.6584    211.8098   1.2766240047e+02   1.6654639583e+01     0.338515    0.1274811  56.53  0.001118469    3.651    0.726
        73  -8.8441    106.6586    210.1545   1.2634570302e+02   1.6180884151e+01    0.1890273    0.1202374 -50.25 0.0005207078    1.754    0.430
        74 -10.3458     73.3853    209.6053   1.3342228419e+02   2.1552466743e+01    0.3903453    0.2559097  19.63  0.001895891    2.492    0.599
        75  -9.7180    112.6049    208.4894   1.2480431979e+02   1.5529954464e+01    0.2587916    0.2295161  76.22 0.0008036574    1.039    0.037
        76  -9.7349     88.3155    213.1861   1.3070302872e+02   1.8501076537e+01    0.3515854    0.2065355 -83.15  0.001483919    1.953    0.488
        77  -9.8466     96.4807    206.7538   1.2808252099e+02   1.8619267346e+01    0.3411907    0.2053727 -89.75  0.001544052    2.117    0.528
        78 -10.4752     91.4926    204.9298   1.2892124158e+02   1.9831987883e+01    0.5007918    0.4199852  48.38  0.001413457    1.208    0.172
        79 -10.9941    247.0824    206.0207   9.6747126606e+01  -7.9538554934e+00    0.3480602    0.2394789  -8.69  0.001952177    1.513    0.339
        80 -10.2130    249.9870    201.0106   9.5273352876e+01  -7.6125830915e+00    0.3380103    0.1559988 -26.46  0.001467345    2.435    0.589
        81  -9.3002     32.8429    206.9246   1.4146073417e+02   2.7420461733e+01    0.1712689    0.1364429 -72.39 0.0003363022    1.281    0.219
        82  -8.6419    125.6663    205.7153   1.2150191729e+02   1.3831152657e+01    0.1351165    0.1139793   0.28 0.0003625318    1.620    0.383
        83  -8.6175    149.5398    203.9843   1.1595742656e+02   9.7983681937e+00      0.19428    0.1228739 -26.27 0.0006934802    2.426    0.588
        84  -9.5386     74.8428    203.6241   1.3237592316e+02   2.2683635729e+01    0.2870772    0.2230872   2.86 0.0008360057    2.204    0.546
        85  -8.6847    133.0000    202.9322   1.1942365794e+02   1.3098850400e+01    0.2218939   0.08173262 -53.55 0.0004458372    2.854    0.650
        86  -9.7977    102.9632    202.7565   1.2607980450e+02   1.8440351813e+01    0.3909269    0.2135819  52.77  0.001163919    1.794    0.443
        87 -10.8168     84.2253    201.5293   1.3005440657e+02   2.1743658007e+01    0.3420579    0.2273474 -44.93 -0.0001541599    1.897    0.473
        88  -9.1632     86.1650    195.6220   1.2880572471e+02   2.2796707669e+01    0.1881899    0.1714937  65.17 0.0004563819    1.122    0.109
        89  -9.2204     64.0935    201.8067   1.3447007076e+02   2.4632506782e+01    0.1832398    0.1538235   3.00   0.00091974    1.874    0.466
        90  -9.3095     32.7549    201.5027   1.4098037272e+02   2.8635591466e+01    0.2043526    0.1379252 -79.46  0.000570814    1.234    0.190
        91  -8.5149    183.0242    200.2630   1.0808436929e+02   4.2016123475e+00    0.1764544    0.1187848  39.49  0.000251239    1.423    0.297
        92  -9.1416    127.9384    199.6696   1.2000838941e+02   1.4736235453e+01    0.1951454    0.1718916  55.78  0.000409941    1.063    0.059
        93  -8.7917    115.1731    200.2690   1.2297109897e+02   1.6895789762e+01    0.1918492    0.1512315  77.49 0.0003162426    1.312    0.238
        94  -9.1262    119.9995    199.4948   1.2176265388e+02   1.6211289089e+01    0.1967422    0.1108418  62.44 0.0003405453    2.195    0.545
        95  -9.7424     57.5412    198.5536   1.3549561056e+02   2.6264547976e+01    0.2579118    0.1684369  64.46 0.0005576628    1.455    0.313
        96 -11.7871     61.2258    194.5067   1.3421294566e+02   2.6702584472e+01    0.7904239    0.4681844  25.20  0.001918087    2.393    0.582
        97 -10.8068    122.6096    233.2000   1.2620073957e+02   8.7004561675e+00    0.3774294    0.3545956  58.95  0.001547149    1.124    0.110
        98  -9.7736     97.7373    196.5733   1.2633206728e+02   2.0713632049e+01    0.4716074    0.2267555  53.08  0.001405824    2.156    0.536
        99  -9.2987    102.5806    195.9245   1.2513621093e+02   2.0052282443e+01    0.2016194    0.1938231 -46.60 0.0007011559    1.244    0.196
       100 -13.7879     28.4955    247.0008   1.4537617192e+02   1.9586908907e+01     1.550979    0.8393539  49.66  0.009814727    1.581    0.367
       101  -9.1807     38.7470    195.7795   1.3918594610e+02   2.9241487109e+01     0.228267    0.1253799  75.03  0.001156174    1.883    0.469
       102  -9.7064     38.6267    192.2221   1.3884288215e+02   3.0069106362e+01    0.2676221    0.1609604 -61.04  0.001057215    1.591    0.372
       103 -10.0543     41.8800    189.6087   1.3786478498e+02   3.0291442874e+01    0.4185161    0.2197152  87.92  0.001831762    2.041    0.510
       104 -10.5667    249.3800    194.0924   9.4035509868e+01  -6.4063693582e+00    0.3384854    0.2439878   6.92  0.001911606    1.498    0.332
       105  -9.9234    113.1175    193.2122   1.2230139414e+02   1.8849993249e+01    0.4768544     0.236349 -60.39  0.001329024    2.093    0.522
       106  -9.2828     32.2085    195.4664   1.4051698096e+02   3.0056117765e+01    0.2681805   0.07844962  44.16  0.001124798    3.084    0.676
       107  -8.6011    159.5790    194.4715   1.1203281110e+02   9.8691587975e+00    0.1435615    0.1389438  48.93 6.161133e-05    1.011    0.011
       108  -8.9559    119.4393    194.2157   1.2102128849e+02   1.7494026343e+01    0.3134969   0.08338558  49.07 0.0006432136    4.431    0.774
       109  -9.6193     20.4740    191.8272   1.4258994294e+02   3.2119081077e+01    0.3463515    0.1689943  88.76  0.001755793    1.964    0.491
       110  -9.5877     72.6326    192.9421   1.3148013343e+02   2.5463574243e+01    0.1947925    0.1814989  53.13 0.0002412629    1.239    0.193
       111  -9.3976     25.6447    192.3391   1.4157532976e+02   3.1472834882e+01    0.2419319    0.1534186  70.51  0.000912412    1.442    0.306
       112  -9.7788    191.4839    191.4766   1.0461570021e+02   4.2988969798e+00    0.2440998    0.2336184  -3.55 0.0006076529    1.022    0.022
       113  -8.6922     84.6771    192.2738   1.2866507976e+02   2.3806005865e+01    0.1433392   0.09615807  70.68 0.0002446831    1.577    0.366
       114  -9.9084     32.1418    189.8954   1.3997947881e+02   3.1333268294e+01    0.3311936     0.227436  40.64  0.002017356    1.612    0.380
       115  -8.7552    135.0696    190.0633   1.1672684874e+02   1.5534482432e+01     0.170636    0.1633653  85.62 0.0003648628    1.034    0.033
       116 -10.6011     51.1661    189.5113   1.3582601432e+02   2.9180650600e+01     0.237234    0.2137887  71.16 0.0001650049    1.178    0.151
       117 -13.5765     40.8819    243.4466   1.4298717942e+02   1.8791507434e+01     1.142038    0.7699756  63.22  0.006412176    1.177    0.151
       118 -10.9390    249.7551    187.7334   9.2716338535e+01  -5.4221818002e+00      0.37973    0.2444352 -22.12  0.002005656    1.552    0.356
       119 -10.0553     76.6146    188.8139   1.3001370936e+02   2.5844074346e+01    0.2828293    0.2375039  19.49 0.0007654043    1.594    0.372
       120 -11.6510     67.8110    187.2902   1.3181457979e+02   2.7478867246e+01    0.3127842    0.2321954 -52.38 0.0005501573    1.480    0.324
       121  -8.6163    111.2737    187.6582   1.2180684809e+02   2.0452023102e+01    0.1495309    0.1074354  81.11 0.0006997095    1.615    0.381
       122  -8.4524     83.2837    186.6783   1.2817012747e+02   2.5334716467e+01    0.1445609   0.09855746  77.36 0.0006999281    1.593    0.372
       123  -9.7029     29.9427    183.8469   1.3983173813e+02   3.2962802218e+01    0.2559903    0.2246391 -31.99   0.00161645    1.624    0.384
       124 -10.2664     24.1916    184.1802   1.4109809340e+02   3.3482946632e+01    0.2871881    0.1559303  39.78 0.0008992434    1.969    0.492
       125  -9.1369     37.0249    184.0309   1.3831046683e+02   3.2145672351e+01    0.2224695    0.1560017  53.93 0.0008207931    1.419    0.295
       126  -9.4031    140.1094    183.1458   1.1429134834e+02   1.6115350568e+01    0.2092981    0.2002874  -5.50 0.0003365875    1.178    0.151
       127 -12.2000    248.8027    171.4750   8.9601750320e+01  -2.5058908141e+00    0.6239681    0.5035524 -15.24  0.003659667    1.200    0.167
       128 -13.6921    245.2050    158.3078   8.7483175384e+01   4.4506267986e-01      2.82703    0.8658144 -48.04  0.008963654    3.874    0.742
       129 -12.4460    248.5801    133.8315   8.1726600245e+01   4.2359730003e+00     1.134532    0.6493652 -40.49  0.005465238    1.530    0.346
       130  -8.5470    127.2173    181.9803   1.1707617323e+02   1.8848589254e+01    0.1865984    0.1198882 -55.81 0.0002064193    1.572    0.364
       131  -8.8244     65.7221    182.0195   1.3157918109e+02   2.9019169336e+01     0.186072    0.1541026 -80.18  0.000177731    1.064    0.060
       132 -13.0818    248.2926    114.2691   7.7553531938e+01   7.8042102901e+00     1.360153    0.8530329 -28.03  0.006531603    1.807    0.447
       133 -10.4173     19.8114    179.1033   1.4153807223e+02   3.5081822660e+01    0.1987005     0.176371  66.47  0.001405946    1.257    0.205
       134  -9.3945    115.7784    178.0068   1.1906131788e+02   2.1894569123e+01    0.2615562    0.2001654 -42.54  0.001066284    1.457    0.314
       135  -8.9469     47.7388    179.6861   1.3541041473e+02   3.1912767521e+01    0.1664623    0.1098801  48.02   0.00068662    1.546    0.353
       136  -9.1008     92.6876    178.1070   1.2461544163e+02   2.5874324829e+01    0.1931726    0.1660783 -68.86 0.0001886462    1.113    0.102
       137 -11.2472     77.5601    175.0692   1.2776708608e+02   2.8976864065e+01    0.3079021    0.2404061 -54.34 0.0004142205    1.316    0.240
       138  -9.1171     68.6797    175.5687   1.2996955042e+02   3.0148466060e+01    0.2817514    0.1283095 -65.25 0.0007084619    2.026    0.506
       139 -11.7572     64.4122    173.3242   1.3066229309e+02   3.1281776523e+01    0.4179449    0.2467942 -50.17 0.0007217198    1.789    0.441
       140 -10.3602     68.5267    166.6216   1.2865693193e+02   3.2333260952e+01    0.2729701    0.2316608 -51.65  0.001572798    1.266    0.210
       141 -11.9100    107.8655    172.8861   1.2004343818e+02   2.4531379079e+01    0.2722115    0.2534837  79.06 0.0002892522    1.027    0.026
       142 -10.0051     45.9750    172.3307   1.3489376530e+02   3.3872063054e+01    0.2299835    0.1634379 -80.77 0.0003102521    1.219    0.180
       143 -10.9223     43.8389    168.9716   1.3496392336e+02   3.4924291161e+01    0.3511947    0.2721377 -57.35  0.001014439    1.304    0.233
       144  -9.9896     45.1331    164.8438   1.3411053195e+02   3.5763485028e+01    0.2164273     0.152592 -81.41 0.0003527153    1.256    0.204
       145  -8.4012     95.2876    172.6502   1.2306959045e+02   2.6753673253e+01    0.1523097    0.1069152  81.10 0.0007023519    1.662    0.398
       146 -10.3138     28.8963    170.8333   1.3865814986e+02   3.6106116563e+01    0.3477784    0.2691597 -69.65  0.001374203    1.158    0.136
       147  -8.8697     52.5482    171.0279   1.3317115507e+02   3.3385177067e+01    0.1907984    0.1149131 -67.24 0.0001164391    1.443    0.307
       148 -11.9803     85.2595    166.5798   1.2450202797e+02   2.9849162731e+01    0.5817504    0.5339992  43.25  0.002701336    1.210    0.173
       149  -8.4901    126.6851    168.2979   1.1459570372e+02   2.2131697974e+01    0.1555543    0.1166007  78.86 0.0007015442    1.607    0.378
       150  -8.2043     58.3142    167.3249   1.3126439731e+02   3.3543582898e+01    0.1343022   0.09884743 -40.54 0.0004841815    1.664    0.399
       151 -11.7988    247.7838    142.4774   8.3702577481e+01   2.8244868509e+00    0.6824167    0.6300207  88.84  0.004001739    1.273    0.215
       152  -8.7665    118.5461    162.5800   1.1545602197e+02   2.5037019630e+01    0.1500758    0.1433446 -89.47 7.243668e-05    1.017    0.017
       153 -10.1136     89.7676    160.0925   1.2222459882e+02   3.0707383633e+01    0.2346267    0.2076021  48.88 0.0003829997    1.188    0.158
       154  -8.5757     73.5055    159.5211   1.2626132993e+02   3.3352147228e+01    0.2450455    0.1523505  75.43  0.001080498    2.093    0.522
       155  -9.3378     71.6911    156.5660   1.2622461477e+02   3.4336351646e+01    0.3069302    0.2152212   6.00  0.001435828    2.293    0.564
       156  -8.6412     52.4601    158.4516   1.3140499312e+02   3.6432501394e+01     0.135712    0.1159855 -74.07 0.0003371356    1.038    0.036
       157 -13.4799      4.0074    189.2675   1.4568318314e+02   3.4232004754e+01     2.496325    0.5295771 -71.49   0.00987142    3.373    0.704
       158 -11.2339     31.9752    155.7563   1.3610464856e+02   3.9366229098e+01     0.406216    0.2250777 -53.31  0.001189244    1.707    0.414
       159 -12.3758     23.8004    154.3835   1.3792137117e+02   4.0480600308e+01    0.5617908    0.3919385  54.84  0.003411644    1.544    0.352
       160 -10.3904     84.3754    155.3436   1.2274045960e+02   3.2729334246e+01    0.3628208    0.2317896  22.00 0.0008666714    2.155    0.536
       161 -10.3572     97.8726    151.2793   1.1845853537e+02   3.1500244914e+01    0.3680286    0.2769503 -60.96  0.001302598    1.258    0.205
       162  -9.8907    114.0769    150.4900   1.1410439663e+02   2.8774336548e+01    0.3144929    0.2113745 -58.97 0.0003250943    1.468    0.319
       163  -9.4426     86.2752    149.9455   1.2123423273e+02   3.3748185059e+01     0.212199     0.168308 -61.38 0.0003767422    1.165    0.141
       164  -9.3158     55.4542    150.4845   1.2940785052e+02   3.7997879256e+01    0.2082776    0.1512702  81.56  0.000613256    1.483    0.326
       165  -9.6769     57.7139    148.3356   1.2846674606e+02   3.8236462901e+01    0.4927503    0.2532796  79.57  0.001688156    3.927    0.745
       166  -9.8018     30.8490    150.4077   1.3567673091e+02   4.0753427139e+01    0.2180006    0.1684399  -5.49  0.001290402    1.884    0.469
       167 -12.3549     68.3474    144.4205   1.2496410842e+02   3.7777191476e+01    0.6829634    0.4943926  83.63  0.002448268    1.596    0.373
       168  -9.3843    101.3385    146.5088   1.1658116414e+02   3.2055565006e+01     0.326447    0.2001901 -29.49  0.001283514    2.451    0.592
       169  -9.1435    228.2181    155.4277   8.9848754656e+01   4.1396860922e+00    0.2308808    0.1549575 -44.63 0.0005389892    1.405    0.288
       170  -9.6417     39.7867    147.3716   1.3297954363e+02   4.0564832579e+01    0.1597407    0.1297075   9.03 0.0006977079    1.656    0.396
       171 -10.1858    236.2249    145.9401   8.6377800767e+01   4.3732836956e+00    0.2588071    0.2081428  32.60 0.0007431943    1.401    0.286
       172  -8.8794     52.9742    146.4650   1.2940353008e+02   3.9279927914e+01    0.1819062     0.135402  36.21 0.0003826874    1.529    0.346
       173  -9.6026     32.5976    146.1704   1.3465156774e+02   4.1592257695e+01    0.1975329   0.09439291 -58.06 0.0009532216    1.735    0.424
       174 -10.2928    133.3309    141.6901   1.0726256512e+02   2.7066330629e+01    0.6538454    0.2616721 -51.51  0.002214931    2.514    0.602
       175 -10.8621     32.7271    140.6598   1.3382382572e+02   4.2894687236e+01    0.2820967    0.1855151  84.60  0.001355299    1.666    0.400
       176 -10.0125     37.0284    140.2739   1.3263267479e+02   4.2556664263e+01    0.1787553    0.1571538 -76.29 0.0006978199    1.065    0.061
       177 -11.1771     60.4335    136.7238   1.2570319462e+02   4.0709763040e+01    0.3714033    0.2527448 -76.82  0.001887886    1.510    0.338
       178  -9.7027     56.0191    138.7940   1.2728491385e+02   4.0767051860e+01    0.2204955    0.1733446 -64.07 0.0003240259    1.104    0.094
       179 -10.3071     46.1196    138.3470   1.2989364606e+02   4.2044226690e+01    0.2493559    0.1574197 -57.12  0.001008103    1.360    0.265
       180 -13.4663      3.8495    245.2648   1.4931536364e+02   2.2615665115e+01     1.091443    0.5241032  88.81  0.005139113    1.674    0.403
       181 -10.0240    109.9700    136.1873   1.1205341731e+02   3.2970524910e+01    0.3721073    0.2841492 -14.16  0.001318666    1.816    0.449
       182 -11.9827     67.7417    129.1870   1.2220317497e+02   4.1552600459e+01    0.5439338    0.3816096 -87.05  0.002037417    1.750    0.429
       183 -11.1349     33.1083    131.0122   1.3223967650e+02   4.5151714985e+01    0.5092621    0.1455285 -62.82  0.001944456    2.725    0.633
       184 -11.0357     30.1835    126.6032   1.3233790704e+02   4.6467057028e+01    0.2967015    0.2096468 -26.23  0.001305496    1.773    0.436
       185 -14.1770     10.5434    209.1268   1.4591739304e+02   2.9297789883e+01     2.329083     1.168984 -71.54   0.01369394    1.662    0.398
       186 -11.4535     44.9973    131.2555   1.2899482000e+02   4.3870477468e+01    0.3990239    0.3260895 -81.66  0.002394342    1.186    0.157
       187  -9.0202    106.0000    128.4394   1.1133931521e+02   3.5545632861e+01    0.3511609   0.08333145 -51.22 0.0009443975    4.013    0.751
       188  -8.7484     80.4305    129.5297   1.1868850650e+02   3.9619212187e+01    0.1453487    0.1317164 -64.38 0.0001671514    1.025    0.025
       189 -10.5146     59.7031    127.7885   1.2420816249e+02   4.2955084299e+01    0.4013431    0.1549107 -42.80  0.001448766    3.013    0.668
       190 -11.1432     24.1428    127.2045   1.3410468771e+02   4.6860618963e+01    0.3156598    0.1691098 -48.71  0.001025112    1.706    0.414
       191 -10.4641    209.8529    125.8591   8.6575284543e+01   1.3659975537e+01    0.3273061    0.2476907 -42.70 0.0005287696    1.244    0.196
       192  -8.6202     87.9712    125.0036   1.1555906032e+02   3.9501383670e+01    0.1674501    0.1628003 -64.33            0    1.051    0.048
       193 -11.5871     22.8458    120.7524   1.3345399066e+02   4.8472140513e+01    0.3422904    0.2373524  11.73  0.002039786    1.892    0.472
       194 -11.3544     29.5695    119.1050   1.3125966885e+02   4.8276487300e+01     0.359647    0.2532713  25.31  0.002139316    1.726    0.421
       195 -10.1258     54.7053    120.7861   1.2425827127e+02   4.5240916187e+01    0.2637298    0.1984666  -0.51  0.001421778    1.749    0.428
       196 -10.9060    249.6461    150.8666   8.5176802966e+01   9.7822358541e-01    0.5196937    0.3073083 -45.15  0.002554242    1.552    0.356
       197 -13.0108     14.1746    238.8447   1.4725954361e+02   2.2790492811e+01    0.7008212    0.4676666  69.25   0.00105051    1.135    0.119
       198 -10.5920    168.0169    113.2173   9.1978508047e+01   2.5740754472e+01    0.3591839    0.2983515 -85.95  0.000802846    1.382    0.276
       199 -10.6104     67.1088    115.1715   1.1939955235e+02   4.4958160943e+01    0.4057472    0.1999044  24.99  0.001081747    2.629    0.620
       200  -9.1449    203.4865    111.5180   8.4352571844e+01   1.7887575247e+01    0.1508602    0.1427033 -57.73 3.062727e-05    1.020    0.020
       201 -12.6141    247.9475    100.4492   7.4610881656e+01   1.0307867379e+01    0.7194968    0.5858998 -39.35  0.004156823    1.184    0.156
       202 -10.6107     17.0157     99.0257   1.3143956689e+02   5.3848141797e+01    0.1872679    0.1497957 -56.11  0.001250435    1.012    0.012
       203  -9.6142     44.7104    105.2047   1.2402993870e+02   4.9990321296e+01    0.1922609    0.1765878  47.03 0.0004128706    1.282    0.220
       204 -13.0190     35.0136    227.7669   1.4281771278e+02   2.2691823234e+01     0.496731    0.4038104 -77.60 0.0008477245    1.309    0.236
       205 -10.4760    250.1165     86.8764   7.1396336656e+01   1.2184634381e+01    0.2159411    0.1631944 -63.40  0.000594083    1.221    0.181
       206  -8.5761    184.6896     77.6396   7.9331076704e+01   2.8593824503e+01    0.1491596    0.1187131  15.91 0.0007041494    1.743    0.426
       207 -10.1229     81.3647    246.3676   1.3586559940e+02   1.2691696494e+01    0.4133373    0.2255528 -89.07  0.002102098    2.195    0.544
       208 -11.6894    199.4714    246.4027   1.1284330127e+02  -6.6455956067e+00    0.5306635    0.2326936  42.56  0.002485994    2.087    0.521
       209  -9.9186    193.8551    245.1488   1.1372318379e+02  -5.5443955227e+00    0.1798572    0.1562259  38.83 0.0003012735    1.166    0.142
