#   1 NUMBER                 Running object number                                     
#   2 MAG_AUTO               Kron-like elliptical aperture magnitude                    [mag]
#   3 X_IMAGE                Object position along x                                    [pixel]
#   4 Y_IMAGE                Object position along y                                    [pixel]
#   5 X_WORLD                Barycenter position along world x axis                     [deg]
#   6 Y_WORLD                Barycenter position along world y axis                     [deg]
#   7 A_WORLD                Profile RMS along major axis (world units)                 [deg]
#   8 B_WORLD                Profile RMS along minor axis (world units)                 [deg]
#   9 THETA_WORLD            Position angle (CCW/world-x)                               [deg]
#  10 FWHM_WORLD             FWHM assuming a gaussian core                              [deg]
#  11 ELONGATION             A_IMAGE/B_IMAGE                                           
#  12 ELLIPTICITY            1 - B_IMAGE/A_IMAGE                                       
         1 -11.1800    169.3877     22.0413   3.5837835284e+02   3.9085535589e+01    0.9170086    0.4946316 -38.52   0.00452548    1.698    0.411
         2  -8.2777    218.1753     10.4661   3.5171786245e+02   2.9338191775e+01    0.1780517    0.1459238 -32.51 0.0004283696    1.318    0.241
         3  -8.3463    100.9811      7.9858   2.8517683283e+00   5.8140407471e+01    0.2023737    0.1817771  88.29  0.001199255    1.067    0.063
         4  -9.9378    133.7386    196.4350   4.7828368085e+01   1.5484758879e+01    0.3647552    0.2802141 -51.81  0.001211025    1.511    0.338
         5  -8.1043    134.9407    249.8480   5.4648615537e+01   6.4174823096e+00    0.1934836    0.1323702 -20.03  0.001230275    1.725    0.420
         6 -18.2326     74.4901    222.1626   6.5102647109e+01   1.8765096327e+01     4.576883      3.80688  46.71   0.01363327    1.082    0.075
         7  -9.6936    157.1798    230.7042   4.7748011936e+01   6.4690514712e+00    0.5808147    0.3778867 -63.61  0.003179239    2.797    0.642
         8  -9.1659     23.0611    191.9036   7.5694084571e+01   3.1038516637e+01    0.2628135    0.1807146 -64.61 0.0004455605    1.613    0.380
         9 -10.2867    160.3181    222.0608   4.5908443394e+01   7.3680633430e+00    0.3916915    0.2991686  19.50  0.001032364    1.076    0.071
        10  -9.2357     17.4960    188.0379   7.6951052403e+01   3.2448450213e+01    0.3147649    0.2275057 -78.07 0.0009577856    1.422    0.297
        11  -9.4347    202.8065    188.3734   3.2383795221e+01   6.7138330975e+00    0.2355448    0.1559326 -24.59 0.0008763124    1.370    0.270
        12  -9.4547    150.6322    188.3444   4.2716164487e+01   1.4386943915e+01     0.236453    0.1577321 -40.49 0.0006773901    1.578    0.366
        13  -8.0314    161.3416    236.8599   4.7745250117e+01   5.0442903264e+00    0.1553313    0.1449299  36.80 0.0007508347    1.467    0.318
        14  -8.3485    185.7525    183.7456   3.4699265741e+01   9.8426902588e+00    0.2306129    0.1613895 -43.59 0.0007985721    1.583    0.368
        15  -9.0181    165.4523    224.8114   4.5271715099e+01   6.2809697130e+00    0.1924041     0.117787 -46.26 0.0009012187    1.986    0.496
        16  -9.5980    144.5944    176.9957   4.2105191198e+01   1.7457728435e+01    0.5895936    0.1956598 -40.09  0.002044829    3.493    0.714
        17 -10.3427    127.8579    177.1461   4.6081564545e+01   2.0166471856e+01    0.3717608    0.2618167  -6.15  0.001796145    1.848    0.459
        18 -10.5340    186.9218    174.7610   3.2848371446e+01   1.1117140191e+01     0.528953    0.3309161 -44.59  0.001309082    1.724    0.420
        19  -9.3381    141.6209    169.8275   4.1493940935e+01   1.9343335615e+01    0.2753365    0.2301608 -68.96 0.0009675614    1.526    0.345
        20  -9.6899    139.6319    166.0080   4.1250128661e+01   2.0440768555e+01    0.3687861    0.2954522  61.57 0.0009996042    1.552    0.356
        21  -9.9425    125.5347    172.3158   4.5814549537e+01   2.1540186476e+01    0.3033375    0.2770112  30.13 0.0006852578    1.035    0.034
        22 -10.1844    138.4668    172.5270   4.2726342454e+01   1.9339631644e+01    0.4501111    0.3400301  74.58  0.001872593    2.034    0.508
        23 -10.3919      6.0376    222.3600   8.1224463557e+01   2.5995396536e+01    0.3605535    0.2376511 -86.20  0.001921568    1.583    0.368
        24  -8.8779    121.0703    157.3776   4.4208594540e+01   2.5482244695e+01    0.2152805    0.1796894  32.98 0.0005732672    1.136    0.120
        25  -8.9703     18.4855    152.8691   7.4348864917e+01   4.0982592300e+01    0.4873548    0.2339002 -75.30  0.002188434    1.971    0.493
        26  -7.9595    192.1972    151.9916   2.7463585768e+01   1.4035359508e+01    0.2048125    0.1459049 -59.14  0.001021604    1.975    0.494
        27  -9.2844      9.8072    212.6739   8.0015979941e+01   2.7671272585e+01    0.2409904    0.1908606  28.58 0.0005001114    1.281    0.219
        28 -11.3385     12.6943    206.8449   7.9088064523e+01   2.8662040382e+01     1.031812    0.5844338  44.88  0.005913524    1.388    0.279
        29 -10.1041    134.1928    146.5413   3.8703239903e+01   2.5426729159e+01    0.9329448    0.3082425 -55.48  0.002638463    4.575    0.781
        30  -9.3638    128.4069    143.9450   3.9612285284e+01   2.7065128913e+01     0.561787    0.2636907  51.72  0.002035413    2.627    0.619
        31  -8.6935     17.5949    198.5285   7.7479008576e+01   3.0048908089e+01    0.1920425    0.1641981  80.84 0.0001247801    1.171    0.146
        32  -8.9161     27.6486    145.7291   7.0739186388e+01   4.1993625928e+01    0.3545547    0.2052969 -74.23  0.001674731    1.658    0.397
        33  -8.2085      9.6673    144.7341   7.6588228890e+01   4.3790997312e+01    0.2507492    0.1763524 -50.59  0.000531297    1.573    0.364
        34  -8.4222     12.9020    142.9904   7.5394255172e+01   4.3998588454e+01    0.1988614     0.179911  81.00 0.0003656305    1.041    0.039
        35  -9.9600     15.6093    195.2364   7.7823525185e+01   3.0968983427e+01    0.2613052    0.2402499  77.65 0.0004387176    1.175    0.149
        36 -10.3479      6.7680    136.5474   7.6985268016e+01   4.6130260674e+01    0.2362118    0.2151526 -77.67  0.000315711    1.115    0.103
        37  -8.1965    155.9802    136.1000   3.1333077451e+01   2.3409857332e+01    0.2025346    0.1963815  -1.92 0.0002789618    1.030    0.029
        38 -10.1176    118.8482    133.4979   3.9859874172e+01   3.1196835252e+01     0.361778    0.3307093  89.59  0.001480995    1.212    0.175
        39  -7.5309    169.3909    135.4399   2.8348319079e+01   2.0979491361e+01    0.1395777    0.1279488 -17.49 0.0001388009    1.031    0.030
        40  -9.6938    165.6565    213.8471   4.3620726682e+01   7.9222102650e+00    0.3213801    0.2039094 -43.61  0.001163298    1.792    0.442
        41  -8.0898     90.0048    123.7612   4.6172686356e+01   3.8955937436e+01    0.2140732    0.1969775  37.40 0.0001981251    1.076    0.071
        42  -8.8998    135.3070    121.5413   3.2782752390e+01   3.0506746182e+01    0.4355014    0.1723485 -53.59  0.001399089    3.167    0.684
        43  -8.7131    111.0582    121.3055   3.9213145853e+01   3.5507764474e+01    0.2784195    0.2287382 -57.68 0.0005700615    1.264    0.209
        44  -8.6053     84.3584    119.2147   4.6981156128e+01   4.1101449281e+01    0.2416111    0.2278398  -7.43  0.000532318    1.161    0.139
        45  -9.7342    188.4457    210.7441   3.8715235539e+01   5.3582963385e+00    0.2784504    0.2065874 -40.46  0.001044968    1.590    0.371
        46 -10.1787     72.4405    115.6283   5.0250021695e+01   4.4071728609e+01       0.3591    0.2759593 -76.16 0.0008478728    1.419    0.295
        47  -7.9267    115.4779    116.4670   3.6773634687e+01   3.5714656982e+01      0.15392    0.1503044  65.82 -1.45228e-05    1.022    0.021
        48 -13.3031     49.8267    241.1116   7.2239014108e+01   1.8042350618e+01    0.3421293    0.2790447 -52.24 0.0009805443    1.608    0.378
        49  -9.9938    151.4391    229.0842   4.8696018451e+01   7.4558379072e+00    0.3089591     0.225159  18.83  0.001746126    1.121    0.108
        50  -9.1551     59.9972     99.4987   5.1146107970e+01   5.0229077390e+01    0.3107139    0.2194669 -53.13 -0.0004544024    1.397    0.284
        51 -10.8832     60.2610    108.8069   5.3198903303e+01   4.7780716416e+01    0.9132263    0.4439546  29.40  0.003520399    2.136    0.532
        52 -11.1843     65.9495    102.5771   4.9588166318e+01   4.8483724013e+01    0.8414212    0.6540546 -55.04  0.002831768    1.279    0.218
        53  -8.1200     32.1129    104.1246   6.3548551616e+01   5.2667935361e+01    0.4402097    0.1992767   4.97  0.001467347    3.613    0.723
        54  -8.4847    112.3889     89.2027   3.0220635490e+01   4.2381738428e+01    0.2465812    0.2067032  37.71 0.0004040584    1.236    0.191
        55  -8.5068    234.0297     82.4762   6.5201980507e+00   1.7497428450e+01    0.2121807    0.1513193 -23.88 0.0003751759    1.399    0.285
        56  -7.6391     62.0282     82.9913   4.5903745977e+01   5.4035661185e+01    0.1816132    0.1705693  35.67 0.0009656126    1.067    0.063
        57  -8.5249    153.0265     77.2689   1.6974310476e+01   3.5174630293e+01     0.237211    0.1989972 -44.13 0.0003908851    1.155    0.134
        58 -10.6907    148.3409     65.4465   1.4419117529e+01   3.8301603445e+01    0.4565994    0.3996805 -89.88  0.001058868    1.142    0.125
        59 -11.6994    159.2593     52.0342   8.5043506505e+00   3.7715238558e+01    0.9857362    0.8474926 -24.09  0.003926312    1.303    0.232
        60  -7.1999     62.7350     58.3029   3.7284436918e+01   5.9562137460e+01    0.1414412    0.1179817  86.56 0.0006928832    1.523    0.343
        61  -8.0477    195.1721     53.1114   3.9702843804e+00   2.9209507174e+01    0.1781256     0.169071 -35.65 0.0002772709    1.184    0.156
        62 -10.5051    163.8262     43.0872   5.1878485124e+00   3.7854819686e+01    0.4553579    0.3787313 -39.98 0.0008205225    1.197    0.165
        63  -7.8761     80.7289     34.9949   2.0340590741e+01   5.9963821093e+01    0.1905517    0.1862853 -34.07 0.0002122534    1.090    0.082
        64  -8.1365     15.9107    249.3046   7.9947366899e+01   1.9956990862e+01    0.1492714    0.1076309  39.93 0.0003354304    1.099    0.090
        65 -10.1383    175.4044     24.2222   3.5839074972e+02   3.7387539552e+01    0.4294449    0.2858281 -37.27  0.002342904    1.424    0.298
        66 -10.1194    175.2081     20.4106   3.5734264608e+02   3.7859551970e+01    0.4187883    0.2570364 -67.37  0.002032015    1.555    0.357
        67  -8.0943    102.7854     24.7824   9.6567534525e+00   5.5872529888e+01    0.2086536    0.1818101  49.35 0.0004869707    1.139    0.122
        68  -8.5056     86.5063     23.7357   1.3380124500e+01   6.0139201461e+01    0.2358064    0.2068916  69.18 0.0002341019    1.095    0.087
        69 -10.5548    192.6164    194.4614   3.5272828584e+01   7.2039597641e+00       0.7485    0.4447974 -58.61  0.003382411    3.579    0.721
