#   1 NUMBER                 Running object number                                     
#   2 MAG_AUTO               Kron-like elliptical aperture magnitude                    [mag]
#   3 X_IMAGE                Object position along x                                    [pixel]
#   4 Y_IMAGE                Object position along y                                    [pixel]
#   5 X_WORLD                Barycenter position along world x axis                     [deg]
#   6 Y_WORLD                Barycenter position along world y axis                     [deg]
#   7 A_WORLD                Profile RMS along major axis (world units)                 [deg]
#   8 B_WORLD                Profile RMS along minor axis (world units)                 [deg]
#   9 THETA_WORLD            Position angle (CCW/world-x)                               [deg]
#  10 FWHM_WORLD             FWHM assuming a gaussian core                              [deg]
#  11 ELONGATION             A_IMAGE/B_IMAGE                                           
#  12 ELLIPTICITY            1 - B_IMAGE/A_IMAGE                                       
         1 -17.2596    225.8760    190.4132   8.5042208503e+01  -3.7665954929e-01     13.08607      7.28222 -51.06   0.05833307    2.923    0.658
         2 -17.1394    245.2056     46.6382   4.8392977959e+01   1.7981884004e+01     3.122791     2.490362  15.06   0.01284908    1.681    0.405
         3 -15.8689    248.5631     23.4542   4.2483101209e+01   2.0186789941e+01     1.821274     0.538272 -40.52  0.007166715    2.665    0.625
         4 -15.5887    220.1684     77.4593   5.9625700544e+01   1.9283043333e+01     5.612001     1.902106 -51.04   0.01483656    4.949    0.798
         5 -15.5471    233.9562     77.7726   5.7644585558e+01   1.6009764958e+01     4.603209     2.480861 -74.22   0.00769642    4.253    0.765
         6 -16.1113    220.4585     24.4748   4.5488933521e+01   2.6705310269e+01     5.447122     3.218503   9.17   0.02184303    3.185    0.686
         7 -15.2190    239.5734     27.6270   4.4320293022e+01   2.1742748047e+01     1.187658    0.6965203 -32.66  0.004240531    1.611    0.379
         8 -11.8669    154.6218     29.3979   5.6379641873e+01   4.3004161658e+01    0.9391298    0.3556216 -37.27  0.003445198    2.635    0.621
         9 -11.3002    159.4901     29.3305   5.5468768110e+01   4.1760314907e+01    0.6504139    0.3006121 -35.78  0.002154365    2.164    0.538
        10 -10.1041     78.4517     31.1703   7.6743885042e+01   5.9893055385e+01    0.5080759     0.122974 -34.75  0.001629261    3.919    0.745
        11 -11.3895    178.1608     23.8761   5.0674903334e+01   3.7561678693e+01    0.6409921    0.4716713  65.11  0.003294022    1.285    0.222
        12 -11.5385    156.3309     10.9928   4.9849870706e+01   4.4594414989e+01    0.6513489    0.3641362   4.45  0.002200034    2.531    0.605
        13 -10.3782     79.1765     15.0318   6.9348063674e+01   6.1948897092e+01    0.4359475     0.170231 -22.56  0.001374822    2.719    0.632
        14 -10.7693    115.7992     12.4183   5.8107047868e+01   5.4462995989e+01    0.3283172    0.2415704  49.31  0.001086363    1.242    0.195
        15 -12.6527    120.2744      8.8788   5.5698286458e+01   5.3757409139e+01    0.8524667    0.5979383 -55.90  0.002885284    1.884    0.469
        16 -10.2985    146.7836      7.5951   5.0223986133e+01   4.7351137772e+01    0.3729947    0.1874928 -10.61  0.001580025    2.431    0.589
        17 -10.1836    250.6322      4.9147   3.8048642457e+01   2.1827021939e+01    0.1940013    0.1004512 -38.56            0    1.685    0.407
        18  -9.6779    243.8727      2.9959   3.8103211477e+01   2.3552392578e+01    0.2050102    0.1505698  60.78 0.0004122726    1.496    0.332
        19 -10.7529    248.6447      1.3989   3.7398578535e+01   2.2642403647e+01     0.284141    0.1190258  72.61  0.000754144    2.292    0.564
        20  -8.9203    215.2029      3.7513   4.0628835248e+01   3.0273451916e+01    0.1223543   0.08523675 -58.54  0.000209064    1.360    0.265
        21 -11.5844    129.1859      8.4452   5.3705391270e+01   5.1654289182e+01    0.5126362    0.3000764   1.59  0.002359536    2.086    0.521
        22  -8.5706    171.6857      2.3629   4.4893408485e+01   4.1437597383e+01    0.1474259   0.09436232 -61.04 0.0007041004    1.760    0.432
        23  -8.7180    207.2322     10.1753   4.3094118638e+01   3.1598315077e+01    0.1156099   0.09042966  55.79            0    1.323    0.244
        24 -11.8571    247.5700    249.0786   9.1473867425e+01  -1.0841871559e+01    0.4583189    0.2791526  33.98  0.003089175    1.371    0.271
        25  -9.5767    222.6035    128.8259   7.2272087409e+01   1.0084546538e+01    0.4250601    0.2199719  38.39  0.001370763    2.116    0.527
        26 -10.0422    124.9962    240.0878   1.1170617098e+02   9.2729659813e+00    0.1716712    0.1494073  63.58 0.0002993119    1.129    0.114
        27  -8.5713     96.4163    128.5559   1.0091585362e+02   3.6633968019e+01    0.1442915    0.1325943 -72.76 0.0001546053    1.012    0.012
        28 -10.7827    213.2303    122.3251   7.2399343116e+01   1.3242051193e+01    0.6385791    0.4586357  84.93  0.002289543    2.270    0.559
        29 -10.9842    162.8265    120.7120   8.2411419433e+01   2.4986477961e+01    0.3056332    0.2798162 -56.66 0.0003943629    1.136    0.120
        30 -10.9226    167.8659    115.1962   7.9844798205e+01   2.4957622944e+01    0.5748624    0.5196111  13.90  0.002472236    1.176    0.149
        31 -11.2744    134.8921    110.8690   8.6589616456e+01   3.3261075343e+01    0.8589137    0.3173111 -42.58  0.002824216    2.688    0.628
        32 -11.0849    133.8755    100.6547   8.4076374057e+01   3.5680213078e+01    0.7689013     0.300022 -51.89  0.001899768    3.090    0.676
        33 -10.3313    191.4887    119.0743   7.5803393897e+01   1.8743437098e+01    0.3710518    0.3151653  62.39  0.001033674    1.307    0.235
        34 -10.5165    223.0892    117.5540   6.9443778362e+01   1.1904526622e+01    0.4902074     0.241912  46.38  0.002004049    2.116    0.527
        35 -13.3292     68.1425    144.6849   1.1118905205e+02   3.7116185629e+01     1.378034     1.029749 -81.08  0.004515086    1.241    0.194
        36 -12.1901     45.8038    153.4177   1.1782181583e+02   3.7844061223e+01    0.4494808    0.3465181 -51.28  0.001035157    1.481    0.325
        37 -12.5628    123.5249    103.4976   8.7574661872e+01   3.7268660188e+01     1.189231    0.6682725 -64.83  0.004029371    2.729    0.634
        38 -11.3672    119.0123     89.2025   8.4745761782e+01   4.1286767449e+01    0.3912736    0.2563342 -54.46  0.001106052    1.645    0.392
        39  -9.5148    156.5985    112.5092   8.1719576031e+01   2.8093976964e+01    0.3409735    0.1898898 -49.38   0.00133286    1.889    0.471
        40 -10.7954    120.0458    110.6413   9.0394938516e+01   3.6395405356e+01    0.6270666    0.3403797 -65.73  0.002189236    2.863    0.651
        41 -13.1084     54.2759    149.5553   1.1530931430e+02   3.7748578229e+01    0.8394943    0.6185984 -79.43  0.003011198    1.174    0.148
        42 -10.2499    146.3984    103.7532   8.1793082541e+01   3.2237027217e+01    0.3287415    0.2776579 -12.17 0.0006608497    1.339    0.253
        43 -11.0082    155.6355     99.5039   7.8390788486e+01   3.0978645884e+01    0.6775056    0.3252279  39.23  0.002406692    2.374    0.579
        44 -11.8169    169.8109     92.8812   7.3298242015e+01   2.8891694836e+01    0.7854181    0.6486208  14.38   0.00374148    1.403    0.287
        45 -10.9544    209.5690     95.3853   6.6158299425e+01   1.8812274171e+01    0.4947741    0.3342247 -69.86  0.001242894    2.154    0.536
        46 -10.7294    177.5484     88.7463   7.0470596207e+01   2.7775079962e+01    0.2815084    0.2642241  24.68 0.0002963844    1.099    0.090
        47 -10.7353    139.9335     94.3656   8.0742595481e+01   3.5650742220e+01    0.3725189    0.3158908  71.68 0.0008122836    1.358    0.264
        48  -9.3461    211.7498     90.7812   6.4553223445e+01   1.9085678637e+01    0.3272831    0.2174743  50.04  0.001302435    1.570    0.363
        49 -11.6072    153.7582     90.5424   7.6257729105e+01   3.3209003530e+01    0.3562181    0.3266699  -6.36 0.0005954634    1.142    0.124
        50  -9.2306    194.2951     88.2674   6.7020499317e+01   2.3741884481e+01    0.2973804    0.2285114 -44.91 0.0008250539    1.287    0.223
        51  -8.5268    197.3402     86.3083   6.5908780245e+01   2.3339103505e+01    0.2203885    0.1523753  37.20 0.0003986354    1.618    0.382
        52  -9.3651    101.0076     89.2350   8.9890821654e+01   4.4827753830e+01    0.1956934    0.1886755 -19.03            0    1.054    0.051
        53 -10.6902    117.8481     81.1458   8.2629585984e+01   4.3205541322e+01    0.2319133    0.2138354 -65.65  0.000748957    1.187    0.158
        54  -8.9288    107.6676     77.3077   8.4333495689e+01   4.6073998938e+01    0.1486006    0.1208846 -83.91 0.0003219686    1.667    0.400
        55 -10.4060    115.9693     67.9286   7.8900496371e+01   4.6214505459e+01    0.2311612    0.2055897 -30.06            0    1.077    0.071
        56 -11.1248    125.2771     58.7396   7.3233272052e+01   4.5833888831e+01    0.5600349    0.1631798 -36.62  0.001711723    3.320    0.699
        57  -8.4580     72.5722     58.4952   8.9321327000e+01   5.6089324783e+01     0.138952    0.1210515 -29.77 0.0001017442    1.022    0.022
        58 -12.4151     60.5001    146.0477   1.1329517037e+02   3.7795816790e+01    0.7037356     0.399886 -83.52  0.001673682    1.903    0.475
        59  -9.0886    222.6067    145.2350   7.6113241161e+01   7.3106083283e+00    0.2060541    0.1848401  48.44 0.0003775392    1.258    0.205
        60 -14.9673    249.1111     57.9167   5.0707801949e+01   1.5537254549e+01      1.11109    0.3429414 -34.53  0.004029222    2.707    0.631
        61 -10.7142    164.7077     28.5082   5.4285844435e+01   4.0511121665e+01    0.4641627    0.3541374  81.88  0.001473157    1.407    0.289
        62 -11.0377    162.4056     39.9190   5.8437430403e+01   3.9628402232e+01    0.5969576    0.3994651  86.54 0.0009181296    1.932    0.483
        63 -10.7784    164.6444     34.5914   5.6284143097e+01   3.9761933173e+01    0.4945478    0.4203283  33.87  0.001726156    1.221    0.181
        64  -8.6712    177.0000     38.9306   5.5534183626e+01   3.5978401161e+01     0.231825   0.08456048 -28.34 0.0004278114    2.809    0.644
        65 -11.0843    110.2887     37.8894   6.9649397068e+01   5.2545249817e+01    0.4125526    0.2009844 -25.60  0.001682741    2.167    0.539
        66  -9.4251    171.4800     34.6550   5.5117160433e+01   3.7979150716e+01    0.2574315    0.2442162 -31.30   0.00144228    1.089    0.082
        67  -9.5758    119.2902     33.3182   6.5504744380e+01   5.1169062322e+01    0.1494529    0.1046762  18.93  0.000331913    1.598    0.374
        68 -10.8946     92.0783     30.1715   7.1874788151e+01   5.7467965227e+01    0.5759643    0.1955089 -30.72  0.002116746    2.898    0.655
        69 -11.1353    146.6001    184.0803   9.9590907550e+01   1.5438870961e+01    0.4260563     0.186643  45.53  0.001760828    2.101    0.524
        70  -8.9598    171.0041     29.4588   5.3541288091e+01   3.8758896679e+01    0.2133244    0.1387156  65.01 0.0003753286    1.481    0.325
        71 -11.3841      2.9057    181.1065   1.2932624700e+02   3.5944286647e+01    0.3434024    0.1862543 -89.24   0.00222503    1.411    0.291
        72  -9.3612    171.5618     21.7544   5.1002105702e+01   3.9521792047e+01    0.2226979     0.193618 -85.39 0.0006713957    1.178    0.151
        73  -8.9683    187.6843     31.2942   5.1531090805e+01   3.4191082164e+01    0.1821647    0.1353199 -19.63 0.0006132927    1.476    0.323
        74 -10.0050    116.7801     22.1906   6.1787710345e+01   5.3164781624e+01    0.2062038    0.1530158  22.82  0.001072258    1.360    0.265
        75  -8.7972     77.0161    177.0232   1.1369403350e+02   2.8553676462e+01    0.1498634     0.125668  89.15 0.0009306131    1.055    0.052
        76 -13.4983     17.5980    166.5103   1.2539372647e+02   3.7758445133e+01    0.8107464    0.6273797  84.54  0.003705012    1.041    0.039
        77  -9.8006    211.0702     15.8566   4.4217053766e+01   3.0026308972e+01    0.2069251    0.1745707  86.00 0.0004083289    1.110    0.099
        78  -9.8354     90.0918     14.1241   6.5542564889e+01   5.9911898093e+01    0.2039601    0.1573687  14.35 0.0004117332    1.193    0.162
        79 -10.9681    150.2981    147.2604   9.1592630112e+01   2.2158871430e+01    0.6033468    0.3734565 -77.75  0.002094761    3.169    0.684
        80 -10.5323    133.5405    144.8533   9.5008016460e+01   2.6067943069e+01     1.139525    0.2645538 -54.26  0.002555195    6.701    0.851
        81  -9.9805    158.7499    157.2460   9.1817780835e+01   1.8368636983e+01    0.4862085    0.3234209 -81.02  0.001933508    2.687    0.628
        82 -10.0448    156.9963    134.9830   8.7258785093e+01   2.3316109383e+01    0.3246449    0.2323089 -89.96  0.001324141    2.194    0.544
        83 -10.9052    159.7884    129.1404   8.5212637089e+01   2.3923531389e+01    0.5503316    0.4371133  -3.42   0.00257817    1.581    0.367
        84  -8.9632    156.8420    148.6849   9.0411715015e+01   2.0505612000e+01    0.2855397    0.1961726 -73.49   0.00119255    2.145    0.534
        85  -9.0542    166.9358    134.2995   8.4840147941e+01   2.1290871555e+01    0.2206721    0.1988065  43.93 0.0005778814    1.106    0.096
        86  -9.6369    159.0038    142.5049   8.8542963422e+01   2.1324313869e+01    0.2731182    0.2131122 -61.56  0.000811787    1.454    0.312
        87 -10.9977    136.5716    128.1899   9.0513510514e+01   2.9113220328e+01     0.624651    0.3979076 -60.94  0.002651472    1.824    0.452
