#   1 NUMBER                 Running object number                                     
#   2 MAG_AUTO               Kron-like elliptical aperture magnitude                    [mag]
#   3 X_IMAGE                Object position along x                                    [pixel]
#   4 Y_IMAGE                Object position along y                                    [pixel]
#   5 X_WORLD                Barycenter position along world x axis                     [deg]
#   6 Y_WORLD                Barycenter position along world y axis                     [deg]
#   7 A_WORLD                Profile RMS along major axis (world units)                 [deg]
#   8 B_WORLD                Profile RMS along minor axis (world units)                 [deg]
#   9 THETA_WORLD            Position angle (CCW/world-x)                               [deg]
#  10 FWHM_WORLD             FWHM assuming a gaussian core                              [deg]
#  11 ELONGATION             A_IMAGE/B_IMAGE                                           
#  12 ELLIPTICITY            1 - B_IMAGE/A_IMAGE                                       
         1 -14.9831      9.6998      5.5746   5.1944964869e+01   7.8460805225e+01     1.228324    0.7591547   9.77  0.006895969    1.582    0.368
         2 -16.0851     14.5102     69.7322   7.0663012433e+01   6.3249806739e+01     2.687116      1.41567 -61.54   0.01107275    1.663    0.399
         3 -16.5528     10.8518     34.3741   6.4469278733e+01   7.2243026226e+01     3.550111     1.541903 -40.48   0.01580342    2.124    0.529
         4 -15.7000    187.1418     42.3340   4.4443287473e+00   3.2301461927e+01     1.870254     1.069895 -59.61  0.006493224    1.794    0.442
         5 -14.4970     78.7213     29.0063   2.2179241372e+01   6.2109187122e+01    0.8602849    0.7510963  44.92  0.004221849    1.055    0.052
         6 -15.1055    100.1788      6.0650   5.0265997460e+00   5.9309487649e+01     1.384638    0.8682308  70.34  0.006766464    1.410    0.291
         7 -15.3071     42.1810    151.4187   7.0432122226e+01   3.9018703173e+01     1.868257    0.9592265 -71.22  0.006322111    1.945    0.486
         8 -13.1923    142.7825    248.2048   5.5869593352e+01   5.8598244423e+00    0.5292135    0.2705677  46.50  0.002794194    2.337    0.572
         9 -15.2725    110.9307    239.1302   6.1627327659e+01   1.1322930870e+01     2.033138     0.766791  46.02  0.008888555    2.733    0.634
        10 -16.0761    103.9949    209.9532   5.9976056807e+01   1.7420137370e+01     1.803469     1.395497 -85.56    0.0085183    1.716    0.417
        11 -12.4620     41.5000    250.4843   7.7683480376e+01   1.7620489276e+01     0.249579   0.08587849  29.40  0.001213632    2.177    0.541
        12 -15.3886     41.4257    201.8264   7.4957213044e+01   2.7112745694e+01     1.715942    0.8587872  47.07  0.006515089    1.623    0.384
        13 -15.7294     19.8583    193.5883   8.0050855898e+01   3.1099660436e+01     2.082964    0.8290651  71.67  0.009064576    2.630    0.620
        14 -15.5305      5.2401    163.3583   8.2714254937e+01   3.9374660685e+01     1.483575    0.6860913 -89.84  0.005482987    2.035    0.509
        15 -15.8607      3.7225    213.7903   8.4726079881e+01   2.8176535174e+01     1.948978    0.5390784 -78.92  0.008351988    3.666    0.727
        16 -14.5569      2.6468    185.9447   8.4224446659e+01   3.4260571109e+01     1.115842    0.3911225 -89.23  0.004862973    2.779    0.640
        17 -13.7645    202.8652    242.1445   4.3578024653e+01  -6.1445937126e-01    0.3642882    0.2044986  30.04  0.002365872    1.552    0.356
        18 -14.1496     13.0798    240.6974   8.3365271074e+01   2.2149142749e+01    0.4499569    0.2534708  63.98  0.001624998    1.516    0.340
        19 -14.6995     16.4258    230.0574   8.2318150286e+01   2.3839015637e+01     1.025454    0.4936411  30.17  0.005824744    1.669    0.401
        20 -12.4441    218.1868    237.8111   4.0315480421e+01  -1.8215654221e+00    0.1994831    0.1431017   6.14  0.001502033    1.038    0.036
        21 -14.0750    146.2210    233.7535   5.3414240764e+01   7.5226390782e+00    0.6046893    0.3811439 -27.73  0.003575623    1.898    0.473
        22 -14.5226    124.3065    227.4758   5.7371058594e+01   1.1463827032e+01     0.685194    0.3165384  42.45  0.003336992    1.977    0.494
        23 -13.1585     35.6373    227.9338   7.7885677187e+01   2.2369882513e+01     0.477385    0.2074628  44.61  0.002523277    1.682    0.406
        24 -15.6423    128.1161    207.0605   5.3871898153e+01   1.4458621595e+01     1.275142    0.7793927 -60.62  0.006575208    2.201    0.546
        25 -13.4924    157.2648    213.2744   4.8285533036e+01   9.1695460490e+00    0.3040743    0.1576207  27.12  0.001546818    1.659    0.397
        26 -13.5505     74.2984    190.4446   6.5281712601e+01   2.5589705406e+01    0.8464515    0.3908108  46.41  0.003695818    1.949    0.487
        27 -14.7197    103.6805    176.7964   5.5567374683e+01   2.4251921203e+01     1.308277    0.6576059 -54.17  0.005634262    2.199    0.545
        28 -12.7998     52.8603    248.2448   7.5129973320e+01   1.6793491474e+01    0.4377061    0.2611776  16.58  0.002552739    1.848    0.459
        29 -14.9899    123.4596    190.3108   5.2554493184e+01   1.8315940660e+01     1.079571    0.5882229  34.43  0.005104453    1.574    0.365
        30 -13.8359     58.7004    149.0672   6.4794737488e+01   3.7595745325e+01    0.5542061    0.3813252 -76.34  0.001809838    1.522    0.343
        31 -14.5357     68.6536    146.3353   6.1177813250e+01   3.6905043848e+01     1.005542    0.7641006 -62.49  0.004086458    1.374    0.272
        32 -15.6681     59.4904    128.1043   6.1339651691e+01   4.2940129315e+01     2.275778     1.237726 -61.90  0.009611106    1.828    0.453
        33 -14.3078     59.0892    111.1772   5.8356127954e+01   4.7475291738e+01    0.9151401    0.8940743  40.82  0.003554778    1.048    0.046
        34 -13.6568    130.9555    147.8544   4.3117108356e+01   2.5792013748e+01    0.5526225    0.4161196  75.57  0.002550362    1.887    0.470
        35 -14.9188    129.9736    125.3936   3.8419551701e+01   3.0859677520e+01     1.372121     1.207372 -47.67  0.007077642    1.181    0.153
        36 -12.6090     73.4932    132.2988   5.7213290134e+01   3.9763567750e+01    0.2927533    0.2787035 -12.06 0.0004696858    1.167    0.143
        37 -13.0971     20.1079    126.5800   7.5501726487e+01   4.7673701996e+01    0.8667548    0.5954676  64.14  0.004484889    1.404    0.288
        38 -11.2412     13.3285    131.9195   7.8376253172e+01   4.6772460370e+01    0.1969906    0.1626239  88.95 0.0006770918    1.109    0.098
        39 -14.3256    158.4541    108.1219   2.7194912532e+01   2.8283181462e+01    0.8752593    0.7242769 -46.18  0.004518535    1.212    0.175
        40 -12.9338      3.0908    105.3055   8.0278136766e+01   5.4426518342e+01    0.7251816    0.2949745 -64.55  0.003088068    2.158    0.537
        41 -12.3789     30.5072    100.2582   6.8095535402e+01   5.3860666304e+01     1.230286    0.6756115  76.93  0.005012835    2.293    0.564
        42 -13.0449    231.6338    248.0903   3.9547409810e+01  -4.3367001374e+00    0.2527053     0.122493 -13.04  0.001568122    2.046    0.511
        43 -14.8756     19.8652     88.9669   7.1128448558e+01   5.7799476602e+01     1.644132    0.9307507 -16.10  0.007191733    2.253    0.556
        44 -13.5273    182.3768    248.4021   4.8145771336e+01   9.9944556601e-01    0.3912329    0.2270423  27.37  0.002542745    1.348    0.258
        45 -14.5670     24.2063    170.6738   7.7584043200e+01   3.6038486146e+01     1.570057     1.051414  11.72  0.008345122    1.738    0.425
        46 -13.3283     57.8240     87.3666   5.3386277726e+01   5.3888283006e+01    0.8009979    0.6946322  77.46  0.004122983    1.263    0.208
        47 -14.4366    172.4873     72.6415   1.4931294793e+01   3.1365703135e+01     1.021518    0.6975225 -70.54   0.00473647    1.790    0.441
        48 -14.0969     81.9573     65.8638   3.6532418638e+01   5.4548096183e+01    0.8925809    0.7870828 -49.63  0.003315909    1.178    0.151
        49 -14.1244      3.0896    242.3908   8.5500374462e+01   2.2718692848e+01     0.714735    0.3025309  83.49  0.003132422    2.411    0.585
        50 -13.5266     60.2056     97.7517   5.4971578481e+01   5.0838845474e+01    0.6678138    0.4021282 -73.98  0.002688486    1.957    0.489
        51 -13.7452     91.3277     39.1362   2.2444089728e+01   5.7452124603e+01    0.7364075    0.5274597  26.01  0.003388481    1.692    0.409
        52 -15.7941     44.4121    177.8071   7.2306956624e+01   3.2238680918e+01     2.371379     1.587385  57.86    0.0121259    1.366    0.268
        53 -13.4727    243.1867     50.7585   1.0404900764e+00   1.9385949594e+01    0.2657193    0.1958089  45.79  0.001301026    1.809    0.447
