#   1 NUMBER                 Running object number                                     
#   2 MAG_AUTO               Kron-like elliptical aperture magnitude                    [mag]
#   3 X_IMAGE                Object position along x                                    [pixel]
#   4 Y_IMAGE                Object position along y                                    [pixel]
#   5 X_WORLD                Barycenter position along world x axis                     [deg]
#   6 Y_WORLD                Barycenter position along world y axis                     [deg]
#   7 A_WORLD                Profile RMS along major axis (world units)                 [deg]
#   8 B_WORLD                Profile RMS along minor axis (world units)                 [deg]
#   9 THETA_WORLD            Position angle (CCW/world-x)                               [deg]
#  10 FWHM_WORLD             FWHM assuming a gaussian core                              [deg]
#  11 ELONGATION             A_IMAGE/B_IMAGE                                           
#  12 ELLIPTICITY            1 - B_IMAGE/A_IMAGE                                       
         1 -16.3126    115.1155    160.9580   1.0762133258e+02   2.7083570891e+01     5.217299     2.207707 -51.48  0.009925121    2.538    0.606
         2 -18.0472    193.5962    125.5640   8.4271760897e+01   1.8130934902e+01     5.344064     4.119979 -65.95   0.02675765    1.727    0.421
         3 -16.2845    199.3734     72.0916   6.9226925931e+01   2.5539200782e+01     7.463684     2.566209  43.41   0.01474076    3.572    0.720
         4 -17.0717    174.0172    153.2307   9.4044929270e+01   1.7545094990e+01     5.910179     3.741439   0.78   0.02397578    3.114    0.679
         5 -16.6551    171.1130     90.4316   7.9779604157e+01   2.9381792346e+01     5.982755      2.97779  30.44   0.01918764    3.465    0.711
         6 -16.8218    214.2243     97.6480   7.3665571158e+01   1.8010895737e+01     5.348496       3.3964 -58.65   0.02298397    2.186    0.543
         7 -11.5555     13.6933     13.8193   1.0459687627e+02   7.1766467021e+01    0.2331863    0.1743559 -44.14 0.0004334883    1.038    0.037
         8 -11.2340    101.0208      9.2331   6.7078973258e+01   5.8971935989e+01    0.2379714    0.1889465 -16.81 0.0002509414    1.202    0.168
         9 -11.7463    244.0750      8.6763   4.5888274307e+01   2.2530363472e+01    0.2505428    0.1591787 -40.63 0.0009230752    1.384    0.278
        10 -10.4726     88.8958      7.1467   6.9456916285e+01   6.1828124941e+01    0.2658747    0.1644906 -35.98  0.000942854    1.644    0.392
        11 -10.5348    228.4747      6.4957   4.6569500493e+01   2.6547740276e+01    0.1393184    0.1230452 -56.77 0.0001916453    1.036    0.035
        12  -9.7555     53.9505      5.7239   8.1031959921e+01   6.8418049208e+01    0.1682596    0.1443598  -0.84 0.0002693596    1.086    0.079
        13 -10.7626    248.7819      4.4072   4.4437781139e+01   2.1848965688e+01    0.1822166    0.1149967  61.82  0.000779556    1.698    0.411
        14 -11.1704    240.4961      2.2227   4.4474152788e+01   2.4026863111e+01    0.3237532    0.1521083  40.62  0.001299918    3.043    0.671
        15 -10.4676    208.4660      1.5004   4.6910007208e+01   3.2129159022e+01    0.2792933    0.1335345  74.52 0.0006834157    2.059    0.514
        16 -10.3871    144.4134    230.9111   1.1123163348e+02   1.0790835714e+01    0.1846131    0.1179485  50.78 0.0003891522    1.246    0.197
        17 -11.2767    232.4314    250.5119   9.9656473153e+01  -4.4526355121e+00    0.2126533   0.07503627  40.93 0.0006371828    2.091    0.522
        18 -10.9149    222.7802    250.2645   1.0106494358e+02  -3.0821338694e+00    0.1735907    0.1053966  41.52 0.0006183231    1.343    0.255
        19  -9.9959     81.9673    230.0182   1.2163513053e+02   1.9851392824e+01    0.1279916    0.0932418  61.51  0.000334358    1.012    0.011
        20 -10.1813     69.7094    229.6755   1.2363804796e+02   2.1473050927e+01     0.197747    0.1738203   4.29  0.001527778    2.140    0.533
        21 -10.9263    219.0500    226.4782   9.8406533020e+01  -2.5717346386e-01    0.1743932    0.1553305 -41.85  0.001358671    1.641    0.391
        22 -10.9059    197.0032    225.7216   1.0184137693e+02   3.2361062692e+00    0.1938272    0.1651162  56.36  0.001080136    1.415    0.293
        23 -12.7861    178.0856    221.9672   1.0446995872e+02   6.6814528754e+00    0.6727432     0.262668  50.47   0.00320943    2.482    0.597
        24 -10.6505    171.0407    217.7964   1.0511174186e+02   8.3478407993e+00    0.2330198    0.1457228  46.66 0.0009237442    1.305    0.234
        25 -10.8793    247.0494    221.0959   9.3269732694e+01  -3.9155269660e+00    0.2671686    0.1657436  20.45  0.001203352    1.352    0.260
        26 -13.3931    234.7640    215.6971   9.4323225516e+01  -1.5587358262e+00    0.3706557    0.2495968  -2.97 0.0009659217    1.553    0.356
        27 -12.4144    123.6614    216.1524   1.1317749989e+02   1.6081514227e+01    0.4424387    0.2500942  36.93  0.002553517    1.722    0.419
        28 -11.8893    143.1636    215.7172   1.0968865387e+02   1.3111042809e+01    0.2738518    0.1979805  72.56 0.0006646089    1.603    0.376
        29 -10.7584     58.7584    215.8913   1.2451921605e+02   2.5063839201e+01    0.2578676    0.2031531  -7.22   0.00164932    3.100    0.677
        30 -11.1690     92.0579    214.4501   1.1859783525e+02   2.0970893666e+01    0.2510614    0.1681971  44.51  0.001555328    1.340    0.254
        31 -12.3243    249.5419    244.7179   9.6355684718e+01  -6.3169113488e+00    0.2665138    0.2245017  25.99  0.001013206    1.384    0.277
        32  -9.6115    132.7629    246.6181   1.1475631193e+02   1.0448310117e+01    0.1510376   0.07241464  49.84    0.0004183    1.580    0.367
        33 -10.7284    226.5276    209.9222   9.4720861563e+01   3.2323386929e-01    0.2587501    0.1687023  40.19  0.001141739    1.318    0.241
        34 -10.8714    217.5982    210.4812   9.6249805825e+01   1.6843417779e+00    0.1557662    0.1363773 -15.56 3.156315e-05    1.333    0.250
        35 -15.7568    163.2763    113.5359   8.7503403947e+01   2.6927459125e+01     1.780614      1.27022 -38.53  0.008638512    1.428    0.300
        36 -11.1077    220.7139    207.3474   9.5251283406e+01   1.5340079836e+00    0.2630289    0.2003973  -0.99 0.0007849036    1.345    0.257
        37 -11.6350    146.6990    208.8993   1.0821202747e+02   1.3546123304e+01    0.2890569    0.2271237  51.98  0.001735896    1.066    0.062
        38 -11.9675    165.8009    209.1209   1.0484862114e+02   1.0377629452e+01    0.2643389    0.1515039  44.57  0.001127545    1.413    0.292
        39 -12.4375    162.2406    201.6240   1.0443421739e+02   1.2042575379e+01     0.254416    0.2292086 -41.24 0.0008478237    1.348    0.258
        40 -16.9098    174.6684    138.8455   9.0955914459e+01   1.9885149315e+01     5.171635     1.538304  43.06   0.01684204    3.361    0.703
        41  -9.9789     11.6830    207.7262   1.3200488355e+02   3.1516160175e+01   0.08033136    0.0704539 -82.76 0.0002139459    1.565    0.361
        42 -15.8981    194.9984    202.1914   9.8743103443e+01   6.4066864579e+00     2.932304     2.281555 -50.94   0.01126193    1.720    0.419
        43 -11.1118     76.4105    201.3305   1.2022769477e+02   2.5337361904e+01    0.2547521    0.2122334  80.40  0.001920665    1.158    0.136
        44 -10.1937     45.6897    201.6542   1.2582701927e+02   2.9070309452e+01   0.09124483   0.08036395 -58.06 0.0007045296    1.705    0.414
        45  -9.7657      6.6942    201.6649   1.3258405005e+02   3.3031939641e+01   0.08543828   0.06804269 -70.04 0.0005415232    1.669    0.401
        46  -9.9322    227.1223    198.5231   9.2773175719e+01   1.4868986821e+00     0.176782   0.09914418  42.10  0.001012224    1.547    0.353
        47  -9.3906     34.3137    198.2699   1.2763634698e+02   3.0931611321e+01   0.08536567   0.07874104 -78.58 0.0002190574    1.552    0.355
        48  -9.9353    232.8752    195.8850   9.1398876140e+01   8.4380298690e-01    0.1813519    0.1338384  13.36 0.0006689399    1.213    0.175
        49 -12.9016    118.3077    191.1546   1.1121493125e+02   2.0992272996e+01    0.3853986    0.3637266  12.76  0.002185196    1.409    0.290
        50  -9.7053     88.2751    191.3151   1.1701790377e+02   2.5501031630e+01   0.09779535   0.09342384 -27.52 0.0002347065    1.564    0.360
        51  -9.8942    234.1243    190.2880   9.0232167583e+01   1.2699367002e+00    0.1611389     0.125511  27.77 0.0003559238    1.080    0.074
        52 -13.8074    246.1560    185.4462   8.7460196012e+01  -1.6376777627e-01    0.3821353    0.2418381  23.42  0.001291949    1.410    0.291
        53 -12.9255    238.5336    182.5266   8.8139717954e+01   1.4252217651e+00    0.3124906    0.2295482   8.58 0.0005684523    1.254    0.202
        54  -9.1555     59.6956    186.6845   1.2207648975e+02   3.0162996926e+01   0.09649773   0.08745738 -51.77 0.0005185017    1.622    0.384
        55  -9.9606     51.3572    245.4230   1.2750831792e+02   2.1257743887e+01    0.1301339    0.0638995  52.16  0.000921522    1.413    0.292
        56 -16.0221    199.2554    159.8332   9.0562397025e+01   1.1539300048e+01     2.045688     1.575854 -47.54  0.008141558    1.541    0.351
        57 -10.5544    227.0881    191.4809   9.1582526856e+01   2.3033356140e+00    0.2324095    0.1803039  -2.82 0.0009138985    1.269    0.212
        58 -10.8944    217.0915    183.5086   9.1850581369e+01   4.9852380277e+00    0.1859928    0.1066668  41.68 0.0005060758    1.523    0.344
        59 -10.4726     85.3586    181.1579   1.1648613458e+02   2.7802207867e+01    0.1971138    0.1459247  60.67 0.0007056087    1.131    0.116
        60 -11.0954     31.8192    180.2184   1.2692872877e+02   3.4564420010e+01    0.1812471    0.1388916  83.19 0.0002667194    1.105    0.095
        61 -11.6860     87.5312    175.1086   1.1534904407e+02   2.8649296624e+01    0.3482939    0.2064094 -65.16  0.001362036    1.721    0.419
        62 -10.3363    236.9888    175.0544   8.7008918834e+01   2.5665813105e+00      0.37296    0.1906621  13.46  0.001575709    3.119    0.679
        63 -10.8811     22.2355    176.0652   1.2849294449e+02   3.6324069656e+01    0.1829966    0.1211395  58.88 0.0002499452    1.253    0.202
        64  -9.9497     62.1515    173.3476   1.2035025384e+02   3.2435292528e+01     0.160279    0.1204983  62.20  0.000458622    1.129    0.114
        65 -10.2239    121.4692    243.5070   1.1628573322e+02   1.2472972386e+01    0.2035461    0.1300014  61.60  0.001175868    1.409    0.290
        66 -10.0986     78.8419    171.9327   1.1676711180e+02   3.0503837314e+01    0.1681184    0.1560969  86.06 0.0004965753    1.249    0.199
        67  -9.3730    233.5393    171.5629   8.6910304756e+01   3.5914518204e+00    0.1248634    0.1056033  17.47 0.0001448758    1.032    0.031
        68  -9.9654     38.0012    165.9624   1.2462729536e+02   3.6727008412e+01    0.1385635     0.105602  77.89 0.0003295834    1.007    0.007
        69  -9.9038    250.7058    159.7309   8.1861766634e+01   2.0223930291e+00    0.1519376    0.1022903 -27.41 0.0002740445    1.471    0.320
        70 -10.1818     86.4422    158.6818   1.1350025224e+02   3.2079912025e+01    0.2141143    0.1083394  40.60  0.001063763    1.948    0.487
        71 -10.0384     42.4970    158.5058   1.2302972004e+02   3.7764749655e+01     0.118634   0.09053329  79.18 0.0006734411    1.030    0.029
        72  -9.2448     78.3055    156.2747   1.1497047752e+02   3.3747874254e+01    0.1080082   0.09888252 -32.39 0.0002214862    1.544    0.353
        73 -15.9936    213.3221    134.9496   8.2804504281e+01   1.2473274148e+01     1.899827     1.331243 -88.25  0.008207777    2.897    0.655
        74 -10.9541     90.6097    149.2609   1.1123398936e+02   3.3405242983e+01    0.2443205    0.1723299 -69.61 0.0005769564    1.373    0.272
        75 -12.4034     80.2444    149.0999   1.1356788400e+02   3.4974606430e+01    0.3164839    0.2087339 -68.55  0.001804214    1.440    0.305
        76 -11.7415     11.1690    150.0919   1.2904335102e+02   4.2523394660e+01    0.3496451    0.1833038 -59.57  0.000346275    2.053    0.513
        77 -10.6659     11.8500    143.3850   1.2843062770e+02   4.3861880740e+01    0.1650623    0.1165612  81.28 0.0001127853    1.074    0.069
        78 -15.7060    174.4639    121.0215   8.6971862821e+01   2.3090109536e+01     1.542031    0.7358978 -34.18  0.006077871    2.296    0.564
        79 -15.9026    204.8511    143.3801   8.6163989861e+01   1.2923905976e+01     1.129076     1.057781 -44.34   0.00495082    1.225    0.184
        80 -12.8712    110.1666    134.0559   1.0413671549e+02   3.3409327752e+01    0.4482306    0.3806686 -55.60  0.002426017    1.218    0.179
        81 -10.0073     18.9737    133.5137   1.2602699199e+02   4.5366484317e+01    0.1702746    0.1193133 -86.74 0.0006107896    1.105    0.095
        82 -10.3955    250.0958    130.0199   7.5683002405e+01   5.8440774032e+00    0.1946758    0.1699137  -0.55 0.0003452854    1.022    0.022
        83 -10.5443     87.2175    129.0334   1.0877157735e+02   3.8268388423e+01    0.3069106    0.1875066 -42.76  0.001104438    2.032    0.508
        84 -10.7965     92.3929    126.6950   1.0707227004e+02   3.7969880773e+01    0.3252208    0.1603005 -64.34  0.001430289    2.087    0.521
        85 -10.0496     78.0207    127.9526   1.1087209673e+02   3.9877552381e+01    0.1577732    0.1382588  85.43 0.0003281087    1.028    0.028
        86 -11.3800    103.4853    127.4636   1.0448733996e+02   3.5969696256e+01    0.2416285     0.173603  48.06 0.0006233347    1.386    0.278
        87 -11.7224    101.4759    123.5639   1.0422301097e+02   3.7156152599e+01    0.3237353    0.2490663 -40.51  0.001747589    1.512    0.338
        88  -9.6190     48.4899    124.0077   1.1773606875e+02   4.4554032553e+01    0.1743417   0.08168497 -49.72 0.0008093626    2.447    0.591
        89  -9.4978     24.2494    123.6456   1.2380621490e+02   4.7063138671e+01    0.1214567   0.07102324  77.84 0.0004284352    1.597    0.374
        90  -9.4838     63.3700    121.8190   1.1359601564e+02   4.3249353134e+01    0.1682666    0.1054521 -59.72 0.0002668627    1.470    0.320
        91 -14.1452    248.3127    114.7971   7.2486024733e+01   8.2031081175e+00    0.4269702    0.3512952   1.72  0.001186552    1.144    0.126
        92 -10.5785     34.9474    117.7155   1.2039734139e+02   4.7390987409e+01    0.1642311    0.1446828  87.02  0.001156489    1.138    0.122
        93 -12.5368    101.1604    114.9567   1.0254618271e+02   3.9089635298e+01    0.4925016    0.2994488  43.76  0.001225907    1.696    0.410
        94 -10.0548     67.9928    115.9961   1.1142014650e+02   4.3953694325e+01    0.1638748    0.1318029 -73.75 0.0004940397    1.091    0.084
        95 -10.7915    239.8910    112.2331   7.3152505611e+01   1.0265611488e+01    0.4845712     0.183091 -29.75  0.001877489    2.480    0.597
        96  -9.1670     77.9831    112.0000   1.0802436783e+02   4.3452039615e+01    0.1972324   0.07609016  38.11 0.0007172879    2.799    0.643
        97 -11.2120    104.1496    110.0607   1.0071295835e+02   3.9638636971e+01    0.2227983    0.2073857 -76.02 0.0008245448    1.018    0.018
        98 -12.1247    100.9991    103.6090   1.0006808863e+02   4.1609738381e+01    0.7077594    0.1989613 -52.07  0.002285429    3.378    0.704
        99 -11.2474     97.0804    108.1829   1.0214455378e+02   4.1280044852e+01    0.2829404    0.2115171 -41.87 0.0008647551    1.455    0.313
       100 -11.1789    247.9610    109.4573   7.1284134598e+01   8.9924543768e+00     0.204376    0.1793745 -16.98 0.0003656009    1.053    0.051
       101 -10.5264    241.4617    104.0962   7.0961420496e+01   1.1069731435e+01    0.2586399    0.1851906 -11.69 0.0006345654    1.399    0.285
       102 -10.7194     86.3135    104.0096   1.0412628794e+02   4.3979342387e+01    0.1982202    0.1668274 -63.34 0.0004951115    1.089    0.082
       103 -10.4837     79.0393    103.3285   1.0598694272e+02   4.5253387678e+01    0.1807145    0.1650709  70.62 0.0002773025    1.127    0.113
       104  -9.9284    246.0714    100.8704   6.9501710155e+01   1.0548098805e+01    0.1967996    0.1756415 -42.60 0.0003748046    1.222    0.182
       105  -9.8066     72.4938     97.4842   1.0659257672e+02   4.7532750842e+01    0.1353437    0.1193882 -68.07 -2.743717e-05    1.028    0.027
       106 -10.8344     87.5990     88.9903   1.0024051184e+02   4.7124371021e+01     0.285716    0.2193823 -32.29 0.0009863037    1.513    0.339
       107 -10.6133    242.4244     88.2398   6.6901872976e+01   1.3062481419e+01    0.3441048    0.2448886 -18.37  0.001551185    1.347    0.258
       108 -10.2723    104.9426     87.4670   9.4934603490e+01   4.4404130484e+01    0.2141971    0.1434153  46.65  0.001025089    1.578    0.366
       109  -9.9507    107.3738     82.8236   9.2976108920e+01   4.4930683246e+01    0.1985139    0.1308621 -38.89 0.0002331774    1.539    0.350
       110  -9.9928     52.2157     81.1868   1.0916681629e+02   5.3874573158e+01    0.1882302     0.154585 -52.23 0.0004590461    1.148    0.129
       111 -11.9490    109.5774     77.3506   9.0777356342e+01   4.5645155878e+01    0.4286645    0.3076316  34.97  0.001780611    1.578    0.366
       112 -10.6277    107.6811     74.3679   9.0410221713e+01   4.6634408377e+01     0.229356    0.1523115  50.97 0.0006482792    1.624    0.384
       113 -11.2307    123.2817     74.4108   8.6195380555e+01   4.3410988630e+01    0.4261595    0.1970967 -55.76  0.001446511    2.948    0.661
       114 -11.6199    118.8127     71.3716   8.6430846563e+01   4.4965527565e+01     0.372649    0.2448068  35.80  0.001026096    1.741    0.426
       115 -10.2381    240.8814     72.8036   6.3165492173e+01   1.5522363473e+01    0.2077307    0.1894286   4.01 0.0006658604    1.115    0.103
       116  -9.7907     98.2711     73.7059   9.2907124109e+01   4.8567134977e+01    0.1388273    0.1105051 -79.82 0.0006928045    1.517    0.341
       117 -11.3579    107.4116     70.1986   8.9199579189e+01   4.7539164615e+01    0.2958617    0.2220773 -74.08  0.001416977    1.703    0.413
       118  -9.1842     50.7782     71.9907   1.0748539984e+02   5.6115767064e+01    0.1687296   0.09169982 -58.82 0.0002132831    1.549    0.354
       119 -12.1249    139.6452     69.0291   8.0406024362e+01   4.0766993869e+01    0.3709331    0.2318997  50.69  0.001623061    1.634    0.388
       120 -12.1004    242.9161     65.6171   6.1028842963e+01   1.6026584940e+01    0.8414549    0.4553832 -83.69  0.002928036    3.962    0.748
       121 -11.2306    249.1470     65.2099   6.0147684768e+01   1.4676797132e+01    0.2272416    0.2016046  16.51 0.0003812276    1.209    0.173
       122 -15.4619    166.5451     80.0817   7.7769183882e+01   3.2326961657e+01     2.229986     1.890034  89.41  0.003991605    1.380    0.275
       123 -11.1179    126.4084     65.8711   8.2673223393e+01   4.4379673966e+01    0.3616762    0.2565705 -74.33  0.001544888    2.019    0.505
       124 -10.0650     11.1370     65.8447   1.1992636011e+02   6.1019432151e+01    0.1614152    0.1078178 -53.63 0.0004200867    1.306    0.234
       125 -12.3574    146.9221     62.6380   7.6643329067e+01   4.0185128247e+01     0.430043     0.320706  27.92  0.001265707    1.569    0.363
       126 -10.1086    100.7478     61.8403   8.8425086475e+01   5.0523163475e+01    0.2421336     0.159146   0.42 0.0009499376    2.805    0.643
       127 -10.0246     21.6975    243.0321   1.3185364164e+02   2.4806417688e+01    0.1278906   0.08312606  70.94 0.0002708627    1.097    0.088
       128 -11.2404    159.0370     54.9969   7.1500139680e+01   3.8465905318e+01    0.2846091    0.2610193 -16.36 0.0003415525    1.101    0.092
       129 -10.0323     97.8230     58.6146   8.8210855644e+01   5.1723381750e+01    0.1879934    0.1381513  58.36 0.0004646307    1.599    0.375
       130  -9.6638     11.5034     58.4380   1.1843207750e+02   6.2639476361e+01    0.1184119   0.09078192 -64.58 7.815631e-05    1.016    0.016
       131 -16.2869    235.7355    124.6181   7.6695546184e+01   9.3894419079e+00       2.5975     2.034215  53.77   0.01434674    1.435    0.303
       132 -11.6085    226.5925     50.7310   5.9105068964e+01   2.1859358685e+01    0.2895782    0.2224765 -43.21 0.0008576885    1.238    0.192
       133  -9.4843      2.4593    242.5249   1.3463045718e+02   2.6731779703e+01   0.09233348   0.05844413  66.49 0.0005601549    1.022    0.021
       134 -10.1748    128.6519     55.7060   7.8677979582e+01   4.5734175013e+01    0.1554955    0.1168667  16.02 0.0007031211    1.672    0.402
       135 -10.6453    116.3127     54.7619   8.1573821960e+01   4.8669365995e+01    0.3373191    0.1861082 -30.08  0.001136477    1.928    0.481
       136 -11.0042    249.5148     53.1794   5.6999317093e+01   1.6137933940e+01    0.2362004    0.2166779 -48.43 0.0004237928    1.083    0.076
       137 -10.9610    121.0325     53.2251   7.9768745131e+01   4.7905533117e+01    0.2704221    0.2153237  78.13  0.001179973    1.571    0.364
       138  -9.8055     57.1786     52.8469   9.9834901981e+01   5.9488383544e+01    0.1734444    0.1395043 -28.80 0.0004181791    1.275    0.216
       139 -10.9825    148.2157     51.3673   7.2574707079e+01   4.1770749985e+01    0.2427938    0.2355113 -16.21 0.0002639728    1.013    0.013
       140 -12.1356    140.7554     48.0981   7.3102323842e+01   4.4143579375e+01    0.6157605    0.2535173 -32.49  0.002203992    2.378    0.580
       141 -10.3689    244.4551     47.3417   5.6042041665e+01   1.8032279783e+01    0.4915578    0.1635686  46.37  0.001644987    3.769    0.735
       142 -12.1804    153.5900     55.8417   7.2925021518e+01   3.9698240031e+01    0.5827277    0.2950985 -21.08  0.002089836    2.519    0.603
       143 -10.5452    236.2957     46.1934   5.6669101526e+01   2.0099869782e+01    0.3774108    0.2338862 -27.18  0.001802669    1.495    0.331
       144 -11.1784    230.5904     46.9988   5.7571115530e+01   2.1371495262e+01    0.2389189    0.2042055  51.88 0.0003831075    1.253    0.202
       145 -10.0564    241.3070     56.5761   5.8851605538e+01   1.7585813346e+01     0.233128    0.1433792  71.74 0.0007901868    1.906    0.475
       146 -11.3895    213.7934     45.4059   5.9277268050e+01   2.5750132528e+01    0.4476584    0.2733248  27.64  0.001142444    2.221    0.550
       147  -9.6601     76.1293     46.8889   9.1039207161e+01   5.7885657398e+01    0.1813465    0.1469328 -22.45  0.001019069    1.254    0.202
       148 -10.5913    202.0956     45.0660   6.0818683732e+01   2.8790599496e+01    0.2529458    0.1706101 -61.37 0.0008916927    1.722    0.419
       149 -10.9201    156.2629     43.3919   6.8130933291e+01   4.0977956872e+01    0.3510232    0.1853936 -25.57  0.001384257    1.972    0.493
       150 -11.3837    150.5703     44.6756   6.9746550016e+01   4.2235769361e+01    0.2891136    0.2461322  12.57 0.0006252616    1.284    0.221
       151 -11.8061    135.2936     44.3929   7.3035622032e+01   4.6070362221e+01    0.4669304    0.2927816  38.82  0.002040194    1.739    0.425
       152 -10.6771    124.5839     42.6516   7.4993211802e+01   4.8896895445e+01    0.4200445    0.1507299 -27.19  0.001296513    3.419    0.708
       153 -10.0550     99.5276     44.4991   8.2601154030e+01   5.4039938625e+01    0.1437303    0.1327889 -24.23 0.0001328179    1.003    0.003
       154  -9.2189     90.3253     44.6711   8.5510016388e+01   5.5799795946e+01    0.1402113    0.1108258 -72.89 0.0007050204    1.700    0.412
       155  -9.8275    146.2808     43.3050   7.0174549158e+01   4.3527722604e+01    0.1530265    0.1160876  18.52 0.0003024108    1.554    0.357
       156 -11.8638    191.4010     39.3583   6.0650662312e+01   3.2346913045e+01    0.4709364    0.2904011  34.75 0.0001666519    1.955    0.489
       157 -11.0765    211.9691     39.6044   5.7824009885e+01   2.6970458303e+01    0.2755788    0.2120868 -27.56  0.000456821    1.254    0.203
       158 -11.4073    183.7758     39.0842   6.1750010400e+01   3.4392511421e+01    0.4577711    0.2610282 -56.40  0.001590871    2.146    0.534
       159 -11.3835    166.4735     39.3970   6.4805842100e+01   3.8906516258e+01    0.3282873    0.2629919  39.45 0.0009661697    1.297    0.229
       160 -10.2792     25.8996     39.0890   1.0784886757e+02   6.5763957181e+01     0.179187    0.1423845 -50.44 0.0003534293    1.007    0.007
       161 -10.6034    155.9470     38.5139   6.6487689607e+01   4.1772868752e+01    0.2294989    0.1487557  58.99 0.0006235342    1.545    0.353
       162 -11.8432    145.3611     33.9433   6.6973839442e+01   4.5137513240e+01    0.5331747    0.2791047 -46.78  0.001901728    2.138    0.532
       163 -10.8899    131.4020     37.0525   7.1221701102e+01   4.8153824661e+01     0.256539     0.215446  50.70 0.0002949967    1.205    0.170
       164 -11.0436    233.2832     35.6844   5.4145447183e+01   2.2128334737e+01    0.2454811    0.2319745  -0.85 0.0003751647    1.134    0.118
       165 -11.1957    218.8904     34.5172   5.5472894776e+01   2.5847333797e+01    0.3315901    0.1578435 -43.13  0.001345676    2.008    0.502
       166 -11.6615    214.0405     32.6070   5.5506251273e+01   2.7316404843e+01    0.3836649     0.214952 -23.86 0.0009684631    1.767    0.434
       167 -10.6757    188.0026     32.5090   5.8982835410e+01   3.4135762133e+01    0.2312052     0.205111 -27.00 0.0007535152    1.120    0.107
       168 -10.1306    171.0351     33.5226   6.2005233236e+01   3.8506248749e+01    0.2315222    0.1495937  65.72  0.001025205    1.577    0.366
       169 -10.8342    167.0140     32.9615   6.2503809719e+01   3.9643739751e+01    0.2917852    0.2278918  80.39 0.0006584265    1.401    0.286
       170  -9.4803    158.4675     32.5051   6.3880255734e+01   4.1951544016e+01    0.1512421    0.1443922  22.44 1.604887e-05    1.054    0.052
       171 -11.5199    199.4927     33.0184   5.7510796657e+01   3.1040008485e+01    0.3350731     0.252757 -41.10 0.0009105002    1.281    0.220
       172 -11.4178    182.3871     27.6954   5.8251042510e+01   3.6229878983e+01    0.3105689    0.2341345 -41.99   0.00144405    1.314    0.239
       173 -10.9475    147.5780     28.9275   6.4666972232e+01   4.5256108207e+01    0.3124968    0.2360011 -84.67  0.001366183    1.642    0.391
       174 -12.0388    177.5903    212.2462   1.0322877348e+02   8.0073470930e+00    0.2196191    0.1986489  28.01 0.0009558547    1.148    0.129
       175 -10.6208    203.0459     28.0774   5.5525553776e+01   3.0713910312e+01    0.2511618    0.1614645 -57.20  0.001029755    1.692    0.409
       176 -11.3938    188.8260     27.4296   5.7231583497e+01   3.4547768309e+01    0.3751834     0.239128  45.36 0.0006796666    1.656    0.396
       177 -10.2634    162.0038     27.2749   6.1387748448e+01   4.1703665768e+01    0.2084677    0.1939086  60.74 0.0003899239    1.071    0.066
       178 -10.1064    211.2018     25.4060   5.3722798108e+01   2.8906093447e+01    0.1976191    0.1374736  88.56  0.000441861    1.582    0.368
       179 -11.0868    226.6324     23.5286   5.1481309530e+01   2.5195143085e+01     0.410727    0.1285545  67.04  0.001433324    3.133    0.681
       180 -11.5156    201.8330     22.0491   5.3830531390e+01   3.1737264408e+01    0.2953051    0.2328784 -10.25 0.0006219092    1.373    0.272
       181  -9.6869    239.3088     22.3091   4.9901240558e+01   2.2220281368e+01    0.1362363    0.1032983  28.29 0.0003001541    1.618    0.382
       182 -10.3272    175.3127     22.5982   5.7605893606e+01   3.8731980117e+01    0.2728392     0.146887  73.80 0.0007929899    2.016    0.504
       183 -10.0538    168.5831     21.7682   5.8358493084e+01   4.0627550233e+01    0.2139778     0.130663 -37.33 0.0006545095    1.617    0.381
       184 -10.1185    194.0295     19.7498   5.4083514088e+01   3.4060805844e+01    0.1995075    0.1878891  72.08 0.0003780061    1.062    0.058
       185 -10.3452     19.2496     16.6140   1.0287295762e+02   7.0794778229e+01    0.1936095    0.1646955 -85.44 0.0007968427    1.667    0.400
       186  -9.5884    162.4974     15.5670   5.7122863732e+01   4.2956097712e+01     0.144928    0.1414478  64.57 8.894427e-05    1.012    0.012
       187 -10.8092    190.0350    241.5189   1.0501937526e+02   2.5565519191e+00    0.2946771   0.08078268  42.27  0.001351934    2.712    0.631
       188 -11.1424    191.5088     13.9103   5.2539253393e+01   3.5368738520e+01     0.242327    0.1953494  40.37 0.0009015231    1.324    0.245
       189 -10.7923    205.9722     12.8788   5.0561928370e+01   3.1653221496e+01    0.2178937    0.2032567 -62.37 0.0005060461    1.021    0.021
       190 -10.2828    128.8502     12.9660   6.2203941461e+01   5.1966046770e+01    0.2211144    0.1794225  24.84            0    1.243    0.196
       191 -10.8146    198.9773    238.2038   1.0318362825e+02   1.5654046742e+00      0.16042    0.1313616  27.85 0.0002933135    1.124    0.110
       192  -9.5876     52.9678    236.0492   1.2674313354e+02   2.2494868813e+01    0.1209305   0.08196139  61.89            0    1.023    0.023
       193 -11.2402    235.0559    234.9924   9.7145090383e+01  -3.4543932931e+00    0.2224143    0.1287119  41.70  0.001240941    1.472    0.320
       194  -9.7572     31.9725    234.3249   1.2993748520e+02   2.5091189667e+01     0.173145   0.01569737  51.61 0.0007047667    4.435    0.775
       195 -10.4289    249.5882    232.7751   9.4644432447e+01  -5.3238003264e+00    0.1641288    0.1026263  36.90 0.0005974006    1.325    0.246
       196 -15.2651    155.9008    126.1400   9.2069428073e+01   2.6133337505e+01     1.513025      1.02603  54.66  0.005644113    1.492    0.330
       197 -10.5807    178.2562    231.9297   1.0572663346e+02   5.4404688899e+00    0.1822631    0.1206296  47.11 0.0005929908    1.251    0.201
       198 -10.8457    176.9260    228.4861   1.0551086917e+02   6.0615336381e+00    0.1525783    0.1342154  34.25 0.0003138871    1.152    0.132
