#   1 NUMBER                 Running object number                                     
#   2 MAG_AUTO               Kron-like elliptical aperture magnitude                    [mag]
#   3 X_IMAGE                Object position along x                                    [pixel]
#   4 Y_IMAGE                Object position along y                                    [pixel]
#   5 X_WORLD                Barycenter position along world x axis                     [deg]
#   6 Y_WORLD                Barycenter position along world y axis                     [deg]
#   7 A_WORLD                Profile RMS along major axis (world units)                 [deg]
#   8 B_WORLD                Profile RMS along minor axis (world units)                 [deg]
#   9 THETA_WORLD            Position angle (CCW/world-x)                               [deg]
#  10 FWHM_WORLD             FWHM assuming a gaussian core                              [deg]
#  11 ELONGATION             A_IMAGE/B_IMAGE                                           
#  12 ELLIPTICITY            1 - B_IMAGE/A_IMAGE                                       
         1 -10.0145     97.4875     13.0994   6.2988491732e+01   5.8482122458e+01    0.5267528    0.2143896 -11.51  0.001879452    3.537    0.717
         2  -7.8920     25.3206     11.3217   8.9634996480e+01   7.0377765650e+01    0.1232301   0.07154387 -15.61 0.0002143738    1.672    0.402
         3  -9.9414    248.9805    223.5266   8.7058612750e+01  -8.3385273820e+00    0.1935939    0.1611958 -28.76  0.001359982    1.559    0.359
         4 -11.7381    237.5051    240.9029   9.1858378036e+01  -8.5708244119e+00    0.4932485    0.3411824  32.90   0.00193542    1.253    0.202
         5 -11.3339    247.0284    228.9154   8.8303021874e+01  -8.6538018578e+00     0.438242     0.337469   9.59  0.003105188    1.052    0.049
         6 -11.1508    245.9839    247.9508   9.1558175762e+01  -1.0509759864e+01    0.5434754    0.3684985  36.98  0.002997099    1.439    0.305
         7 -11.2469    250.1008    240.7788   8.9747180442e+01  -1.0357715823e+01    0.5457762    0.3129937 -32.65  0.003278632    2.044    0.511
         8  -9.9006    211.4288    247.3359   9.7277036082e+01  -5.3951243265e+00    0.2599795    0.1518988  48.44  0.001527346    1.846    0.458
         9 -10.3517    195.5724    248.5019   1.0018889227e+02  -3.0915222268e+00    0.3632107    0.2361145  18.09   0.00226079    1.605    0.377
        10  -9.5091    157.7227    222.2060   1.0335270994e+02   6.7680234543e+00    0.4764853    0.2513267 -38.29  0.002397279    2.467    0.595
        11 -11.6127    166.2283    248.8062   1.0538026724e+02   1.4860925882e+00    0.9002128    0.3467524  47.29  0.004336526    2.234    0.552
        12 -11.7981    174.3729    245.1274   1.0345837103e+02   6.8360195728e-01     0.897066    0.5306545  61.78   0.00470654    2.506    0.601
        13 -11.8476    168.8788    241.6562   1.0397726245e+02   2.0370087682e+00     1.028523    0.4550476  28.30  0.004425905    3.061    0.673
        14 -11.2582    164.6688    226.4091   1.0264272997e+02   4.9410450945e+00    0.4959958    0.3566192  27.87  0.002151443    1.366    0.268
        15  -9.1132     18.9905    249.7108   1.3016768651e+02   2.1602900510e+01    0.1422735   0.09277001  63.49 0.0005326181    1.086    0.080
        16  -8.7666    107.7742    248.8406   1.1565507164e+02   1.0501432892e+01    0.1588251    0.1320797  48.95 0.0006383369    1.188    0.158
        17  -8.5021     88.0296    249.2356   1.1907202488e+02   1.3261858573e+01    0.1526834   0.07425898  43.89 0.0008901243    1.660    0.397
        18  -8.6894    222.6641    245.3201   9.5053277467e+01  -6.8625850588e+00    0.1032492   0.08549492  52.67 0.0007049709    1.705    0.413
        19  -8.3083     97.7658    242.5997   1.1680654977e+02   1.2960770055e+01    0.1698497    0.0813986  50.53 0.0009505557    1.646    0.393
        20 -10.4090    107.4781    237.1961   1.1455203010e+02   1.2420481423e+01    0.4171307    0.2366155  89.47  0.002204514    2.561    0.610
        21 -11.3271    169.7445    231.9131   1.0248208645e+02   3.2755367549e+00    0.7290021    0.5079869 -33.57  0.004488307    1.790    0.441
        22 -10.1115    231.7460    236.9594   9.2204913399e+01  -7.2870242431e+00    0.2663681    0.1296692  30.97  0.001471409    1.711    0.416
        23 -10.1799    160.5348    227.4846   1.0356975038e+02   5.4724472021e+00    0.2838881    0.2465256   7.94 0.0009717222    1.327    0.246
        24 -10.6757    236.3666    230.6134   9.0386707820e+01  -7.2619525146e+00    0.2961414    0.2428114 -48.63   0.00198548    1.995    0.499
        25  -8.8753    114.8224    229.0841   1.1233442175e+02   1.2659709171e+01     0.269553    0.1520828 -54.07  0.001527192    2.116    0.527
        26 -11.1599     99.3160    226.9016   1.1497473978e+02   1.5402478578e+01    0.4955586    0.3397681  41.62  0.002603669    1.372    0.271
        27 -10.6474    107.2397    223.5800   1.1313451739e+02   1.4787845366e+01    0.4721293    0.2966907  28.00  0.002254302    2.089    0.521
        28  -8.7002    144.8369    228.9373   1.0670811825e+02   7.8592965421e+00     0.185585    0.1505784  27.15  0.001047322    1.316    0.240
        29 -10.8285    128.5108    225.4872   1.0934149457e+02   1.1094242492e+01    0.3152208    0.2649924  76.71  0.002122496    1.233    0.189
        30 -11.4597    125.5515    221.1109   1.0935861771e+02   1.2320221774e+01    0.5119243    0.4258082 -51.25 0.0008088195    1.460    0.315
        31  -9.7879    185.0395    226.8489   9.8917870759e+01   1.4480212982e+00    0.2156285    0.2069288 -17.74 0.0007622148    1.262    0.207
        32  -9.6242    181.3233    226.8518   9.9604730701e+01   2.0709504198e+00    0.2824927    0.2055124 -34.53  0.001756082    1.633    0.388
        33  -9.7913     88.4179    224.2917   1.1672634148e+02   1.7466678355e+01    0.3240747    0.1495934 -68.72  0.001688836    2.403    0.584
        34 -10.5896     91.0087    219.6715   1.1577344316e+02   1.7932466455e+01    0.3788557    0.2027696 -80.26  0.001988372    2.265    0.558
        35  -8.0817      1.4881    226.4613   1.3183584360e+02   2.7339872388e+01    0.1021367   0.06904677  74.02 9.503583e-05    1.015    0.015
        36  -9.3736     20.2450    222.7730   1.2863626944e+02   2.6179792438e+01    0.1865699    0.1342203  40.41  0.001407175    1.640    0.390
        37 -10.7919    131.3189    216.5896   1.0766071769e+02   1.2156505636e+01    0.5784422    0.2752724 -62.12  0.002708251    2.728    0.633
        38  -9.3814    114.7385    221.3248   1.1145239105e+02   1.4016380125e+01    0.2243009    0.1923801  14.55  0.000751714    1.600    0.375
        39  -9.0676    192.2495    218.7629   9.6314112147e+01   1.3796672050e+00    0.2990696    0.2476075 -38.67  0.001936142    1.444    0.307
        40  -9.1313    148.8996    220.4068   1.0478377419e+02   8.5555516726e+00    0.2150885     0.180635 -34.10 0.0008023731    1.472    0.321
        41 -11.1369     99.1273    219.0333   1.1416652484e+02   1.6842025677e+01    0.5100219    0.3525569  61.22  0.002621566    1.255    0.203
        42  -8.7935    134.6831    222.3044   1.0776360978e+02   1.0620360500e+01    0.1627793    0.1363152  27.61 0.0003668933    1.327    0.247
        43  -8.1443    176.4904    227.4897   1.0059527072e+02   2.7907395631e+00    0.1260584     0.102117  31.03 0.0008096046    1.068    0.064
        44  -8.8707     75.1734    219.8922   1.1875514066e+02   2.0136354046e+01    0.1813221    0.1268889  65.91 0.0004654508    1.177    0.150
        45  -9.2601    175.7338    217.2565   9.9183086912e+01   4.4446170095e+00    0.3412087    0.2077749 -34.00  0.001839217    1.997    0.499
        46  -9.3489    143.9040    215.6956   1.0508757801e+02   1.0189901184e+01    0.3368607    0.1844076 -43.96  0.001721024    2.233    0.552
        47  -9.9244     84.8741    216.0282   1.1655886788e+02   1.9498922600e+01    0.2757964    0.2014771  20.98  0.001620995    2.111    0.526
        48  -9.5742    119.6194    215.1868   1.0975834690e+02   1.4327537005e+01    0.3329249    0.1307852  51.76  0.001425477    2.461    0.594
        49  -9.5414    112.3650    214.0837   1.1103689545e+02   1.5693488969e+01    0.2708255    0.2313632   1.10  0.001123694    1.747    0.428
        50  -8.5704    115.5126    210.4747   1.0996588050e+02   1.5851885965e+01    0.2124622    0.1241279 -65.32 0.0006514512    1.954    0.488
        51  -8.7923    186.1179    211.8015   9.6331315748e+01   3.4659868336e+00    0.2393532     0.157471  24.44 0.0007879378    1.552    0.356
        52 -10.6612     78.2464    210.5994   1.1727336406e+02   2.1472978745e+01    0.3319269    0.2426318  51.42  0.001367449    1.217    0.178
        53  -9.4497    202.8624    209.1585   9.2728879155e+01   9.3608304318e-01    0.2682461    0.2294715   8.80   0.00110855    1.103    0.093
        54  -9.9667    245.5407    209.3359   8.5130025971e+01  -6.1457823234e+00    0.2456608    0.1341041  34.53  0.001358123    1.619    0.382
        55  -9.0011    134.5463    208.8019   1.0595695534e+02   1.2988833350e+01    0.3242003    0.1457734  45.67  0.001314454    1.922    0.480
        56  -9.1455     94.4466    209.4902   1.1400327298e+02   1.9331850876e+01     0.211478    0.1147812  31.06  0.001030982    2.323    0.570
        57  -8.4414    193.5425    207.9587   9.4274877888e+01   2.7414723324e+00    0.1733201    0.1069565  -9.55 0.0006109074    2.430    0.589
        58  -8.3134    162.7581    208.3892   1.0030141068e+02   8.1357878959e+00    0.1838243    0.1095762  33.28 0.0004181012    1.625    0.385
        59  -8.7129    212.9657    207.4867   9.0567072253e+01  -5.6649129525e-01    0.2210803    0.1421044  23.50  0.001209427    1.486    0.327
        60  -9.1101    214.0400    203.8220   8.9714202444e+01  -2.3442895990e-01    0.4796777    0.2361221  54.90  0.001964268    3.192    0.687
        61 -10.0882    123.9989    205.9970   1.0767811029e+02   1.5283860361e+01    0.1837107    0.1568617  57.09            0    1.008    0.008
        62  -8.3345    117.3539    206.2809   1.0905253025e+02   1.6332723012e+01    0.1199595   0.09994742  12.59 0.0007014404    1.656    0.396
        63  -9.8178    248.5550    205.1206   8.3845555946e+01  -6.0959599448e+00    0.2472587    0.1648598  42.19 0.0009849274    1.625    0.385
        64 -10.5313    249.8775    198.6871   8.2418875831e+01  -5.4976137971e+00    0.3816187    0.2174003 -29.93  0.001891232    1.729    0.421
        65  -9.9122     12.7081    206.9026   1.2903976319e+02   2.9919086425e+01    0.1967813    0.1594898  18.45  0.001479694    2.058    0.514
        66  -8.8027     89.0161    199.5014   1.1392901361e+02   2.2100276958e+01    0.2319066    0.1547569  84.56  0.001203598    1.574    0.365
        67  -8.7873    164.8875    198.7909   9.8317085889e+01   9.3780465451e+00    0.2114458    0.1712288  14.11    0.0011649    1.387    0.279
        68  -9.6326    126.7150    197.0325   1.0584745855e+02   1.6512719697e+01    0.2602067    0.2391992   3.99  0.001156706    1.366    0.268
        69 -10.8452    173.3937    194.7179   9.5910291990e+01   8.5122122995e+00    0.5638362    0.4009464 -43.46  0.001748023    1.573    0.364
        70  -8.7245    131.8780    195.3920   1.0453017250e+02   1.5930023620e+01    0.1933603     0.155383  44.63  0.001052532    1.137    0.120
        71  -8.0497     66.5307    195.0144   1.1798250389e+02   2.6185220319e+01    0.1775175   0.08903505  83.08 0.0008093195    2.525    0.604
        72  -8.3328    180.6891    194.0041   9.4327387375e+01   7.2801882911e+00     0.179367    0.1692422  11.67 0.0004821032    1.088    0.081
        73  -8.8962    135.5727    193.1866   1.0341902130e+02   1.5699131245e+01    0.3100069    0.1899502  63.45  0.001471107    1.958    0.489
        74  -9.0935    124.5089    192.4267   1.0562167845e+02   1.7784942415e+01    0.2338955    0.2041917  63.04 0.0005758912    1.041    0.039
        75  -7.5609    112.3198    197.6623   1.0891650963e+02   1.8812586508e+01    0.1377265   0.09097382  71.71 0.0007049764    1.709    0.415
        76  -7.9644    162.3421    190.3323   9.7386642402e+01   1.1337285341e+01    0.1403003    0.1049727   7.94 0.0007051065    1.753    0.429
        77  -8.5234    197.5169    181.9127   8.8734256452e+01   6.1265772961e+00    0.1952333    0.1345864 -34.45 0.0004791751    1.527    0.345
        78  -9.5838    203.1587    187.7099   8.8762618537e+01   4.1304515408e+00    0.4011644    0.3644233 -88.94  0.002398765    1.542    0.352
        79  -8.5499    198.6253    185.7733   8.9266854417e+01   5.2856073457e+00    0.2217806    0.1976323   4.52 0.0009687422    1.074    0.069
        80  -8.3603    138.5224    189.5006   1.0221108927e+02   1.5876958624e+01    0.2234822    0.1357239 -53.86  0.001102883    1.812    0.448
        81 -10.0644    140.8737    184.6076   1.0090102428e+02   1.6395372972e+01    0.6479416    0.2792192  47.19  0.002413598    2.173    0.540
        82  -7.7292    129.3359    188.6355   1.0401731075e+02   1.7685973615e+01    0.1446634   0.09926142  74.78 0.0007034025    1.827    0.453
        83  -8.0421    113.3068    192.2771   1.0795751074e+02   1.9715064528e+01    0.1192654    0.1050551   3.93 0.0003505694    1.551    0.355
        84  -9.3474     95.2449    187.6890   1.1115027527e+02   2.3562527027e+01    0.3096414    0.1824162  67.94 0.0009095089    1.929    0.482
        85  -8.5486     91.3203    185.3417   1.1167684791e+02   2.4658469411e+01    0.2397601    0.1252032  35.59  0.001135845    2.070    0.517
        86  -8.5855     67.9138    189.0000   1.1705817890e+02   2.7250477439e+01    0.1954061   0.06523106  37.62  0.000805028    2.960    0.662
        87  -9.5977    230.0500    185.7189   8.3371857166e+01  -4.3210927492e-01    0.2952552    0.2485547 -83.53  0.001645606    2.132    0.531
        88  -8.3348     54.9983    186.9983   1.1950895105e+02   2.9339277142e+01    0.2619143    0.1030655  68.01 0.0009498183    4.057    0.754
        89  -9.2698    245.7820    185.9966   8.0663279280e+01  -3.1652876837e+00    0.2450409    0.1471963  24.73  0.001296348    1.626    0.385
        90  -8.8652    108.9348    185.5939   1.0792306649e+02   2.1797352242e+01    0.3522001    0.1772735  68.02  0.001316832    3.318    0.699
        91 -10.1393    211.1961    182.9150   8.6296409597e+01   3.3955091548e+00    0.4963479    0.3307648   5.03  0.002454452    1.837    0.456
        92  -9.4668    212.5639    176.7046   8.4794022055e+01   4.1204089563e+00    0.3706171    0.2567709 -53.54  0.001850153    1.980    0.495
        93 -10.9762     13.9881    182.2589   1.2728762113e+02   3.4739898823e+01    0.3547324    0.2936053   4.58  0.002394547    2.049    0.512
        94  -8.2382    218.0000    182.8761   8.5012073868e+01   2.1490875267e+00    0.2021479   0.07431325 -36.34 0.0005700606    2.800    0.643
        95 -10.5902    175.3914    179.8801   9.2787357371e+01   1.0732633582e+01    0.6533645    0.3994649 -11.55  0.002603006    2.967    0.663
        96  -8.4379    165.6746    182.9738   9.5378431612e+01   1.2042589963e+01    0.1900884    0.1813311  17.22  0.000668103    1.069    0.065
        97  -8.5928    156.0750    188.0125   9.8279077744e+01   1.2930578955e+01    0.2093822    0.1639263  83.27  0.001104959    1.671    0.402
        98  -9.3186    183.3499    181.0140   9.1380782937e+01   8.9937395866e+00    0.2539665    0.1862541  40.01 0.0006523459    1.257    0.204
        99  -8.7669    157.1234    181.1708   9.6842621384e+01   1.4010877187e+01    0.2061479    0.1800035  18.97 0.0003869143    1.223    0.182
       100  -8.7513    147.8043    181.0238   9.8799327294e+01   1.5803632347e+01    0.2227889     0.159454 -89.71  0.001018988    2.033    0.508
       101 -10.4293    204.7395    176.2511   8.6200704761e+01   5.6806402467e+00    0.4632138    0.3092028 -26.63  0.001752721    1.577    0.366
       102  -9.7971    208.0450    170.2189   8.4324647616e+01   6.0376914401e+00    0.4070859    0.2965978  11.12  0.002091519    1.512    0.339
       103 -10.4675    213.9446    168.2324   8.2781775403e+01   5.2221407257e+00    0.5232616    0.3190831  37.17  0.002468064    1.576    0.365
       104  -9.0611    232.3975    177.7142   8.1346793206e+01   3.1958265558e-01     0.187495    0.1173628 -20.25 0.0009516217    1.621    0.383
       105  -9.9882     99.1220    177.6450   1.0890169375e+02   2.5068776643e+01     0.357595    0.1568388  50.34  0.001056716    2.242    0.554
       106  -9.3221     76.7687    176.4110   1.1366963126e+02   2.8722193522e+01    0.3633889    0.2334158  84.33   0.00192872    1.659    0.397
       107  -8.5946    250.3068    177.6739   7.8224837934e+01  -2.7836798765e+00    0.1154121    0.1038628 -54.78 0.0007036382    1.651    0.394
       108  -8.4618    170.6778    177.6722   9.3341745747e+01   1.2048916175e+01    0.1444728    0.1086115   6.52 0.0007048596    1.690    0.408
       109  -8.1855    120.6607    177.7028   1.0414260306e+02   2.1428152471e+01    0.1319152    0.1107111  -0.56 0.0007032637    1.659    0.397
       110  -8.4203     87.0938    177.3292   1.1151664910e+02   2.7009815646e+01    0.2491753    0.1229308  31.79  0.001091641    2.500    0.600
       111  -9.5340    183.3391    173.7599   8.9960151457e+01   1.0274713378e+01    0.5081587    0.2468064 -25.15  0.001797304    3.397    0.706
       112  -9.7755    149.1039    175.1022   9.7450302448e+01   1.6714000451e+01    0.3381793    0.3173348 -51.07  0.001425628    1.141    0.124
       113  -9.8298    105.0734    174.8278   1.0715197221e+02   2.4701283024e+01    0.3051562    0.1814785  73.56  0.001343504    2.296    0.564
       114 -10.0108     20.1354    173.7725   1.2544994619e+02   3.5960483468e+01    0.3584361    0.1760019  83.44  0.001868003    1.880    0.468
       115  -9.7982     15.2718    170.8734   1.2621484896e+02   3.7026560697e+01    0.2628004    0.2187868  -0.35  0.001675171    1.985    0.496
       116  -8.4307    218.4129    174.2644   8.3195661865e+01   3.4067112326e+00    0.1731035    0.1276865 -38.49 0.0004703112    1.456    0.313
       117  -8.8615    193.2811    173.2715   8.7851257738e+01   8.4046106622e+00    0.2657215    0.1932358  17.19 0.0006994294    1.520    0.342
       118  -9.3790     92.7388    173.8678   1.0977196718e+02   2.6894791216e+01    0.2722403    0.1487734  62.29  0.001231257    2.107    0.525
       119  -9.1409    176.9692    171.3103   9.0784399486e+01   1.1979350830e+01    0.2558341    0.1906005 -38.20 0.0005845897    1.418    0.295
       120  -9.3155     80.6037    171.0259   1.1209814831e+02   2.9351920059e+01    0.5782011    0.1587905  33.91  0.001847143    4.659    0.785
       121  -9.1111    161.7296    170.1389   9.3777958637e+01   1.5224752351e+01    0.2996733    0.2019811  39.19  0.001459243    1.417    0.294
       122  -8.4216    121.8467    170.0000   1.0258268487e+02   2.2834779051e+01    0.2331757     0.157022  88.06 0.0008489561    2.039    0.510
       123  -8.0294    107.3160    170.3486   1.0593791383e+02   2.5291536831e+01    0.1337401    0.1101181 -19.62 0.0006343596    1.727    0.421
       124  -8.4056     55.2205    170.0103   1.1763859264e+02   3.2991520677e+01     0.216277    0.1178257  79.53  0.001052824    2.076    0.518
       125  -8.9643    247.5316    168.5048   7.6805129558e+01  -1.0157905834e+00    0.1349843    0.1122567  -0.81 0.0002756047    1.020    0.020
       126  -8.4091    199.0069    167.5046   8.5523231667e+01   8.2700198308e+00    0.2122356     0.113666  24.37  0.000810537    2.591    0.614
       127  -9.0977    192.2741    164.5796   8.6255390540e+01   1.0129223424e+01    0.5369666    0.1251665 -35.67  0.001340507    5.928    0.831
       128  -8.7516      3.5071    167.3085   1.2833778449e+02   3.8779708118e+01     0.162879   0.09705151  34.32  0.001065436    1.978    0.494
       129  -9.6321    149.5932    164.6726   9.5358961194e+01   1.8704066992e+01    0.3942494    0.2866383  74.23  0.001862587    1.809    0.447
       130  -8.7932     98.7952    166.0373   1.0719897192e+02   2.7648329825e+01    0.2276263     0.145908  81.63 0.0007713647    1.993    0.498
       131  -9.1291    185.7975    163.8853   8.7430333400e+01   1.1564585235e+01    0.2998088     0.220253  19.21  0.001124865    1.530    0.346
       132  -9.2046    156.5409    164.2672   9.3743215814e+01   1.7407764238e+01    0.4326247    0.2577544  22.21  0.001600421    2.526    0.604
       133  -9.1170     79.7248    163.9194   1.1129535578e+02   3.1065725734e+01    0.4113738     0.206475  77.24  0.001480547    3.658    0.727
       134  -8.4005     89.5017    164.4663   1.0910709118e+02   2.9473708228e+01    0.1358264    0.1208811  83.63 5.483251e-05    1.006    0.006
       135  -8.4781    122.9918    163.0162   1.0108069086e+02   2.4121511482e+01    0.2467787    0.1565761  19.08  0.001015899    2.562    0.610
       136  -8.8571      9.7301    162.1459   1.2669427831e+02   3.9383722185e+01    0.1971059    0.0785422  66.81 0.0009337905    2.694    0.629
       137  -8.7147    205.7592    159.6981   8.2530792002e+01   8.2646167003e+00    0.2231206       0.1665  22.27 0.0005580307    1.383    0.277
       138  -9.2562    144.6929    159.4844   9.5430312068e+01   2.0735790928e+01    0.2644026    0.1374348  47.20 0.0006196202    1.873    0.466
       139  -9.0782    139.8475    158.7399   9.6385913863e+01   2.1843226576e+01    0.3633654    0.2296378  10.91  0.001326221    3.251    0.692
       140  -8.7238    105.4814    158.1515   1.0431344398e+02   2.8289683996e+01    0.3346156    0.1829581  69.96  0.001251334    3.003    0.667
       141  -9.5684    213.1273    155.2270   8.0131176785e+01   7.5446478124e+00    0.3036117     0.268598 -33.66   0.00171376    1.183    0.155
       142  -8.8939     50.0434    155.6360   1.1710111603e+02   3.6851150593e+01    0.2943912     0.140016  67.57  0.001263102    2.751    0.636
       143  -8.2164    249.6500    154.9928   7.3567966040e+01   5.8416013344e-01    0.2230879   0.09184408 -48.87 0.0007043144    4.574    0.781
       144  -7.9488    226.9919    156.0000   7.7726070867e+01   4.6760925809e+00    0.2132965   0.07769545  46.02 0.0004292211    2.789    0.641
       145  -8.5352     82.1201    154.9523   1.0937353547e+02   3.2751465232e+01    0.3095005     0.150763  62.71  0.001202114    2.891    0.654
       146  -8.1525     31.6847    155.6295   1.2132754541e+02   3.8834410181e+01     0.121741   0.08023481 -49.95 0.0007035145    1.783    0.439
       147  -8.6682    133.0628    152.7417   9.6758140469e+01   2.4444971712e+01    0.3013876    0.1862937 -79.07  0.001156188    2.712    0.631
       148  -9.1657    230.4755    149.6023   7.5680089378e+01   5.0266378946e+00     0.474575    0.2487392 -51.31  0.001876453    2.799    0.643
       149  -7.9649    168.4766    152.5020   8.8661927968e+01   1.7304591643e+01    0.1520505    0.1386581  10.18 0.0001219667    1.138    0.121
       150  -8.8372     12.9935    153.0000   1.2525500581e+02   4.1118948860e+01    0.1589091   0.06524391  28.63 0.0008045773    2.957    0.662
       151  -8.6029     93.0265    160.9704   1.0773397527e+02   2.9706075523e+01     0.234833    0.1544473  75.42  0.001134364    1.798    0.444
       152  -9.2752    189.9925    146.4604   8.2738747422e+01   1.3910481824e+01    0.3707541    0.2062318 -28.91  0.001010637    2.045    0.511
       153  -8.7069     82.9944    149.5123   1.0828093140e+02   3.3874535126e+01    0.1799164    0.1263336   2.64  0.000810517    2.597    0.615
       154  -8.5824     51.1383    149.2069   1.1601999052e+02   3.8201568721e+01    0.2426246    0.1123772  23.20  0.001022033    3.365    0.703
       155  -8.4616    134.0164    147.9812   9.5554521287e+01   2.5291570193e+01     0.233878    0.1869372  -2.25   0.00112434    1.711    0.415
       156  -8.7741     39.5580    147.8191   1.1862289484e+02   3.9808682258e+01    0.3460372     0.134465  61.12  0.001304383    3.778    0.735
       157  -9.3315    149.2157    145.4661   9.1449296101e+01   2.2759926880e+01    0.4572727    0.3039153  88.48  0.001753833    2.728    0.633
       158  -9.2825    107.7170    145.4965   1.0143890535e+02   3.0764110405e+01    0.5869536    0.3045763  69.22   0.00185734    4.128    0.758
       159  -9.2119     56.6737    146.1126   1.1424814110e+02   3.8257131901e+01    0.4927265    0.2005639  62.02   0.00167694    4.287    0.767
       160  -8.3851     13.7033    146.9498   1.2456047745e+02   4.2408560458e+01    0.1644403     0.123281  89.42 0.0008237171    1.048    0.045
       161  -8.4144    119.7815    155.9474   1.0051938039e+02   2.6250240562e+01    0.2410588    0.1630761 -89.62  0.001065331    2.053    0.513
       162  -8.2007    224.1849    144.5880   7.5677682876e+01   7.0989832553e+00    0.2014685    0.1280218  33.07 0.0009409247    1.649    0.393
       163  -8.7029    218.9389    143.6631   7.6428577717e+01   8.3237124079e+00    0.2037417    0.1785721  34.49  0.001002255    1.160    0.138
       164  -8.7473    125.5007    143.5135   9.6666092916e+01   2.7932796402e+01    0.3445542    0.2094952 -82.29  0.001249426    3.004    0.667
       165  -8.5975     88.0057    143.9460   1.0607583257e+02   3.4399389881e+01    0.2232055    0.1573366  80.68 0.0005802921    1.647    0.393
       166  -8.4320    206.9397    143.2018   7.8597890123e+01   1.0903508564e+01    0.2004972    0.1155632  46.98 0.0008662699    1.765    0.433
       167  -8.5179    221.1033    149.3472   7.7322366730e+01   6.9279517771e+00    0.1925306     0.133733  54.88 0.0009308614    1.700    0.412
       168  -9.0707    243.4989    139.4944   7.1148402075e+01   4.1002181483e+00    0.1412994    0.1232206 -10.16 0.0008106483    1.010    0.010
       169  -8.8769     23.9532    138.8007   1.2133193506e+02   4.3390621078e+01    0.3030537    0.1377017  66.03  0.001387289    2.733    0.634
       170  -8.3377    197.5630    137.8102   7.9183822431e+01   1.3884986174e+01    0.2058755    0.1393094 -48.31 0.0004441282    1.611    0.379
       171  -8.3217    106.6385    138.6944   1.0035924573e+02   3.2513479964e+01    0.1453396    0.1165786 -13.19 0.0005777356    1.733    0.423
       172  -9.0505     58.1339    136.2464   1.1241038979e+02   4.0391822255e+01    0.3152042    0.2116165 -23.31  0.001529937    2.487    0.598
       173  -8.5042    150.1887    136.2173   8.9130411889e+01   2.4514247153e+01    0.2559894    0.1704926   2.68 0.0009445494    2.783    0.641
       174  -8.5245     38.8901    136.3255   1.1733584097e+02   4.2543283832e+01    0.1999896     0.132735  63.64  0.001141289    1.576    0.366
       175 -10.1510    249.5904    131.1394   6.8243083377e+01   4.2286201975e+00     0.428415    0.2058077 -25.85  0.001804908    2.086    0.521
       176  -8.1189    112.6951    133.3263   9.7691988215e+01   3.2652473177e+01    0.1519384    0.1143333  84.97 0.0005000685    1.647    0.393
       177  -9.4656     83.5009    132.0303   1.0503529557e+02   3.7890461692e+01    0.3664626    0.2387221  70.37  0.001206976    1.949    0.487
       178  -8.8519    226.8920    131.8859   7.2236622686e+01   8.6660896331e+00    0.2357466    0.1902736   2.33  0.001235595    1.294    0.227
       179  -8.6578    132.4884    132.0021   9.2414660646e+01   2.9110489718e+01    0.3050512    0.1869251  78.76  0.001030397    3.328    0.700
       180  -8.2459    143.3158    131.6980   8.9703794969e+01   2.6936882418e+01    0.1544313     0.122005  87.49 0.0004423242    1.618    0.382
       181  -8.9763     23.6669    130.4904   1.2044477303e+02   4.5330397245e+01    0.3048113    0.1614633 -32.77  0.001425044    3.211    0.689
       182  -9.1058     41.6392    129.6679   1.1570777913e+02   4.3820114448e+01    0.3153944    0.1743103  -0.93  0.001230012    4.546    0.780
       183  -8.8490     13.0580    129.8409   1.2302730065e+02   4.6331944531e+01    0.2674348    0.1300012  69.16  0.001338604    2.382    0.580
       184  -9.1965     99.3154    128.2069   1.0007395998e+02   3.6222606704e+01     0.399965    0.2614158  86.23   0.00168096    2.300    0.565
       185  -8.1245     73.3217    129.6950   1.0730209758e+02   3.9938066003e+01    0.1415287    0.1003429  77.64 0.0007031185    1.637    0.389
       186  -8.8382    117.9515    125.5257   9.4591337318e+01   3.3443513431e+01    0.3163494    0.1997966  73.17  0.001221191    2.540    0.606
       187  -9.7491     59.8674    124.7027   1.1003627353e+02   4.2912101164e+01    0.5057527    0.2639294  78.25  0.001843451    3.658    0.727
       188  -8.4709    132.3336    125.3198   9.0878976917e+01   3.0622710653e+01    0.1560148    0.1233271  -3.98 0.0007049206    1.699    0.411
       189  -9.6709     44.2287    123.3568   1.1406674453e+02   4.5036685571e+01    0.5145597    0.2637771  73.09   0.00213188    3.046    0.672
       190  -9.4809     29.0815    123.1102   1.1809834442e+02   4.6573867446e+01    0.6076388    0.2592193  76.36    0.0020137    5.061    0.802
       191  -8.1746    179.2281    124.2672   7.9680677236e+01   2.0547116046e+01    0.2470768    0.1173499 -49.18 0.0008062932    2.378    0.579
       192  -8.9984     84.9602    122.2329   1.0267963770e+02   3.9979205318e+01    0.3874782    0.2565654  -2.89  0.001583343    2.943    0.660
       193  -9.7100     13.7327    120.3368   1.2179248613e+02   4.8460925889e+01     0.411558    0.1377832 -46.43    0.0016795    3.625    0.724
       194  -9.0781    142.3807    120.3818   8.7171450385e+01   2.9585731890e+01    0.3871399    0.2525676 -71.79  0.001454215    2.322    0.569
       195  -8.5152     99.2864    119.7088   9.8209324770e+01   3.8209414106e+01    0.2885796    0.1910545  10.84  0.001181852    2.569    0.611
       196  -8.0331     71.2934    120.6058   1.0612536955e+02   4.2379870757e+01    0.1464393    0.1010369  84.66 0.0007005516    1.787    0.441
       197  -9.4801    248.9771    118.7298   6.5453683356e+01   6.2902788366e+00    0.2973002    0.1693137  -7.54  0.001172772    2.686    0.628
       198  -9.2893      3.1439    117.5023   1.2422867847e+02   4.9823010796e+01    0.3284849    0.1393723  80.73   0.00147618    2.921    0.658
       199  -8.6796    109.7270    114.6640   9.4180050959e+01   3.7487617358e+01    0.3065373    0.1805938 -71.59  0.001149306    2.567    0.610
       200  -9.4814     79.7257    113.1762   1.0220041456e+02   4.2919096272e+01    0.4211265    0.2686203  85.79  0.001785205    2.444    0.591
       201  -9.1095     92.8550    112.8508   9.8404881426e+01   4.0906234609e+01    0.3258105    0.2279182  85.83  0.001462886    2.022    0.506
       202 -11.1943     14.5402    108.9562   1.2014720183e+02   5.1025780206e+01    0.7078391    0.2683927 -59.83  0.003162463    1.974    0.493
       203 -10.3538     23.0779    103.0940   1.1685158223e+02   5.1748273636e+01    0.5748654    0.3063307  75.00  0.002708016    2.665    0.625
       204  -8.1636    141.3638    112.3154   8.5345400246e+01   3.1545541629e+01    0.1630785    0.1250683   4.00   0.00070406    1.765    0.434
       205  -8.1081    122.3012    112.7029   9.0327095034e+01   3.5480749046e+01    0.1520402    0.1211604 -89.78 0.0002547907    1.578    0.366
       206  -8.0193    156.9965    112.0000   8.1491210909e+01   2.8108403527e+01    0.2516136   0.09009798  47.91 0.0004478086    2.831    0.647
       207  -8.6565     66.7744    111.1476   1.0549446765e+02   4.5239682618e+01    0.2355141    0.1392779  76.46 0.0007813209    2.868    0.651
       208  -9.5609      2.9408    109.3192   1.2338309272e+02   5.1693746429e+01    0.2815185    0.1479167 -35.31  0.001537876    2.517    0.603
       209  -7.7906     59.3129    109.6517   1.0736229660e+02   4.6555113213e+01    0.1395022   0.09900597  82.13 0.0005558846    1.718    0.418
       210 -10.5399    249.6497    104.5858   6.1991145765e+01   8.3761691364e+00    0.5642887    0.1763359 -33.43  0.001959779    2.826    0.646
       211  -9.4291    111.0786    106.4999   9.1749444344e+01   3.9085959071e+01    0.3931669    0.2418874  27.97  0.001465724    2.074    0.518
       212  -9.2645     61.2378    106.3563   1.0611723727e+02   4.7092670657e+01    0.2249234    0.1724709  49.17  0.001081835    1.474    0.321
       213  -9.9202     45.7247    102.6735   1.1001889975e+02   4.9764509861e+01    0.6825692    0.3394852  67.94  0.002411556    4.412    0.773
       214  -7.9966    139.5077    104.9914   8.3842782841e+01   3.3519515158e+01     0.220695    0.1348926 -65.21 0.0006136239    2.404    0.584
       215  -8.4542    150.3636    104.1663   8.0944867506e+01   3.1247399962e+01    0.2318616    0.1424076 -51.20 0.0007449712    1.736    0.424
       216  -8.6418     93.0322    104.0469   9.6217558178e+01   4.2916296943e+01    0.2356755    0.1765833 -18.57  0.001092985    1.733    0.423
       217  -9.1816      6.4427    103.1855   1.2166937327e+02   5.2880869612e+01    0.1743336   0.09178648 -84.11  0.000947815    1.714    0.417
       218  -7.8307    215.5087    102.5481   6.6985465191e+01   1.6186219209e+01    0.1506196    0.1420969 -29.27 0.0002459623    1.018    0.018
       219  -9.3902    108.7606     98.9183   9.0373456978e+01   4.1228991733e+01    0.4254218    0.2817498  74.60  0.001083681    2.508    0.601
       220  -8.8551    130.0427     97.6194   8.4217783797e+01   3.7159107738e+01    0.3096101    0.1936492  31.89  0.001271687    1.902    0.474
       221  -8.3505     95.2035     97.4326   9.3871722373e+01   4.4050549738e+01    0.1941634     0.139037  55.62 0.0005124907    1.637    0.389
       222  -9.4122      7.5326     96.9918   1.2052649425e+02   5.4227471448e+01    0.2413234   0.09147371 -38.06  0.001032336    3.531    0.717
       223 -10.3757     22.3935     91.8046   1.1518498985e+02   5.4410715394e+01    0.4888232     0.229299 -30.09   0.00216733    3.212    0.689
       224  -9.1488    109.2705     91.4824   8.8143877972e+01   4.2764481617e+01    0.5513591    0.2491462  31.37  0.001852349    3.174    0.685
       225  -9.3535     45.9713     91.7662   1.0769511846e+02   5.2282915034e+01    0.4243713    0.1867399  18.38  0.001725488    3.523    0.716
       226  -8.6234    124.6884     91.1011   8.3759209594e+01   3.9689556928e+01    0.2536676    0.1706627 -82.78 0.0009385716    2.730    0.634
       227  -9.3342     64.0264     96.4811   1.0307598494e+02   4.9046176417e+01    0.4258849    0.2653593  76.44  0.001801827    2.792    0.642
       228  -8.8934     86.3732     86.8296   9.3621711210e+01   4.7928043421e+01    0.2830647    0.2173856  74.98 0.0009260636    1.807    0.447
       229  -8.7173     64.6764     87.0188   1.0054319500e+02   5.1133184352e+01    0.2795188    0.1728288  -7.72  0.001176945    2.833    0.647
       230  -9.2819     48.2858     84.4489   1.0527073228e+02   5.3712268913e+01    0.2797659    0.1958026  73.58  0.001447366    2.058    0.514
       231 -10.3876      8.7011     83.4778   1.1811635111e+02   5.7222066280e+01    0.3800816    0.3109623 -70.50  0.001047442    1.094    0.086
       232  -8.8205    104.8345     83.5025   8.7075337280e+01   4.5338036071e+01     0.280335    0.1966678 -79.06  0.001150316    2.308    0.567
       233  -9.6529     36.9526     81.2856   1.0832556441e+02   5.5585617230e+01    0.3884887     0.209263 -16.70  0.001690394    3.187    0.686
       234  -9.2075     24.5766     81.1217   1.1245727648e+02   5.6681731209e+01    0.3065621    0.1948682  80.68   0.00128688    2.181    0.542
       235  -9.1368     88.7354     79.7619   9.0826512699e+01   4.9070611696e+01    0.4160345    0.1792677  26.34  0.001298529    4.209    0.762
       236  -8.6348    184.3719     77.7875   6.5940198092e+01   2.8041301950e+01    0.2185499    0.1482649 -23.52 0.0006079273    1.600    0.375
       237  -9.6446     49.8601     77.0840   1.0289950189e+02   5.5194671423e+01    0.3695235    0.2326762   2.11  0.001821056    2.309    0.567
       238  -9.4365     34.8647     89.8752   1.1085725201e+02   5.3815775061e+01    0.4111176    0.2149321 -84.43   0.00176421    2.804    0.643
       239  -8.4892     13.5193     74.5167   1.1490127645e+02   5.8938017626e+01    0.1446012    0.1125567  38.73 0.0009671188    1.634    0.388
       240  -9.0433     10.1032     74.5282   1.1607707018e+02   5.9142780903e+01    0.1963895    0.1666791 -32.78 0.0006990975    1.297    0.229
       241 -10.1555      2.8431     71.3187   1.1798748278e+02   6.0244839878e+01    0.5110729    0.2494555  87.88  0.002386559    2.988    0.665
       242  -9.9732     27.9876     71.3265   1.0913557960e+02   5.8602657177e+01    0.5427052    0.2448314 -15.58  0.001890923    5.374    0.814
       243  -8.9544     51.8598     70.7627   1.0048822972e+02   5.6354159618e+01    0.2489039    0.1663699 -77.75   0.00121909    2.139    0.532
       244  -8.1146    129.3445     69.3362   7.5738059714e+01   4.2996475623e+01    0.1633604    0.1194674   9.57 0.0007049381    1.770    0.435
       245  -7.8756    116.2889     68.3169   7.8940278094e+01   4.6072333417e+01     0.152844    0.1165652   0.78  0.000242893    1.593    0.372
       246  -9.1068     82.5841     73.0848   9.0739157452e+01   5.1521500945e+01    0.3383588     0.250425 -88.31  0.001569577    2.231    0.552
       247  -8.5933     44.9583     67.4972   1.0203688830e+02   5.7837267007e+01    0.1800104    0.1299413  24.17  0.001044173    1.623    0.384
       248  -8.7805    230.9803     65.0039   5.4779780175e+01   1.8653687779e+01    0.1702344    0.1583813 -50.67            0    1.017    0.016
       249  -9.2631     83.9835     64.3244   8.7443126990e+01   5.3080563642e+01    0.4141928    0.2396342  10.63  0.001543649    3.232    0.691
       250  -8.3701     95.4897     71.9744   8.6293033310e+01   4.9498405114e+01    0.2115101    0.1252988 -63.58 0.0008104017    2.630    0.620
       251  -9.7287     18.4636     62.1205   1.1043575465e+02   6.1331604575e+01    0.2813146    0.1533976 -26.89  0.001121602    2.113    0.527
       252 -10.5810      6.9366     57.9130   1.1383099534e+02   6.2941944929e+01    0.2370656    0.2156534  45.59  0.001794462    1.456    0.313
       253  -8.9790     73.2512     60.4022   8.9737195985e+01   5.5607084483e+01     0.290148    0.1956959 -53.69 0.0009592748    1.579    0.367
       254  -8.2538    111.6562     58.6419   7.6940741486e+01   4.8849512084e+01    0.1602099    0.1131816   5.95 0.0007035008    1.831    0.454
       255  -9.0131     39.4255     58.0033   1.0134336130e+02   6.0428947394e+01    0.2185561    0.1475041 -19.65  0.001231928    1.636    0.389
       256  -9.8374    100.5110     54.2838   7.8671835063e+01   5.1921068250e+01    0.2631896     0.233219   2.62 0.0002179676    1.095    0.087
       257  -8.6612     62.7110     55.1146   9.1670429544e+01   5.8208252797e+01     0.208215    0.1573023 -57.47 0.0006133362    1.507    0.336
       258  -9.2665     26.2945     54.7916   1.0550604355e+02   6.2298912001e+01      0.23174     0.159026  -7.86  0.001403428    1.708    0.414
       259  -8.5820     54.3728     54.2234   9.4454398512e+01   5.9497526226e+01    0.1902165    0.1134035 -55.15 0.0009470871    1.742    0.426
       260  -8.4131     30.8069     51.7751   1.0283018811e+02   6.2536908693e+01     0.158378    0.1365166 -67.24 0.0005917731    1.350    0.259
       261  -8.6388     92.4241     51.2259   8.0067710799e+01   5.4033687329e+01    0.2038548    0.1274956 -46.58 0.0009467111    1.704    0.413
       262  -9.4207     76.5631     49.4753   8.4697034069e+01   5.7160825458e+01    0.3216967    0.1857628   8.60  0.001270235    2.988    0.665
       263  -9.4400     22.3826     47.0864   1.0483638665e+02   6.4194783475e+01    0.3010726    0.1856353   0.50  0.001700083    1.988    0.497
       264  -9.1238     64.4470     46.8798   8.8072274584e+01   5.9529160832e+01    0.2758954    0.1691329  13.40  0.001322604    2.117    0.528
       265  -8.4390     54.3752     46.2992   9.1666148527e+01   6.1034105177e+01    0.1380281   0.08996928 -14.34 0.0007027285    1.752    0.429
       266  -8.1452      1.4532     46.4631   1.1333988899e+02   6.5619525202e+01    0.1177326   0.08370978 -50.33 0.0001258347    1.035    0.034
       267  -9.5458     17.3292     39.6808   1.0468811567e+02   6.6050610963e+01     0.495009   0.08061997 -41.29   0.00148827    5.628    0.822
       268  -8.4676     74.6550     44.6901   8.3549771960e+01   5.8332421255e+01    0.1429468   0.09849425  -3.36 0.0005138158    1.702    0.413
       269  -8.3893     58.3942     43.1777   8.8953330424e+01   6.1072301985e+01    0.1908038    0.1136237 -50.27 0.0009534266    1.787    0.440
       270  -9.9557      4.8422     41.5273   1.1064165505e+02   6.6457546663e+01    0.3664709    0.1670201 -74.04  0.001690497    3.021    0.669
       271  -8.5583    113.9495     41.5048   7.0029793120e+01   5.1197232034e+01    0.2122957    0.1400907  49.07  0.000475731    1.513    0.339
       272  -8.5003    130.5068     45.9906   6.7405199545e+01   4.6705100342e+01    0.1939671    0.1266266   4.89 0.0003661932    2.116    0.527
       273  -9.1476     84.2093     39.8732   7.8376129458e+01   5.7489593355e+01    0.2468026    0.1848803  24.16 0.0005041645    1.351    0.260
       274  -8.2636    207.6813     37.3187   5.0490089737e+01   2.8285985507e+01    0.1540009    0.1017376 -63.24 0.0007041639    1.661    0.398
       275  -9.0005    106.2242     36.9977   7.0440253441e+01   5.3557293397e+01    0.2426582    0.1943687  41.61 0.0003458155    1.233    0.189
       276  -8.3751    119.4482     33.9365   6.5701401546e+01   5.1047980634e+01    0.2059997    0.1109705 -49.97 0.0008080007    2.530    0.605
       277  -9.3397      6.9325     33.9809   1.0751796464e+02   6.7838089270e+01    0.1994646    0.1502093   3.84 0.0009770491    1.538    0.350
       278  -9.6000    222.3791     32.8627   4.7471869448e+01   2.5200078005e+01     0.229923    0.1803456 -85.57 0.0004171229    1.281    0.219
       279  -9.2025     46.4463     48.9978   9.5716061312e+01   6.1490991101e+01    0.2363517    0.1655218   0.72  0.001190242    1.645    0.392
       280  -8.1726     60.3040     32.6871   8.4015565024e+01   6.2618538402e+01    0.1163555     0.103496 -61.60 0.0004475621    1.616    0.381
       281  -8.7458     12.5474     31.9421   1.0428620297e+02   6.7880139724e+01    0.1802169   0.09048446 -52.72 0.0006256332    1.574    0.365
       282  -8.7865      1.9927     28.1657   1.0797140361e+02   6.9226795823e+01    0.1809293     0.114595 -33.64 0.0004252503    1.290    0.225
       283  -9.1290     44.0436     25.7026   8.7643487996e+01   6.5980693013e+01    0.2004119    0.1484231 -26.23 0.0004374217    1.104    0.094
       284  -9.0925    110.3059     24.4004   6.4303469823e+01   5.4371562285e+01    0.2395589    0.1854955  22.87 0.0003666423    1.256    0.204
       285  -9.5747     76.9320     25.1968   7.4686894811e+01   6.1035921412e+01    0.1900807    0.1753383 -16.72 0.0005407409    1.215    0.177
       286  -8.9273     84.8985     21.4188   7.0379421459e+01   6.0061057726e+01    0.2092838    0.1724198 -26.94  0.000490042    1.254    0.202
       287  -9.3195    188.6361     20.6934   4.8247483204e+01   3.5205725456e+01    0.2654399    0.2296415 -64.49 0.0007638523    1.151    0.131
       288  -8.4704     40.8354     21.3776   8.7114811764e+01   6.7072063635e+01    0.1580692    0.1031147  12.48 0.0003133667    1.607    0.378
       289  -9.6476     13.0206     21.3916   1.0019095982e+02   6.9786984124e+01    0.2211579     0.175013 -13.63 0.0006716452    1.212    0.175
       290  -8.5554      1.4927     19.9357   1.0539970249e+02   7.0784784673e+01    0.1648305   0.08567154 -52.91 0.0004461616    1.518    0.341
       291  -8.8377     58.8440     22.1110   7.9948446401e+01   6.4483861380e+01    0.1781708    0.1545233 -15.86 0.0002763689    1.161    0.138
       292  -9.3054     28.8328     18.2045   9.1162244254e+01   6.8933493160e+01    0.2551967       0.1561  28.96  0.001103537    1.850    0.459
       293 -11.4412    160.8486    234.8784   1.0452751316e+02   4.3120332678e+00    0.5283189    0.3793358  27.09  0.002209584    1.403    0.287
       294  -8.7066     50.4849     15.6512   8.0290631552e+01   6.6646975317e+01    0.2136158    0.1281407  14.74 0.0008610641    1.824    0.452
       295  -9.1476     41.0483     13.9481   8.3526904056e+01   6.8171220205e+01    0.2041752    0.1457889   2.02 0.0003821004    1.287    0.223
       296  -8.2657     80.4720     12.9499   6.7966482023e+01   6.1947513584e+01    0.1792779    0.0994121 -45.66   0.00080953    2.573    0.611
