#   1 NUMBER                 Running object number                                     
#   2 MAG_AUTO               Kron-like elliptical aperture magnitude                    [mag]
#   3 X_IMAGE                Object position along x                                    [pixel]
#   4 Y_IMAGE                Object position along y                                    [pixel]
#   5 X_WORLD                Barycenter position along world x axis                     [deg]
#   6 Y_WORLD                Barycenter position along world y axis                     [deg]
#   7 A_WORLD                Profile RMS along major axis (world units)                 [deg]
#   8 B_WORLD                Profile RMS along minor axis (world units)                 [deg]
#   9 THETA_WORLD            Position angle (CCW/world-x)                               [deg]
#  10 FWHM_WORLD             FWHM assuming a gaussian core                              [deg]
#  11 ELONGATION             A_IMAGE/B_IMAGE                                           
#  12 ELLIPTICITY            1 - B_IMAGE/A_IMAGE                                       
         1 -11.0325     52.8137     21.1947   8.2093136579e+01   6.6926341030e+01    0.9808247    0.4895788 -22.78  0.003392584    4.056    0.753
         2 -10.5294     87.1820     17.6719   6.6987337658e+01   6.1186743983e+01    0.4337082    0.3095732 -56.57 0.0006916068    1.719    0.418
         3 -10.8717    225.5202     22.1959   4.3814741325e+01   2.4969040759e+01    0.8264927    0.3849015 -67.14  0.002938939    3.348    0.701
         4 -10.0449    149.5215     17.6976   5.2054447703e+01   4.5664551059e+01    0.4384044    0.3027181 -29.92  0.002023894    1.397    0.284
         5  -9.1109    102.3417     14.2883   6.0790276241e+01   5.8248988214e+01    0.2838372    0.1784582  -2.82 0.0006205977    1.960    0.490
         6 -10.2517     10.2426     15.4521   1.0227877571e+02   7.2838982633e+01     0.548797    0.2963718 -70.52  0.003002524    1.701    0.412
         7 -10.3557     16.1384      4.0607   9.3475380441e+01   7.4777566889e+01    0.3488748     0.227247 -47.19  0.001661359    1.198    0.165
         8 -10.7437     16.9725      9.3219   9.5555708688e+01   7.3628361909e+01    0.7755387    0.4417333  70.36  0.003002315    5.042    0.802
         9 -10.9489     10.7732      7.2623   9.8614158892e+01   7.4558612962e+01    0.4442113    0.3927771 -56.30  0.002177039    1.153    0.133
        10 -10.3604      6.9795      3.5191   9.9491534195e+01   7.5613314637e+01    0.2031015    0.1725066 -75.54 0.0009028522    1.306    0.234
        11 -11.0818     41.8831     10.0264   8.1580554415e+01   7.0635309500e+01    0.4544358    0.3246706 -62.84 0.0008967373    1.795    0.443
        12 -10.3247     57.3144     13.9805   7.6392320168e+01   6.7536328761e+01    0.3679207    0.2805589  36.13  0.001348077    1.466    0.318
        13  -9.9843    122.2202     11.3606   5.4589922347e+01   5.3676559198e+01    0.5387638     0.283291  44.64  0.001961402    1.942    0.485
        14  -8.9509     47.2941     10.3584   7.9045915474e+01   6.9781160127e+01    0.2632325    0.1712342 -25.84 0.0006678471    1.542    0.352
        15  -9.9971    209.5543      9.6609   4.1498395940e+01   3.0222655859e+01    0.3446524    0.3036136   6.96  0.001040378    1.180    0.153
        16  -9.1803     93.3670     10.6799   6.1502852200e+01   6.0832036549e+01    0.2428805    0.1943197 -43.16  0.001080741    1.307    0.235
        17  -9.8787     24.3805      9.5716   9.1121497398e+01   7.2871182972e+01    0.4182621    0.2355756 -24.71  0.002103277    2.264    0.558
        18  -8.5725    237.9686     10.3018   3.9313849304e+01   2.3063736550e+01    0.1902861    0.1759127 -40.27 0.0009630169    1.054    0.051
        19  -9.4988    187.7698      9.0960   4.3519116131e+01   3.6084064191e+01    0.3950794    0.2693259 -15.69  0.001857984    1.453    0.312
        20  -9.2256    215.7793      8.3272   4.0524398350e+01   2.8735528564e+01    0.2368452    0.2156651  12.33  0.000599552    1.152    0.132
        21  -8.9852    227.1546      7.9569   3.9471423500e+01   2.5900921192e+01    0.2179528    0.1682906 -47.26 0.0004578444    1.236    0.191
        22  -8.5893     66.0000      7.0369   6.8837861308e+01   6.7115040683e+01    0.2285481   0.07055356 -33.58 0.0005207961    2.905    0.656
        23  -8.2216    158.3214      6.6767   4.6295395484e+01   4.4428129819e+01    0.1630438    0.1075867 -54.88 0.0007046183    1.678    0.404
        24  -8.7498    175.1014      5.0653   4.3529857968e+01   3.9933823192e+01    0.2271311    0.1951439  23.58 0.0005954751    1.215    0.177
        25  -9.1981    128.1974      5.1595   5.0548438672e+01   5.2795733934e+01    0.3518855    0.1702209  54.01  0.001409273    1.957    0.489
        26  -9.0550     89.3660      3.9279   5.9059148612e+01   6.2620945495e+01    0.3492266    0.1746717  42.75   0.00148154    2.074    0.518
        27  -9.1071     54.9725      3.1910   7.1168046028e+01   6.9719331820e+01    0.3331814    0.2102535 -55.50  0.001417588    2.219    0.549
        28 -10.4544    181.9196     13.7877   4.5838135544e+01   3.7218638989e+01    0.5453085    0.3824399  62.85  0.001544008    1.435    0.303
        29  -8.5982     31.0000      3.9025   8.4038277580e+01   7.3210613188e+01    0.2109836   0.06049804 -46.70  0.000795758    2.896    0.655
        30  -9.6974     22.8342      3.6703   8.8901437762e+01   7.4197890955e+01    0.2965997    0.1835651  30.36  0.001122902    1.942    0.485
        31 -10.0775     79.3204      7.4779   6.4203067191e+01   6.4368589312e+01    0.4610511    0.2764737 -39.60  0.002201309    1.640    0.390
        32  -8.6085     47.9921      3.5601   7.4670427127e+01   7.0834711011e+01    0.1696627    0.1274033  35.26 0.0003609023    1.488    0.328
        33  -9.4738    144.1365     14.7638   5.1804877444e+01   4.7463565244e+01    0.2753857    0.2150485 -12.73 0.0004326417    1.287    0.223
        34  -9.2118    242.2914      1.4232   3.6527052092e+01   2.2802153958e+01    0.2193767    0.1278524  70.75 0.0007050383    1.861    0.463
        35  -9.3790     73.0286      9.0789   6.7323178764e+01   6.5433746973e+01      0.36615    0.1821683 -25.69  0.001572723    1.991    0.498
        36  -8.8967    103.2733      1.3491   5.3979209472e+01   5.9607029480e+01    0.1867145      0.13925  77.80 0.0003281216    1.586    0.369
        37  -8.9491     65.1262      1.2672   6.5704150618e+01   6.8119550032e+01    0.2672688    0.1049265  46.14   0.00108458    2.663    0.624
        38  -8.2581     83.9591      1.0000   5.9020824071e+01   6.4200351662e+01    0.2164357   0.08002067  58.82 0.0006538813    2.878    0.653
        39  -8.0152     61.3070    121.3200   1.0557381708e+02   4.3579532419e+01    0.1168186   0.09459169 -40.68 0.0007031993    1.637    0.389
        40  -9.3911     27.8019    109.7502   1.1321120623e+02   4.9811094304e+01    0.4255485    0.1569401 -80.49  0.001913874    2.524    0.604
        41  -9.5673     20.4808    119.7328   1.1611449760e+02   4.8264971815e+01    0.2711775    0.1312556 -67.33  0.001015571    1.853    0.460
        42 -10.6578     24.7853    116.1277   1.1466215079e+02   4.8674199539e+01    0.4484985    0.2251398  24.46  0.002427867    2.525    0.604
        43 -11.4233    231.8156    118.2276   6.8504557192e+01   1.2431845035e+01    0.3598493     0.257503  14.32  0.002043435    1.345    0.257
        44 -10.4513     69.7935    118.4120   1.0292278287e+02   4.3086916222e+01    0.3186577    0.2285855  88.03 0.0008565669    1.370    0.270
        45  -8.8143     45.5089    120.0236   1.0955712732e+02   4.5745934983e+01    0.1808417    0.1049388 -74.56 0.0003407844    1.537    0.349
        46  -9.3048     98.3156    117.9071   9.5483173503e+01   3.8859096627e+01    0.2548068    0.1893127  32.11  0.001227605    1.552    0.356
        47  -9.9678     57.9309    116.6403   1.0580960407e+02   4.5025273922e+01    0.3687031    0.1924661 -54.75  0.001339988    1.989    0.497
        48  -9.9473     11.1583    115.3292   1.1822825725e+02   4.9972038094e+01    0.2229522    0.2040357 -12.51 0.0007494405    1.605    0.377
        49 -10.0031     39.9867    114.7294   1.1040993703e+02   4.7506650132e+01     0.282731    0.1756306  40.96  0.001402431    1.633    0.388
        50  -9.3468      1.6544    113.1530   1.2060314096e+02   5.1118047108e+01    0.3758216    0.1187308  89.41  0.001180046    2.797    0.642
        51 -10.2628     14.7139    110.5036   1.1690096134e+02   5.0753624523e+01    0.4347038    0.1573465  67.29  0.001295003    3.047    0.672
        52 -10.1940      7.3138    108.2199   1.1875878627e+02   5.1805066513e+01    0.2495063    0.2095762   4.51 0.0002909939    1.731    0.422
        53  -9.2442     62.7731    111.6523   1.0375452627e+02   4.5506955754e+01    0.1718293    0.1638365  22.26 0.0006083357    1.350    0.259
        54  -9.4218     50.0992    112.1908   1.0731750356e+02   4.6951503077e+01    0.2645319    0.1452241  51.52 0.0009953133    1.767    0.434
        55 -10.6095     21.8039    110.0831   1.1491060732e+02   5.0267393482e+01    0.3943859    0.2810081  55.77  0.002639529    1.321    0.243
        56  -8.8660     81.7762    109.9981   9.8307905256e+01   4.3180350341e+01    0.1874595    0.1609884 -88.39  0.000571993    1.070    0.065
        57  -9.2181     34.9857    107.6506   1.1095787794e+02   4.9595599664e+01    0.2878536    0.1491394 -75.41  0.001179401    1.663    0.399
        58  -8.8995    119.2578    107.9394   8.8209481261e+01   3.7154131273e+01    0.1903844    0.1819949 -89.24 0.0006229691    1.025    0.025
        59  -9.8825     71.8443    107.5952   1.0058182097e+02   4.5168902879e+01    0.2837092    0.1997443 -55.56 0.0004020348    1.432    0.302
        60  -8.8970    135.2987    106.9813   8.4159236769e+01   3.4181512792e+01    0.1869408    0.1854867 -68.28 0.0004408081    1.044    0.042
        61 -10.5037     79.7278    103.9655   9.7726036276e+01   4.4810907059e+01    0.3173855    0.2895404   6.61  0.001040552    1.437    0.304
        62 -10.2532     16.1311    104.5846   1.1599666937e+02   5.1955677521e+01    0.2210276    0.1737622  70.56 0.0006405969    1.134    0.118
        63  -9.3246      8.6073    103.8513   1.1807322647e+02   5.2678440424e+01    0.1602937     0.148316  87.23 0.0005229115    1.269    0.212
        64  -9.4197    117.3865    103.0571   8.7557891948e+01   3.8492542290e+01    0.2715112     0.176047  46.57  0.001218041    1.521    0.343
        65 -10.0449    108.8895    103.0404   8.9711523346e+01   4.0093811597e+01    0.4436003    0.2067973  37.67  0.001440409    2.420    0.587
        66  -9.9926    123.2340    105.4040   8.6659437423e+01   3.6891046302e+01    0.4189515    0.1764557 -42.27  0.001613662    2.582    0.613
        67  -8.3627     95.1658    102.2112   9.3143788346e+01   4.2702217271e+01    0.2267051    0.0953281  50.83 0.0008805714    2.574    0.611
        68 -10.2038     53.1679     99.3130   1.0450894787e+02   4.9486660528e+01    0.3893006    0.2025417 -66.73  0.001272493    1.708    0.414
        69  -9.8010     42.3025    100.9795   1.0797215533e+02   5.0348043201e+01    0.1928659     0.179773  60.03 0.0002915626    1.232    0.188
        70  -9.2274      7.8792    100.0578   1.1798380325e+02   5.3573731297e+01    0.1702854    0.1393054  67.31  0.000284757    1.177    0.151
        71  -9.3901    103.3977     99.2489   9.0282809670e+01   4.1887236636e+01    0.1973327    0.1288108 -63.44 0.0009502798    1.617    0.382
        72  -9.9440     17.0051     96.6003   1.1497649769e+02   5.3685185128e+01    0.3283347    0.1941284  81.13  0.001942756    1.490    0.329
        73  -9.9054     69.2595     96.7429   9.9305362583e+01   4.7957729978e+01    0.3008657    0.2250066 -66.42  0.001016041    1.224    0.183
        74  -9.2255    147.5311     96.0054   7.8647701291e+01   3.3646079847e+01    0.2205547    0.1430745 -39.30   0.00102399    1.570    0.363
        75  -8.4256     97.5197     96.4667   9.1225302182e+01   4.3525775170e+01    0.1364968    0.1307152 -75.43 4.970902e-05    1.069    0.065
        76  -9.0393     79.3538     94.9050   9.5989705920e+01   4.6873112374e+01    0.2330082    0.1807504  62.54  0.000959354    1.314    0.239
        77  -9.5891     62.6203     95.1962   1.0097360424e+02   4.9221054522e+01    0.1896109    0.1068803 -55.14 0.0009434128    1.687    0.407
        78  -9.9506    132.4329     94.0140   8.1632615337e+01   3.7252801082e+01    0.2743363    0.1992395  31.98 0.0006763911    1.570    0.363
        79  -8.7360     36.9903     94.3481   1.0861865552e+02   5.2419367040e+01    0.1788322    0.1025339  -8.84 0.0002833272    4.533    0.779
        80  -8.8698      9.1171     93.6238   1.1707323554e+02   5.4935493502e+01     0.174998    0.1147526  59.52 0.0004400904    1.431    0.301
        81  -9.4697      3.0914     91.6635   1.1874039090e+02   5.5768835822e+01    0.3424949    0.1881059 -45.08  0.001962127    2.322    0.569
        82  -8.8918    153.4745     93.4712   7.6670138985e+01   3.2792419099e+01    0.1436635    0.1418276  39.34 -1.115822e-05    1.019    0.018
        83 -10.4975     51.8899     91.7064   1.0359647144e+02   5.1380795218e+01    0.2871213    0.2241338 -86.89  0.000329944    1.154    0.133
        84  -8.5327     89.3115     92.6593   9.2634239810e+01   4.5760967090e+01     0.144353    0.1034096  84.15 0.0007045816    1.696    0.410
        85  -8.9505     82.6187     91.8670   9.4377925019e+01   4.7033460207e+01     0.212279    0.1870094  30.77 0.0006799511    1.333    0.250
        86  -9.8619     42.9571     91.5755   1.0634820899e+02   5.2432829649e+01    0.3118488    0.2360565  52.84  0.001931534    1.355    0.262
        87  -9.5799     31.7902     91.3458   1.0980511668e+02   5.3619151864e+01     0.248051    0.1964498  43.63  0.001625591    1.393    0.282
        88  -9.2298     61.8107     90.2824   1.0027042017e+02   5.0448719460e+01    0.2448853    0.1926991 -20.13 0.0005764106    1.859    0.462
        89 -11.1284    120.6589     87.0737   8.2720182339e+01   4.1064079497e+01    0.4959627    0.3667589  78.73  0.001965111    1.733    0.423
        90 -10.5617    124.9455     85.9341   8.1321024835e+01   4.0400828153e+01    0.3371544    0.2952989   3.24 0.0003485997    1.367    0.269
        91  -8.6982     56.8258     89.8301   1.0172188162e+02   5.1201828620e+01    0.1829897    0.1385446  75.13 0.0005978182    1.334    0.251
        92  -9.9274    162.0015     88.2802   7.3450483335e+01   3.1767410429e+01    0.3156016    0.1877361 -35.29  0.001392437    1.689    0.408
        93  -8.7563     16.0999     88.9507   1.1444554460e+02   5.5500012804e+01    0.1784882    0.1184478 -54.60 0.0007054998    1.584    0.369
        94 -10.5961    143.6083     81.6194   7.5607467515e+01   3.7140304145e+01    0.3979222    0.3079677 -14.36  0.001425469    1.540    0.351
        95 -10.0563    131.5627     87.2954   8.0054395685e+01   3.8731967631e+01     0.265817    0.2526767  -2.50 0.0004715306    1.135    0.119
        96 -10.9411    135.2126     82.9750   7.7968395471e+01   3.8764123251e+01    0.3686258    0.2987917 -27.02            0    1.329    0.247
        97  -9.6075    139.4734     83.4627   7.7094368390e+01   3.7729352871e+01    0.2975293    0.2458199  26.91 0.0008879819    1.348    0.258
        98  -8.8210     85.1962     87.3636   9.2580545643e+01   4.7610242316e+01    0.2001994    0.1219697  52.93 0.0009514213    1.755    0.430
        99  -9.0199      5.9571     86.3631   1.1739848140e+02   5.6792031977e+01    0.2392139    0.1071289 -61.49  0.001282896    1.973    0.493
       100  -8.8541    107.3824     85.7004   8.5864447280e+01   4.3989395448e+01    0.2051159    0.1310912 -40.19  0.000947758    1.656    0.396
       101  -9.9891     26.8317     85.1561   1.1052293394e+02   5.5503321021e+01    0.2531962    0.2409392  80.82  0.001118546    1.229    0.186
       102 -10.4595    174.6684     84.2263   6.9779235103e+01   2.9498304632e+01    0.4039349    0.2529519  -3.64  0.001515958    2.345    0.574
       103 -10.5113     46.6143     84.4055   1.0394726995e+02   5.3685446568e+01    0.3571305    0.2936851  42.11   0.00139007    1.364    0.267
       104 -10.3863     51.0150     81.5376   1.0195824291e+02   5.3834692574e+01    0.2293708    0.1935546 -83.87    0.0003215    1.053    0.050
       105 -10.4385    157.0464     83.9263   7.3284694746e+01   3.3653168594e+01    0.3788703    0.1865282  44.87   0.00116491    2.057    0.514
       106 -10.2603     75.7855     83.1694   9.4413153683e+01   5.0050756070e+01    0.3893738    0.2876047  79.63  0.001304675    1.555    0.357
       107  -9.7277     80.5003     81.9807   9.2678425490e+01   4.9571377264e+01    0.3957453    0.2335228 -65.86  0.001136843    1.763    0.433
       108  -8.7578     59.1663     82.5139   9.9507359689e+01   5.2580909270e+01    0.3528981    0.2232368 -43.68  0.001809181    1.787    0.440
       109  -9.0918     56.3282     80.3553   9.9969483416e+01   5.3447339461e+01    0.2128568    0.1410902  18.57 0.0009816104    2.158    0.537
       110  -8.4311     33.5073     84.4431   1.0823382093e+02   5.5054669231e+01    0.1266374    0.1025032 -89.75 0.0008070382    1.064    0.061
       111 -11.6842    104.9061     79.4323   8.4845055627e+01   4.5777951833e+01    0.5164055    0.4562082 -81.07  0.001080296    1.173    0.147
       112 -10.5816    109.1295     72.9691   8.1796296707e+01   4.6276797836e+01    0.3627562    0.2907441  -0.06  0.001010673    1.695    0.410
       113  -9.0834     86.1749     81.8888   9.0938878300e+01   4.8653502056e+01     0.210421    0.1751814 -89.24  0.000462127    1.259    0.206
       114 -11.2803      6.1801     79.9324   1.1670970492e+02   5.8250152236e+01    0.4320849    0.2339438  70.94  0.001478807    1.757    0.431
       115  -8.9716    150.3216     81.3071   7.4001811487e+01   3.5662764836e+01    0.1528336    0.1167044  14.71 0.0002852015    1.641    0.391
       116  -9.2655     38.1466     80.5857   1.0605499837e+02   5.5491857619e+01    0.3114511    0.1671923  45.09 0.0008063101    1.973    0.493
       117 -10.0296     21.3074     80.9724   1.1177175805e+02   5.6939330443e+01     0.288217    0.1916388  14.98  0.001722528    2.064    0.515
       118  -9.6565    154.1633     79.8685   7.2743764948e+01   3.5025455706e+01    0.2293178    0.2069072 -74.43 0.0007055128    1.241    0.194
       119  -8.6845    130.3247     79.2324   7.8084785451e+01   4.0550405457e+01    0.1990085    0.1853507  36.24 0.0004914969    1.113    0.102
       120  -9.7533     96.9647     78.9651   8.6980499730e+01   4.7379602875e+01    0.3346719    0.2897283  13.38  0.001148597    1.445    0.308
       121 -10.3909     98.0303     73.4761   8.5120454574e+01   4.8348249316e+01    0.4009621    0.3522432   7.00  0.001476383    1.407    0.289
       122 -10.9305     97.0456     69.6091   8.4267641304e+01   4.9351403919e+01    0.6135686     0.292334 -59.20  0.002292257    2.604    0.616
       123  -9.7399     28.1983     78.1904   1.0902769286e+02   5.7004890216e+01    0.1969395    0.1623249 -77.58 0.0003102543    1.043    0.042
       124  -9.8005     20.9357     75.0980   1.1106996664e+02   5.8338092630e+01    0.4273396    0.1948477 -78.89   0.00131977    1.902    0.474
       125 -10.5701    152.2257     74.1580   7.1476786870e+01   3.6471785788e+01    0.3739966    0.3279574 -16.80  0.001077096    1.183    0.154
       126 -10.2417     75.0662     71.0643   9.1557909364e+01   5.2877664776e+01    0.2210432    0.1938219 -54.23            0    1.088    0.081
       127 -10.7005     77.4872     75.2953   9.1911551575e+01   5.1546945291e+01    0.4874023    0.2457657  38.68   0.00169355    2.188    0.543
       128 -10.0202     83.3224     73.3345   8.9543029149e+01   5.1018911976e+01    0.3745905    0.2818764  27.48  0.001210848    1.643    0.391
       129  -9.1565     52.7950     75.7937   1.0016034065e+02   5.4948279797e+01    0.2107784    0.1253787 -30.49 0.0009351058    2.725    0.633
       130 -10.9187    157.8326     73.4621   7.0063892015e+01   3.5256787966e+01    0.4492379    0.2869727 -27.64   0.00198819    1.630    0.387
       131 -10.0024    124.8677     75.3521   7.8311732420e+01   4.2490265131e+01    0.3683179    0.1963061  58.52  0.001467024    2.189    0.543
       132  -8.0878     11.5100     75.4600   1.1440287403e+02   5.8941348495e+01    0.1206248   0.09440527 -83.44 0.0001570627    1.009    0.009
       133 -11.5495    142.5143     69.3477   7.2178667188e+01   3.9609292700e+01    0.5188758    0.4490777  77.06  0.001507381    1.290    0.225
       134  -9.6486    175.3944     72.7561   6.6343474199e+01   3.1131888746e+01    0.5061151    0.1704904  48.76  0.001677815    2.891    0.654
       135  -8.9159     38.0312     72.6929   1.0463231222e+02   5.7348270415e+01    0.1646665    0.1500817 -78.94            0    1.113    0.101
       136 -10.7778    135.2971     70.4593   7.4227528834e+01   4.1085131209e+01     0.416387    0.2776544  22.07  0.001623885    2.145    0.534
       137 -10.1232     63.7292     70.9044   9.5288276147e+01   5.4618870001e+01    0.4593281    0.2310865  41.03  0.001431816    2.154    0.536
       138  -9.8022     58.0797     71.1614   9.7282352004e+01   5.5337540461e+01    0.2943145    0.2452663 -28.22  0.001164745    1.482    0.325
       139  -8.6236     42.5096     71.4559   1.0279561188e+02   5.7161021072e+01    0.1304623    0.1094799 -80.01 8.931162e-05    1.048    0.045
       140  -9.3123     27.7800     69.3388   1.0768814957e+02   5.9114865477e+01     0.268115    0.1888481 -39.34 0.0007682126    1.686    0.407
       141  -9.5624    197.0852     68.5162   6.1287861924e+01   2.6484075865e+01    0.2851496    0.1906695 -42.31   0.00102489    1.546    0.353
       142 -11.0983    151.7139     66.6297   6.9265222430e+01   3.7886104241e+01    0.4419347    0.3642483  54.23  0.002230944    1.236    0.191
       143 -10.5042    163.7235     67.1531   6.6921157192e+01   3.4869599708e+01    0.3799038    0.2245157  61.10  0.001596404    1.838    0.456
       144 -10.8808    158.4843     66.4223   6.7763254903e+01   3.6272843579e+01    0.4180408     0.257751  64.83  0.001750808    1.864    0.463
       145  -9.1143     88.1629     66.0900   8.5919278789e+01   5.1746123908e+01    0.2546141    0.2081008 -79.77  0.001088018    1.355    0.262
       146  -8.8634     71.0272     66.9960   9.1772654129e+01   5.4420139209e+01    0.2134773    0.1653351 -24.79  0.001126223    1.661    0.398
       147  -9.2991    126.7325     65.2955   7.4705764850e+01   4.3998366809e+01     0.337887    0.2325246 -29.80  0.001260174    1.538    0.350
       148 -10.4350    110.2247     63.7948   7.8624176481e+01   4.7899567563e+01    0.5709435    0.3982289  89.39  0.002457132    2.214    0.548
       149  -9.7169    111.5726     56.7720   7.5885038719e+01   4.8984189753e+01    0.4829897    0.2854577 -20.98     0.001273    2.470    0.595
       150 -10.2193     44.2619     63.6393   1.0040911009e+02   5.8786351878e+01    0.4288162    0.2900053  65.44  0.002328942    1.746    0.427
       151 -10.2815     32.8217     63.7470   1.0473191828e+02   5.9961760113e+01    0.3356111    0.2530636  76.97  0.001188261    1.383    0.277
       152 -10.8858      3.2212     61.6432   1.1572858440e+02   6.2650751740e+01    0.4995669     0.179478 -60.21  0.002448577    2.199    0.545
       153  -9.5212    201.8273     63.8495   5.9177084502e+01   2.5968868104e+01    0.4123834    0.1315826  44.74  0.001294562    3.455    0.711
       154 -10.1024    172.6360     62.4992   6.3742242348e+01   3.3389836230e+01    0.3318979    0.2650338  -4.08  0.001420607    1.359    0.264
       155  -9.6158    132.8978     63.0024   7.2423414077e+01   4.3004410793e+01    0.3382165     0.223861  58.97  0.001516083    1.625    0.385
       156  -8.8275     75.1968     62.7916   8.9143430741e+01   5.4691146945e+01    0.1764107    0.1590284 -17.98 0.0003449751    1.300    0.231
       157  -9.8157     66.4920     61.4989   9.1760767830e+01   5.6341663706e+01    0.4792024    0.2255671 -61.62  0.001999824    2.179    0.541
       158  -9.5348     69.5097     56.4505   8.9154127704e+01   5.6996797225e+01       0.4416    0.2848023 -58.06  0.002214976    1.445    0.308
       159  -9.0750    219.0239     61.8206   5.6087223745e+01   2.2110444174e+01     0.270642    0.2034233 -23.72  0.001399956    1.224    0.183
       160 -11.3434    160.8956     55.6227   6.3791650156e+01   3.7403125424e+01    0.9281018    0.4526718 -14.91  0.003061013    3.077    0.675
       161  -8.7238    120.5794     61.2647   7.4970431822e+01   4.6142190097e+01     0.207419    0.1425187 -28.60 0.0009369383    1.568    0.362
       162 -10.0704     50.1979     60.1180   9.7302791055e+01   5.8893073005e+01    0.2208119    0.1862272 -61.54 0.0002949773    1.037    0.036
       163  -9.0649     88.7390     60.4056   8.3948673694e+01   5.2849424722e+01    0.2625586     0.138644  49.38 0.0009038413    2.080    0.519
       164  -9.7851     81.0985     59.6756   8.6198904799e+01   5.4374751140e+01    0.3224975    0.2604039   0.90  0.001526454    1.678    0.404
       165  -9.6040     79.3422     55.6897   8.5488176198e+01   5.5533312687e+01    0.5329274    0.3150917 -18.74  0.001890746    3.713    0.731
       166 -10.6337    199.7003     57.3205   5.7572742392e+01   2.7358109699e+01    0.5507225    0.3317997  23.35  0.002271157    2.140    0.533
       167  -8.4344    184.0000     57.9269   6.0286459687e+01   3.1206111438e+01    0.2554297   0.08391084 -27.94  0.000801823    2.938    0.660
       168 -10.7673    145.2845     56.4329   6.7340124450e+01   4.1176602549e+01    0.5301743    0.2940138 -19.22  0.002008484    2.293    0.564
       169 -10.1066     96.1371     56.0966   8.0185657328e+01   5.2324748510e+01    0.4519041    0.3226989  -1.89  0.001483848    2.234    0.552
       170  -9.5918     34.3360     57.8603   1.0284839655e+02   6.1189877428e+01     0.207292    0.1690101 -78.47  0.001307063    1.100    0.091
       171  -9.4967    151.0166     57.0063   6.6285407782e+01   3.9662602779e+01    0.2625653    0.1871845  21.06  0.001151907    1.756    0.431
       172  -9.8122     61.6844     56.9272   9.2129357304e+01   5.8073108820e+01    0.2642866    0.2339164 -61.22  0.001064877    1.009    0.009
       173  -9.1763     67.5217     46.5407   8.6545276676e+01   5.9458448948e+01    0.2731655    0.1681668  40.60  0.001076913    1.826    0.452
       174  -9.7589     58.8231     53.4004   9.2113705994e+01   5.9270439967e+01    0.3186963    0.2551792  38.49  0.001392823    1.425    0.298
       175  -9.4443     55.1649     50.6297   9.2648429980e+01   6.0397474539e+01    0.2002468     0.164103 -36.72 0.0001475553    1.275    0.215
       176 -11.8570     59.0628     47.7764   9.0200297429e+01   6.0480587961e+01    0.4496211    0.3497416 -20.01 0.0003471253    1.602    0.376
       177  -8.5077     42.3762     55.3885   9.9057592284e+01   6.0910508692e+01    0.2639084   0.07183899 -50.10 0.0009290083    3.244    0.692
       178  -8.2871     26.6360     56.2549   1.0556149463e+02   6.2282169153e+01    0.1229952   0.08514801  68.71 0.0004848431    1.626    0.385
       179  -8.1374     23.2793     56.3847   1.0694424674e+02   6.2535298849e+01    0.1325578   0.07498486 -48.26 0.0007003913    1.726    0.421
       180  -8.4067    223.5201     55.5229   5.3713370205e+01   2.1810384564e+01    0.1443852     0.130677 -23.39 9.767441e-05    1.054    0.051
       181  -9.4001    200.2239     50.5263   5.5437432280e+01   2.8109038475e+01    0.3016331    0.2095502 -16.18  0.001021703    1.426    0.299
       182 -10.3851    204.8864     52.9779   5.5503785300e+01   2.6632779665e+01    0.4478153    0.3598876 -86.54  0.002271255    1.523    0.343
       183 -10.1132    207.1554     49.8453   5.4244089491e+01   2.6461274094e+01    0.3042026     0.265115 -70.28 0.0008628219    1.313    0.238
       184 -10.7251    174.1299     52.4709   6.0267693443e+01   3.4499005603e+01    0.4637873    0.2115019 -27.98   0.00173079    2.128    0.530
       185  -8.0874     35.3312     52.6688   1.0118099575e+02   6.2296142209e+01     0.131163   0.09086378  78.36 0.0007052008    1.721    0.419
       186  -9.7655     20.0517     50.6862   1.0709306085e+02   6.4123769781e+01    0.3778806    0.2559834   2.76  0.001944237    2.080    0.519
       187  -9.3589     20.9524     45.9825   1.0565084834e+02   6.5148486970e+01    0.3029418    0.1463422 -76.97  0.001226602    1.996    0.499
       188  -8.8058     15.0384     52.1269   1.0950051906e+02   6.4153263202e+01     0.172261    0.1349313 -53.37 0.0004882872    1.246    0.197
       189  -9.6772    234.0247     51.0021   5.1162868263e+01   1.9882262766e+01    0.2127948    0.1886032  -8.27 0.0003315078    1.037    0.036
       190  -8.9963    126.2121     50.5914   6.9800479743e+01   4.6795330077e+01     0.314519    0.1939052 -44.95  0.001151023    1.619    0.382
       191  -9.0380    122.3863     49.1412   7.0246892818e+01   4.7951709185e+01    0.2408186     0.209899  51.15 0.0006161063    1.189    0.159
       192  -9.2766    115.8389     50.9410   7.2637006252e+01   4.9134701950e+01    0.2467116    0.2226255  88.37 0.0004154745    1.239    0.193
       193 -10.7938    135.0006     53.2032   6.8585051216e+01   4.4236920588e+01    0.5027992    0.3616693 -43.42  0.002359563    1.375    0.273
       194  -9.5890     49.7137     49.6177   9.4485035268e+01   6.1344591212e+01    0.2622369    0.2158453   5.09 0.0009470784    1.568    0.362
       195  -8.4678     97.1789     48.8564   7.7275070235e+01   5.3555597693e+01    0.1924513    0.1673797  -1.47            0    1.324    0.245
       196  -9.3225     42.1399     46.4656   9.6624529677e+01   6.2978192135e+01    0.5379503    0.2551131 -76.32  0.001575921    3.385    0.705
       197  -9.4648     86.4233     54.9781   8.2886854818e+01   5.4414362490e+01    0.2753386    0.1954074  56.04  0.000506653    1.599    0.375
       198  -9.7506     84.3375     46.9018   8.0695114506e+01   5.6460882663e+01    0.2306699    0.2010418  65.84 0.0006995764    1.302    0.232
       199  -9.8361     35.5144     45.8569   9.9259755143e+01   6.3845185098e+01     0.319849    0.2181124 -38.38 0.0008775516    1.566    0.361
       200  -8.1379    193.3074     46.3240   5.5155642721e+01   3.0404671423e+01    0.1586787     0.111141  23.16 0.0003833057    1.647    0.393
       201 -11.1155    167.3849     43.8072   5.8576205267e+01   3.7484207881e+01    0.4306277    0.3806866  36.13  0.001105546    1.155    0.134
       202  -9.7125    160.4190     44.0768   5.9954112463e+01   3.9264925099e+01    0.2660697    0.2051628  37.59  0.000427481    1.362    0.266
       203 -10.4134    143.9357     42.6645   6.2771987148e+01   4.3733550596e+01    0.4464433     0.379711 -72.06  0.002230201    1.346    0.257
       204  -8.6003    187.4853     43.4848   5.5130740558e+01   3.2274194816e+01    0.1515596    0.1447033 -16.98 0.0008103061    1.007    0.007
       205  -8.8268     73.9396     43.3313   8.2994362868e+01   5.9062485225e+01     0.191132    0.1804599 -43.50 0.0007745606    1.050    0.048
       206 -10.0625     55.4157     41.6882   8.9531515955e+01   6.2329466926e+01     0.444699     0.333718  -9.23  0.002113637    1.822    0.451
       207  -9.8399     62.3123     36.3412   8.4705574124e+01   6.2426862011e+01    0.3340285    0.2578253  34.15  0.001428313    1.485    0.327
       208 -10.1090     31.8226     40.8741   9.9427579110e+01   6.5356832132e+01    0.4437281    0.2222599 -52.27  0.002242517    1.648    0.393
       209  -8.5279    204.4099     42.1918   5.2290015723e+01   2.8083987751e+01    0.2222101    0.1238336 -35.02 0.0006672039    1.668    0.401
       210  -9.1239    100.2175     42.0393   7.3733737331e+01   5.4216166296e+01    0.3046874    0.1800801  25.97   0.00118381    2.608    0.617
       211  -9.1199     98.1512     39.6028   7.3389025294e+01   5.5105344135e+01    0.2059643    0.1939243  23.01 0.0006373897    1.124    0.110
       212  -8.8515    196.5548     41.5176   5.3162651128e+01   3.0174844862e+01    0.1504257    0.1411098  -4.98  0.000143546    1.034    0.033
       213  -9.0891    149.4782     41.4842   6.1180397616e+01   4.2488746201e+01    0.3080954    0.2219467  67.18  0.001412025    1.507    0.336
       214  -9.1463    149.4433     38.4650   6.0079318510e+01   4.2943630470e+01    0.2644249    0.2185723 -18.08 5.515623e-05    1.210    0.174
       215 -10.5955     46.0068     40.0529   9.2896802431e+01   6.3945641496e+01    0.4867019    0.2800297 -39.18  0.002190228    1.795    0.443
       216  -8.7490    228.0364     40.1521   4.8786630379e+01   2.2484954673e+01    0.2528823    0.1390986  36.59  0.001070637    2.120    0.528
       217  -9.7487    107.8292     44.1390   7.2316073421e+01   5.2172775532e+01    0.3438634    0.2420947  56.70 0.0009711058    1.544    0.352
       218  -8.6321    157.5417     38.2767   5.8435733782e+01   4.0848883747e+01    0.2120522    0.1496307 -10.77 0.0009384591    1.550    0.355
       219 -10.7521    127.1489     36.9153   6.4392381440e+01   4.8857222633e+01    0.4173967    0.3011391  39.38  0.001952966    1.474    0.322
       220  -9.1715     81.7194     26.6328   7.3157885704e+01   6.0826821375e+01     0.346084     0.275018 -68.36  0.001800226    1.596    0.374
       221  -9.7665     81.4103     36.8616   7.7753344203e+01   5.8996381805e+01    0.4009169    0.3637868  49.91  0.001600669    1.219    0.179
       222 -10.0513     78.9242     31.1279   7.6180318756e+01   6.0555101753e+01    0.3910314    0.2442479 -19.30 0.0004485413    2.106    0.525
       223  -9.3147    101.9077     37.1663   7.1258413156e+01   5.4732163644e+01    0.2221324    0.2144845 -34.36 0.0004847298    1.038    0.037
       224  -9.0289     99.5892     33.7273   7.0511333632e+01   5.5844212249e+01    0.2561308    0.2022891  37.20 0.0006402053    1.359    0.264
       225  -9.1161    247.7030     35.4542   4.5461767369e+01   1.8413995681e+01    0.2933441    0.1656612 -43.94  0.001401557    1.744    0.427
       226  -8.8148    215.3329     35.7006   4.8934331705e+01   2.6082315796e+01    0.3240128    0.1383623  43.14  0.001191093    2.684    0.627
       227  -9.8763    190.2296     35.4123   5.2092034713e+01   3.2568396532e+01    0.3828216    0.2837487  44.02 0.0009298054    1.397    0.284
       228  -8.3157      8.4788     43.4890   1.1070627990e+02   6.6584991464e+01    0.1222983   0.09479745 -71.44 0.0008102047    1.005    0.005
       229  -8.7707     86.3099     34.9568   7.5271790853e+01   5.8403563556e+01    0.2041948    0.1755189 -40.11 0.0005823408    1.076    0.071
       230  -9.2713     43.7248     35.1172   9.2133578631e+01   6.5310769024e+01    0.2379694    0.1624396 -17.07  0.001226313    2.036    0.509
       231  -9.6269     33.9733     34.9325   9.6543613937e+01   6.6473115071e+01    0.2201999    0.1840825  49.03 0.0007836859    1.434    0.302
       232 -10.7544    236.9630     32.5241   4.5681820223e+01   2.1174905737e+01    0.4407469    0.3351623 -27.01  0.002229869    1.166    0.142
       233  -8.9312    185.4042     34.2284   5.2394998730e+01   3.3986046944e+01     0.223072     0.130439 -34.95 0.0009446314    1.614    0.380
       234  -8.9669    150.0533     34.1657   5.8355076226e+01   4.3398861854e+01    0.2322154    0.2023966  14.41 0.0004932887    1.206    0.171
       235  -9.1271    143.0818     32.2292   5.9010091473e+01   4.5500621277e+01    0.2899815    0.2109293  12.51   0.00129941    1.644    0.392
       236  -9.2043    113.5544     32.4886   6.6027465997e+01   5.2861311111e+01    0.2575909    0.2383583 -67.58 0.0006121296    1.185    0.156
       237  -9.3605    111.0117     30.2705   6.5768128462e+01   5.3818971652e+01    0.2593522    0.2436989  -2.02 0.0006380397    1.056    0.053
       238  -9.3802    105.5958    247.8201   1.0917136384e+02   1.6523530959e+01    0.2706923    0.1027178  37.85  0.001644275    2.081    0.519
       239  -8.6445     52.4933     33.4456   8.7628163591e+01   6.4501213148e+01    0.2206483    0.1787055 -46.62 0.0007925447    1.063    0.059
       240  -8.7806     51.2188     30.0042   8.6774594171e+01   6.5398773192e+01     0.198552    0.1650496 -61.50 0.0002049786    1.221    0.181
       241 -10.1363     51.1233     26.6248   8.5363014136e+01   6.6103619587e+01    0.3433071    0.2243813  14.24   0.00169765    2.220    0.550
       242  -8.8776    203.8262     32.0421   4.9199282805e+01   2.9416542369e+01    0.2340203    0.1894976 -48.94   0.00070368    1.262    0.207
       243 -10.6916    181.7059     28.7613   5.1078928504e+01   3.5629700083e+01    0.6538853    0.4340469  14.41  0.002833848    1.829    0.453
       244  -8.2682    221.3133     31.2943   4.6939534610e+01   2.5074529294e+01    0.1474294     0.103978  26.87  0.000237775    1.597    0.374
       245  -9.9041     70.8438     30.9357   7.9086832194e+01   6.2076837779e+01    0.4164279    0.2088407  43.57  0.001837569    2.223    0.550
       246  -8.6196    125.8521     29.9273   6.1875865525e+01   5.0254820348e+01     0.226492    0.1938656  11.17  0.001147624    1.244    0.196
       247  -9.1250    105.4730     29.3546   6.6903162196e+01   5.5257132572e+01    0.3305709    0.2384202  48.48  0.001537329    1.443    0.307
       248  -9.2942     21.4839     30.6059   1.0120622703e+02   6.8625727952e+01    0.1972055    0.1929257 -55.70  0.001085981    1.213    0.175
       249 -10.7349     16.7241     27.2422   1.0260517156e+02   6.9761301661e+01    0.3608456    0.2209235 -26.88 0.0006179249    2.003    0.501
       250  -9.2440    215.3853     28.2038   4.6657237656e+01   2.6883487277e+01    0.2038228     0.180478  13.38  0.001118453    1.166    0.142
       251  -9.6822    152.3911     25.1989   5.4496408796e+01   4.3974234278e+01    0.3662768    0.3182713 -62.23  0.001195697    1.245    0.197
       252  -8.7804    116.9626     27.6811   6.3099929627e+01   5.2793067988e+01     0.261516   0.08871917  40.14 0.0007045487    4.411    0.773
       253  -9.1459    167.9507     29.9347   5.3598838186e+01   3.9185626134e+01    0.2237711    0.2157983   5.21  0.000296777    1.029    0.028
       254  -8.6738    221.9482     26.7121   4.5509110594e+01   2.5396663483e+01     0.237411   0.06492913  47.76 0.0007020566    4.106    0.756
       255  -8.9990    197.1945     26.1765   4.8142679948e+01   3.1801347893e+01    0.2284433    0.1982786  23.01  0.000779472    1.206    0.171
       256  -8.8609    121.0261     25.9495   6.1351968466e+01   5.2047878167e+01    0.2402628    0.1764659   9.91  0.001101929    1.616    0.381
       257 -10.1431     29.5611     24.2232   9.4793509888e+01   6.9279513410e+01    0.3649155    0.2456245 -62.57  0.002110674    1.350    0.259
       258 -10.5728    238.3698     22.8154   4.2815634479e+01   2.1807817458e+01    0.3580982    0.2769957  56.65  0.001049278    1.413    0.292
       259 -11.1769    163.9495     22.3435   5.1462377178e+01   4.1193419889e+01     0.519757    0.2845339  50.34 0.0007060662    1.820    0.451
       260 -10.1038      7.0797     23.4059   1.0669261468e+02   7.1270878459e+01    0.2739132    0.1863986 -64.40  0.001313682    1.131    0.116
       261  -8.2255    248.3246     23.2934   4.2102015814e+01   1.9457961971e+01    0.1364493    0.0964999  25.75 0.0002322471    1.619    0.382
       262  -9.1886    178.4328     22.4697   4.9355365268e+01   3.7239225635e+01    0.3680632    0.2162475 -47.88   0.00154263    1.806    0.446
       263  -9.0114     59.3320     24.2907   8.0709370551e+01   6.5306383353e+01    0.1355802    0.1009816 -11.35 0.0005862333    1.629    0.386
       264  -8.9426    116.7699     23.1812   6.1186932994e+01   5.3504518415e+01    0.2605707    0.1513661 -64.11 0.0009499174    2.801    0.643
       265 -10.1187     89.4344     21.5244   6.8150346273e+01   6.0094024035e+01    0.4107435    0.2891291  84.18  0.001860326    2.235    0.553
       266 -13.0227     76.3585    219.0815   1.1192061339e+02   2.3908512483e+01      1.45246    0.4714542  45.31  0.005006963    2.117    0.528
       267 -11.0576     69.0605    218.4893   1.1312955474e+02   2.4865322790e+01    0.2809162    0.2114289  65.56  0.001216138    1.129    0.114
       268  -9.5841      1.5691     22.1611   1.0945893826e+02   7.1844021155e+01    0.2945066    0.1131018 -71.95   0.00103183    2.075    0.518
       269  -8.8690    141.6787     21.9924   5.5222315854e+01   4.7249113471e+01    0.2106254    0.1972518  -9.27 0.0002745959    1.043    0.041
       270  -9.3135    131.9936     20.8034   5.6680354756e+01   4.9956907598e+01    0.4283303    0.2432464 -48.39  0.001166635    1.985    0.496
       271  -8.4262    201.4540     21.5274   4.6126623543e+01   3.1178686992e+01    0.1480063    0.1388572 -30.51  0.000158621    1.018    0.017
       272  -8.9440    119.7342     20.0749   5.9092678857e+01   5.3200345921e+01    0.2517185     0.164809  11.49  0.001059887    1.960    0.490
       273  -9.8427    110.9191     19.3555   6.0934570701e+01   5.5483673822e+01     0.305281     0.262864  55.02 0.0008639293    1.215    0.177
       274 -10.0332    132.8562    206.1176   1.0090640245e+02   1.8163122331e+01    0.2374453    0.2125117  36.43  0.001907258    1.218    0.179
       275  -8.2924     64.1726     19.5987   7.6404008176e+01   6.5362898611e+01    0.1719702    0.1277728  25.77 0.0002698024    1.560    0.359
       276 -10.2993     27.2558     17.9412   9.3411844065e+01   7.0852973387e+01    0.4311911    0.2124992  44.31   0.00210422    2.706    0.631
       277  -9.8134     20.6014     15.7295   9.6224981034e+01   7.1961719243e+01    0.2718356    0.1845021 -19.84 0.0007731126    1.764    0.433
       278  -9.4169    101.9631     17.8657   6.2628981127e+01   5.7836033630e+01     0.346058    0.2560019  78.49 0.0009097633    1.741    0.426
       279  -8.1775    163.4813    193.4641   9.3961113605e+01   1.5162587165e+01    0.1156036   0.09129819  40.52 1.920922e-05    1.028    0.027
       280  -9.2641      1.4029    185.6094   1.2359265736e+02   3.7029117563e+01    0.2105102   0.07451251 -82.67  0.001263141    2.512    0.602
       281 -10.7579      5.4244    168.1866   1.2226462306e+02   3.9801060542e+01    0.3186613    0.1382894  64.29  0.002020751    1.739    0.425
       282 -10.5302     18.6488    160.2012   1.1920379577e+02   4.0163706315e+01    0.2169345    0.1236967  69.44  0.001258353    1.372    0.271
       283 -10.7400     19.3608    155.1459   1.1877859627e+02   4.1073881514e+01    0.3111054    0.1906388 -40.32  0.001823197    3.047    0.672
       284  -8.6936     76.8758    159.1105   1.0656811882e+02   3.3843772426e+01    0.1396788     0.131748  64.56            0    1.256    0.204
       285  -9.3197    155.0982     16.7077   5.0728035091e+01   4.4259905278e+01    0.2972363    0.2189125  -3.00 0.0008237583    1.453    0.312
       286 -10.7379      7.4203    157.4993   1.2143673182e+02   4.1642307648e+01    0.2233045    0.1677874  87.68 0.0009817245    1.205    0.170
       287  -8.0987    123.6472     15.7411   5.6266579711e+01   5.2772099286e+01    0.1581401    0.1074992  31.87 0.0003323471    1.610    0.379
       288  -8.8907      1.6887    157.3113   1.2262769504e+02   4.2133258193e+01    0.1669222    0.0868919  56.38 0.0005126893    1.450    0.310
       289  -9.8769      2.1589    153.7977   1.2239753676e+02   4.2769355249e+01    0.2273023    0.1418401  77.13 0.0005226836    1.193    0.162
       290  -9.9881      4.6136    150.7739   1.2175094134e+02   4.3164662025e+01    0.2458385    0.1284843 -88.23  0.001498485    1.567    0.362
       291  -8.8694     67.7831     12.6182   7.1284897412e+01   6.5901526325e+01    0.2459338    0.1293703  44.14  0.001124351    2.073    0.518
       292  -8.4866     35.6460    147.7402   1.1467131775e+02   4.0975839896e+01   0.09563655   0.08631924 -43.18  0.000697316    1.614    0.381
       293  -9.7190     15.8471    142.7665   1.1885105505e+02   4.3836569921e+01    0.2344272    0.1186046  84.26  0.001417072    1.662    0.398
       294  -8.8914     35.7801    142.4164   1.1421135957e+02   4.2040705506e+01    0.1364776    0.1083363  27.03 0.0007191357    1.627    0.385
       295  -9.3518     21.7180    141.9865   1.1745139968e+02   4.3479647755e+01    0.1723928    0.1341103  60.77 0.0005883257    1.152    0.132
       296  -8.5865     51.3304    141.6300   1.1048248682e+02   4.0506703847e+01    0.1320328   0.07107069  67.75 0.0007031022    1.827    0.453
       297  -8.2909      4.5303     10.4300   1.0402699974e+02   7.4292867223e+01    0.1194374   0.09149556 -56.55 3.624449e-05    1.010    0.010
       298  -9.2957      5.6925    140.6903   1.2105977654e+02   4.5079046531e+01    0.1958315    0.1344194 -88.34 0.0007344724    1.221    0.181
       299  -9.6847      8.6283    138.7011   1.2028618138e+02   4.5252970030e+01    0.1701323    0.1396014 -46.14 0.0007655131    1.763    0.433
       300  -9.8873     38.7922     17.7610   8.7187899133e+01   6.9562797763e+01    0.2208341    0.1935424 -50.58  0.001424377    1.124    0.111
       301 -12.5406    228.2162    135.8529   7.2880822966e+01   1.1054844131e+01     1.553326    0.5426388  51.44  0.006298596    3.041    0.671
       302 -12.6907    231.6860    126.5608   7.0366137720e+01   1.1483851494e+01    0.6265957    0.6047659  -5.66  0.003166264    1.295    0.228
       303  -8.9750      1.3363    137.7995   1.2192408277e+02   4.5988195280e+01    0.3013555   0.06338742  84.82 0.0009404204    6.473    0.846
       304  -9.5966     28.9945    137.9666   1.1545372564e+02   4.3627790916e+01    0.2509713    0.1549632  30.06  0.001332182    1.882    0.469
       305  -9.0078     71.9504    131.2573   1.0425303199e+02   4.0058012677e+01    0.2400957    0.1486332  53.91 0.0007204941    1.497    0.332
       306  -9.7037     32.5849    129.0721   1.1382820983e+02   4.5144900438e+01    0.2386733     0.115033 -69.24  0.001317337    1.860    0.463
       307 -10.7573     12.2758    126.2356   1.1868366421e+02   4.7549000970e+01    0.4852403    0.1651558 -79.97  0.002386137    2.442    0.591
       308  -9.9314     37.8723    126.9507   1.1229299203e+02   4.5064564558e+01    0.1831513    0.1400867  79.24 0.0006577921    1.065    0.061
       309  -9.6054     51.9075    125.7660   1.0858157141e+02   4.3770624653e+01    0.3124017    0.1458254  51.31 0.0009815345    2.013    0.503
       310  -9.5695     27.9368    125.4790   1.1468076340e+02   4.6358385631e+01    0.1603946    0.1050181  39.83  0.000723039    1.568    0.362
       311  -8.4730     20.1418    125.1839   1.1663448678e+02   4.7122076420e+01    0.1550273     0.101077  67.30 0.0003800438    1.280    0.219
       312 -10.9217     91.7046    122.4894   9.7969532118e+01   3.8979979614e+01    0.4355254    0.2068406  45.74  0.002014949    1.997    0.499
       313  -8.5972     76.2795    123.2746   1.0199695197e+02   4.1136091478e+01    0.1829511    0.1504555  15.47 -0.000275831    1.697    0.411
       314  -9.3875     75.9379    119.3411   1.0146345015e+02   4.2025016450e+01    0.2881127    0.1745353 -72.28  0.001025224    1.647    0.393
       315  -8.8164      2.1422    123.1848   1.2103072675e+02   4.8946854791e+01     0.155128   0.09648447  67.33 0.0006487979    1.280    0.219
       316  -8.0995    143.2666    121.6701   8.5655904644e+01   2.9872967850e+01    0.1336684    0.1070239 -87.96 0.0002487628    1.577    0.366
