#   1 NUMBER                 Running object number                                     
#   2 MAG_AUTO               Kron-like elliptical aperture magnitude                    [mag]
#   3 X_IMAGE                Object position along x                                    [pixel]
#   4 Y_IMAGE                Object position along y                                    [pixel]
#   5 X_WORLD                Barycenter position along world x axis                     [deg]
#   6 Y_WORLD                Barycenter position along world y axis                     [deg]
#   7 A_WORLD                Profile RMS along major axis (world units)                 [deg]
#   8 B_WORLD                Profile RMS along minor axis (world units)                 [deg]
#   9 THETA_WORLD            Position angle (CCW/world-x)                               [deg]
#  10 FWHM_WORLD             FWHM assuming a gaussian core                              [deg]
#  11 ELONGATION             A_IMAGE/B_IMAGE                                           
#  12 ELLIPTICITY            1 - B_IMAGE/A_IMAGE                                       
         1 -11.2246     82.1013     69.9313   6.5023720145e+01   5.3084305950e+01    0.7904414    0.2423171 -48.56  0.002444566    3.198    0.687
         2 -11.8199     27.3049     31.0746   7.4866204710e+01   7.0686854409e+01    0.8186009    0.1431469 -47.06  0.002322695    4.689    0.787
         3 -10.2896     40.8687     13.9447   5.6629474229e+01   7.1824691304e+01    0.2024986    0.1666082   0.61 0.0002976843    1.220    0.180
         4 -11.0634     85.0127    227.0390   9.2443976193e+01   1.8737778571e+01    0.1890831    0.1108472  53.98  0.001138404    1.730    0.422
         5 -10.7161    192.3030    226.0741   7.1800878377e+01   5.8348179768e+00    0.1869884    0.1182208  16.04  0.000683518    1.304    0.233
         6 -11.4762    162.3971    224.8618   7.6930871002e+01   9.6138160037e+00    0.3015441    0.1838533  20.02  0.001216191    1.430    0.301
         7 -10.0703     99.2862    224.9505   8.9309446268e+01   1.7404313891e+01    0.1529337    0.1327472  34.91 0.0005862113    1.069    0.064
         8 -10.5615     60.0214    222.8240   9.7333528526e+01   2.2234289887e+01    0.2037552   0.08813881  49.57  0.001078375    2.030    0.507
         9 -10.4124    126.0791    220.3371   8.3358512779e+01   1.4829874988e+01    0.1667796    0.1235688  31.79 0.0006047544    1.118    0.106
        10 -10.3772     74.8491    219.1781   9.3900518712e+01   2.1238451161e+01    0.1845986     0.130131  49.42 0.0008020626    1.245    0.197
        11 -10.2772    143.9854    216.9866   7.9393764579e+01   1.3047235007e+01    0.1438093    0.1183081  19.36  0.001015938    1.012    0.012
        12 -10.2434    116.6590    210.3205   8.4095877997e+01   1.7636340724e+01    0.1210246   0.08228085  55.22  0.000705007    1.719    0.418
        13 -10.3334     99.8015    206.2201   8.7226104166e+01   2.0509355987e+01    0.2072446    0.1078029  59.59 0.0009548963    2.808    0.644
        14  -9.8642     56.5060    204.9952   9.6773167664e+01   2.5889161875e+01    0.1669074   0.08327346  70.38 0.0008101772    2.521    0.603
        15 -12.3060    165.5955    202.6894   7.3213264711e+01   1.2284342459e+01    0.3640858    0.2913823  86.81  0.002157761    2.540    0.606
        16 -11.4843    149.4049    198.3351   7.5728339334e+01   1.5160035800e+01    0.2764112    0.2024978  76.90  0.001470453    2.737    0.635
        17 -10.7846     88.8753    198.3918   8.8782754690e+01   2.3324338469e+01    0.2930257    0.1621987  86.30  0.001308732    3.262    0.693
        18 -12.8212    177.6011    197.6555   7.0186238277e+01   1.1377095143e+01    0.3372234    0.2154021  47.50  0.001944768    2.032    0.508
        19 -11.7451    124.7683    197.5635   8.0734792382e+01   1.8701391241e+01    0.2873759    0.2002631  44.85  0.001720543    1.416    0.294
        20 -10.5987    113.4705    197.9925   8.3239216322e+01   2.0168445854e+01    0.2591324    0.1245632  56.82  0.001038685    3.541    0.718
        21 -12.9204    163.3548    194.2945   7.2353742723e+01   1.3834987042e+01    0.3728854    0.2423187  47.72  0.002131437    1.873    0.466
        22 -10.4641     78.4870    193.0020   9.0593127056e+01   2.5660820387e+01    0.1701591   0.09765495  75.81 0.0008098542    2.507    0.601
        23 -10.4031     43.7093    192.7214   9.8807711115e+01   2.9683109905e+01    0.2498539      0.11842  72.47  0.001181273    2.527    0.604
        24 -10.7120    179.5824    190.7887   6.8712953018e+01   1.2081264616e+01    0.1516938    0.1112949 -43.45 0.0006940572    1.640    0.390
        25 -11.5103    173.0043    191.0320   6.9982386707e+01   1.2966838013e+01    0.1742383     0.152579  62.64  0.001143616    1.732    0.423
        26 -11.5707    139.3539    189.4933   7.6467116728e+01   1.8017937724e+01     0.250357     0.216841  68.20  0.001604681    1.528    0.346
        27 -10.9695     87.3878    189.1714   8.8071113666e+01   2.5281852145e+01    0.1672284    0.1183831 -84.28 0.0009503547    1.731    0.422
        28 -10.9121    129.6634    188.3349   7.8363862873e+01   1.9609766679e+01    0.1962974    0.1462797  61.12  0.001123231    1.749    0.428
        29 -10.9431    165.9662    186.9609   7.0666030272e+01   1.4581594831e+01    0.1813208    0.1537175  63.03  0.001140778    1.747    0.428
        30 -10.3319     66.8243    194.5408   9.3487711351e+01   2.6763682212e+01    0.2487666    0.1273034  62.18  0.001198299    2.328    0.570
        31 -10.9130    149.4798    187.5105   7.4052784187e+01   1.6882882121e+01    0.1241715    0.1085275  16.79 0.0001615298    1.028    0.027
        32 -11.6520    120.6855    185.1922   7.9877122775e+01   2.1460833015e+01    0.3831979    0.1772424 -60.06  0.001697322    2.860    0.650
        33 -12.1464     94.9678    184.4738   8.5702424410e+01   2.5197551482e+01    0.6077505    0.3760129  69.04  0.002995956    2.292    0.564
        34 -10.2999     34.4787    186.9711   1.0062117471e+02   3.1804095130e+01    0.1780966    0.0790883  69.46 0.0008099918    2.536    0.606
        35 -11.1242    110.2732    185.1954   8.2234842549e+01   2.2942501687e+01    0.3075256    0.2211302  37.91  0.001196851    1.248    0.199
        36 -10.4008      5.8599    184.7246   1.0741511981e+02   3.4771714123e+01    0.2429213    0.1005757  63.25  0.001065113    2.108    0.526
        37 -11.1564    175.2532    183.8677   6.8365617459e+01   1.3709981237e+01    0.2145399    0.1567363  38.69  0.001322684    1.435    0.303
        38 -10.3646     74.8185    183.9919   9.0485892206e+01   2.7922790919e+01    0.2147335    0.1300123  69.08  0.001084811    2.033    0.508
        39  -9.9206     66.3091    184.6509   9.2634363393e+01   2.8828471898e+01    0.1349545   0.08233805  60.45 0.0006228322    1.711    0.415
        40 -10.5243    197.5151    182.5209   6.4092498796e+01   1.0740070627e+01     0.119394   0.09835897   1.17 7.646416e-05    1.039    0.037
        41 -10.0989     44.3231    181.6755   9.7800185337e+01   3.1931482087e+01    0.1353582    0.0761742  57.96 0.0003768803    1.685    0.406
        42 -11.9560    148.1606    179.6968   7.3057997146e+01   1.8376939085e+01    0.2462543    0.2082901  85.43  0.001478503    1.783    0.439
        43 -11.0247    138.0259    179.0012   7.5100232235e+01   2.0019327327e+01    0.1947098    0.1568979  66.62 0.0008916759    1.682    0.406
        44 -10.4774    192.3229    177.6754   6.4152982177e+01   1.2150963725e+01    0.1051801     0.100137  88.71 0.0005687013    1.684    0.406
        45 -11.6258     78.1814    175.4919   8.8658222035e+01   2.9258601114e+01    0.3265759    0.2042322  70.16  0.001638616    1.996    0.499
        46 -10.1708     59.9859    176.5003   9.3371992069e+01   3.1300134464e+01    0.1955811   0.07592595  48.88 0.0008100166    2.508    0.601
        47 -10.2775     12.5024    175.4811   1.0539261749e+02   3.6240610108e+01    0.2230085   0.09247793  80.40  0.001037614    2.425    0.588
        48 -10.9126    159.7918    175.2070   6.9898453823e+01   1.7364330381e+01    0.1950171    0.1430548  76.31 0.0009514907    2.795    0.642
        49 -10.5072    106.0106    175.0258   8.1770969108e+01   2.5512612381e+01    0.2140556    0.1506664  63.49  0.001134649    1.749    0.428
        50 -11.4784    135.0618    171.4404   7.4495141143e+01   2.1825820724e+01    0.2964694    0.2226908 -82.53   0.00156051    2.113    0.527
        51 -11.4437    177.2518    171.1372   6.5745349895e+01   1.5350924148e+01    0.2200102    0.1677456  61.09  0.001237168    2.069    0.517
        52 -10.0475     44.6664    171.3461   9.6824753156e+01   3.4150357326e+01    0.1415827   0.07895108  59.43 0.0007049395    1.767    0.434
        53 -11.4522    150.0244    169.5381   7.0920282893e+01   1.9831504349e+01    0.2375718    0.1907203 -64.07  0.001374963    1.674    0.403
        54 -12.1632    121.9119    168.3024   7.6960055111e+01   2.4447449376e+01    0.4947989    0.3305248 -70.04  0.002487064    2.079    0.519
        55 -11.4314    168.3406    168.7260   6.7029263538e+01   1.7102933116e+01    0.2516194    0.2209351  83.53  0.001532679    1.764    0.433
        56 -10.5158     54.9151    168.7911   9.3882823605e+01   3.3580958387e+01    0.2624667    0.1449305  70.73   0.00123723    2.151    0.535
        57 -10.5770     55.2754    186.7149   9.5529875474e+01   2.9678213086e+01     0.322981    0.1153506  58.58  0.001153368    3.995    0.750
        58 -10.4763    192.6061    165.8176   6.1930616389e+01   1.3823500239e+01    0.1709515    0.1093903 -42.41 0.0009506508    1.730    0.422
        59 -12.4480    139.6115    164.6686   7.2304503288e+01   2.2348883883e+01     0.415015     0.297251 -78.95  0.002033645    2.396    0.583
        60 -10.9886     99.1756    165.9082   8.2068561814e+01   2.8358431598e+01    0.2882679     0.139896  53.64  0.001175297    2.619    0.618
        61 -11.0147     79.8825    163.3107   8.6631057089e+01   3.1649008395e+01    0.4998113    0.2588013  79.36  0.001749829    4.099    0.756
        62 -10.3791    160.3239    164.6446   6.7886108097e+01   1.9040140788e+01    0.1234571    0.1060341  82.84    0.0005362    1.766    0.434
        63 -10.0762     37.5839    163.3297   9.7997231503e+01   3.6701789653e+01    0.2445236    0.1180591 -82.69  0.001141654    2.154    0.536
        64  -9.7625     47.3273    163.6643   9.5384915839e+01   3.5594224751e+01    0.1425365   0.08314911  60.39 0.0007051756    1.722    0.419
        65 -11.1932    205.9933    162.0328   5.8895995706e+01   1.2361546238e+01    0.1729932    0.1553825 -60.19   0.00103933    1.724    0.420
        66 -11.2398    178.0854    160.4380   6.3578763525e+01   1.6896445789e+01    0.2965912    0.2107958 -58.67  0.001571858    2.138    0.532
        67 -11.1441    152.6716    160.9826   6.8794417600e+01   2.0904232018e+01    0.2279248    0.1878844  60.09 0.0009617936    1.565    0.361
        68 -10.1613    206.6526    169.3257   6.0158806108e+01   1.1255851162e+01    0.1058498   0.09866193 -67.49 0.0007049748    1.749    0.428
        69 -11.0760     93.2576    159.7103   8.2614901839e+01   3.0538074400e+01    0.3013518    0.2113861  65.73  0.001543063    1.704    0.413
        70 -10.6479      8.7009    159.2792   1.0557846978e+02   4.0189608783e+01    0.3461621    0.1042416  76.07  0.001206351    4.047    0.753
        71 -10.3187    128.5133    158.9989   7.3803587538e+01   2.5204002416e+01     0.179366    0.1225208 -79.63 0.0008096864    2.490    0.598
        72  -9.5899     31.3251    159.6547   9.9397597212e+01   3.8169869310e+01    0.1426224   0.07839358  59.89 0.0007050339    1.742    0.426
        73 -11.2599    197.1620    157.7000   5.9567157602e+01   1.4319571380e+01    0.2193876    0.1595464 -36.67  0.001314006    1.406    0.289
        74 -11.4934    168.1921    157.3983   6.4914653692e+01   1.8985455700e+01    0.2401462    0.2083788  72.76  0.001415078    1.676    0.403
        75 -10.9868    105.7530    157.6732   7.9093272265e+01   2.9086201139e+01     0.356858    0.2036053  62.53   0.00147019    2.711    0.631
        76 -11.2928    119.6591    154.7701   7.5141531588e+01   2.7477423031e+01    0.4014091    0.2217646 -71.38  0.001525326    3.368    0.703
        77 -10.8315     81.8242    154.3209   8.4809577270e+01   3.3373238291e+01    0.3488104    0.1946337  57.69  0.001544183    2.149    0.535
        78 -10.7725     49.4976    154.3470   9.3792166964e+01   3.7510553554e+01    0.3413768    0.1815764  70.84  0.001517404    2.281    0.562
        79 -10.5671    144.8384    154.5853   6.9267266373e+01   2.3349181603e+01    0.1925073    0.1217557  47.92  0.000946638    1.729    0.422
        80 -11.7199    133.9674    152.9881   7.1415504321e+01   2.5469467768e+01    0.3755937    0.2512891  77.00   0.00157143    3.014    0.668
        81 -10.9735     67.9604    153.2956   8.8469913797e+01   3.5497135800e+01    0.2606249    0.1789705  74.29  0.001331875    1.652    0.395
        82 -12.1914    190.2367    149.8767   5.9231919086e+01   1.6592286051e+01    0.3600672    0.2283328 -46.97  0.001756257    1.862    0.463
        83 -10.5621    182.4931    150.9783   6.0874600094e+01   1.7684908887e+01    0.1759977    0.1103258 -57.16 0.0008103981    2.576    0.612
        84 -10.4455    162.4305    150.2166   6.4650784939e+01   2.1164627777e+01    0.1842924    0.1246571 -50.45 0.0009458103    1.711    0.416
        85 -11.0385    189.0179    157.5067   6.0976957960e+01   1.5619973085e+01    0.1882317    0.1189301  36.90  0.001034288    1.596    0.373
        86 -10.9458     28.7162    149.0803   9.9235041566e+01   4.0920279677e+01    0.3479812    0.1339396  84.31  0.001261941    3.446    0.710
        87 -11.4438    200.2236    148.3987   5.7180209363e+01   1.5208284030e+01    0.2114865    0.1660521  42.93   0.00122675    1.487    0.328
        88 -11.1368     39.4094    146.7972   9.5876437239e+01   4.0412732799e+01    0.4467881    0.2165949  73.81  0.001860642    2.578    0.612
        89 -12.4440    149.5454    144.7716   6.6265022019e+01   2.4357367973e+01    0.5388916    0.3937128 -87.88  0.002478469    2.565    0.610
        90 -11.5559    107.6559    145.0716   7.6358703447e+01   3.1459060179e+01    0.5629032    0.3347631  70.71  0.002133167    3.216    0.689
        91 -11.4668     55.8555    144.6414   9.0763470840e+01   3.9068754135e+01    0.5980325    0.3134853  79.20  0.002418885    2.714    0.632
        92 -10.2000     78.3275    146.6653   8.4584075937e+01   3.5612413614e+01    0.1477022    0.1001786  66.38 0.0007051764    1.721    0.419
        93 -10.9514    165.9712    143.9987   6.2644982238e+01   2.1633165870e+01    0.2043556    0.1742776 -83.72  0.001139921    1.737    0.424
        94 -10.1846    138.3257    144.6537   6.8758613733e+01   2.6336179756e+01     0.137733    0.1118886  83.05 0.0005141884    1.746    0.427
        95 -11.7953    125.2154    142.5469   7.1438145025e+01   2.9029424321e+01    0.4784711    0.3176995 -83.46  0.001978931    2.839    0.648
        96 -10.8912     87.9937    143.4846   8.1354265249e+01   3.4919608005e+01    0.2757707    0.1989887 -84.57  0.001138886    1.675    0.403
        97 -10.7378    182.4966    141.5006   5.8906096664e+01   1.9201049452e+01    0.2350182    0.1154596 -46.54  0.001029695    2.325    0.570
        98 -10.4241     68.4319    138.1507   8.6085747901e+01   3.8999621683e+01    0.3370464    0.1397749 -74.73  0.001146733    3.432    0.709
        99 -11.3304     22.7996    135.5329   9.9805016855e+01   4.4770382726e+01    0.7339206    0.2733934 -85.55  0.002838774    2.850    0.649
       100 -10.5345    172.4847    137.9846   6.0062430314e+01   2.1521445688e+01    0.1862671    0.1145097 -58.48 0.0008102657    2.542    0.607
       101 -10.5739    197.3908    137.1824   5.5320651117e+01   1.7350793339e+01    0.1908014    0.1095543 -42.02 0.0009557808    1.777    0.437
       102 -11.3430     38.8214    134.5451   9.4665403526e+01   4.3482770357e+01     0.336288    0.1779365 -79.67   0.00154632    1.883    0.469
       103 -11.4346      2.5018    139.2772   1.0630478322e+02   4.5375762186e+01    0.3881599    0.1110104 -84.65  0.001457862    3.196    0.687
       104 -11.3477    132.3032    131.1532   6.7298263796e+01   3.0079133873e+01     0.446997    0.2549254 -62.31  0.001801642    2.543    0.607
       105 -10.6164    112.9880    133.1779   7.2596228439e+01   3.3121173194e+01    0.2437267    0.1620586  64.01  0.001081727    2.044    0.511
       106 -11.8038     83.3774    129.8838   8.0192323953e+01   3.8784777255e+01    0.8004347    0.3133429 -63.27  0.002827165    2.939    0.660
       107 -10.5078    143.5170    131.5278   6.4755803104e+01   2.7941200395e+01    0.3040837    0.2232533 -89.59  0.001375377    2.354    0.575
       108 -10.8252    153.3210    129.0904   6.2026731417e+01   2.6581818930e+01    0.3642941    0.2378708 -66.68  0.001558385    2.540    0.606
       109 -11.6137     12.6752    125.0973   1.0215026400e+02   4.8201673288e+01    0.8818775    0.2117372 -73.32  0.003089862    3.361    0.702
       110 -10.9382    168.8099    129.2202   5.8840260635e+01   2.3685664829e+01    0.2233146    0.1581711 -79.59 0.0009600993    2.853    0.650
       111 -10.6661     72.8381    128.3603   8.3081869471e+01   4.0737196964e+01    0.3520899    0.1979368 -81.22  0.001418674    2.434    0.589
       112 -11.1593    117.9687    124.8741   6.9476464514e+01   3.4014142612e+01    0.4570477    0.3102797  82.02  0.001875342    2.599    0.615
       113 -11.4085     58.9644    122.7261   8.6466352394e+01   4.4055717041e+01    0.7088183    0.3516448  89.67  0.002407246    3.559    0.719
       114 -11.9610     42.9797    120.0002   9.1344773914e+01   4.6703574334e+01      1.02814    0.4188066 -87.96  0.003164673    4.277    0.766
       115 -11.9185     27.8586    120.9216   9.6622513261e+01   4.8014801622e+01    0.9272367    0.3519459  72.18  0.002777333    4.788    0.791
       116 -11.3889     98.8690    127.2311   7.5178982244e+01   3.6875860807e+01    0.5699433    0.3526526 -80.67   0.00227134    2.620    0.618
       117 -10.2627    158.4945    120.9956   5.9031188319e+01   2.7088449243e+01    0.2010612    0.1193204 -59.67 0.0008104781    2.549    0.608
       118 -11.1803    142.1288    118.9980   6.2152187770e+01   3.0634932072e+01    0.4353896    0.2717986 -65.00  0.001784565    2.488    0.598
       119 -10.7782    130.8596    118.3514   6.4677841717e+01   3.2949332861e+01    0.2873591    0.2013313 -69.63  0.001288075    1.994    0.498
       120 -11.7279      2.5914    114.5070   1.0475824366e+02   5.1561674650e+01    0.7727811    0.2320487 -89.90  0.002719946    3.381    0.704
       121 -11.2392    108.9223    112.8189   6.9065252505e+01   3.8316222326e+01    0.5955285     0.295679 -63.96    0.0020399    3.126    0.680
       122 -11.3824     78.6465    111.0502   7.7743537973e+01   4.4048821784e+01    0.6800244    0.3479904 -75.39  0.002328526    3.225    0.690
       123 -11.3877     92.3037    110.7249   7.3392537989e+01   4.1819227968e+01    0.7244655    0.2787662 -59.82  0.002349495    3.210    0.689
       124 -11.6055     14.2576    108.6479   1.0005679084e+02   5.2312434405e+01    0.6173963     0.286018 -75.19   0.00279559    1.877    0.467
       125 -11.4336     66.4364    109.6979   8.1483969386e+01   4.6268719975e+01    0.4780345    0.2459383 -73.19  0.001848076    2.410    0.585
       126 -10.2044    139.9921    104.4985   5.8968598658e+01   3.3890576359e+01    0.2949708    0.1817372 -72.81  0.001030002    3.391    0.705
       127 -12.9076     21.9885     98.9503   9.5918134124e+01   5.4244083450e+01     1.156451    0.4791616 -89.01  0.004242199    2.948    0.661
       128 -12.1899     44.7844     99.5997   8.7186670159e+01   5.1746783238e+01     1.136056    0.5301132 -84.14  0.003931335    3.225    0.690
       129 -12.0948      6.9434    100.5111   1.0198461664e+02   5.4921356600e+01    0.6451647    0.1878679 -71.04  0.002440501    2.707    0.631
       130 -10.6380    128.6789    101.6936   6.0946269577e+01   3.6780946602e+01    0.3064615    0.1771056 -61.59  0.001172921    2.464    0.594
       131 -11.4451    108.4119     97.3003   6.5153726738e+01   4.1828464818e+01    0.6687995    0.3592542 -62.10  0.002456154    2.592    0.614
       132 -10.7590     81.7539     98.8481   7.3790412596e+01   4.6468591824e+01    0.4514737    0.2085446 -64.03  0.001572836    2.774    0.639
       133 -10.8326     94.8777     96.1167   6.8852510485e+01   4.4726858809e+01    0.3799332    0.2128316 -59.73  0.001440825    2.015    0.504
       134 -11.8750     63.2376     93.5114   7.8905789385e+01   5.0786604221e+01    0.8824979     0.361753 -64.97   0.00305251    2.811    0.644
       135 -10.0911     57.9938     92.0160   8.0496151950e+01   5.1937267566e+01    0.2250109    0.1682837  71.61            0    1.578    0.366
       136 -12.6264      5.3950     88.4648   1.0134901177e+02   5.8164155735e+01    0.8036414    0.2747877 -63.91  0.003282391    2.333    0.571
       137 -12.5677      9.0426     78.4828   9.8467347669e+01   6.0569028457e+01    0.6846772     0.193013 -68.74  0.002525395    2.716    0.632
       138 -11.1720    124.5326     90.0465   5.8708982331e+01   4.0007741735e+01    0.4797053    0.1718147 -50.89  0.001451435    3.469    0.712
       139 -11.7049     34.8468     86.7641   8.8564278733e+01   5.6211162662e+01    0.8698039    0.2525442 -62.72  0.003000838    2.846    0.649
       140 -11.3335     86.2578     85.1531   6.8483222028e+01   4.8864840935e+01    0.6159922    0.2725371 -56.04  0.002200642    2.476    0.596
       141 -12.0632     48.2688     81.8155   8.1800001054e+01   5.5865476297e+01    0.8265083    0.3832305 -66.53   0.00322534    2.239    0.553
       142 -11.2305    104.3293     81.7847   6.1755443878e+01   4.6004926329e+01    0.5226403    0.2476714 -53.53  0.001899034    2.390    0.582
       143 -10.5503     74.3898     79.4041   7.0884562553e+01   5.2372307177e+01    0.3870764    0.1435716 -56.65  0.001253605    2.981    0.665
       144 -11.6879     62.6242     70.6193   7.2630326929e+01   5.6462340981e+01     1.126291    0.1741934 -48.92  0.002682695    5.542    0.820
       145 -10.4332    127.8358     75.0105   5.3255601258e+01   4.2203005562e+01    0.2622483    0.1679656 -61.36   0.00108382    2.018    0.505
       146 -10.5922     92.3389    230.6694   9.1266772815e+01   1.7302158171e+01    0.1181987   0.07002775  53.15  0.000705184    1.739    0.425
       147 -12.8165     25.3758     76.1525   9.0512978578e+01   5.9921790241e+01     1.149253    0.3377465 -55.68  0.004146729    2.715    0.632
       148 -10.8797     94.8162     68.8320   6.0381476078e+01   5.0727167579e+01    0.6579924    0.1787594 -47.25  0.001855078    3.808    0.737
       149 -11.6403     51.1095     67.0806   7.6354213320e+01   5.9116769413e+01    0.8010509     0.272242 -61.31  0.002511437    3.457    0.711
       150 -11.3829      5.8685     70.1283   9.8730351029e+01   6.2939386086e+01    0.3777034    0.1569495 -69.54  0.001646341    1.957    0.489
       151 -11.8410     17.5017     63.9823   9.1699176992e+01   6.3750209821e+01    0.5723206    0.1508213 -62.38   0.00202933    2.825    0.646
       152 -10.9387     10.1750     64.5274   9.5598285123e+01   6.4137777530e+01    0.2746497    0.1678042 -72.04  0.001214742    1.419    0.295
       153 -11.3889     37.4008     62.1174   8.1158805533e+01   6.2193808940e+01    0.5812061    0.2226149 -55.58  0.002243681    2.248    0.555
       154 -11.2377     73.2677     56.5243   6.3348713057e+01   5.7696648669e+01    0.8382577    0.2231737 -43.19  0.002458814    3.661    0.727
       155 -10.8336     25.1597     57.0573   8.5899675388e+01   6.4819859377e+01    0.4032982    0.1923801 -53.82  0.001786653    1.790    0.441
       156 -12.5363      7.9596     53.5087   9.4547949406e+01   6.7103952681e+01    0.8921988    0.1786047 -63.93  0.003020139    3.267    0.694
       157 -11.7361     44.7083     51.1165   7.3738730945e+01   6.3823912971e+01     0.725328    0.2154692 -47.13   0.00241005    3.070    0.674
       158 -10.5326     63.0000     49.4837   6.4640815882e+01   6.1126804148e+01    0.4274116    0.1921182 -33.58  0.001498521    2.855    0.650
       159 -10.9844     53.7507     51.2371   6.9461659161e+01   6.2375431821e+01    0.6882699    0.1821096 -53.35  0.001951232    4.209    0.762
       160 -11.3860     30.9570     49.1121   8.0187466435e+01   6.6128066486e+01    0.6290194    0.2038793 -60.53  0.002186323    2.988    0.665
       161 -10.7516     20.3822     49.9076   8.6421722184e+01   6.7052365052e+01    0.4633006    0.2050657 -51.76  0.002022896    1.914    0.478
       162 -10.8795     92.0692     48.4323   5.3477921354e+01   5.5310137572e+01    0.6446587    0.1684586 -41.85  0.001881085    3.665    0.727
       163 -10.7398     42.5433     71.2246   8.1428736746e+01   5.9282423011e+01    0.3678109    0.1247823 -58.11  0.001303003    2.581    0.612
       164 -10.2883     63.0000     54.0265   6.6497793345e+01   6.0160246965e+01    0.3083149    0.1837728 -51.62  0.001363439    1.650    0.394
       165 -11.1762     16.9025     41.9821   8.5960191962e+01   6.9299502241e+01    0.5168089    0.1199544 -56.39  0.001790002    3.071    0.674
       166 -12.0034      5.1591     39.1551   9.2712133347e+01   7.0860362243e+01    0.7302147    0.1751108 -68.09  0.002501808    3.399    0.706
       167 -10.6863     57.8889     40.9708   6.3126262293e+01   6.3812933687e+01    0.4000506    0.1777969 -54.15  0.001443691    2.811    0.644
       168  -9.8021    113.7476     41.5936   4.4663272676e+01   5.1317983956e+01    0.1530992    0.1142405   8.65   0.00069456    1.715    0.417
       169  -9.8916    106.0000     39.4882   4.5735040511e+01   5.3538472694e+01    0.3379556   0.08304446 -32.15 0.0009417528    3.992    0.749
       170 -10.6518     68.7854     39.2160   5.7670058541e+01   6.2028618122e+01    0.3782284    0.1616412 -44.75  0.001433124    2.330    0.571
       171 -10.0230     72.5004    228.4978   9.5148210454e+01   1.9904085870e+01    0.1142141   0.08834621  43.42 5.993106e-06    1.049    0.046
       172 -10.7405     36.8213     38.5750   7.2670631723e+01   6.7774705530e+01    0.4764532     0.138903 -45.51  0.001601996    3.156    0.683
       173 -10.4605     49.8909     30.0042   6.1473848527e+01   6.7396092213e+01    0.4588243    0.1744592 -31.81  0.001477622    3.668    0.727
       174 -11.1848     12.5988     27.9892   8.3545899834e+01   7.2965374655e+01    0.5458403    0.0976388 -59.64  0.001657451    4.333    0.769
       175 -11.0235      3.5533     25.1924   8.9326802352e+01   7.4301582197e+01    0.3364794   0.09922102 -62.73  0.001314708    2.685    0.628
