#   1 NUMBER                 Running object number                                     
#   2 MAG_AUTO               Kron-like elliptical aperture magnitude                    [mag]
#   3 X_IMAGE                Object position along x                                    [pixel]
#   4 Y_IMAGE                Object position along y                                    [pixel]
#   5 X_WORLD                Barycenter position along world x axis                     [deg]
#   6 Y_WORLD                Barycenter position along world y axis                     [deg]
#   7 A_WORLD                Profile RMS along major axis (world units)                 [deg]
#   8 B_WORLD                Profile RMS along minor axis (world units)                 [deg]
#   9 THETA_WORLD            Position angle (CCW/world-x)                               [deg]
#  10 FWHM_WORLD             FWHM assuming a gaussian core                              [deg]
#  11 ELONGATION             A_IMAGE/B_IMAGE                                           
#  12 ELLIPTICITY            1 - B_IMAGE/A_IMAGE                                       
         1 -13.8113      2.9841    106.9844   1.2409948571e+02   5.1635694255e+01     1.690229    0.2301878 -70.31  0.006157685    4.284    0.767
         2 -13.1831    206.2339     33.1002   5.4426326719e+01   2.9481874876e+01     1.300943     1.218487  38.66   0.00673604    1.115    0.103
         3 -13.1360      3.2239     13.8199   1.0577860223e+02   7.0403283314e+01     1.042337    0.4018081 -57.01  0.005731183    2.124    0.529
         4 -13.6096    222.9207     15.7495   4.7346880509e+01   2.7221599660e+01     1.229204    0.9535742  27.57  0.001707124    1.556    0.357
         5 -11.4201    180.4961    243.8574   1.0567644933e+02   2.0361556496e+00    0.4418206    0.1567448  37.36  0.002006463    2.782    0.641
         6 -10.8699    184.7605    248.3770   1.0555115309e+02   8.1534665369e-01    0.3070678    0.1962859 -19.58  0.001905682    2.581    0.612
         7 -10.7192    175.8406    249.8567   1.0714981432e+02   2.0717580939e+00    0.3320884    0.1347458  37.89  0.001708777    2.233    0.552
         8 -10.7603    161.5354    249.7766   1.0941363199e+02   4.3599651389e+00    0.2384259    0.1432699  30.57   0.00146106    1.947    0.486
         9 -11.8795    149.8823    247.0584   1.1096939589e+02   6.5499837094e+00    0.3720372    0.3282474   8.78  0.002893557    1.631    0.387
        10 -11.3109    142.9507    249.0406   1.1228025847e+02   7.3746905453e+00    0.4048255    0.1890383  59.76  0.002204958    2.223    0.550
        11 -12.0423    119.1052    237.2335   1.1490171626e+02   1.2700320846e+01    0.5493692    0.4254611  12.80  0.001978843    2.509    0.601
        12 -11.8439    124.8570    240.7123   1.1431874597e+02   1.1316293554e+01    0.4473943    0.2283519  46.66  0.002738644    1.531    0.347
        13 -12.7730    123.4847    248.1980   1.1526192592e+02   1.0464927199e+01     1.226648    0.3215365  48.66  0.005603524    2.829    0.646
        14 -10.7332    116.7179    250.2429   1.1650398073e+02   1.1185179023e+01    0.5222937    0.1297388  46.64  0.002377768    2.928    0.658
        15 -10.8241    110.0360    247.9483   1.1733515942e+02   1.2486604975e+01    0.2709993    0.1952913  58.19  0.001920011    1.035    0.034
        16 -11.1325     99.8146    247.9315   1.1890986457e+02   1.3952563628e+01    0.3616146    0.2368883  67.34   0.00267477    1.234    0.189
        17  -9.7409     90.8934    220.1078   1.1790365329e+02   1.9566223398e+01    0.1771183    0.1258548  68.07 0.0004908247    1.106    0.096
        18 -10.6325     84.1868    230.1466   1.1988539709e+02   1.8856991893e+01    0.2286346    0.1728943 -63.84  0.001177093    1.674    0.403
        19 -11.4670     89.5471    225.2212   1.1859213678e+02   1.8911881324e+01    0.5038292    0.2702287  55.73  0.003191684    1.463    0.317
        20 -11.9624    111.9265    231.4904   1.1550652271e+02   1.4653062626e+01    0.4597568    0.2639259  46.05  0.002263406    1.467    0.318
        21 -10.6169     97.1467    239.3512   1.1860411091e+02   1.5607513741e+01    0.3311718    0.1769464  71.70  0.001923948    1.925    0.481
        22 -11.3906     87.2641    248.4885   1.2086325283e+02   1.5606475944e+01    0.4563201    0.2306727  53.22  0.001799403    1.446    0.308
        23  -9.9539     81.6359    248.0530   1.2167738312e+02   1.6426466283e+01    0.2865868    0.1107618 -71.75  0.001640797    2.990    0.666
        24 -12.0268     88.8049    238.1175   1.1981105826e+02   1.6964061656e+01    0.6760293    0.3169006  70.99  0.003754796    2.417    0.586
        25 -11.5671     83.0385    240.0212   1.2085946616e+02   1.7456893835e+01    0.5481408     0.188749  59.30  0.001001837    2.780    0.640
        26 -12.3960    102.8209    238.1342   1.1759981113e+02   1.4979860164e+01    0.5444083    0.4046931  69.10  0.001888622    1.094    0.086
        27  -9.3378     56.6613    250.4758   1.2550125961e+02   1.9231172898e+01    0.1539725    0.0962298  54.49 0.0007461447    1.271    0.213
        28 -11.3785     59.8754    246.1221   1.2477011843e+02   1.9500533106e+01    0.4855991    0.2393353  61.81  0.003372342    1.508    0.337
        29 -10.9270     68.3726    245.6927   1.2349057974e+02   1.8506053355e+01    0.2613727     0.163528  67.44 0.0009933022    1.167    0.143
        30 -11.2585     48.6074    216.2587   1.2452362216e+02   2.5722463916e+01    0.5761603    0.2222035  67.53  0.002999778    2.682    0.627
        31 -14.1121      8.0458    211.3689   1.3053758073e+02   3.0830748573e+01     2.277906     0.785915 -80.87   0.01379127    2.363    0.577
        32 -14.6655     25.7617    220.3086   1.2832429562e+02   2.7557867704e+01     1.364072    0.9824653 -72.97   0.01128615    1.609    0.379
        33 -10.8323     15.6735    226.0865   1.3010669129e+02   2.7617562210e+01    0.2040418    0.1582967  58.29   0.00039839    1.443    0.307
        34 -13.6360      6.0094    245.4468   1.3225223540e+02   2.5482992914e+01     1.007561    0.5428045  69.18   0.00846833    1.200    0.167
        35 -13.7992     25.9343    247.5217   1.2965419163e+02   2.3158385070e+01     1.826068       0.7787  37.65   0.01153189    2.935    0.659
        36 -11.1047    244.8928    241.3248   9.5068952835e+01  -7.9656705010e+00    0.1666924    0.1464324  -2.56   0.00133676    1.370    0.270
        37 -11.4488    135.8064    241.2092   1.1260577960e+02   9.5527978194e+00    0.3164143    0.2452273   0.78  0.002019706    2.574    0.612
        38 -11.1705    134.7083    237.3415   1.1237503029e+02   1.0271876144e+01    0.2669933    0.1711834  50.06  0.001519096    1.198    0.165
        39 -11.7034    133.7807    232.7251   1.1202915979e+02   1.1086487954e+01    0.4461654    0.2293741  64.36   0.00239851    2.204    0.546
        40 -10.6158     73.9029    237.3394   1.2206552130e+02   1.9087991119e+01    0.2195816    0.1365048 -83.98 0.0007903446    1.564    0.361
        41  -9.9779     75.2967    233.3462   1.2154871799e+02   1.9538585782e+01    0.3367203   0.08419187  43.71  0.001552218    3.228    0.690
        42 -12.0696    103.2589    230.3623   1.1681748510e+02   1.6116199506e+01    0.6094898    0.3941127  30.61  0.003256558    2.313    0.568
        43 -10.6750    129.8834    235.1151   1.1292864841e+02   1.1350683116e+01    0.2052615    0.1536018 -65.12  0.001474592    1.615    0.381
        44  -9.4469     55.1478    235.3645   1.2478706658e+02   2.1760873341e+01    0.2813016    0.1112876  66.54  0.001581122    2.393    0.582
        45  -9.1609    147.7096    235.2613   1.1000792692e+02   8.4909085519e+00    0.1698859    0.1232768  20.67  0.001061312    2.051    0.513
        46  -8.7419    157.4633    234.4910   1.0830215688e+02   7.0069466385e+00    0.1163612   0.08977121  50.41 6.746271e-05    1.003    0.003
        47  -9.6808    153.8727    229.9977   1.0835879005e+02   8.2206894895e+00    0.1734352    0.1387099  54.43 0.0003814069    1.044    0.042
        48 -10.6723     70.4574    218.6230   1.2116142984e+02   2.2606389598e+01    0.4055879    0.1671312  66.44  0.002053264    2.645    0.622
        49 -10.8151     79.1789    225.3445   1.2029273658e+02   2.0320532292e+01    0.3013113     0.216473 -81.76  0.002114905    1.376    0.273
        50  -9.8196     77.0750    220.7070   1.2024803373e+02   2.1376786037e+01    0.1989335    0.1453118  46.95 0.0004295139    1.436    0.304
        51  -9.3324     56.7705    227.8292   1.2403653134e+02   2.2789448464e+01    0.1834516    0.1263821  52.38 0.0008749035    1.348    0.258
        52 -10.1474    136.2093    224.3500   1.1067663603e+02   1.1945086716e+01    0.2553951    0.1576042 -47.92  0.000973086    2.116    0.527
        53  -8.7218     64.6966    224.9584   1.2258567153e+02   2.2279705201e+01    0.1461537   0.06402779 -51.30 0.0007040279    4.237    0.764
        54  -8.9810     45.7656    225.2293   1.2556554502e+02   2.4530265688e+01    0.1218628   0.09705348  86.59 0.0004125925    1.297    0.229
        55  -9.3811    117.2940    224.3276   1.1388325352e+02   1.4951440019e+01   0.09877933   0.08802046  24.62 0.0002395655    1.626    0.385
        56 -10.1116     99.2672    223.5190   1.1682694704e+02   1.7795672328e+01    0.2006323    0.1715834  23.53  0.001434661    1.860    0.462
        57 -10.0581    141.7338    219.5734   1.0915610173e+02   1.1765051519e+01    0.2565283    0.1943012 -53.45  0.001724313    1.627    0.385
        58 -10.1065    116.8513    215.8398   1.1303740673e+02   1.6386405908e+01    0.2787591    0.2081786  25.44  0.001156031    2.006    0.502
        59  -9.2838    106.9166    216.5404   1.1483072639e+02   1.7804683090e+01    0.1685435   0.09277108  49.01  0.000396931    1.494    0.331
        60  -9.8326     86.8797    212.0695   1.1782606605e+02   2.1502356150e+01    0.3287438    0.1446074  64.88  0.001546418    2.508    0.601
        61 -10.4793     56.5628    209.7963   1.2275280681e+02   2.5899125774e+01    0.5046284    0.2325292  88.22  0.002800679    2.340    0.573
        62 -10.1191     62.8045    209.0399   1.2164934632e+02   2.5257112155e+01    0.2649094    0.2282861  54.59  0.001320199    1.434    0.303
        63  -9.5477     63.6695    205.1859   1.2118139165e+02   2.5836031016e+01    0.1523415    0.1120822  89.11            0    1.168    0.144
        64  -8.4943    110.6934    211.3194   1.1361033048e+02   1.8100390703e+01     0.121847    0.0751643  71.07 0.0006525222    1.635    0.388
        65  -9.8295     99.2148    209.7827   1.1545828225e+02   2.0108472471e+01    0.2875653    0.1538703  80.14 0.0008949506    2.420    0.587
        66  -8.5267     74.4531    208.4849   1.1962424718e+02   2.3840108260e+01    0.1136376   0.08466535  72.18 0.0002548815    1.019    0.019
        67  -9.1849     90.7300    204.9613   1.1645058189e+02   2.2199308082e+01    0.2460127    0.1181923  36.06  0.001238695    2.571    0.611
        68  -9.7576    106.9262    203.3504   1.1338205319e+02   2.0057879036e+01    0.2152035    0.1613859 -58.45 0.0005569902    1.570    0.363
        69  -8.3105     72.5203    203.4783   1.1950353566e+02   2.4993596626e+01    0.1155608   0.08519033  72.78 0.0001913084    1.047    0.044
        70 -10.0020     44.4610    200.1474   1.2404475760e+02   2.9067553457e+01    0.2671516    0.2274426  79.44  0.001121047    1.299    0.230
        71  -9.2744     74.3398    200.0124   1.1886014977e+02   2.5380447594e+01     0.152635    0.1160661  89.69 0.0002693817    1.158    0.136
        72  -9.2257     96.9273    199.0878   1.1471069550e+02   2.2340586149e+01    0.1739114    0.1429372  69.86 0.0003935439    1.057    0.054
        73  -9.1849     53.1030    198.3191   1.2242511434e+02   2.8392153718e+01    0.1783617    0.1354885  38.09   0.00128105    1.722    0.419
        74 -11.5957     52.3794    193.0244   1.2211163767e+02   2.9463510630e+01    0.3365697    0.2049253  45.57 0.0006734284    1.626    0.385
        75  -9.7279    250.0142    193.9729   8.6391648225e+01  -3.8503485898e+00    0.2069737    0.1282782  14.09  0.001141583    1.700    0.412
        76  -9.8040     30.7542    193.2447   1.2586685435e+02   3.1837325126e+01    0.1260437    0.1028435 -87.61 0.0002195868    1.299    0.230
        77  -9.6283     25.8469    192.6438   1.2665417883e+02   3.2452494496e+01    0.2035701    0.1351113  82.33  0.001271872    1.098    0.089
        78  -9.9586     20.8879    191.4296   1.2740701281e+02   3.3169669023e+01     0.492829    0.1713808  78.70  0.002253473    3.550    0.718
        79  -9.1794    191.7284    191.5485   9.6073582811e+01   7.0954196634e+00     0.172999    0.1556905 -46.37  0.000536313    1.316    0.240
        80 -12.5978     39.1160    208.5243   1.2552299104e+02   2.8161778774e+01     1.444894     0.520248 -80.19  0.007758062    2.668    0.625
        81 -10.1940    250.2539    187.5509   8.5157423450e+01  -3.1356193047e+00    0.2647769    0.1426617 -13.51  0.001308135    2.232    0.552
        82  -8.7485     76.5659    187.3774   1.1718627616e+02   2.7442147684e+01    0.2549447    0.1047071 -70.23  0.001248153    2.463    0.594
        83  -8.8919     51.4780    188.5106   1.2188595514e+02   3.0423797286e+01    0.1119694   0.08531145  80.03 -8.760423e-05    1.029    0.029
        84 -10.2295      9.9199    187.3892   1.2898986741e+02   3.4945681134e+01    0.2326851    0.1155524 -88.60  0.001433493    1.545    0.353
        85 -10.5019     71.0361    187.0512   1.1818043777e+02   2.8249535708e+01     0.218082    0.1373988  52.66  0.000321556    1.415    0.293
        86 -11.6454     59.0443    185.1936   1.2021225532e+02   3.0144021758e+01    0.2271533    0.1830577 -87.03  0.000420046    1.169    0.145
        87  -8.5420    107.4716    185.5121   1.1110298106e+02   2.3217697362e+01    0.1251211     0.104092  71.41 9.576683e-05    1.002    0.002
        88  -8.6318     24.4074    184.2113   1.2632991097e+02   3.4177330757e+01     0.149157   0.07563013  88.73  0.000651521    1.628    0.386
        89  -9.5318     36.8945    180.4480   1.2383614548e+02   3.3616056105e+01    0.2354577     0.128775 -68.07 0.0007663193    1.681    0.405
        90  -9.1530     27.1508    179.6944   1.2552510138e+02   3.4768498797e+01    0.1741551    0.1172121 -85.65 0.0002107595    1.173    0.148
        91  -9.2684     80.9830    178.7049   1.1538309434e+02   2.8510542321e+01    0.1826169    0.1543861 -56.11 0.0003413768    1.495    0.331
        92  -8.5074    111.5664    177.5412   1.0922622210e+02   2.4072394242e+01    0.1263394    0.1090457  73.03 0.0001128222    1.025    0.024
        93 -10.5796     70.6041    173.3056   1.1678744767e+02   3.1000218090e+01    0.2208629    0.1932527  83.17 0.0001990013    1.171    0.146
        94 -11.2279    248.3753    172.6603   8.2579845671e+01  -9.5583736097e-01    0.4685067    0.3022929  17.34  0.002513979    1.618    0.382
        95 -10.4673      2.3240    172.5472   1.2941641240e+02   3.8389094235e+01    0.2905424    0.1295029  74.25  0.001556903    1.908    0.476
        96 -12.3706     10.5903    165.9707   1.2752973350e+02   3.8971118464e+01     0.592064    0.4357749  51.88  0.004700499    1.462    0.316
        97  -9.9751     55.1975    172.5829   1.1970583728e+02   3.3090863484e+01    0.2506474    0.1725404  72.51 0.0006908583    1.233    0.189
        98  -9.0198     51.5182    171.4222   1.2029887921e+02   3.3759456529e+01    0.1768104    0.1396594  83.34 0.0006502862    1.042    0.040
        99 -11.6286     38.9932    167.9267   1.2237354811e+02   3.5861748696e+01    0.2492495    0.1948416 -70.48 0.0004285481    1.345    0.256
       100  -9.2375     17.9724    172.3152   1.2663444701e+02   3.7077781603e+01    0.1689775   0.09852122  62.87  0.001169268    1.460    0.315
       101  -9.1827     91.8936    168.6588   1.1195712696e+02   2.8923267163e+01    0.1730713    0.1377094  65.81 0.0005641176    1.116    0.104
       102 -11.7679     78.8845    165.3033   1.1417107459e+02   3.1492967923e+01    0.4417704    0.3736371  49.95  0.002974318    1.314    0.239
       103 -11.7554    245.4924    162.4673   8.0989386072e+01   9.2201385742e-01    0.4627815     0.281482 -37.56  0.002390838    1.783    0.439
       104 -10.9862    249.5127    161.5244   8.0122053393e+01   2.8732120020e-01    0.5630818     0.196859 -33.09  0.002255101    2.839    0.648
       105 -11.1234    247.7236    157.3149   7.9538256810e+01   1.1931864669e+00    0.9865251     0.421991  59.78  0.003273004    4.617    0.783
       106  -9.8907     27.3998    171.5437   1.2485879710e+02   3.6331333949e+01     0.248669     0.179524 -48.37 0.0004820984    2.051    0.512
       107  -9.9842     68.1640    166.2175   1.1645763898e+02   3.2754341494e+01    0.2013934    0.1433842  88.98  0.000429514    1.223    0.182
       108  -9.0661     66.9148    161.5998   1.1616346022e+02   3.3865156900e+01    0.1637564    0.1335067  74.18 0.0004026918    1.088    0.080
       109  -9.7166     24.1071    161.8801   1.2469899957e+02   3.8571183880e+01    0.1631412    0.1122305  80.00  0.000424138    1.139    0.122
       110  -9.1524     28.6269    160.8226   1.2373945556e+02   3.8351788011e+01    0.1508233    0.0819227 -86.08 0.0003047959    1.515    0.340
       111 -10.5190     82.2063    157.3842   1.1243135008e+02   3.2659616765e+01    0.3334813     0.227475  65.50  0.001852633    1.404    0.288
       112 -11.1435     10.0745    156.7335   1.2697134349e+02   4.0841835769e+01    0.3255198    0.1297365  69.27  0.001710307    2.610    0.617
       113 -10.5438     12.4251    153.3669   1.2626676122e+02   4.1322627684e+01    0.2682017    0.0761179 -72.69  0.001188445    2.629    0.620
       114  -9.9483     22.1510    155.4316   1.2453852119e+02   4.0055950542e+01    0.1947331    0.1058951 -83.79  0.001228439    1.455    0.313
       115 -10.3524     32.2688    153.7193   1.2237133747e+02   3.9446083768e+01     0.214356    0.1591864 -79.30 0.0003575289    1.137    0.121
       116 -10.2650     26.2064    155.1085   1.2371124145e+02   3.9745888709e+01    0.2134644    0.1022465  62.67 0.0007354727    2.043    0.510
       117  -8.6162     47.3022    154.2894   1.1936084412e+02   3.7747507416e+01    0.1048743    0.0831212 -53.18 0.0001972414    1.565    0.361
       118 -10.8407    249.6191    150.9426   7.7863869784e+01   1.6989710874e+00    0.4694508    0.2529109 -37.79  0.002237874    1.944    0.486
       119 -12.8659    248.1228    101.8552   6.6726263073e+01   9.1398743778e+00     1.183916    0.5768355 -26.26  0.004878107    2.052    0.513
       120 -12.9215    248.1324    134.3960   7.4444901333e+01   4.3297869774e+00     1.514486    0.5210171 -28.63   0.00541854    3.032    0.670
       121 -12.3341    247.8179    112.9199   6.9467957403e+01   7.5536281971e+00    0.8944373    0.5919548   7.93  0.004112883    1.940    0.484
       122 -10.8240     23.4449    149.8561   1.2379259491e+02   4.1079165926e+01     0.271807    0.1428971  53.40  0.001696342    1.846    0.458
       123  -9.8523     81.2535    148.4809   1.1136738485e+02   3.4672353747e+01    0.2350346     0.190693  67.24  0.001300024    1.158    0.136
       124 -11.7164     68.2326    143.9096   1.1358365033e+02   3.7425237774e+01    0.6157895    0.3639352  82.30  0.002510122    1.945    0.486
       125  -8.7862     40.6376    147.2884   1.1998651875e+02   3.9935516706e+01     0.122214   0.07124376  71.46 0.0007024459    1.693    0.409
       126 -12.8126      7.3316    143.9790   1.2653460537e+02   4.3635103735e+01    0.5719785    0.4205994  56.28  0.004448405    1.422    0.297
       127  -9.0478    235.9858    146.0124   7.9095115294e+01   5.1155223216e+00    0.2193474    0.1539517  14.11 0.0004534964    1.583    0.368
       128  -9.8174    133.1192    141.0427   9.8538314408e+01   2.7544291881e+01    0.3070908    0.1975889 -61.05 0.0009095442    1.662    0.398
       129  -9.1792     36.9807    140.0374   1.1996508023e+02   4.1844035253e+01    0.1426611    0.1099221 -86.10 0.0005189565    1.004    0.004
       130  -8.8887     96.7106    146.0303   1.0756679489e+02   3.2873472543e+01    0.1813836    0.1503857 -76.20 0.0003209484    1.107    0.097
       131  -9.5985    106.9017    135.7857   1.0346086740e+02   3.3394855535e+01    0.3544845    0.2449902 -22.39  0.001613711    2.589    0.614
       132 -12.5395      8.8227    113.3218   1.2338679044e+02   4.9913696808e+01    0.4147873    0.1911903 -74.63  0.002430667    1.619    0.383
       133 -13.0493     13.1603    100.8421   1.2086153310e+02   5.2274132366e+01    0.5510455    0.4172159 -78.47  0.004047503    1.041    0.040
       134 -11.4001    170.1879    247.4663   1.0776961864e+02   3.2643644160e+00     0.362937    0.2423445  11.11  0.002120201    2.703    0.630
       135  -8.8836     93.4773    133.4140   1.0614805129e+02   3.6093238679e+01    0.1313747    0.1188433 -83.65 0.0001518266    1.043    0.041
       136  -8.5329     58.7030    127.7153   1.1341609342e+02   4.2132828726e+01    0.1152006   0.08886358 -44.71 0.0002739756    1.546    0.353
       137  -9.2617     66.3151    126.6653   1.1143989464e+02   4.1424659598e+01    0.1324185   0.08717638  80.32 0.0007046942    1.690    0.408
       138 -12.4519     16.3120    121.2287   1.2249816498e+02   4.7686731391e+01    0.4327631    0.2227392  62.20  0.001974889    2.125    0.529
       139  -8.9363     41.4964    123.0578   1.1683214756e+02   4.5048763764e+01    0.1749067   0.09700797 -69.53 0.0009895354    1.463    0.317
       140  -9.2679     54.1520    151.7935   1.1764802835e+02   3.7486819132e+01    0.2092194    0.1252601 -51.41 0.0006668554    1.945    0.486
       141  -9.6314     30.3207    119.3248   1.1899793378e+02   4.6926283149e+01    0.1151802   0.07505457 -49.22 0.0007046548    1.680    0.405
       142 -10.5366    231.9677    116.6197   7.2978685222e+01   1.0462379979e+01    0.2525036    0.1994722 -11.92 0.0008279742    1.293    0.227
       143  -9.2098    168.0843    113.2151   8.4503852903e+01   2.5771064165e+01    0.2962063      0.20015 -69.97  0.001224512    2.137    0.532
       144 -10.1704    249.7040    117.9271   7.0363865471e+01   6.4087507388e+00    0.3569331    0.2675261  -7.10  0.001379901    1.377    0.274
       145  -9.4664     29.5175    108.4968   1.1774397264e+02   4.9348445298e+01    0.2129951   0.07500821 -58.78 0.0005756243    2.188    0.543
       146 -11.6129      3.2210    133.3203   1.2651361926e+02   4.6122524549e+01    0.2983156    0.1694463  74.71  0.001251881    1.581    0.368
       147 -10.5836     93.1541    150.0103   1.0898917803e+02   3.2584173607e+01    0.2640555    0.2553869 -89.96 0.0008740755    1.230    0.187
       148  -8.3692     71.7390    100.3186   1.0521289378e+02   4.6546758946e+01    0.1286079   0.09434603 -87.91 0.0002498925    1.546    0.353
       149 -11.8628    248.0380    142.2288   7.6219639812e+01   3.2277931475e+00    0.6525703    0.4652826  28.15  0.003506201    1.381    0.276
       150  -8.8432     29.4850     83.4116   1.1372986154e+02   5.4801258160e+01    0.1178173   0.09355664 -67.12 6.079055e-05    1.030    0.029
       151  -9.7459     44.2117    130.1757   1.1714923554e+02   4.3220753753e+01    0.1664576    0.1169464  84.19 0.0006359738    1.315    0.240
       152  -8.7631    161.3247     79.6681   7.6848491821e+01   3.3728382609e+01    0.1605855    0.1223754 -73.58  0.000705071    1.706    0.414
       153 -10.7292     74.1634    244.4012   1.2253664939e+02   1.7959589134e+01    0.2710008    0.1871356 -73.48   0.00212775    1.617    0.382
       154 -10.9954    198.3066    245.4921   1.0302139539e+02  -1.0388482130e+00    0.2295493    0.1493593  32.89  0.001284105    1.319    0.242
