#   1 NUMBER                 Running object number                                     
#   2 MAG_AUTO               Kron-like elliptical aperture magnitude                    [mag]
#   3 X_IMAGE                Object position along x                                    [pixel]
#   4 Y_IMAGE                Object position along y                                    [pixel]
#   5 X_WORLD                Barycenter position along world x axis                     [deg]
#   6 Y_WORLD                Barycenter position along world y axis                     [deg]
#   7 A_WORLD                Profile RMS along major axis (world units)                 [deg]
#   8 B_WORLD                Profile RMS along minor axis (world units)                 [deg]
#   9 THETA_WORLD            Position angle (CCW/world-x)                               [deg]
#  10 FWHM_WORLD             FWHM assuming a gaussian core                              [deg]
#  11 ELONGATION             A_IMAGE/B_IMAGE                                           
#  12 ELLIPTICITY            1 - B_IMAGE/A_IMAGE                                       
         1  -9.1497     74.2443     19.5781   7.5439752753e+01   6.3194529561e+01    0.3507073    0.2058949 -47.98 0.0009445162    2.147    0.534
         2  -8.4120     38.5213     17.1551   8.9492073367e+01   6.9082534891e+01    0.3445446    0.1062996 -44.95  0.001384422    2.843    0.648
         3  -8.0451     30.0373     16.0738   9.3243305582e+01   7.0241285460e+01    0.1708473    0.1452319 -68.45 0.0008573329    1.699    0.411
         4  -8.4539     55.7561     10.1425   7.7934742354e+01   6.7748934533e+01    0.1840032    0.1587809 -32.31 0.0005859889    1.291    0.226
         5  -7.9648     47.4636     10.2067   8.1655016723e+01   6.9008909256e+01    0.1695755    0.1067139 -43.05 0.0007894677    1.689    0.408
         6  -8.5638     90.5587      9.0529   6.4880322481e+01   6.1310382996e+01    0.2036354     0.125693 -23.63 0.0005722406    1.565    0.361
         7  -7.7948    101.4474      8.4664   6.1562542091e+01   5.8964460328e+01     0.137487    0.1258095  15.25 9.490821e-05    1.029    0.029
         8  -8.5138     79.1532      4.3049   6.6013976111e+01   6.4223953255e+01    0.2463183    0.1733241 -28.86 0.0009768871    1.422    0.297
         9  -8.3542     33.0970      4.4396   8.5554685431e+01   7.1817913833e+01    0.2241628    0.1417725 -57.30  0.001132083    2.797    0.642
        10  -7.9372    171.5572      4.4772   4.7067255498e+01   4.1553109740e+01    0.1400645    0.1337426  81.85 7.920255e-05    1.007    0.007
        11  -8.4610    138.1297      3.6518   5.1667085226e+01   5.0437270420e+01    0.2186108    0.1858128 -34.90 0.0002495706    1.248    0.199
        12  -7.6443     44.5310      3.4852   7.9269559151e+01   7.0410353497e+01    0.1252581    0.1009392 -10.30 0.0001351844    1.009    0.009
        13  -7.6702    115.3495      2.1928   5.5402758053e+01   5.6302355315e+01    0.1928024    0.1181921 -31.38 0.0005599156    1.693    0.409
        14  -8.2671     62.2812      1.5024   7.0479416940e+01   6.7765204228e+01    0.1990248    0.1249225  52.25 0.0005093678    1.851    0.460
        15  -7.6488     39.4891      1.5213   8.0567687216e+01   7.1404680576e+01    0.1216615   0.09984996 -14.48 0.0008087297    1.087    0.080
        16  -8.7262    169.2872    243.3724   1.0471440452e+02   4.1488512478e+00     0.218296    0.1526608  58.68 0.0008098381    1.676    0.403
        17  -9.3255    246.5645    229.2722   8.9966056498e+01  -5.6379276556e+00    0.3058335    0.1614453 -28.25  0.001366331    2.075    0.518
        18  -9.9690    248.5631    242.3434   9.1624291940e+01  -7.1238423448e+00    0.3214422    0.1720614 -35.07  0.001684252    2.473    0.596
        19  -9.0949    248.0580    235.1355   9.0629510753e+01  -6.3985420539e+00    0.2458957    0.1939695 -23.62  0.001534121    1.613    0.380
        20  -9.4835    211.1332    246.8795   9.8191290866e+01  -2.3856701351e+00    0.3294514    0.2284954 -55.63  0.001670889    2.832    0.647
        21  -8.7988    132.4511    248.2382   1.1152673408e+02   8.9355817823e+00    0.2493434     0.159078  76.51  0.001082712    2.261    0.558
        22  -8.4172     93.8863    249.5503   1.1813920151e+02   1.4084555455e+01    0.1980714    0.1147014  76.88  0.001147989    2.013    0.503
        23  -7.3789     86.3264    250.7059   1.1947793052e+02   1.4901722320e+01    0.1100285   0.05803582  60.20 0.0003567399    1.624    0.384
        24  -7.7645    139.4935    244.5520   1.0994839531e+02   8.4119513909e+00    0.1131336   0.08317005  48.38 0.0002072746    1.083    0.076
        25  -7.9904     34.4959    243.9880   1.2747045784e+02   2.2064716823e+01    0.1422512    0.0552456  71.65 0.0008098518    2.482    0.597
        26  -9.0719    194.4949    240.3935   1.0007218207e+02   7.3804465820e-01    0.2710787    0.2003578 -53.20  0.001227366    2.104    0.525
        27  -9.1580    183.1965    239.9083   1.0191664961e+02   2.4835520607e+00     0.339807     0.272735  71.67  0.001878605    1.878    0.468
        28  -9.4857    160.0085    240.0910   1.0591502129e+02   5.9535737998e+00    0.2841809    0.2034893 -85.00  0.001381473    2.424    0.588
        29  -8.0928    153.4000    241.7561   1.0724890232e+02   6.7275186219e+00    0.1682586    0.1109329 -58.59 0.0009014428    2.107    0.525
        30  -8.2119     88.2816    242.0675   1.1850070289e+02   1.5941932508e+01    0.1443622    0.1105142  72.71 0.0005689036    1.212    0.175
        31  -9.0461    175.7094    247.9081   1.0417366641e+02   2.6523574526e+00    0.2490745    0.1818628  65.67  0.001352079    1.942    0.485
        32  -9.5263    241.5618    237.9638   9.2067680988e+01  -5.7767376957e+00    0.4798241     0.211952  -9.03  0.002201057    4.006    0.750
        33  -8.2199    146.5132    239.7552   1.0821584188e+02   8.0219782775e+00    0.1289589    0.1052459  89.57 0.0006489829    1.615    0.381
        34  -8.9851    135.6145    238.9401   1.1002631682e+02   9.7535022880e+00    0.2009229    0.1220447  57.36 0.0007525645    1.609    0.379
        35  -8.2997    129.0402    238.7788   1.1115809668e+02   1.0743092249e+01    0.1784087    0.1315093  77.90 0.0007397538    1.627    0.385
        36  -9.1412     78.4172    243.8936   1.2030152932e+02   1.6938634912e+01     0.327994    0.1246947  63.88  0.001554144    3.327    0.699
        37  -9.1227    230.9787    237.2526   9.3641027903e+01  -4.2353128918e+00    0.2425319    0.2047534  71.92  0.001297601    2.457    0.593
        38  -9.9225    215.1439    233.6351   9.5693148862e+01  -1.5756436485e+00    0.4642384    0.3516431  89.88  0.002448286    4.108    0.757
        39  -8.0614    209.1300    238.2394   9.7340484017e+01  -1.1874504958e+00    0.1430971      0.11434  42.15   0.00070771    1.367    0.269
        40  -7.9492    189.6311    237.2339   1.0047382166e+02   1.8310686832e+00    0.1326133    0.1014052 -14.16 0.0005140162    1.563    0.360
        41  -9.7431    175.7900    233.5588   1.0236876363e+02   4.3870752909e+00    0.3746768    0.2153063 -56.97  0.002131661    2.825    0.646
        42  -8.3127     25.3976    236.6395   1.2858899750e+02   2.4195945311e+01    0.1845177   0.06279737  81.63 0.0009375562    3.297    0.697
        43  -8.8952    203.2921    235.0820   9.7873389035e+01   2.5752977534e-02    0.2245874    0.1881369 -68.83  0.001361848    2.126    0.530
        44  -9.3670    108.5701    234.2388   1.1430819303e+02   1.4367658428e+01    0.2914444    0.1864018  66.70 0.0009220027    1.580    0.367
        45  -8.2570     58.0121    237.0000   1.2326210613e+02   2.0536960203e+01    0.2684561   0.04717164  37.68  0.001026539    4.712    0.788
        46  -8.4017    170.1269    234.9948   1.0353742037e+02   5.0729726358e+00    0.1722343    0.1314173 -54.23  0.001202595    1.796    0.443
        47  -8.5027     99.6708    234.4673   1.1589773390e+02   1.5577860768e+01    0.2180961     0.131318  69.84  0.001261759    1.760    0.432
        48  -8.9399     78.9943    234.7194   1.1952750011e+02   1.8304128504e+01    0.2297159     0.118002  68.65 0.0009431927    2.017    0.504
        49  -8.0894    122.9748    234.0637   1.1174036065e+02   1.2317924992e+01    0.1797424    0.1119816  63.82 0.0008594297    1.702    0.412
        50  -9.1200     68.4044    232.5245   1.2119669964e+02   2.0002431497e+01    0.4035531    0.1447231  63.43  0.001824271    3.455    0.711
        51  -8.6490    194.5283    232.7476   9.9032287735e+01   1.6172729567e+00    0.1740249    0.1688266 -37.26 0.0007000607    1.446    0.308
        52  -9.3408    186.6159    231.1301   1.0016905970e+02   3.0236386248e+00    0.2784216     0.209437  78.88  0.001463829    2.479    0.597
        53  -7.7192    145.1788    233.3881   1.0772701139e+02   9.0996698540e+00    0.1703686   0.08326676  48.20  0.000941348    1.701    0.412
        54  -8.2932    132.6824    233.0619   1.0990973485e+02   1.1029028842e+01     0.165277    0.1290274  75.90   0.00103705    1.471    0.320
        55  -8.5776     93.0158    232.3696   1.1688636717e+02   1.6820312195e+01    0.2155322    0.1259878  79.17  0.001311315    2.023    0.506
        56  -9.1506    236.1219    230.4244   9.1799746331e+01  -4.2838474292e+00     0.319375    0.1539072 -28.57  0.000774183    2.311    0.567
        57  -8.6118    158.1388    232.2201   1.0529370783e+02   7.2790898399e+00    0.1552298    0.1157426  55.24  0.000491748    1.346    0.257
        58  -8.8358      1.7415    230.9268   1.3211140712e+02   2.7404135375e+01    0.1821082    0.0839996  71.50 0.0008307946    1.591    0.371
        59  -9.9816    149.7920    226.3656   1.0606502517e+02   9.3862570275e+00    0.5122908    0.3146522 -90.00  0.002393351    3.882    0.742
        60  -8.5813    140.1557    230.1070   1.0824407501e+02   1.0330772487e+01    0.2108785    0.1342814  52.40 0.0007815522    1.380    0.275
        61  -8.4179    229.9254    228.9761   9.2579642208e+01  -3.2459868744e+00    0.1457637    0.1314912  45.61 0.0006048649    1.630    0.387
        62  -8.4643    162.5567    228.2659   1.0401428572e+02   7.1312757882e+00    0.2788505    0.1428734  56.70  0.001029259    2.483    0.597
        63  -9.2029      8.1468    228.2843   1.3101506172e+02   2.7260961350e+01    0.2010681    0.0749817  68.50  0.001173047    2.118    0.528
        64  -8.9270    128.0213    227.5200   1.1013922363e+02   1.2550802201e+01    0.2658375    0.1528853  59.85  0.001248742    1.828    0.453
        65  -8.0702    120.0468    227.9490   1.1162877483e+02   1.3673834638e+01    0.1842156    0.1136554  64.26 0.0008252556    1.727    0.421
        66  -7.7688    223.3874    227.2177   9.3383461869e+01  -2.1022211158e+00    0.1327589    0.1039344 -35.32 0.0005159377    1.705    0.413
        67  -8.1924    215.3410    226.7137   9.4644334112e+01  -8.4558326431e-01    0.1655719    0.1310186  29.57 0.0004464131    1.133    0.117
        68  -8.9769    216.7618    223.9291   9.3986962992e+01  -7.4811613436e-01    0.2196337    0.2161356 -33.98 0.0009674553    1.555    0.357
        69  -8.9607    206.1100    226.1913   9.6124361154e+01   6.1622808861e-01    0.2048357    0.1601806 -37.75 0.0008273488    1.661    0.398
        70  -7.8973    177.6639    227.3085   1.0121170058e+02   4.8958429651e+00    0.1124533   0.08217455  59.41  0.000370798    1.678    0.404
        71  -8.2595     48.9925    226.7207   1.2416113485e+02   2.3294393440e+01    0.1897944    0.1048792  79.22 0.0008836656    1.665    0.399
        72  -8.1581    200.2639    225.5459   9.7029276912e+01   1.5922850494e+00    0.2400252    0.1400951 -28.60  0.001307312    2.063    0.515
        73  -8.9341     94.4642    224.4729   1.1592586017e+02   1.7899082823e+01    0.4133803    0.1645112  58.98  0.001915386    2.863    0.651
        74  -8.7698    180.8187    224.5169   1.0027226203e+02   4.7619922749e+00    0.2280916    0.1682348  61.04 0.0009593996    1.746    0.427
        75  -8.8225    104.7347    223.5930   1.1397009513e+02   1.6594648642e+01    0.2880615    0.1715101  78.21  0.001410163    2.139    0.533
        76  -8.0250     38.4523    224.9350   1.2586331422e+02   2.4778317102e+01    0.1512894   0.06153932  73.69  0.000808147    2.522    0.603
        77  -8.8605    173.0903    223.1777   1.0146119794e+02   6.1618137018e+00    0.2050387    0.1692416 -51.04 0.0007714131    1.582    0.368
        78  -8.1526    113.9776    224.0075   1.1232035206e+02   1.5185808015e+01    0.1357535    0.1132336  59.48 0.0004456956    1.081    0.075
        79  -9.2168    239.5444    222.3779   9.0002501530e+01  -3.9568048087e+00    0.2552094    0.1865321  52.25   0.00110687    2.043    0.510
        80  -9.3589    192.4625    221.4823   9.7790794677e+01   3.3108661883e+00     0.268736    0.2227775  83.08  0.001135791    2.010    0.503
        81  -8.2504    140.4975    223.0061   1.0734587165e+02   1.1323690714e+01    0.1454918    0.1181219 -61.59 0.0007565744    1.530    0.347
        82  -9.1792    225.5870    221.7995   9.2188759206e+01  -1.8413651054e+00    0.2179757    0.1742559  43.59  0.001124232    1.492    0.330
        83  -9.1367    160.0440    221.1075   1.0353586389e+02   8.5231491598e+00    0.4310838    0.1930212  55.52  0.001898234    3.001    0.667
        84  -8.2702    202.9039    220.3444   9.5804856075e+01   1.8077608991e+00    0.1674702    0.1614836 -11.71 0.0007247044    1.377    0.274
        85  -9.1999    120.6125    219.5062   1.1061035246e+02   1.4916825010e+01    0.3960103    0.2026646  64.47  0.001781447    2.647    0.622
        86  -8.7797     82.7908    220.6748   1.1771352131e+02   2.0125505678e+01    0.2168004    0.1167959  73.54   0.00111638    2.102    0.524
        87  -7.8504     73.2925    220.9898   1.1946654118e+02   2.1317798481e+01    0.1665524   0.07170219  83.18 0.0006990485    3.986    0.749
        88  -7.2238     27.2963    221.3549   1.2757474826e+02   2.6576956394e+01   0.08706512    0.0746728 -64.78 0.0007033792    1.694    0.410
        89  -8.0067      6.3127    221.6625   1.3107557573e+02   2.8554205886e+01    0.1093852   0.04694683  63.52 0.0006119697    1.691    0.409
        90  -8.6274    210.1758    219.4166   9.4413710628e+01   7.8357021144e-01     0.160141    0.1493198  24.80 0.0006334148    1.328    0.247
        91  -8.8476    180.3207    219.4158   9.9642444387e+01   5.5122267489e+00    0.2626177    0.2005581  89.14  0.001558091    2.362    0.577
        92  -8.6999    249.2376    218.6523   8.7860460525e+01  -4.9663578323e+00    0.2143424     0.166509  51.86  0.001448751    2.024    0.506
        93  -8.8478    143.1981    216.8674   1.0608824422e+02   1.1829440307e+01    0.2670022    0.1836976  81.14  0.001220834    2.159    0.537
        94  -9.2847    132.7784    215.9591   1.0792366097e+02   1.3612296991e+01    0.3916349    0.2377412  80.48  0.001951499    2.854    0.650
        95  -8.8536     51.6674    217.4716   1.2310127386e+02   2.4586402957e+01    0.2196962    0.1158616  70.13 0.0007548395    1.702    0.412
        96  -8.8235    169.2786    216.3144   1.0119896963e+02   7.7183172852e+00    0.2299931    0.1966359 -87.79 0.0008387437    1.632    0.387
        97  -8.3203    111.8236    217.2606   1.1200431028e+02   1.6598120705e+01    0.1970427    0.1003136  66.47 0.0007745787    2.688    0.628
        98  -8.7749    232.4114    214.8538   8.9957170419e+01  -2.1034651747e+00    0.2093571    0.1964718  84.89 0.0009721228    1.904    0.475
        99  -8.4496     18.5115    215.5690   1.2879661852e+02   2.8470270430e+01    0.2055071   0.08270344 -81.47  0.001231823    2.239    0.553
       100  -8.3927    185.6596    214.5026   9.7968842350e+01   5.3071051922e+00    0.2013385    0.1723969  78.87  0.000841103    1.710    0.415
       101  -7.9812    154.2096    215.1946   1.0382130248e+02   1.0319963073e+01    0.1616104     0.124756  59.26 0.0005221065    1.356    0.262
       102  -8.9885     93.1697    214.1025   1.1518443127e+02   1.9830506806e+01    0.3031258     0.147408  60.03  0.001229321    2.074    0.518
       103  -9.5793    214.1013    212.3791   9.2638338143e+01   1.0085108764e+00    0.3369233    0.2327125  54.34  0.001539861    1.926    0.481
       104  -9.4444     73.4711    212.2548   1.1871427501e+02   2.2823151206e+01    0.5880746    0.1792199  57.24  0.002274041    3.991    0.749
       105  -8.2845    224.7810    212.5334   9.0849377736e+01  -6.7836089588e-01    0.1621412    0.1308428 -20.41 0.0004997732    1.380    0.275
       106  -8.7667    161.4405    212.3946   1.0209350749e+02   9.5606516117e+00    0.2096135    0.1784866  80.55 0.0007486486    1.504    0.335
       107  -8.2217    106.6428    213.1159   1.1253541134e+02   1.8059087719e+01    0.1813477    0.1265556  75.06 0.0008476754    1.517    0.341
       108  -9.0037    204.3543    210.9437   9.4101370770e+01   2.7413255557e+00    0.2304198    0.1931372 -69.80  0.000824598    2.017    0.504
       109  -9.4211    175.7088    210.3260   9.9156045067e+01   7.5129962908e+00    0.3634906    0.2458325  69.27  0.001584502    2.432    0.589
       110  -9.3089      7.0478    209.7643   1.3050667362e+02   3.0578673580e+01    0.4564882    0.1131328  70.67   0.00179277    4.922    0.797
       111  -8.6370    192.3343    210.6870   9.6192277816e+01   4.7275992685e+00    0.1821072    0.1459605 -49.43 0.0008220772    1.672    0.402
       112  -8.7577    147.9758    210.5704   1.0436862076e+02   1.2034256075e+01    0.2567354    0.1761455  67.60  0.001326539    1.832    0.454
       113  -8.9740    116.2899    210.3626   1.1038744242e+02   1.7078566785e+01    0.3021494    0.1863727  71.19  0.001234487    1.981    0.495
       114  -9.0330    236.7967    208.7762   8.8233387757e+01  -2.0935600268e+00    0.2425637    0.2241994  74.35  0.001229696    1.915    0.478
       115  -8.7677     85.5000    209.2590   1.1617062833e+02   2.1748688996e+01    0.3315132    0.1647306  71.94  0.001413882    2.621    0.618
       116  -7.7473     32.3159    210.6769   1.2613956532e+02   2.7951876066e+01    0.1159427   0.05647119  64.34 0.0007042451    1.664    0.399
       117  -7.8204     46.3197    209.6352   1.2354444307e+02   2.6609411280e+01    0.1218644   0.05999594  65.61 0.0007039837    1.780    0.438
       118  -9.4231    246.3930    207.3518   8.6435180086e+01  -3.3773474352e+00    0.2277307    0.1785716 -11.63 0.0006065367    1.272    0.214
       119  -8.0241    156.6598    208.1702   1.0239560065e+02   1.0981696497e+01     0.171577    0.1483214  81.45 0.0009970309    1.423    0.297
       120  -8.4160    139.1411    207.9728   1.0570502761e+02   1.3878304046e+01    0.1855708     0.144515  63.75 0.0006755567    1.321    0.243
       121  -8.5368     62.4309    217.6246   1.2117416929e+02   2.3269210131e+01    0.2996529    0.1157841  57.99  0.001530232    2.362    0.577
       122  -9.2226     99.3464    206.1495   1.1318761392e+02   2.0340649193e+01    0.3218249    0.1930019  78.68  0.001427147    2.055    0.513
       123  -8.9162     11.9093    206.8580   1.2954802831e+02   3.0661409783e+01    0.1472629    0.1190282  81.18  0.001226436    1.249    0.199
       124  -8.3536    109.1453    205.2542   1.1117972262e+02   1.9043465106e+01    0.2109802    0.1337162  77.51 0.0006007467    1.936    0.483
       125  -8.4950     56.4489    205.4607   1.2136266711e+02   2.6191945458e+01    0.2527173     0.113099  65.43 0.0007492139    2.239    0.553
       126  -9.5379    194.9978    203.6557   9.4601808385e+01   5.2315146388e+00    0.3841899    0.3208592  -3.09  0.001565816    1.244    0.196
       127  -9.2301    192.3821    197.3680   9.4048714441e+01   6.5438636769e+00    0.3407544    0.2625001 -59.93  0.001238452    1.922    0.480
       128  -9.0298    183.7490    204.0888   9.6723773039e+01   7.0569098158e+00    0.2744048    0.1920403  61.97 0.0009509748    1.938    0.484
       129  -8.7361    131.5974    204.4583   1.0670163764e+02   1.5672980333e+01    0.3086075    0.1666461  65.09   0.00117488    2.676    0.626
       130  -7.6552     92.3334    205.6454   1.1449647702e+02   2.1440808246e+01     0.128984   0.07464037  66.67 0.0007044504    1.790    0.441
       131  -9.4409    250.1217    202.1310   8.4940274482e+01  -3.3673739348e+00    0.3087175    0.1564582 -27.31  0.001122414    1.986    0.496
       132  -9.6222    163.6901    203.1098   1.0032839291e+02   1.0583296273e+01    0.3948741    0.2234013  56.27  0.001132175    2.063    0.515
       133  -9.1949    243.0631    200.8695   8.5857252369e+01  -2.1633478653e+00    0.2407839    0.1746558 -28.58 0.0007327345    1.544    0.352
       134  -8.0573    221.9916    201.6713   8.9515211348e+01   1.0512059758e+00    0.1676105    0.1326959  25.76 0.0004923879    1.079    0.074
       135  -8.3649    210.8993    202.0968   9.1511135156e+01   2.8017598751e+00    0.1719068    0.1564281  43.39  0.000578008    1.361    0.265
       136  -9.1024    140.2953    201.0524   1.0454602124e+02   1.4823908049e+01    0.2843906    0.2001278  88.45  0.001005032    2.054    0.513
       137  -8.4625     79.9710    201.3707   1.1648053107e+02   2.3941086561e+01    0.2931034    0.1404912  64.85  0.001449834    2.330    0.571
       138  -8.1798     48.4380    202.1609   1.2262991956e+02   2.7750898444e+01     0.227117   0.09688568  63.39  0.001037302    2.238    0.553
       139  -8.9737    237.0415    198.4192   8.6416781322e+01  -9.5126196955e-01    0.2726803    0.1568965 -40.45  0.001263015    2.247    0.555
       140  -9.4410    149.6747    198.7874   1.0239020271e+02   1.3631899420e+01    0.3650065    0.2464969  77.81  0.001400435    2.320    0.569
       141  -8.9823    124.0179    199.3244   1.0752323173e+02   1.7767430221e+01    0.2781792    0.1881507 -88.27  0.001315049    1.980    0.495
       142  -9.4541    113.0656    198.5815   1.0961047685e+02   1.9626304172e+01    0.4041805    0.2311196  71.11  0.001649321    2.371    0.578
       143  -9.1567     88.5285    198.3615   1.1448459649e+02   2.3314676111e+01    0.3475375    0.2003482  80.58  0.001601047    2.109    0.526
       144  -8.7054    176.8978    198.8484   9.7171726110e+01   8.9809011971e+00    0.2136624     0.175795 -61.35 0.0006365933    1.624    0.384
       145  -8.1380    202.4460    198.2408   9.2365162186e+01   4.7152902978e+00    0.1991725    0.1460334  56.45  0.001016413    1.738    0.425
       146  -9.1825     61.3366    196.6860   1.1971019592e+02   2.7247811761e+01    0.4125639    0.2022102  78.75  0.002054393    2.370    0.578
       147  -8.1644     12.5555    197.1595   1.2899220927e+02   3.2399672109e+01    0.2622188   0.09169012  79.04  0.001297334    2.836    0.647
       148  -8.8041    216.1716    195.9788   8.9542902905e+01   2.7172984780e+00     0.249179     0.209374 -62.19  0.001027125    1.937    0.484
       149  -8.8386    185.2847    195.0716   9.4983659467e+01   8.0946846031e+00    0.2194229    0.2148265 -87.73 0.0007404215    1.305    0.234
       150  -8.2515    133.0085    196.0263   1.0528909795e+02   1.6879993410e+01    0.1942823    0.1390343  72.44   0.00059234    1.660    0.398
       151  -7.9172     53.2950    196.6064   1.2127648806e+02   2.8238279890e+01    0.1259898   0.06604397  68.58 0.0002764954    1.791    0.441
       152  -9.0423    245.7880    193.7312   8.4150726861e+01  -1.7718989917e+00    0.2513318     0.235246 -77.27  0.001351407    1.921    0.479
       153  -8.6622    224.4720    194.2458   8.7800571040e+01   1.5683068874e+00    0.2441297     0.180885 -43.27  0.001033861    1.803    0.445
       154  -8.9103    161.0879    194.5897   9.9529849031e+01   1.2362708429e+01    0.2709357    0.1887868  61.84 0.0008060234    1.705    0.414
       155  -8.2202    230.9303    194.3018   8.6711133289e+01   5.1107867067e-01    0.1729021    0.1354735  20.66 0.0004926752    1.052    0.049
       156  -8.7631     77.0373    193.8359   1.1632026479e+02   2.5761356018e+01    0.2328791     0.156848  74.05 0.0005087882    1.394    0.283
       157  -8.8836     43.7898    193.3113   1.2287587728e+02   2.9969996426e+01    0.3739064    0.1500502  64.63  0.001825015    2.558    0.609
       158  -8.8490    240.5822    192.0056   8.4690105192e+01  -7.5593650810e-01    0.2599659    0.1869894  55.56  0.001507342    2.084    0.520
       159  -8.4343    237.2673    188.6450   8.4627945907e+01   1.7663333319e-01    0.2108267    0.1558469 -22.37 0.0006062611    1.364    0.267
       160  -8.0318    205.2329    192.0125   9.0794524746e+01   5.0893907821e+00    0.1499899    0.1027358 -30.41 0.0004502567    1.589    0.371
       161  -8.2775    198.8596    192.0077   9.1951611559e+01   6.1865621387e+00    0.1790161    0.1638667  38.92 0.0005513328    1.227    0.185
       162  -8.1946    179.0874    191.6831   9.5590674890e+01   9.6805755799e+00    0.1978425    0.1736568 -53.49 0.0005831679    1.414    0.293
       163  -8.4798    172.4567    191.8271   9.6885004803e+01   1.0820664725e+01    0.2334267    0.1880679  66.70 0.0009299257    1.538    0.350
       164  -9.2880    139.5894    190.7382   1.0320971912e+02   1.6697438005e+01    0.3514245    0.2418994  84.06  0.001149982    2.141    0.533
       165 -10.4810     92.2005    188.8351   1.1268211862e+02   2.4593597863e+01    0.8650017     0.236941  49.90  0.003151796    3.616    0.723
       166  -8.1124     90.6399    181.6970   1.1215998854e+02   2.6219721064e+01    0.1726809    0.1491609 -20.27 0.0007127273    1.728    0.421
       167  -8.7154      6.3947    191.2243   1.2984282812e+02   3.4074431311e+01    0.1523091   0.07255633  82.11 0.0008881072    1.692    0.409
       168  -8.7614    148.6574    189.3904   1.0118069846e+02   1.5374905666e+01    0.2090181    0.1575916 -68.71 0.0007171952    1.674    0.403
       169  -8.8609    216.5766    187.9057   8.8040531802e+01   3.7063313731e+00    0.2232943    0.2083031 -36.04 0.0007244251    1.406    0.289
       170  -8.8047    191.4852    187.5455   9.2540770082e+01   8.1186899177e+00    0.2757572    0.2236225 -83.23  0.001193235    2.023    0.506
       171  -9.2934    155.8709    187.5566   9.9447941444e+01   1.4427148931e+01    0.3084579    0.2293799 -71.96 0.0009560186    1.834    0.455
       172  -8.9948    129.3129    188.6636   1.0499760959e+02   1.8795150276e+01    0.2649782     0.183253  70.27 0.0008949316    1.703    0.413
       173  -9.8018    120.9502    186.7873   1.0645553700e+02   2.0520182736e+01    0.4990872    0.2707291 -77.98  0.002148973    3.121    0.680
       174  -8.8442     34.1585    187.9743   1.2437990710e+02   3.2059095159e+01    0.3273177    0.1431688  76.82  0.001476954    2.353    0.575
       175  -9.2571     54.7817    186.9005   1.2017449659e+02   2.9958210631e+01    0.3954365    0.1841359  70.61  0.001767853    2.387    0.581
       176  -8.4082    224.0370    183.5140   8.5930771798e+01   3.0177856377e+00      0.21411    0.1671848 -39.10 0.0007093027    1.569    0.363
       177  -8.1017    230.5035    187.4819   8.5552523825e+01   1.4248429861e+00    0.2004126    0.1677906  14.49 0.0009590997    1.064    0.060
       178  -8.4787    227.0955    186.6494   8.5981710741e+01   2.0962149026e+00    0.2059991    0.1853523  -0.29 0.0004885868    1.203    0.169
       179  -8.8802    164.8705    186.7041   9.7521684856e+01   1.2978258371e+01    0.2264102    0.1915269 -65.71 0.0007064805    1.475    0.322
       180  -9.2749    109.5685    186.2439   1.0874944174e+02   2.2451246355e+01    0.3380409    0.2141152  70.70  0.001086974    1.842    0.457
       181  -8.7142    249.1850    185.2824   8.2055879544e+01  -1.3224790738e+00    0.2490484    0.1602767 -24.10 0.0007169107    1.502    0.334
       182  -8.8278    182.9075    184.8651   9.3697678183e+01   1.0049748869e+01    0.2509233    0.1856731 -47.20 0.0008929704    1.612    0.380
       183  -8.8346    210.2083    184.4350   8.8544281905e+01   5.2747987709e+00    0.2042057    0.1674981 -19.26 0.0004397569    1.260    0.207
       184  -9.0117    202.8307    184.6959   8.9931342783e+01   6.5307408746e+00    0.2165711    0.1838067 -39.32 0.0006685162    1.409    0.290
       185  -9.0519     66.8059    184.5559   1.1748737346e+02   2.8932274100e+01    0.3627585     0.172981  63.60  0.001117617    2.222    0.550
       186  -8.7717    197.1772    183.5230   9.0763547113e+01   7.7017647423e+00    0.2105176    0.1517092 -61.97 0.0008450521    2.236    0.553
       187  -9.0356    174.3081    183.6703   9.5154724233e+01   1.1782086842e+01     0.251812    0.2035216  74.61 0.0009217514    1.667    0.400
       188  -7.8283     11.3361    184.6621   1.2860288597e+02   3.4914200318e+01    0.1197831   0.05561101  64.88 0.0007051532    1.751    0.429
       189  -9.2329    241.2598    181.8670   8.2707346533e+01   3.5704814707e-01    0.3548499    0.2450473 -56.67  0.001810986    2.944    0.660
       190  -8.9388     44.4403    182.3960   1.2190295564e+02   3.2059830090e+01    0.3026625    0.1434026  66.04  0.001005488    2.050    0.512
       191  -7.9918      1.7905    183.6446   1.3036081688e+02   3.5925104796e+01     0.146344   0.07009596  48.34 0.0009431707    1.732    0.423
       192  -9.2301    147.5570    180.6051   1.0001113739e+02   1.7096446501e+01    0.3163888    0.2361159  82.30  0.001220186    1.818    0.450
       193  -9.6192     25.5548    178.8827   1.2547643360e+02   3.4747348500e+01    0.6292548    0.2085148  77.39  0.002383071    4.409    0.773
       194  -8.1272    235.5405    180.7931   8.3456773038e+01   1.4330958559e+00    0.2314031    0.1138454 -25.47   0.00114618    2.092    0.522
       195  -8.6970    137.5647    179.3510   1.0188345412e+02   1.9081542499e+01    0.2730297    0.1903123  77.19 0.0008306765    1.937    0.484
       196  -9.4142    191.3864    178.3967   9.0919764489e+01   9.5138308369e+00    0.2424817    0.2172214  60.35 0.0005824495    1.349    0.259
       197  -8.1648    174.3206    179.3120   9.4390881261e+01   1.2484452572e+01    0.1344221    0.0981722  11.47 0.0007037491    1.650    0.394
       198  -8.0850    169.3378    178.6686   9.5265474153e+01   1.3500362006e+01    0.1906504    0.1515898  76.80 0.0006563928    1.705    0.413
       199  -9.0216     35.8075    176.6045   1.2322065925e+02   3.4175311527e+01    0.4508428    0.1637375  77.47  0.001720496    4.152    0.759
       200  -9.6073    248.2980    176.3844   8.0513725449e+01  -1.1709601250e-01    0.3877471    0.2498332 -43.05   0.00216086    2.091    0.522
       201  -8.5596    250.5125    172.8379   7.9470138501e+01  -4.4011390166e-02    0.2123206    0.1552991 -22.35  0.000530114    1.309    0.236
       202  -8.4619    217.7492    177.4756   8.5899775199e+01   4.9177449056e+00    0.2265488    0.1632924 -47.89 0.0008143287    1.860    0.462
       203  -8.8387    205.0184    177.6685   8.8235583105e+01   7.1545900633e+00    0.2364037     0.188643 -37.59 0.0007911025    1.426    0.299
       204  -9.1060    129.0715    177.3985   1.0336789247e+02   2.0915285831e+01    0.3251989    0.2153044  77.75  0.001504731    2.106    0.525
       205  -9.3632    230.1842    176.8286   8.3609812573e+01   2.8475586138e+00    0.3534681    0.1973577  37.36 0.0009408869    1.631    0.387
       206  -9.3513    183.0404    176.2204   9.2125682628e+01   1.1383665023e+01    0.2691827    0.2239533 -49.97 0.0007411145    1.436    0.304
       207  -9.3525    158.8200    175.0440   9.6757353562e+01   1.6044339404e+01    0.3763303    0.2636263  79.42 0.0008052596    2.276    0.561
       208 -10.6444    102.0021    175.6475   1.0893589278e+02   2.5706369905e+01    0.4594606    0.2810504  38.35  0.002447558    1.604    0.377
       209  -8.9582     88.9893    176.6359   1.1189009751e+02   2.7477511079e+01     0.278331    0.1887141 -86.69   0.00112693    1.559    0.359
       210  -9.9987     57.2905    173.2543   1.1837995597e+02   3.2436602355e+01    0.7453008    0.3080118  77.60  0.002706114    4.326    0.769
       211  -9.4457     81.7023    155.0022   1.1066104343e+02   3.3101278096e+01     0.452146    0.2658983  75.82   0.00150589    2.110    0.526
       212 -10.6840     75.9283    170.1507   1.1395876395e+02   3.0671056072e+01     1.152401    0.4240637 -77.44  0.003961436    4.476    0.777
       213  -8.2561     79.2314    158.5670   1.1173414848e+02   3.2679390601e+01    0.2716391    0.1304798  31.02  0.001208611    2.525    0.604
       214  -8.5514    224.2894    174.4071   8.4161242578e+01   4.1908384030e+00    0.1931578    0.1523631 -46.44 0.0004225504    1.680    0.405
       215  -9.5669    175.7830    172.1027   9.2796416243e+01   1.3402643900e+01    0.3373664       0.2277 -38.72  0.001076672    1.621    0.383
       216  -8.8429    143.0024    172.9756   9.9697430938e+01   1.9292123598e+01     0.210566    0.1568702  74.86 0.0006013104    1.677    0.404
       217  -8.3770    134.8449    172.0796   1.0128568717e+02   2.0915428410e+01    0.2101997    0.1688234  71.22 0.0006695351    1.347    0.257
       218  -9.6844    121.3368    170.3571   1.0393533534e+02   2.3597141655e+01     0.384577    0.2523482 -76.30  0.001037015    1.925    0.481
       219  -9.2266     44.9999    170.2119   1.2074483175e+02   3.4508947132e+01    0.4672719    0.1970131 -83.24  0.002220111    2.456    0.593
       220  -8.4347    205.8432    170.4731   8.6708508984e+01   8.0636768336e+00    0.2401703    0.1715111 -51.92 0.0008507693    1.890    0.471
       221  -8.6491    198.5058    170.2825   8.8041113310e+01   9.4490018519e+00    0.2125999    0.1918557 -56.21 0.0007503864    1.421    0.296
       222  -8.2070    237.1051    169.6750   8.1044324376e+01   2.5993796571e+00    0.2017396    0.1625618 -26.80 0.0005759277    1.314    0.239
       223  -9.0376    230.3304    170.0287   8.2261683466e+01   3.7261726775e+00    0.2340745    0.1851211   2.49  0.000885294    1.136    0.120
       224  -7.9172    229.3001    166.6478   8.1766567783e+01   4.3660047718e+00     0.117897    0.1052531 -64.57  0.000703751    1.696    0.410
       225  -9.2012    167.2388    168.7929   9.3907762621e+01   1.5569608644e+01    0.3638818    0.2450025  67.58  0.001009369    2.121    0.529
       226  -8.7671    149.9258    169.5500   9.7643402027e+01   1.8662999750e+01    0.2436414    0.1902226 -77.13 0.0007784774    1.638    0.390
       227  -8.0553    244.7440    169.5676   7.9760140269e+01   1.3167683101e+00    0.1643737    0.1169983  49.10 0.0009463636    1.706    0.414
       228  -8.2779    211.4565    168.4301   8.5279097857e+01   7.3344754796e+00    0.2201088    0.1195394 -45.53 0.0007243482    2.292    0.564
       229  -8.5349     88.8012    168.7568   1.1091588723e+02   2.9124811177e+01    0.2454801    0.1484355  83.09 0.0008449817    2.040    0.510
       230  -8.4256    218.8399    168.1656   8.3898613959e+01   6.0277646803e+00    0.1838444     0.176599  -2.12 0.0006279653    1.246    0.198
       231  -8.6408    111.6715    167.3307   1.0559923270e+02   2.5827210800e+01    0.3288158     0.209424  80.83  0.001206398    2.148    0.534
       232  -8.7837    191.9104    166.6267   8.8588278024e+01   1.1258458572e+01    0.2386922    0.1927077 -43.38 0.0006081088    1.407    0.289
       233  -8.9030    184.9987    166.5257   8.9914658972e+01   1.2586456251e+01    0.2374663    0.1898959 -58.51 0.0007596627    1.605    0.377
       234  -9.9484    137.0756    164.6388   9.9540687906e+01   2.1940462883e+01    0.6680008    0.2940171  56.55  0.002446081    3.090    0.676
       235 -10.0775     95.2146    163.0693   1.0867695951e+02   2.9346164602e+01    0.8273324    0.4275082  77.22  0.003053443    3.704    0.730
       236  -9.0390     20.4483    166.1639   1.2567066382e+02   3.7848956140e+01    0.3123397    0.1146164  59.27   0.00110892    2.567    0.610
       237  -7.6630    250.7205    165.3389   7.7953576306e+01   8.5127633137e-01    0.1122811   0.09752652 -45.02 0.0004602793    1.621    0.383
       238  -8.4202    233.8690    164.9021   8.0636287512e+01   3.7961530316e+00    0.2163705    0.1598795 -29.67 0.0006272407    1.380    0.276
       239  -8.7321    159.5169    164.2774   9.4665730135e+01   1.7830806522e+01    0.2843308    0.2349001  82.85 0.0008900768    1.531    0.347
       240  -9.2853     33.6042    163.5400   1.2264123770e+02   3.7136806867e+01    0.4981568    0.1569777  54.47  0.002140492    3.132    0.681
       241  -7.9809    240.2075    164.1806   7.9429338964e+01   2.7859208566e+00    0.1599695    0.1466975 -21.63 0.0005552739    1.308    0.235
       242  -8.5509    213.0637    163.7108   8.4045239857e+01   7.7322229040e+00    0.2189604     0.173381 -39.37 0.0006415084    1.431    0.301
       243  -9.0727     12.7178    176.4906   1.2789578882e+02   3.6418164840e+01    0.2615383    0.1156074  84.85  0.001163338    1.965    0.491
       244  -9.2589    246.1015    162.9426   7.8213367728e+01   1.9346408742e+00    0.2990154    0.1739612 -28.76 0.0009829932    1.634    0.388
       245  -8.5393    242.2247    159.9958   7.8245101515e+01   2.9879382842e+00    0.1807514    0.1330514   4.51 0.0003278352    1.270    0.212
       246  -8.5496    204.8531    162.8894   8.5389891028e+01   9.3939967985e+00    0.2225862    0.1779273 -35.92 0.0005141531    1.352    0.261
       247  -9.6204      3.3427    162.4227   1.2902114570e+02   4.0070812685e+01    0.3591637    0.1435076  55.64   0.00195338    2.124    0.529
       248  -9.2484    177.4277    160.6626   9.0275412566e+01   1.5026307662e+01    0.3009675    0.2465878 -62.56 0.0009540098    1.537    0.349
       249  -8.7752    151.7284    161.2139   9.5745407712e+01   1.9872000336e+01    0.2754816    0.2163979 -78.62 0.0009297076    1.640    0.390
       250  -8.7054     60.5089    160.1618   1.1626597924e+02   3.4827625139e+01    0.2855535    0.1611665  79.75 0.0009179702    1.947    0.487
       251  -9.7011    250.2005    157.9448   7.6534643390e+01   1.8795680835e+00    0.3172102     0.162687 -27.65  0.000778011    1.817    0.450
       252  -8.4750    227.6217    159.3840   8.0580476125e+01   5.6761091804e+00    0.2589399    0.1780285 -51.22  0.001103575    2.080    0.519
       253  -9.7564    105.6525    158.0188   1.0550635094e+02   2.8746313667e+01    0.4605742    0.2946954  79.15  0.001065678    2.060    0.515
       254  -8.4125    237.0066    159.0370   7.8912515771e+01   4.0347371443e+00    0.1827822     0.163306 -60.75 0.0006081419    1.658    0.397
       255  -8.6536    128.0721    158.7605   1.0050633922e+02   2.4728076138e+01    0.3008868    0.2060379 -89.69  0.001358097    2.067    0.516
       256  -8.5010    196.7358    157.9369   8.5916940910e+01   1.1726086308e+01     0.232701    0.1865136 -55.76 0.0007983386    1.599    0.375
       257  -8.6320    188.0300    157.7285   8.7567505256e+01   1.3456358677e+01    0.2232068    0.1902783 -48.76 0.0005999677    1.355    0.262
       258  -9.1469    167.6435    157.5019   9.1658666543e+01   1.7488417188e+01     0.306793    0.2413649  76.19  0.001118386    1.690    0.408
       259  -9.0713    217.3902    156.8110   8.1849171802e+01   7.9443868636e+00    0.2430689    0.2219088  -2.80 0.0006608885    1.100    0.091
       260  -9.1844    157.5233    155.8038   9.3464299705e+01   1.9772657299e+01    0.3720911    0.2276243 -55.11  0.001229532    1.924    0.480
       261  -9.5724    119.6605    155.5380   1.0185665569e+02   2.6881386272e+01     0.404166    0.2656673 -89.05  0.001504221    2.180    0.541
       262  -9.1728     49.4059    155.1920   1.1827852849e+02   3.7242196832e+01    0.3383324    0.1785303  72.30  0.001667235    2.053    0.513
       263  -8.9970    243.0890    155.1336   7.7098107951e+01   3.4834135824e+00     0.212598    0.1879401  64.54 0.0004009424    1.638    0.389
       264  -8.0581    239.9648    153.0315   7.7170073026e+01   4.3233648120e+00    0.1700269    0.1522202 -34.47 0.0004990773    1.349    0.258
       265  -9.4392    237.4325    150.4777   7.7048941115e+01   5.1327506696e+00    0.3872821    0.1581941  34.26  0.001553118    2.753    0.637
       266  -8.7535    144.5885    154.8876   9.6104793366e+01   2.2437189182e+01    0.3122025    0.2155299  65.69  0.001244331    1.764    0.433
       267  -9.7062    132.8947    153.0511   9.8379630528e+01   2.4999611841e+01    0.4602897    0.3175996  80.95  0.001404549    2.063    0.515
       268  -9.4254    133.4982    148.4967   9.7376949489e+01   2.5812003628e+01    0.2975189    0.2450122 -36.70 0.0009503133    1.361    0.265
       269  -9.5298     67.8564    153.5536   1.1374673229e+02   3.5333103504e+01    0.4123756    0.2227432  77.63  0.001609117    2.352    0.575
       270  -8.0555    204.5329    155.5160   8.3936445848e+01   1.0599015323e+01    0.1378783    0.1237617  13.24 0.0001044929    1.008    0.008
       271  -8.4017    151.6526    152.5553   9.4096448864e+01   2.1529428447e+01    0.2318433    0.1341083 -47.54 0.0005659063    1.840    0.456
       272  -9.2429     20.1303    152.8460   1.2477044124e+02   4.0715644245e+01    0.1839081    0.1215762  73.46 0.0005966263    1.262    0.208
       273  -8.1189    182.7423    151.8907   8.7415089377e+01   1.5491772674e+01    0.2170687    0.1632465 -68.97  0.001059213    1.945    0.486
       274  -8.7500     98.4080    150.8868   1.0605909480e+02   3.1449861004e+01    0.3008601    0.2046003  84.75  0.001068771    1.756    0.431
       275  -9.5513     29.4081    150.7167   1.2247737409e+02   4.0328110830e+01    0.4551965    0.1807785  69.27   0.00194484    3.106    0.678
       276  -9.5821    248.8236    149.6500   7.5022162579e+01   3.2033104823e+00    0.3369806    0.1792252 -28.47 0.0008583051    1.736    0.424
       277  -9.0612    247.0108    143.8879   7.4077790974e+01   4.2995993247e+00    0.2636855    0.1685639 -21.74 0.0006173988    1.438    0.305
       278  -8.2328    250.4028    140.7879   7.2871686782e+01   4.1079584114e+00    0.2299562     0.146165  12.75 0.0007276438    1.777    0.437
       279  -8.9889    189.3360    150.2447   8.5751674634e+01   1.4454129451e+01    0.3152438    0.2304823 -56.45 0.0008287936    1.758    0.431
       280  -8.4557    162.7159    150.8650   9.1362077752e+01   1.9673444700e+01    0.2500444    0.1948054 -67.22 0.0007863473    1.613    0.380
       281  -8.8725      2.8965    150.5265   1.2844130359e+02   4.2606599084e+01    0.2386099    0.1071085  80.30  0.001291507    1.923    0.480
       282  -8.4417    243.1870    149.9935   7.6000351539e+01   4.1586578715e+00    0.2342477    0.1585116 -22.74 0.0009278327    1.363    0.266
       283  -8.3446    213.0291    149.8798   8.1171802535e+01   9.8258027478e+00    0.1903801    0.1875979 -75.49 0.0003859715    1.291    0.225
       284 -10.2435     89.1206    146.2005   1.0754823310e+02   3.3936256337e+01    0.6648213    0.3548315  83.58  0.002461425    3.474    0.712
       285  -8.4720    198.8452    149.1533   8.3667179641e+01   1.2735102725e+01    0.1952781    0.1912415 -69.73 0.0004884554    1.240    0.193
       286  -9.9210     39.5828    147.3922   1.1976679942e+02   4.0046556501e+01    0.5715423    0.2731478  76.56  0.002208887    2.435    0.589
       287  -9.1893    233.2997    147.5595   7.7116087398e+01   6.3045809845e+00    0.2476579     0.168413 -27.84 0.0007847044    1.398    0.285
       288 -10.4249    149.0369    145.1262   9.3175499108e+01   2.3487637641e+01    0.5648513    0.3875239 -80.55   0.00167313    2.310    0.567
       289  -9.0747    150.6023    136.4403   9.0977516794e+01   2.4894632123e+01    0.5707692     0.329634  22.69  0.002139318    2.837    0.647
       290 -10.5056     54.5063    143.8650   1.1574241618e+02   3.9174662227e+01     0.886831    0.4183337  79.87  0.003035728    3.147    0.682
       291  -8.7496     57.2283    135.6073   1.1396913176e+02   4.0731890354e+01    0.2928074    0.1712526  17.55  0.001384861    2.708    0.631
       292  -8.2637    223.4435    147.0658   7.8703317206e+01   8.2396762302e+00    0.1937935    0.1925472 -52.62 0.0006286868    1.296    0.228
       293  -8.1241    206.9233    146.6686   8.1602964698e+01   1.1527873326e+01    0.1929768    0.1701783  36.46 0.0007053759    1.144    0.126
       294 -10.0373    139.2575    145.1618   9.5397761735e+01   2.5392680043e+01    0.4848708    0.3177544 -76.20  0.001156456    2.302    0.566
       295  -9.1249    140.0337    137.4306   9.3620244835e+01   2.6817142436e+01    0.4044194    0.2762764   6.59  0.001653737    2.544    0.607
       296 -10.3969    106.6401    144.1499   1.0292231710e+02   3.1555714581e+01    0.7196651    0.4414909 -89.52  0.002307327    2.491    0.599
       297  -8.8517     77.8355    146.9374   1.1042508215e+02   3.5438099450e+01    0.2453891    0.1647823  87.21  0.000761983    1.598    0.374
       298  -9.3304     13.5112    146.2833   1.2577736184e+02   4.2703158919e+01    0.3431987    0.1485071  60.37   0.00125314    2.203    0.546
       299  -8.4854    175.2329    146.2022   8.7746888202e+01   1.8009169331e+01    0.1890335    0.1708147 -85.31 0.0005860563    1.349    0.259
       300  -8.3897    240.3732    145.2436   7.5441176823e+01   5.3214858932e+00    0.2038191    0.1715246 -33.99 0.0004514077    1.313    0.238
       301  -9.3604    242.6674    143.3218   7.4651474206e+01   5.1669026082e+00    0.4317907    0.2160162 -28.42  0.002033889    1.872    0.466
       302  -9.8425    124.9805    142.4059   9.8182101541e+01   2.8667785118e+01     0.575738    0.3453914 -70.32  0.001955919    2.248    0.555
       303  -7.8197    194.3960    144.1256   8.3435868654e+01   1.4464234132e+01    0.1905891    0.1304659 -48.40 0.0005428487    1.686    0.407
       304  -8.9508    165.5131    144.0422   8.9335178011e+01   2.0384606760e+01    0.2917883    0.2274503  58.33 0.0008340265    1.386    0.278
       305 -10.9254     69.0798    141.1353   1.1174506889e+02   3.7954342738e+01    0.7769621    0.4929708 -83.34  0.002819172    1.606    0.377
       306  -9.2994      2.8961    142.0323   1.2791428115e+02   4.4434690904e+01    0.3449682    0.1429248  71.07  0.001474136    2.305    0.566
       307  -8.3693    182.0332    142.0078   8.5435915522e+01   1.7364871100e+01    0.2167607    0.1797469 -82.97 0.0005773156    1.659    0.397
       308 -10.0350     23.5358    138.2770   1.2273980766e+02   4.3632229218e+01    0.4891722    0.2040278  67.54  0.002215431    2.778    0.640
       309  -7.8323    218.5978    138.7322   7.7720157150e+01   1.0447073016e+01    0.1835258    0.1263353 -38.40  0.000446646    1.497    0.332
       310  -8.8727    172.2479    138.2294   8.6629757605e+01   2.0078628830e+01    0.3393947    0.2452692 -70.57 0.0009992564    2.025    0.506
       311  -8.3756    207.6113    138.0781   7.9569713913e+01   1.2765577621e+01    0.2161181    0.1669757 -44.63 0.0006506169    1.438    0.305
       312  -8.6986    197.4255    137.5554   8.1381457534e+01   1.4947007702e+01     0.275469    0.2320976 -60.20 0.0008839455    1.484    0.326
       313  -8.8567     84.8910    123.0577   1.0458658009e+02   3.9842688227e+01    0.4943788    0.3339716   4.95  0.002169293    2.724    0.633
       314  -9.2137     80.5107    137.5181   1.0829342544e+02   3.7177697224e+01    0.2218136    0.1993392  87.22  0.001359858    1.017    0.016
       315 -10.3662     83.3258    132.8893   1.0679055219e+02   3.7817228317e+01    0.5190785    0.3038032 -75.90  0.001125697    1.912    0.477
       316  -8.3835    241.4807    136.5249   7.3349115244e+01   6.3363698312e+00    0.2550696    0.1199788 -19.18  0.001033562    2.502    0.600
       317  -8.4288    162.6872    136.5576   8.8312382257e+01   2.2383631066e+01    0.2378567     0.178125 -66.35 0.0007083914    1.703    0.413
       318  -9.1798     39.0761    136.1937   1.1866790600e+02   4.2627912338e+01    0.2657507    0.1555427  72.18  0.001002891    1.741    0.426
       319  -8.4865    246.9711    130.4474   7.1119300645e+01   6.1570868264e+00    0.2381489    0.1661886 -37.80 0.0005235906    1.466    0.318
       320  -8.9619    248.4090    135.1851   7.1953046377e+01   5.2336599255e+00    0.2882854    0.1901297 -22.40 0.0006452567    1.373    0.271
       321  -8.8556    250.6776    130.7211   7.0608179399e+01   5.4282196484e+00     0.422647    0.1182809 -27.21  0.001362657    3.873    0.742
       322  -7.3872    192.3184    136.6454   8.2171433407e+01   1.6164493973e+01    0.1434898     0.116774 -77.38 0.0007046235    1.749    0.428
       323  -8.4211    187.6010    135.9954   8.2961325236e+01   1.7265272590e+01    0.2198372    0.1386166 -36.59 0.0005029145    1.608    0.378
       324  -8.6666    179.3840    133.9742   8.4173278854e+01   1.9358411031e+01    0.2931678    0.2146985 -59.05 0.0008827401    1.710    0.415
       325 -10.1888    132.3330    131.0610   9.4074354341e+01   2.9661701438e+01    0.7362096    0.5304531 -67.80  0.001628265    1.622    0.383
       326 -10.2603    130.8718    118.5388   9.1586999890e+01   3.2616484238e+01    0.7753098    0.4840593  84.58  0.002717062    3.355    0.702
       327 -10.6647    133.6400    109.5904   8.8700715743e+01   3.3953538615e+01     0.800965    0.3831901 -47.84  0.002959677    2.088    0.521
       328  -8.1062    237.5830    133.8309   7.3378600472e+01   7.4603407184e+00    0.1965604    0.1151115 -40.72 0.0009394873    1.805    0.446
       329  -8.0526    231.5667    133.8503   7.4378342016e+01   8.6227484749e+00    0.1905431    0.1205882 -39.86 0.0007437671    1.644    0.392
       330  -9.1707    112.9568    133.3764   9.9319072653e+01   3.2811002010e+01    0.3774086    0.2447685  71.46  0.001281876    2.075    0.518
       331  -9.2152    143.0092    131.7332   9.1687770167e+01   2.7389811097e+01    0.3552171    0.2559879 -73.91 0.0008232048    1.839    0.456
       332 -10.4271     98.2046    130.2939   1.0246000904e+02   3.6053603289e+01    0.6521764    0.3285726 -59.64  0.001770204    1.976    0.494
       333  -9.0300     98.5133    120.9945   1.0051302379e+02   3.8113183886e+01    0.3471459    0.2051676 -31.76  0.001410022    2.592    0.614
       334  -7.6229    220.6557    130.2805   7.5429982422e+01   1.1339372960e+01    0.1322557    0.1137644 -75.41 0.0006035588    1.634    0.388
       335  -8.0302    211.5356    129.4865   7.6873029689e+01   1.3341933805e+01    0.2447959    0.1244454 -44.22 0.0007433165    2.169    0.539
       336  -7.8658    204.7870    130.5604   7.8370041429e+01   1.4577305316e+01    0.1869401    0.1395538  60.71 0.0004548661    1.616    0.381
       337  -8.1517    192.8451    130.1862   8.0575648777e+01   1.7167737639e+01    0.2147796    0.1976443 -64.51 0.0005665514    1.286    0.222
       338  -9.2216    168.3111    129.6011   8.5502969326e+01   2.2525354110e+01    0.2974571     0.237129 -87.21  0.000840112    1.718    0.418
       339  -8.9210    161.5333    129.9733   8.7071307549e+01   2.3895261616e+01    0.2235488    0.1459716 -41.05 0.0008505801    1.565    0.361
       340 -10.1012     72.9499    128.3911   1.0874764466e+02   4.0354528766e+01    0.5388914    0.2773814 -64.49  0.001708536    1.809    0.447
       341 -10.5258     60.2407    125.4333   1.1167405756e+02   4.2720983453e+01    0.7432561    0.3766273  74.37  0.002658955    3.141    0.682
       342  -8.1158      1.7580    130.5530   1.2740591912e+02   4.7030225461e+01    0.1482062   0.08834159  49.97 0.0009463754    1.661    0.398
       343  -7.8197    186.3214    129.6548   8.1751119113e+01   1.8655478712e+01    0.1472012    0.1186825 -78.23 0.0004509813    1.732    0.423
       344 -10.7396     45.0304    123.7811   1.1554455766e+02   4.4872418001e+01      1.05597    0.4746834  75.84  0.003841038    3.912    0.744
       345  -7.8748     27.3098    129.3264   1.2090382469e+02   4.5328240737e+01     0.119308    0.0806967 -50.85 0.0007039352    1.658    0.397
       346 -10.2979    118.4168    125.0920   9.6209964066e+01   3.3626803620e+01    0.6858318    0.5385756 -72.78  0.002204077    1.388    0.279
       347  -8.1203    228.3665    125.2495   7.2936350066e+01   1.0544352270e+01    0.1990007    0.1201403 -38.75 0.0007438232    1.649    0.394
       348 -10.1492     28.5431    122.5371   1.1982463417e+02   4.6781410293e+01     0.665778    0.2832762  72.26    0.0026911    3.362    0.703
       349  -7.5565    244.2642    124.6274   7.0218237353e+01   7.4916961748e+00    0.1338534   0.09971519 -49.91 0.0006985706    1.663    0.399
       350  -8.3740    188.5032    124.0308   7.9972530128e+01   1.9181336598e+01    0.2217136    0.1431057 -38.08 0.0006007874    1.546    0.353
       351  -9.3935    158.6442    121.6569   8.5748364846e+01   2.6140087275e+01    0.3910614    0.2836132 -75.22  0.001036594    1.985    0.496
       352 -10.0259     12.9201    129.3990   1.2456447400e+02   4.6497559387e+01    0.4270503     0.198917  71.70  0.001774913    2.200    0.546
       353  -7.8943    203.1414    122.1947   7.6690625340e+01   1.6319570997e+01    0.1992641    0.1691723 -54.91 0.0005336328    1.377    0.274
       354  -7.9864    194.9967    122.1786   7.8242750526e+01   1.8089823836e+01    0.2154666    0.1511763 -50.22 0.0004780484    1.625    0.384
       355  -8.6820    171.9893    121.7538   8.2838991598e+01   2.3212879584e+01    0.2519707    0.2116985 -41.33 0.0004264668    1.207    0.172
       356 -10.2527    141.5663    117.8678   8.8807887741e+01   3.0553321803e+01    0.6824797    0.3174147 -48.60  0.001617571    2.207    0.547
       357  -9.6479     71.1920    119.8411   1.0773515934e+02   4.2591701577e+01    0.3881419    0.2259231 -83.93  0.001219586    2.128    0.530
       358  -9.8324      2.7835    116.6300   1.2607591939e+02   5.0080527264e+01    0.5846564    0.2200018  80.40  0.002570089    2.964    0.663
       359  -9.5823    152.8358    128.9963   8.8799083812e+01   2.5918799300e+01    0.4453371    0.2754562 -62.88  0.001174097    2.199    0.545
       360  -7.2769    231.6628    117.3441   7.0522834937e+01   1.1064988166e+01    0.1410937    0.1088356 -61.31 0.0007049261    1.771    0.435
       361 -10.0764    109.3544    114.3892   9.6165160094e+01   3.7690854856e+01    0.5469266    0.3551946 -77.16  0.001488458    2.121    0.528
       362  -9.0072    109.2845    107.6863   9.4597788796e+01   3.9206606506e+01    0.3455087    0.2265236  24.55  0.001510488    2.050    0.512
       363  -8.9450     59.4239    115.4823   1.1026559699e+02   4.5159907441e+01    0.4215824    0.2917224 -12.78  0.002069794    2.459    0.593
       364  -8.9953    179.0690    124.8621   8.2097780335e+01   2.1087679361e+01    0.3106815    0.2380627  59.44 0.0007609628    1.456    0.313
       365  -8.4476    193.0314    115.4590   7.6968586505e+01   1.9691084777e+01    0.2636037    0.1982866 -47.97 0.0005215287    1.435    0.303
       366  -8.1656    185.7985    116.1097   7.8567958720e+01   2.1190408078e+01    0.2251586    0.1997457 -55.54 0.0005954542    1.249    0.200
       367  -9.9403     78.8145    112.4493   1.0417952781e+02   4.3231180270e+01    0.5619498    0.3512897  85.05  0.001714625    2.285    0.562
       368  -8.6250     78.2607    105.6658   1.0291780864e+02   4.4901415671e+01    0.2871608    0.2079937 -39.01 0.0009809714    1.539    0.350
       369  -8.2500    167.3821    114.2547   8.1971469204e+01   2.5657788635e+01    0.2108071    0.1405142 -48.82 0.0005253205    1.588    0.370
       370 -10.2088     92.6544    112.3784   1.0026837336e+02   4.1071720118e+01    0.5767967    0.3342201 -72.17  0.001283362    2.160    0.537
       371  -9.0279     93.4700    105.0050   9.8366995438e+01   4.2632299104e+01    0.3154072    0.2216922 -15.99  0.001091838    2.262    0.558
       372  -8.6245     27.2727    113.8469   1.1912391830e+02   4.8913590453e+01    0.1942272    0.1496515   5.21  0.001038052    1.843    0.457
       373  -8.4978    174.8440    112.2593   7.9857308089e+01   2.4357904392e+01    0.2638762    0.1998584 -50.04 0.0006020488    1.412    0.292
       374 -10.2014    122.1953    112.5794   9.2359800810e+01   3.5639626964e+01    0.6223122    0.3774313 -45.10  0.001581704    1.640    0.390
       375 -10.0947    118.6251    106.4658   9.1784793020e+01   3.7683027883e+01    0.6576687    0.4308616  60.14  0.002922525    1.806    0.446
       376 -10.4779    108.9426     98.8256   9.2460906361e+01   4.1248269565e+01    0.8357416    0.4758053  67.66  0.001659514    3.123    0.680
       377  -8.9964    107.6811     92.8752   9.1229549771e+01   4.2805990144e+01    0.5102171    0.3485347  16.56  0.002198222    2.173    0.540
       378 -10.0621     14.3240    111.5167   1.2246882177e+02   5.0476680900e+01    0.4294742    0.2084826  64.22  0.001589535    2.285    0.562
       379 -11.1442    249.0009    108.1190   6.5645487916e+01   8.9090518285e+00    0.9949938    0.2731146 -35.68  0.003452333    3.105    0.678
       380 -10.2396     66.3237    109.9012   1.0726832715e+02   4.5590518220e+01     0.593717    0.3263942 -70.55  0.002232017    1.823    0.451
       381  -7.8438    149.6189    110.1968   8.4968892284e+01   3.0398762926e+01    0.2127488    0.1439797 -32.88 0.0005626627    1.583    0.368
       382  -7.7439    182.5562    109.5115   7.7546716760e+01   2.3112349698e+01    0.1501479    0.1455781 -14.58 0.0001258335    1.025    0.024
       383  -9.0113     43.4399    109.2852   1.1384488073e+02   4.8450359895e+01    0.2829399    0.1891103   9.52  0.001511829    2.220    0.550
       384  -8.3437    189.3019    108.0600   7.5817118812e+01   2.1832776552e+01    0.2199604    0.1851643 -35.61 0.0006324294    1.169    0.144
       385  -9.6751    150.7408    103.3066   8.2894495675e+01   3.1539003105e+01    0.5056379    0.3288362 -67.37  0.001693062    2.258    0.557
       386  -9.7654    139.8486    104.7660   8.5908712214e+01   3.3643640873e+01    0.4442111    0.3026512 -65.74 0.0008621813    1.888    0.470
       387 -10.6508     45.5912    102.2680   1.1203632612e+02   4.9885184366e+01    0.7753865    0.3992097  72.95  0.002994962    3.112    0.679
       388  -9.4691     46.5663     92.7159   1.0996430518e+02   5.2042529188e+01     0.443546    0.2491022   6.34  0.001945328    3.185    0.686
       389 -10.7370     22.7768    102.6646   1.1897391380e+02   5.1900667314e+01    0.7211124    0.3345594  75.93  0.002513284    2.960    0.662
       390  -8.5925    166.5511    104.1656   7.9528233789e+01   2.7776091536e+01    0.2751898    0.2333722 -74.36  0.000590332    1.412    0.292
       391  -9.7303      6.7982    102.9205   1.2368764228e+02   5.2960878443e+01    0.3815558    0.1393823 -81.28   0.00166496    2.354    0.575
       392 -10.4252    128.6200    101.7812   8.7952626129e+01   3.6664185611e+01    0.5068864    0.3221861 -46.87  0.001348059    1.543    0.352
       393  -8.5721    217.0545    102.2836   6.9238050882e+01   1.6522133907e+01    0.1977664    0.1844895  16.59 0.0002874475    1.076    0.070
       394  -8.2217    175.4892    102.1035   7.7057443685e+01   2.6095806175e+01    0.2308121     0.148737 -38.30 0.0005023961    1.525    0.344
       395  -8.4338    159.7663    100.9812   8.0181678457e+01   2.9948480328e+01    0.2799268    0.2031401 -56.13 0.0006695031    1.551    0.355
       396  -9.2524     82.0453     99.9630   1.0052006272e+02   4.5654426697e+01    0.3730394    0.2416146 -77.95  0.001004689    1.921    0.479
       397 -10.2292     64.1229     96.5879   1.0521806546e+02   4.9023812989e+01    0.6842048     0.368478 -78.20  0.002021478    2.487    0.598
       398  -9.2801     94.9384     97.0546   9.6004801178e+01   4.4198542151e+01    0.3204711    0.2465031 -77.49 0.0006069647    1.485    0.327
       399  -8.9898    150.9951     95.6499   8.0736073557e+01   3.3006991544e+01    0.4359592    0.2857862   8.05  0.001614639    2.700    0.630
       400 -10.5566    123.8761     91.2677   8.6313605275e+01   3.9893356651e+01    0.6113757    0.4825863  24.51  0.001079466    1.480    0.324
       401  -8.6879    159.1635    111.8375   8.3184503756e+01   2.7960746306e+01    0.2742401     0.241321 -62.49  0.000707834    1.239    0.193
       402  -8.1663    176.3249     93.3891   7.4498136206e+01   2.7494259255e+01    0.2666258    0.1747883 -53.34 0.0005275465    1.756    0.431
       403  -8.1935    164.8321     94.1869   7.7173462984e+01   3.0070979503e+01    0.2316394    0.2090559 -70.86 0.0005475243    1.232    0.188
       404  -9.2359    138.9741     92.3080   8.2707554215e+01   3.6398819499e+01    0.3562491    0.2733501 -79.80 0.0009149848    1.738    0.425
       405  -9.8907      5.1801     91.7452   1.2293759760e+02   5.5631354636e+01    0.4485482    0.2293514  85.64  0.001778945    1.919    0.479
       406  -8.2308    157.7893     91.6243   7.8023314534e+01   3.2215424712e+01    0.2595801    0.1787893 -43.02 0.0006502621    1.438    0.305
       407  -9.7307     34.9578     90.0662   1.1321502603e+02   5.3828833994e+01    0.4446968    0.2322827 -89.97  0.001563828    2.518    0.603
       408  -8.0798    151.1308     89.1857   7.8861512564e+01   3.4244384043e+01    0.2158062    0.1839387 -68.72  0.000460388    1.336    0.251
       409 -10.1106     86.2983     85.9592   9.5702422682e+01   4.8185200406e+01    0.6121475    0.3610371 -61.88  0.001291124    1.815    0.449
       410  -9.1686     66.4448     87.1912   1.0232881797e+02   5.0912003045e+01    0.5098425     0.265112  11.99  0.001742673    4.492    0.777
       411  -7.9873    163.7841     87.0665   7.5370391951e+01   3.1654218399e+01    0.2079941    0.1241882 -38.08 0.0004228423    1.638    0.389
       412  -8.0239    139.6654     87.6955   8.1201634536e+01   3.7175127162e+01    0.1584688    0.1230655   8.30 0.0006424859    1.665    0.399
       413  -9.8145     48.6841     83.7411   1.0739827843e+02   5.3922757389e+01    0.6753539    0.3945921 -71.36  0.002301476    1.691    0.409
       414 -10.1135    104.7030     83.6039   8.9474223285e+01   4.5405020729e+01    0.5366894    0.2916355 -54.55  0.001380713    1.929    0.482
       415  -8.5529    157.8799     83.9312   7.5764194174e+01   3.3653931676e+01    0.2769884    0.2053523 -43.34 0.0003902974    1.339    0.253
       416  -9.1489    140.8702     82.5084   7.9358858826e+01   3.7929626575e+01    0.3765306    0.2146024 -46.26 0.0009271834    1.771    0.435
       417  -9.2446     22.7921     90.2699   1.1718396980e+02   5.4806129356e+01    0.2468634    0.2077704 -26.80 0.0009244405    1.466    0.318
       418  -9.7366     24.7190     80.6597   1.1494270909e+02   5.6906897691e+01    0.4285827    0.2310219  85.33  0.001357935    2.409    0.585
       419  -9.5680     10.1669     81.3214   1.1998250995e+02   5.7750819972e+01    0.3381468    0.1666024  52.56  0.001464773    2.488    0.598
       420  -8.2911    150.2001     80.8953   7.6622012977e+01   3.6058155701e+01    0.2378306      0.20792 -64.59 0.0006542676    1.257    0.205
       421  -9.1469    119.3610     80.4811   8.4367271060e+01   4.3104554418e+01    0.3499469    0.2468714 -64.78 0.0009767093    1.758    0.431
       422  -8.7951     74.5732     80.5968   9.7986837140e+01   5.1259778984e+01    0.2931684    0.2122892 -80.33 0.0008259965    1.729    0.421
       423  -8.1039    166.7553     79.9038   7.2617676574e+01   3.2244847435e+01    0.2148785    0.1974623 -35.61 0.0004314138    1.067    0.063
       424  -7.2320    185.2904     82.6606   6.9670466568e+01   2.7221866712e+01    0.1586886    0.1184512 -63.67 0.0003608316    1.644    0.392
       425 -10.0334     63.5122     74.2471   9.9976287051e+01   5.4286463406e+01    0.6403143    0.3028695 -66.86  0.002473283    2.749    0.636
       426  -9.4481    128.0440     75.2880   8.0406421023e+01   4.2267184178e+01    0.5214604    0.2901188 -48.93  0.001710762    1.878    0.468
       427  -8.3422    157.3532     76.2970   7.3578252107e+01   3.5193754115e+01    0.2243619    0.1394527 -43.93 0.0007983759    1.613    0.380
       428  -8.7911    140.3194     75.5813   7.7361562138e+01   3.9400918288e+01    0.2822367    0.1763973 -47.17 0.0006910169    1.639    0.390
       429  -9.7109     82.3478     72.7514   9.3183885627e+01   5.1780947379e+01    0.4644357     0.294216 -67.80 0.0009271137    2.039    0.510
       430  -8.5126     82.8205     65.9599   9.0904287906e+01   5.3166452431e+01     0.307799    0.1568949 -31.30  0.001181119    2.540    0.606
       431  -8.0670     75.3235     75.3137   9.6264429596e+01   5.2335964240e+01    0.1436613    0.1052176 -22.74 0.0006887973    1.660    0.398
       432  -8.3402    163.3969     73.3058   7.1334032025e+01   3.4247390032e+01    0.2838296    0.1802763 -43.77  0.001066896    1.581    0.368
       433  -7.8490    175.4250     72.7705   6.8689555144e+01   3.1348465103e+01    0.2079849    0.1494404 -18.39 0.0004483498    1.535    0.348
       434  -8.8226    115.7154     72.7884   8.2979571134e+01   4.5450465175e+01     0.304785    0.1970772 -48.57 0.0007039083    1.545    0.353
       435  -8.1818     42.9226     72.9459   1.0691836350e+02   5.7052001408e+01    0.2002096    0.1482809  79.98 0.0007578724    1.680    0.405
       436  -9.2744    105.9017     71.8276   8.5515107638e+01   4.7665687694e+01    0.2659959    0.2109949 -61.13 0.0006948031    1.388    0.280
       437  -9.4794     51.5190     69.9595   1.0306013160e+02   5.6781692239e+01    0.4676621    0.2482314 -74.06  0.001556419    2.596    0.615
       438  -9.4881     29.8967     70.1241   1.1101598577e+02   5.8931970295e+01    0.4992551     0.255764 -16.84  0.002107833    3.612    0.723
       439  -7.2429    170.3211     71.6345   6.9371732872e+01   3.2817273032e+01    0.1665988    0.1195394 -65.96  0.000703909    1.786    0.440
       440  -8.9702     16.6130     70.2550   1.1591830237e+02   5.9902674562e+01    0.2706418    0.1730862 -89.73  0.000962601    1.653    0.395
       441  -7.6815    157.1649     70.1266   7.1698721002e+01   3.6349878703e+01    0.2199891    0.1803261 -58.50 0.0005268688    1.343    0.256
       442  -8.8056    147.1022     68.3880   7.3434826258e+01   3.9124147286e+01    0.2989757    0.2152136 -45.18 0.0005657302    1.403    0.287
       443  -9.1976    138.3763     66.0587   7.4772573487e+01   4.1643574435e+01    0.4023948    0.2090952 -44.07  0.001165345    1.942    0.485
       444  -9.8237    120.1059     65.1213   7.9227964922e+01   4.6014368508e+01    0.4254948    0.3961219  74.94  0.000614276    1.196    0.164
       445  -9.3218     95.2142     71.1222   8.8549770236e+01   4.9872344687e+01     0.362919    0.2320396 -56.68 0.0008652522    1.681    0.405
       446  -8.7967     64.3959     63.9940   9.6687905901e+01   5.6449225879e+01    0.5466976    0.2943074 -22.26  0.002004378    3.529    0.717
       447  -8.1387    250.5032     65.4876   5.4985930270e+01   1.4532045900e+01    0.1388785    0.1218604 -33.13 0.0008105421    1.009    0.009
       448  -8.1664    130.7691     64.9891   7.6336906753e+01   4.3626305101e+01     0.205761    0.1254897 -36.70 0.0003326504    1.598    0.374
       449  -8.6563     37.4445     64.4319   1.0684583786e+02   5.9548640708e+01    0.2679524    0.1750852  76.09 0.0009692392    2.300    0.565
       450  -9.0128    110.1011     63.7400   8.1598936097e+01   4.8435220484e+01    0.2974171    0.2334234 -60.94 0.0007304461    1.468    0.319
       451  -7.4750    187.4954     63.5323   6.3632771678e+01   2.9818866309e+01    0.1522859    0.1477461 -36.89 7.527957e-05    1.012    0.012
       452  -8.2768    158.2477     61.9577   6.8845758140e+01   3.7494311811e+01    0.2191136     0.194039 -33.39 0.0003789656    1.110    0.099
       453  -9.5475     97.6822     60.2069   8.4142153220e+01   5.1643193591e+01    0.4147509    0.2810608 -36.17  0.001271337    1.409    0.290
       454  -9.8528     73.4861     58.1815   9.1548156149e+01   5.6334335298e+01    0.8856549    0.2662053 -44.85  0.003035802    2.984    0.665
       455  -7.3785    164.3408     60.2676   6.7022703557e+01   3.6235934876e+01    0.1592899    0.1174579  25.91  0.000371048    1.601    0.376
       456  -8.3516     89.0172     59.5528   8.6700570106e+01   5.3407096102e+01    0.2440325    0.1792764 -61.50 0.0007308985    1.601    0.375
       457  -8.4050    146.9820     59.0234   7.0373226429e+01   4.0802552408e+01    0.1951756    0.1683195 -31.35 0.0005343715    1.140    0.123
       458  -9.9450     23.4646     56.6767   1.1039505077e+02   6.2506741461e+01    0.4548386    0.2614766  88.51   0.00217287    2.620    0.618
       459  -8.1654    130.7881     58.1378   7.3991632274e+01   4.4869769438e+01    0.2292342    0.2035685 -60.37 0.0004608602    1.235    0.191
       460  -9.4312      7.5581     57.1359   1.1688682765e+02   6.3426491182e+01    0.2925187    0.1757638  77.61  0.001079573    2.132    0.531
       461  -8.4835    140.0662     56.5619   7.1153060442e+01   4.2921753406e+01    0.2688296    0.1995164 -44.31 0.0005054243    1.369    0.269
       462  -9.4159    119.0886     55.5198   7.6168107986e+01   4.8032383777e+01    0.5185389     0.232985 -46.03  0.001399977    2.378    0.579
       463  -9.4978     54.3561     55.6636   9.7813642546e+01   5.9600447989e+01    0.3562255    0.2176857 -64.66  0.001140764    1.854    0.461
       464  -8.9133     44.1244     55.6804   1.0182467701e+02   6.0810091468e+01    0.2763948     0.169227 -68.22 0.0008674425    1.811    0.448
       465  -7.4098    215.2948     55.3020   5.6833076824e+01   2.4080543209e+01    0.1458611     0.111871  20.53 0.0002214731    1.575    0.365
       466  -8.5302    105.8150     53.1352   7.9111476532e+01   5.1354617238e+01    0.2251334    0.1955069 -59.65 0.0006739574    1.302    0.232
       467  -9.5434     92.3852     50.6392   8.2380515697e+01   5.4522510554e+01    0.4375241    0.2349144 -48.47  0.001103931    1.945    0.486
       468  -8.5099    144.5448     49.0801   6.7505009406e+01   4.3054099999e+01    0.2349531    0.1481314 -32.73 0.0004753674    1.559    0.359
       469  -7.9308    129.7878     49.3533   7.1120184094e+01   4.6622744575e+01    0.2046108    0.1894733 -54.27 0.0004416638    1.156    0.135
       470  -8.7686    120.8361     47.4687   7.2747649171e+01   4.9041720624e+01    0.2606305    0.2023943 -30.81 0.0005273562    1.253    0.202
       471  -7.7026    163.7170     47.6684   6.3005706805e+01   3.8379639770e+01    0.1574721    0.1174753  19.26 0.0004388367    1.612    0.380
       472  -8.6247    112.1955     46.7909   7.4874557252e+01   5.1111654347e+01    0.2667455    0.1875771 -44.38 0.0007828992    1.457    0.314
       473  -8.8804     81.9612     46.6133   8.4363808132e+01   5.7216036917e+01    0.2663648    0.1908334 -47.39 0.0006264942    1.391    0.281
       474  -8.1450    156.2939     46.6710   6.4145175426e+01   4.0446145808e+01    0.1584703      0.11669 -62.45 0.0002979086    1.629    0.386
       475  -8.5854    151.2917     45.0111   6.4606681033e+01   4.1980164382e+01    0.2148624    0.2074077 -14.47 0.0008264055    1.026    0.025
       476  -8.6308     44.9485     44.6870   9.7928600323e+01   6.3062294228e+01    0.2386996    0.1693154 -56.19  0.000507795    1.340    0.253
       477  -8.9360     16.7354     44.7579   1.1018899457e+02   6.5621443628e+01    0.2341578    0.1432257 -71.18 0.0008760685    1.576    0.366
       478  -8.9497    132.9986     43.5600   6.8203203972e+01   4.6785272255e+01    0.2925522    0.1988138 -47.21 0.0006226897    1.591    0.371
       479  -8.5864     92.8601     42.3110   7.9003357415e+01   5.5951460766e+01    0.2812707     0.182052  -9.28  0.001106397    2.080    0.519
       480  -8.8481     95.5590     38.2022   7.6474383168e+01   5.6115836332e+01    0.2721757     0.223636 -47.92 0.0008062436    1.331    0.248
       481  -9.2769     69.8151     41.8586   8.6911034910e+01   6.0179710508e+01     0.351155    0.2524841 -63.30  0.001099624    1.866    0.464
       482  -8.9715     58.1821     42.5793   9.1720144972e+01   6.1794502701e+01    0.2633987    0.1957227 -67.09 0.0009601433    1.764    0.433
       483  -9.3611      5.3094     42.0398   1.1459570689e+02   6.6881418252e+01    0.3191604    0.1725511 -86.25  0.001262672    2.312    0.568
       484  -8.8107    105.9868     41.4939   7.4615982849e+01   5.3370071195e+01    0.2774155    0.1924735 -47.99 0.0006254256    1.578    0.366
       485  -7.8462    140.4828     41.5470   6.5720263323e+01   4.5241955407e+01    0.1491523    0.1472899 -40.38 0.0004002328    1.054    0.051
       486  -8.6352     36.8008     40.9649   1.0013374157e+02   6.4725719429e+01    0.2190819    0.1625135 -66.41 0.0007134883    1.497    0.332
       487  -8.1553     80.7778     36.8168   8.0846097174e+01   5.9214271645e+01     0.185976    0.1579999 -51.92 0.0004129679    1.347    0.258
       488  -9.3062     26.2457     35.6302   1.0307418334e+02   6.6829779046e+01    0.2859939    0.2044099 -74.63  0.000960957    1.736    0.424
       489  -7.7036    133.4328     36.2116   6.5345026162e+01   4.7790186271e+01    0.2091147    0.1351054 -40.83 0.0005578881    1.588    0.370
       490  -8.1539    125.9804     35.7466   6.6948216424e+01   4.9682043428e+01    0.2025376    0.1897223  34.57 0.0004335922    1.054    0.051
       491  -8.4884    111.7340     35.0310   7.0382333823e+01   5.3131493076e+01    0.2348263    0.2087221  73.48 0.0005703063    1.326    0.246
       492  -8.8161    119.1970     32.6259   6.7421232480e+01   5.1761266320e+01    0.4365985    0.1838427 -33.07  0.001474507    2.283    0.562
       493  -8.1346     88.4973     34.5499   7.7243643493e+01   5.8138524093e+01    0.1408753    0.1289665 -12.96 0.0001711121    1.029    0.028
       494  -9.0261     48.4511     33.2327   9.2090319227e+01   6.4919125641e+01    0.2795662    0.2029024 -50.93 0.0007701112    1.375    0.273
       495  -8.7235     60.7559     32.4911   8.6598282529e+01   6.3332665840e+01    0.2865355    0.1723489 -47.59  0.001059668    1.657    0.396
       496  -7.9859    139.4702     32.0107   6.2404183613e+01   4.6869127386e+01    0.2272941    0.1446012 -29.35   0.00101809    1.562    0.360
       497  -8.8597     72.0582     31.2898   8.1654424437e+01   6.1715591190e+01    0.2307328    0.1816604 -54.50 0.0006615467    1.552    0.356
       498  -8.7227     12.9298     30.1818   1.0767384481e+02   6.8964479413e+01    0.2761808    0.1475059 -69.39  0.001113013    1.996    0.499
       499  -8.9214    101.5662     29.6841   7.1061188629e+01   5.6200672252e+01    0.2484735    0.1699021 -38.74 0.0007185008    1.481    0.325
       500  -8.1666     42.1772     30.1886   9.3625630185e+01   6.6276239192e+01    0.1633147    0.1414909 -55.76 0.0003340859    1.333    0.250
       501  -8.8777     81.4827     27.4553   7.6531213265e+01   6.0639912982e+01    0.2698184    0.2173037 -62.50 0.0008459662    1.717    0.417
       502  -8.8884      3.7065     27.5711   1.1151161006e+02   7.0035177312e+01    0.2680215    0.1391496 -72.32  0.001296524    1.970    0.492
       503  -8.8659     91.6760     26.2506   7.2594319781e+01   5.8805889482e+01    0.3015189    0.2125385 -50.90 0.0008565463    1.751    0.429
       504  -7.9243    145.7007     26.3151   5.8984360527e+01   4.6020290328e+01    0.1517527    0.1122272 -61.31 0.0002737356    1.611    0.379
       505  -8.2268    104.4674     22.9847   6.7325764719e+01   5.6513027638e+01    0.2102528    0.1343185 -28.19 0.0005683085    1.522    0.343
       506  -7.9056     34.4843     23.4764   9.4387942080e+01   6.8416766995e+01    0.1233441     0.103329 -35.37 1.835012e-05    1.099    0.090
       507  -9.0932     63.5062     21.0177   8.0255870823e+01   6.4849139180e+01     0.330628    0.2090265 -50.10  0.001104495    1.977    0.494
       508  -8.7590     48.3936     21.7986   8.7080434831e+01   6.7004069074e+01    0.2079289      0.18767 -48.63 0.0006463014    1.365    0.268
       509  -8.0146    120.6237     20.8584   6.2247566375e+01   5.3008390953e+01    0.2112554    0.1236138 -37.45  0.000892222    1.761    0.432
       510  -9.2480    218.7906    247.5618   9.7048190505e+01  -3.5379128596e+00    0.2873639    0.1474693 -34.44  0.001828942    2.438    0.590
       511  -8.0076     19.5377     21.5189   1.0113980352e+02   7.0215904912e+01    0.1190625   0.09588883 -41.88 0.0001321921    1.081    0.075
       512  -8.0132     87.8186     17.7897   6.9936487321e+01   6.0798217699e+01    0.1794113    0.1572941 -43.59 0.0004203626    1.327    0.247
       513  -8.2738    113.0121    248.5031   1.1484444105e+02   1.1644634469e+01    0.1843115    0.1281482  78.93 0.0007936265    1.660    0.398
       514  -7.7380    112.8042     16.8852   6.2457123053e+01   5.5366948576e+01    0.1891246    0.1648993 -51.31 0.0004245431    1.326    0.246
       515  -9.1238    103.9818    247.0865   1.1624710970e+02   1.3088989382e+01    0.3232261    0.1710895 -86.96  0.001828522    2.971    0.663
       516  -7.7710     17.0100     14.4877   9.9521296486e+01   7.1755519116e+01    0.1356936    0.0965862  52.29 0.0005508811    2.339    0.572
       517  -7.4855    119.6757     11.2881   5.8422371571e+01   5.4345884945e+01    0.1396484    0.1091543 -63.97 0.0005984716    1.607    0.378
       518  -7.5698     83.4622     11.4371   6.8256266010e+01   6.2510680585e+01    0.1351357    0.1195915   5.56 0.0001132619    1.020    0.019
       519  -9.1609    242.9720    246.6213   9.3105974788e+01  -6.7625888613e+00    0.2868379    0.1506835 -15.14  0.001702208    2.147    0.534
       520  -8.7334    232.6195    247.4112   9.4831662654e+01  -5.4384588276e+00    0.1608464     0.152303  29.15 0.0007015174    1.663    0.399
       521  -8.4160    156.2372    248.1547   1.0748323512e+02   5.4873928136e+00    0.2003982    0.1103076  55.13 0.0005360626    1.927    0.481
       522  -8.1023      7.6166     15.7984   1.0536008248e+02   7.2182696121e+01    0.1609884   0.09473491 -64.12 0.0008395237    1.730    0.422
       523 -10.0495    223.9391    244.2240   9.5763789100e+01  -3.9319487132e+00    0.3614772    0.2047264 -40.39  0.002188862    2.523    0.604
       524  -7.8198    168.6532    247.7016   1.0533491109e+02   3.7160755135e+00    0.1103594   0.07200537  21.32 0.0007035786    1.679    0.404
       525  -8.9853    147.1503    246.1226   1.0880509412e+02   7.0815986814e+00    0.2274217    0.1545971  78.71  0.001387599    2.281    0.562
       526  -9.1013    120.2519    245.4200   1.1333265662e+02   1.1065402603e+01    0.3101939     0.173179  68.12  0.001803552    2.320    0.569
       527  -8.9230    191.2253    245.9500   1.0134047460e+02   5.9583419973e-01    0.1522725     0.115214  28.44 0.0003839101    1.059    0.056
       528  -8.4090     67.7018    245.4379   1.2218604721e+02   1.8036453995e+01    0.1946808     0.103069  83.86  0.001231754    2.075    0.518
       529  -9.3731     10.6217    245.2808   1.3120795365e+02   2.4266510500e+01    0.3173827   0.06907891  63.88  0.001466318    4.032    0.752
       530  -8.8626    201.9553    242.4494   9.9102592650e+01  -5.9139851260e-01    0.2548331    0.1512326 -29.87  0.001035813    2.084    0.520
