#   1 NUMBER                 Running object number                                     
#   2 MAG_AUTO               Kron-like elliptical aperture magnitude                    [mag]
#   3 X_IMAGE                Object position along x                                    [pixel]
#   4 Y_IMAGE                Object position along y                                    [pixel]
#   5 X_WORLD                Barycenter position along world x axis                     [deg]
#   6 Y_WORLD                Barycenter position along world y axis                     [deg]
#   7 A_WORLD                Profile RMS along major axis (world units)                 [deg]
#   8 B_WORLD                Profile RMS along minor axis (world units)                 [deg]
#   9 THETA_WORLD            Position angle (CCW/world-x)                               [deg]
#  10 FWHM_WORLD             FWHM assuming a gaussian core                              [deg]
#  11 ELONGATION             A_IMAGE/B_IMAGE                                           
#  12 ELLIPTICITY            1 - B_IMAGE/A_IMAGE                                       
         1 -10.1152     39.0261      8.5386   6.8487802644e+01   6.9244620618e+01    0.5211267    0.2892921  -1.17  0.002768496    2.085    0.520
         2 -10.7658     50.6541     37.4010   7.6617239993e+01   6.3582268179e+01    0.7430672    0.5720101 -65.59  0.004031044    2.328    0.571
         3 -12.1106     44.8277     22.6708   7.2731362628e+01   6.6614341782e+01     1.037181    0.8471705 -46.72  0.006239844    1.747    0.428
         4 -11.1556    108.7181      4.8784   4.5074935633e+01   5.5940430355e+01    0.8510323    0.3456469  61.27  0.003844623    2.059    0.514
         5 -10.7398    120.9343      4.1961   4.2517641969e+01   5.3161442582e+01    0.5921665    0.4194696  69.26  0.002444713    1.278    0.218
         6 -10.8522    131.2397      3.7072   4.0628506106e+01   5.0763854447e+01    0.8481484    0.2666438  61.24  0.003354869    2.429    0.588
         7 -11.5098    143.6489      3.9805   3.8861040382e+01   4.7774201009e+01     0.760524    0.4745925  72.84   0.00417131    1.411    0.291
         8 -11.6154    156.6207     20.3753   4.1873914348e+01   4.3106053495e+01    0.9539379     0.405842  50.22  0.004095937    2.272    0.560
         9 -13.6857    165.9000     10.3847   3.7784997907e+01   4.1851864933e+01     2.486276     1.693722  72.50   0.01421245    1.281    0.219
        10 -10.7826     78.1796     14.0522   5.6420437338e+01   6.1744809868e+01    0.5896111    0.3659009  10.55  0.003043749    1.829    0.453
        11  -9.9916    116.1476     16.1251   4.7614720982e+01   5.3241155787e+01    0.6742764    0.2883001 -36.58  0.002972141    2.584    0.613
        12 -10.9530    128.0304     18.0520   4.5922724301e+01   5.0253368376e+01    0.6588725     0.296925  47.86  0.002938244    2.015    0.504
        13 -10.2217    129.4648     13.0166   4.3981596092e+01   5.0390737720e+01    0.3929205    0.3076087  55.45  0.002021779    1.114    0.103
        14 -10.4322     71.4033      5.5360   5.4752061199e+01   6.3892257324e+01    0.5090634    0.3238117  47.32  0.002374551    1.359    0.264
        15  -9.3060     70.3258     15.0471   5.9367939654e+01   6.3183382313e+01     0.317576    0.1449859 -30.45  0.001532517    2.305    0.566
        16  -9.4327     20.6019     14.0611   8.0431505992e+01   7.0936455997e+01    0.4500725    0.2058707 -21.54  0.002219225    2.430    0.589
        17  -9.4175    104.4993     12.5827   4.8856819321e+01   5.6243589797e+01    0.3461959    0.2615233 -15.56  0.002056013    1.470    0.320
        18 -10.3235    250.2273      9.5351   3.0090584469e+01   2.3196081732e+01     0.380295    0.1154481 -36.48  0.001781342    2.763    0.638
        19  -9.9353     61.0246     10.1347   6.0351628027e+01   6.5424504001e+01    0.3044218    0.2226174 -67.36  0.001571551    2.971    0.663
        20 -11.5593     84.0837      3.8429   5.0375172421e+01   6.1449235837e+01    0.8548306    0.3929289  56.62  0.003304006    1.887    0.470
        21 -10.1380    222.7390      4.3951   3.0930297677e+01   2.9393783418e+01    0.3284458    0.1993788 -48.20  0.002002058    1.465    0.318
        22 -10.0604    203.9663      4.0006   3.2309491275e+01   3.3560436039e+01    0.3570657      0.14197  67.15  0.001709067    2.201    0.546
        23 -10.0877     60.4253      2.6696   5.7012641247e+01   6.6239350856e+01    0.5210872    0.2673776  35.37  0.002818025    1.674    0.403
        24  -9.0443     17.6234      2.7750   7.6223074491e+01   7.2765255985e+01     0.297206    0.1744601 -46.62  0.001669896    2.750    0.636
        25 -10.2686     76.6702     23.9161   6.1105506679e+01   6.0964726739e+01    0.7245259    0.3511667 -10.95  0.002972024    3.055    0.673
        26  -9.2206    208.6817      4.1881   3.1964313576e+01   3.2486646512e+01    0.2203267    0.1565415 -43.51 0.0008637388    1.392    0.281
        27  -8.4957     52.2611      1.7578   5.9522042962e+01   6.7788898049e+01    0.2537427    0.1279539  39.35  0.001392468    1.653    0.395
        28  -8.1872     71.2657     80.3629   8.3832133504e+01   5.2423146914e+01    0.1500246    0.1031128 -20.98 0.0004523365    1.645    0.392
        29 -10.2449     25.1928     65.4115   9.7471436487e+01   6.1275603969e+01    0.6233035    0.2326063 -43.25   0.00266849    2.230    0.552
        30  -9.7649     74.5866     69.2423   7.9098529003e+01   5.4149759486e+01    0.4177788    0.3024304  47.97  0.002126385    1.607    0.378
        31  -9.1733     83.7702     68.8423   7.5768820530e+01   5.2611227523e+01    0.3352762    0.2710729  42.92  0.001638287    1.313    0.239
        32  -9.1850     45.4486     63.6657   8.8444091214e+01   5.9520805062e+01    0.3800257    0.1899801 -37.53  0.001763163    1.860    0.462
        33  -8.9700     76.6324     59.4946   7.5018206187e+01   5.5629910854e+01    0.2523519    0.1783154 -66.57   0.00115697    2.344    0.573
        34  -9.1975     15.7510     59.1696   9.9834299928e+01   6.3337050277e+01    0.2440061    0.1589545  -8.19  0.001425765    1.623    0.384
        35 -10.1039    196.9179     56.7682   4.5907018204e+01   2.8795616440e+01    0.4072441    0.2745585  56.04  0.001172596    1.521    0.342
        36  -9.1203     66.3964     54.2962   7.6887984626e+01   5.8300773720e+01    0.3931011    0.1573284 -48.15  0.001500676    2.922    0.658
        37  -8.5496     35.1447     52.8419   8.9223428104e+01   6.2851090145e+01    0.1820087    0.1701517 -16.92 0.0009124146    1.218    0.179
        38  -8.0180     23.8084     52.5982   9.4233016483e+01   6.4024075370e+01    0.1513464    0.1125549  27.84 0.0005801245    1.556    0.357
        39  -9.9347     84.9738     48.4212   6.8110878743e+01   5.5954350778e+01    0.7791729    0.3815936  52.27  0.003272665    2.351    0.575
        40  -9.7293     86.3512     31.5748   6.1156241088e+01   5.8091249904e+01    0.3164644    0.2468156  -3.33  0.001365102    1.307    0.235
        41 -10.1272     90.5928     28.8186   5.8784296883e+01   5.7559571175e+01    0.3603675    0.3107233 -18.63  0.002203224    1.221    0.181
        42 -10.3684     82.1756     40.0285   6.5830403374e+01   5.7768907242e+01     0.715712    0.3175797 -33.53  0.003086622    2.306    0.566
        43 -10.5621      3.1513     40.6386   1.0033678819e+02   6.7868931035e+01    0.4309672    0.3687057 -64.72  0.002818268    1.440    0.306
        44 -10.5785    183.5966     40.4067   4.3556372288e+01   3.4210811292e+01    0.4320402    0.3314835  57.22  0.002418602    1.306    0.234
        45 -10.3796    201.7489    223.4850   8.2305570811e+01  -1.7980320993e+00    0.2558059    0.1597842 -51.33  0.001312536    2.219    0.549
        46 -10.5502    208.3789    217.0998   7.9894684777e+01  -1.7985497436e+00    0.2606726    0.1823069  34.86  0.001497431    1.416    0.294
        47 -10.9285     39.6591     29.6303   7.8165418843e+01   6.6332760536e+01    0.5163249    0.3174147 -37.89  0.002534675    1.596    0.373
        48 -11.4612     10.4460    142.1954   1.1631959193e+02   4.4212770270e+01    0.5564553    0.4026038  74.00   0.00335681    1.374    0.272
        49  -9.1390     43.9060     38.8209   8.0104103204e+01   6.4301387883e+01    0.2928938    0.1597732  38.20    0.0015027    2.007    0.502
        50  -8.6985     66.7193     35.6233   6.9497422365e+01   6.1262879948e+01    0.2314773    0.1646309  45.16  0.001288719    1.512    0.339
        51  -9.3546     12.2309     33.8670   9.3393252025e+01   6.8521627090e+01    0.3229291    0.1676541 -45.49  0.001458611    1.597    0.374
        52  -9.1597     97.4311     36.7155   5.9847216381e+01   5.5107158490e+01    0.2547254    0.1264514 -35.85  0.001134244    2.132    0.531
        53  -9.6903    225.3248     28.6996   3.5956143990e+01   2.6128128159e+01    0.3891827    0.2270107  72.86  0.002157655    1.661    0.398
        54  -9.6204     66.6586     29.4830   6.6951957958e+01   6.2131479816e+01    0.2905988    0.1807425  -9.12  0.001487952    1.824    0.452
        55  -8.6251     53.8888    143.3476   1.0408310919e+02   3.9728069445e+01     0.254278    0.1833299 -77.17  0.001115269    1.357    0.263
        56  -8.7177     41.5585    142.3229   1.0751149024e+02   4.1400016590e+01    0.2501444    0.1815424  22.30  0.001351643    1.620    0.383
        57  -8.1601     24.2243    141.3972   1.1237013417e+02   4.3312677134e+01    0.1775646    0.1121045  43.34 0.0009464992    1.720    0.419
        58 -12.8117    241.0170    130.1607   5.6515711053e+01   7.4723715100e+00     1.381786     1.002878 -52.65  0.007487997    1.442    0.307
        59 -10.5379     17.3443    127.0071   1.1249579501e+02   4.7436028169e+01    0.3259684    0.1947422  48.77  0.001717037    1.916    0.478
        60  -8.8106    188.4907    117.4893   6.2736382650e+01   2.0262745062e+01    0.1506603    0.1423396 -26.69 -3.555038e-05    1.040    0.039
        61 -11.5499    249.8358    127.3994   5.4613155879e+01   6.3846356998e+00    0.9934446    0.2696952 -41.37  0.003543133    3.071    0.674
        62  -8.8842    132.4814     26.6837   4.7936173010e+01   4.8283030216e+01    0.2877534    0.1739971  40.34  0.001065844    1.700    0.412
        63  -8.5297    102.9300     26.1876   5.4376941202e+01   5.5203411068e+01     0.235105    0.1272834  35.60  0.001083372    1.897    0.473
        64  -8.1151     11.2920     23.3197   8.9725314586e+01   7.0415324185e+01    0.1226971   0.06851549 -21.93 0.0006984978    1.605    0.377
        65  -8.6278     94.4881    111.4729   8.4890757902e+01   4.1498805204e+01    0.1512843    0.1464917 -52.52 1.576381e-05    1.050    0.047
        66  -8.7606    111.4983     16.4993   4.8743821845e+01   5.4280894300e+01    0.2733914    0.1144377  59.07 0.0007812852    2.073    0.518
        67  -8.6797     97.7334     27.4390   5.6227244442e+01   5.6200790677e+01    0.2361469    0.1576181  10.20  0.001082509    1.787    0.440
        68 -10.1164    135.0082     19.2887   4.5050129660e+01   4.8458782333e+01    0.2430033    0.1770657  27.60  0.001327378    1.567    0.362
        69  -9.3709     22.0089    109.0033   1.0827501266e+02   5.1495570104e+01    0.2086548     0.173511 -88.47  0.001274238    1.257    0.205
        70  -9.1615     69.5908    105.8030   9.1442734562e+01   4.6929042684e+01    0.2116621    0.1365706 -64.78 0.0009539744    1.701    0.412
        71  -9.4030     17.1381    104.5668   1.0917008991e+02   5.2934023523e+01    0.3773989    0.2059629 -58.03  0.001963692    1.463    0.316
        72  -9.8584     46.9741    100.9000   9.8035994691e+01   5.1064813036e+01    0.4699443     0.179931 -60.30  0.001799858    2.445    0.591
        73  -9.8534     64.3076     16.0895   6.1920447692e+01   6.4195689720e+01    0.2306281    0.1711648  45.39 0.0006925578    1.358    0.264
        74  -9.3437     30.1356    102.1215   1.0422147680e+02   5.2482786558e+01    0.3134333    0.1421223 -46.98  0.001017928    1.928    0.481
        75  -8.9784    228.5127     15.4727   3.2831975148e+01   2.6981839981e+01    0.1835821    0.1006219  89.72 0.0009937572    1.774    0.436
        76  -8.2684     64.0000     98.9544   9.1612494840e+01   4.9351505760e+01    0.2440655   0.07662631 -54.26 0.0008023033    2.942    0.660
        77 -12.1236     42.7559     81.1951   9.4696864797e+01   5.6101075084e+01     1.084378    0.7813605 -19.34  0.005463133    1.459    0.315
        78  -7.9964     83.6653     89.3005   8.2240751575e+01   4.8438724055e+01    0.1442422    0.1194341  80.31 0.0004484777    1.656    0.396
        79  -9.3116     94.1192     17.2241   5.3204398072e+01   5.8095783936e+01    0.3744723    0.2280234  73.20  0.001795119    2.235    0.553
        80  -8.6935    101.0000     84.0008   7.5074927140e+01   4.6319356946e+01    0.2527538   0.08395702 -43.62 0.0008063008    2.969    0.663
        81  -8.7713    144.4951     80.7841   6.2319164055e+01   3.7371449927e+01    0.2896248     0.219035  49.83  0.001395545    1.309    0.236
        82  -9.8264      2.4357     87.6139   1.1150178842e+02   5.7829511470e+01    0.5246966    0.1940526 -68.67  0.002356695    2.232    0.552
        83  -9.5234      9.4810     80.0859   1.0743689671e+02   5.9173739896e+01    0.2870063    0.1956095 -56.62  0.001175765    1.175    0.149
        84 -10.8642      4.4366     76.1377   1.0862676319e+02   6.0345562008e+01      0.48706    0.4347942  13.29  0.002414964    1.357    0.263
        85 -11.8386     14.3934     73.1016   1.0395818991e+02   6.0432486954e+01    0.8310905    0.6679429  30.95   0.00537202    1.516    0.340
        86  -9.0737    227.3593     79.3450   4.7153217748e+01   1.8582988494e+01    0.2529265     0.206486   8.09  0.001401281    1.719    0.418
