#   1 NUMBER                 Running object number                                     
#   2 MAG_AUTO               Kron-like elliptical aperture magnitude                    [mag]
#   3 X_IMAGE                Object position along x                                    [pixel]
#   4 Y_IMAGE                Object position along y                                    [pixel]
#   5 X_WORLD                Barycenter position along world x axis                     [deg]
#   6 Y_WORLD                Barycenter position along world y axis                     [deg]
#   7 A_WORLD                Profile RMS along major axis (world units)                 [deg]
#   8 B_WORLD                Profile RMS along minor axis (world units)                 [deg]
#   9 THETA_WORLD            Position angle (CCW/world-x)                               [deg]
#  10 FWHM_WORLD             FWHM assuming a gaussian core                              [deg]
#  11 ELONGATION             A_IMAGE/B_IMAGE                                           
#  12 ELLIPTICITY            1 - B_IMAGE/A_IMAGE                                       
         1 -14.2936    154.7528     88.0364   7.0997058497e+01   3.3449779853e+01     5.027303     2.002198  47.61   0.01786449    2.617    0.618
         2 -14.2223     54.3061     92.8282   1.0138825067e+02   5.1775537575e+01     2.142078     1.522067 -74.50  0.006938235    1.348    0.258
         3 -15.4394     41.1347    143.4201   1.1344796953e+02   4.0806726763e+01     3.504037     1.887219 -82.33   0.01749517    1.769    0.435
         4 -13.0382     40.3581     49.5803   9.5074415178e+01   6.4115528199e+01     1.303744    0.6135405 -51.12  0.004565572    1.812    0.448
         5 -13.4722     41.8857     33.7537   8.7916262288e+01   6.7390640488e+01     1.457822     1.077265 -77.51  0.005567883    1.942    0.485
         6 -12.2249    243.0103     44.7191   4.6048718077e+01   2.0089938066e+01    0.9816222    0.6291637 -59.75   0.00411508    1.666    0.400
         7 -11.8371    239.1795     34.5973   4.3821980342e+01   2.2047834947e+01    0.8741918    0.4119517 -67.93  0.003698593    2.962    0.662
         8 -11.2513    200.6613      9.8111   4.0148506663e+01   3.3408403360e+01    0.5942345    0.4109185 -15.25  0.002675462    1.522    0.343
         9 -13.1476    206.2507     23.7592   4.3735406818e+01   3.0611798994e+01     1.331777     0.760601 -43.10  0.004232515    1.528    0.345
        10 -12.2583    225.3120     15.3879   3.9877733349e+01   2.7120888174e+01    0.7210594    0.5592706 -25.44  0.003537595    1.219    0.180
        11 -11.2900    245.9274      8.9685   3.6964823528e+01   2.3344303155e+01    0.7076194    0.2484412 -41.56  0.003259153    2.090    0.522
        12 -10.7373    250.4529      6.8026   3.6203554162e+01   2.2630725476e+01    0.7430053    0.1765623 -23.43  0.002674717    3.680    0.728
        13 -12.1417     43.6420      7.3851   7.2126035173e+01   7.1851666758e+01    0.6482639    0.3939308  41.59  0.003262675    1.722    0.419
        14 -10.0024     69.8503    188.3456   1.1099040548e+02   2.7488025909e+01    0.4477993    0.1839142  54.53  0.002022406    2.466    0.595
        15 -14.2201    212.6935    212.1991   8.6134811141e+01   3.2835199358e+00      1.52136    0.7044931 -35.08  0.007117418    2.323    0.569
        16 -14.8723    202.1333    237.3017   9.1434866044e+01   1.8611471890e+00     1.496487    0.9951451  28.63  0.006786718    1.194    0.163
        17 -14.7177    199.7538    213.0461   8.8411065506e+01   4.9342003700e+00     1.751553     0.973699 -41.06  0.008786011    2.184    0.542
        18 -13.0806     32.3328    175.2047   1.1845536492e+02   3.4539251500e+01     1.518402    0.5904087  26.32  0.005267178    2.896    0.655
        19 -13.2818     65.2184    240.3269   1.1603039036e+02   1.8777306974e+01     0.778897    0.5483918  34.70  0.003963507    1.320    0.242
        20 -13.1530      5.6076    203.9107   1.2564930564e+02   3.1216340861e+01    0.7918298    0.4182764  58.56  0.003491469    1.399    0.285
        21 -14.2662     16.8000    191.0727   1.2284082969e+02   3.2738462354e+01     1.592244     0.683783  75.03  0.008484538    2.152    0.535
        22 -13.2452      2.4650    186.4125   1.2570955422e+02   3.4915700498e+01    0.9949713     0.281018 -85.64  0.004489319    3.214    0.689
        23 -14.2391     31.4662    192.5873   1.1977327656e+02   3.1021801706e+01     1.509283    0.9250784  80.58   0.00955835    1.466    0.318
        24 -15.6038     26.6229    235.4533   1.2281209070e+02   2.3649463111e+01     1.698841    0.7214329  63.88   0.01042152    1.990    0.498
        25 -15.4457     40.3003    227.4735   1.1992315797e+02   2.3618388655e+01      1.72287    0.6410359  53.18  0.009589386    2.079    0.519
        26 -12.7528    215.9756    160.4073   7.6594286759e+01   9.3786022813e+00    0.8292998    0.7825697  34.57  0.003009793    1.361    0.265
        27 -14.1910    142.2659    112.3607   8.0403107898e+01   3.1435138757e+01     3.934214     1.905735  58.26   0.01415569    2.826    0.646
        28 -14.7132    160.2823    232.4608   9.7906475169e+01   7.8685225614e+00     1.332957     1.002211 -49.31  0.007082493    1.758    0.431
        29 -15.0979     75.5896    114.6876   9.9020507618e+01   4.3297778564e+01     4.118851     1.875566  35.45    0.0167465    2.329    0.571
        30 -14.2432     75.4668    175.8469   1.0838387400e+02   2.9305489946e+01     1.702777    0.9946263  29.81  0.008935256    1.818    0.450
        31 -13.9866     73.1252    158.1663   1.0679394051e+02   3.3436349006e+01     1.953955    0.9378275  55.04  0.008704964    2.206    0.547
        32 -12.8852    245.6471    170.1728   7.3821047565e+01   3.6579543639e+00    0.8160611    0.6733842  -9.39  0.003767754    1.161    0.139
        33 -12.4235    229.8972    160.0808   7.4290737911e+01   7.2289539208e+00    0.8342402    0.6773122  67.38  0.005122605    2.125    0.530
        34 -11.2824    138.8965    175.3355   9.4027242421e+01   1.9810645343e+01    0.7088606    0.3755849 -56.26  0.002621186    2.284    0.562
        35 -13.5472     83.4331    242.8112   1.1287500434e+02   1.6276691461e+01     1.279195    0.5357904  53.05  0.007168215    2.188    0.543
        36 -11.5627    115.9203    169.5005   9.8146660466e+01   2.4629422993e+01    0.6728788    0.5422066  89.89  0.002810761    1.448    0.310
        37 -13.7972      6.1543    156.7749   1.2362740684e+02   4.0956681636e+01     1.238042    0.6006961  89.01  0.004653688    1.753    0.429
        38 -13.5680    161.5383    144.7484   8.3556057716e+01   2.1396757644e+01     2.180673     1.464111 -48.80  0.009649679    1.605    0.377
        39 -12.7514    146.2666    148.6440   8.7622386224e+01   2.3486169872e+01     1.047501    0.8925378  85.32   0.00461425    1.472    0.321
        40  -9.9567      2.9593    247.7240   1.2730283107e+02   2.3832269482e+01    0.2151748    0.1769986 -85.76  0.001074666    1.522    0.343
        41 -10.0600     22.4763    165.9110   1.2016663033e+02   3.7523373900e+01    0.3871461    0.1548105  48.61   0.00159705    2.073    0.518
        42 -13.8358    126.1714    132.6210   8.8978005044e+01   3.0417294311e+01     1.768861     1.309047 -38.67  0.006496944    1.435    0.303
        43 -10.6236    224.3683    151.2379   7.3406702765e+01   9.2789273797e+00    0.3200248    0.2481438   5.52  0.001900254    1.184    0.155
        44 -12.6569    196.5468    114.2463   6.9859496184e+01   1.9845636088e+01       1.1503    0.9522455  86.79  0.005544193    1.693    0.409
        45 -12.7035    178.8564    115.8732   7.3499284984e+01   2.3161379586e+01     1.524951    0.5270064 -43.57   0.00528539    2.934    0.659
        46 -11.1123    224.3490    121.6466   6.7066845423e+01   1.3424550938e+01    0.8015557    0.2531888 -33.70  0.003075107    2.743    0.635
        47 -13.0335    230.5840    132.9203   6.8612514041e+01   1.0753727659e+01     1.016954    0.8843503   2.13  0.005069201    1.092    0.084
        48 -12.6978    237.0317    120.0880   6.4858101386e+01   1.1399829352e+01    0.9482267     0.816532 -74.79  0.005204989    1.726    0.421
        49 -13.9993    188.9780    134.4732   7.5922716733e+01   1.8013742416e+01     2.114548     1.351133 -53.70   0.00730672    2.037    0.509
        50 -10.6756     51.5594    124.3611   1.0801878079e+02   4.4227341249e+01    0.3652666    0.3271041 -55.09  0.001607279    1.235    0.191
        51 -10.0404     93.1446     95.5864   8.9186150869e+01   4.4912743979e+01    0.4015392    0.3179508  79.16  0.001936166    1.489    0.329
        52 -13.6258    181.7058     88.0474   6.5716946318e+01   2.7326422642e+01      1.76471     0.945111 -32.73  0.005871442    1.749    0.428
        53 -12.2329    199.3466     87.8572   6.2686237036e+01   2.3469316620e+01     1.272438    0.6249052 -50.98  0.004981222    2.514    0.602
        54 -14.8176     78.7623    140.3639   1.0273756023e+02   3.6691577198e+01     2.341146     1.742298  70.76   0.01069559    1.389    0.280
        55 -10.1187    249.3566     86.4524   5.5551003724e+01   1.3670554081e+01    0.2736183    0.1354944 -31.55  0.001356842    1.615    0.381
        56 -14.0105    111.8474    134.5286   9.2947401485e+01   3.2617915758e+01     2.115595     1.768403 -52.20   0.01137305    1.209    0.173
        57 -10.3629     25.0645     83.1897   1.1042875201e+02   5.7441644237e+01    0.5352134    0.1632814 -55.52  0.001867702    2.665    0.625
        58 -10.6890    210.4463     80.6369   5.9097577688e+01   2.2175180610e+01    0.4957552     0.345394  53.03  0.002580315    1.600    0.375
        59 -10.5995     10.2402     79.4637   1.1575669900e+02   5.9509994170e+01    0.5348318    0.2967494  85.46  0.002672583    1.786    0.440
        60 -10.3103     89.3002    229.2044   1.1070540832e+02   1.7679517810e+01    0.1988629    0.1718955  74.36 0.0004297036    1.230    0.187
        61 -11.2350     63.5948     70.1485   9.1983719445e+01   5.5999126774e+01    0.5438028    0.3947665   1.08  0.002561786    2.011    0.503
        62 -11.8272     12.6480     67.6538   1.1284348860e+02   6.2336218586e+01    0.6872265    0.3385952 -57.49  0.002445859    1.668    0.401
        63 -13.2711     12.6515     57.1917   1.1077783305e+02   6.4947361340e+01     1.100416    0.7034335  85.39  0.004057156    1.709    0.415
        64 -12.5986     22.3381     57.1926   1.0608570992e+02   6.4203248127e+01    0.8691208    0.4488984 -62.54  0.003139301    1.587    0.370
        65 -11.7329    186.1758     68.6507   5.9450469207e+01   2.9425155725e+01    0.6161435    0.4666938  62.51  0.003040843    1.451    0.311
        66 -13.0775    215.4736    179.0649   8.0174856681e+01   6.9559823126e+00     1.026354    0.9055739 -20.25  0.005010201    1.285    0.222
        67 -11.4473    136.6214    223.4258   1.0113435535e+02   1.2321588114e+01    0.3617529    0.2349645  14.31  0.001806267    1.897    0.473
        68  -9.4877     82.9539    225.0651   1.1157754035e+02   1.9141886535e+01    0.1611461     0.132871   2.35  0.001135622    1.716    0.417
        69 -12.3731    132.7905    210.0366   1.0024459098e+02   1.4889959526e+01     0.750001    0.6019199 -65.68  0.003690494    1.567    0.362
        70 -12.4124    201.0220     38.9610   4.8694481371e+01   3.0059570044e+01    0.9350337    0.6387362  32.10  0.004564743    1.880    0.468
        71 -11.3863    127.7493    212.8270   1.0157323247e+02   1.5167230323e+01    0.4564866    0.3389825 -47.57  0.002414906    1.613    0.380
        72 -12.7597    154.3984    200.3424   9.4728921146e+01   1.3222837554e+01    0.6891077    0.6323835  66.17  0.002786317    1.340    0.254
        73 -11.2805    215.7717     24.9003   4.3209797790e+01   2.8265873155e+01    0.3866951    0.2762162  10.25   0.00111489    1.838    0.456
        74 -11.6576     27.4980     37.3259   9.7115523755e+01   6.8407523359e+01    0.6417407    0.2686716 -58.82  0.002760482    2.139    0.532
        75 -10.6341    128.3163     28.4471   5.6082701949e+01   4.9858792495e+01     0.417176    0.2864742 -16.10   0.00193824    1.573    0.364
        76 -13.1212    147.1914    198.8627   9.5918836202e+01   1.4537302751e+01     1.019168    0.7427257 -53.20  0.005299258    1.655    0.396
        77  -9.9651     85.6735    209.9057   1.0969190703e+02   2.1391845344e+01    0.3063976    0.1602579  36.70  0.001201408    1.626    0.385
        78  -9.5258     90.9733    208.9738   1.0851783698e+02   2.0863651643e+01     0.223807    0.1824007  65.79 0.0009173169    1.172    0.147
