#   1 NUMBER                 Running object number                                     
#   2 MAG_AUTO               Kron-like elliptical aperture magnitude                    [mag]
#   3 X_IMAGE                Object position along x                                    [pixel]
#   4 Y_IMAGE                Object position along y                                    [pixel]
#   5 X_WORLD                Barycenter position along world x axis                     [deg]
#   6 Y_WORLD                Barycenter position along world y axis                     [deg]
#   7 A_WORLD                Profile RMS along major axis (world units)                 [deg]
#   8 B_WORLD                Profile RMS along minor axis (world units)                 [deg]
#   9 THETA_WORLD            Position angle (CCW/world-x)                               [deg]
#  10 FWHM_WORLD             FWHM assuming a gaussian core                              [deg]
#  11 ELONGATION             A_IMAGE/B_IMAGE                                           
#  12 ELLIPTICITY            1 - B_IMAGE/A_IMAGE                                       
         1 -13.9439    186.7267     46.4649   5.1098499820e+01   3.2646290672e+01     1.330865    0.9815434  30.86 0.0008338359    1.690    0.408
         2 -14.2344    196.8040     38.4796   4.7408749266e+01   3.1241674449e+01     1.543498     1.228158 -24.57  0.003655036    1.373    0.272
         3 -14.7755    206.9262     27.8820   4.3317907967e+01   3.0122431936e+01     1.975136     1.440185  24.86  0.001989023    1.944    0.486
         4  -9.8332     62.5287      8.4818   6.6113771401e+01   6.5613448801e+01    0.1251131    0.1031121  10.15 0.0001233847    1.026    0.025
         5 -13.1481    231.1346      3.6071   3.5156562035e+01   2.7220976012e+01    0.8300813    0.4096243  75.57  0.004285316    1.905    0.475
         6 -11.2167     58.6280      2.9008   6.4747415413e+01   6.6872216588e+01    0.2329337    0.1736904  42.95  0.001352334    1.390    0.280
         7 -14.5524     47.4913    222.1121   1.2015415007e+02   2.2313202098e+01     2.059588     1.364125  45.29    0.0074538    1.407    0.289
         8 -12.2044    139.3047    248.3514   1.0534475976e+02   4.5254209930e+00    0.4319557    0.3722671 -54.07  0.003057248    1.423    0.297
         9 -13.7934     73.4245    172.6920   1.0941544393e+02   2.9660812259e+01     2.170012     1.075757 -31.80  0.005741901    7.847    0.873
        10 -14.6601     86.3261    224.5415   1.1286151608e+02   1.6701764569e+01     2.995477       1.3417  45.26  0.004027135    1.882    0.469
        11 -13.9061     19.3978    192.3792   1.2337948801e+02   3.1571834331e+01    0.9363461    0.7067657  78.94  0.003947021    1.028    0.027
        12 -13.8789     72.2823    156.3216   1.0728507404e+02   3.3704413679e+01    0.6044152    0.5929614 -16.33  0.002996875    1.244    0.196
        13 -16.0531     68.3598    144.1222   1.0632758926e+02   3.7211037036e+01     18.90068     9.891533  83.63    0.0515774    3.594    0.722
        14 -15.9854     52.6299    197.4847   1.1697785737e+02   2.6805131733e+01     8.822444     5.097645 -87.83   0.02049349    1.686    0.407
        15 -10.1361    204.3624    176.2736   8.0572545710e+01   5.5495044828e+00     0.313062    0.2286399 -48.34  0.001332006    1.568    0.362
        16  -9.8030    197.2783    176.5320   8.2029463417e+01   6.8206368015e+00    0.2635865    0.2378268  47.34  0.001517755    1.247    0.198
        17  -9.9854    188.1477    174.6101   8.3490676814e+01   8.8960606584e+00    0.2623156    0.2011831 -56.48 0.0009657707    1.587    0.370
        18 -10.0201    151.8145    196.3137   9.5283283463e+01   1.1541326274e+01    0.2238355     0.194756 -68.99 0.0009884636    1.323    0.244
        19 -10.6601     44.8838    169.6934   1.1577304302e+02   3.4000960106e+01    0.2804041    0.1837688 -62.70 0.0005886392    1.433    0.302
        20 -11.7950    207.9015    194.8171   8.3555861488e+01   1.7899605710e+00    0.4896982    0.2426852 -30.00  0.001688657    2.195    0.544
        21  -9.7174    186.8489    165.3520   8.1825722177e+01   1.0889554676e+01    0.2487997    0.1662735 -34.57  0.001096302    1.505    0.336
        22 -11.1452     32.8719    165.6286   1.1813132849e+02   3.6250781604e+01    0.3450751    0.1894125 -82.25  0.001091898    1.619    0.382
        23  -9.6910     81.8556    194.8728   1.1040483295e+02   2.3446308192e+01    0.1884374    0.1823453 -87.10  0.001233581    1.218    0.179
        24 -10.0300    229.9943    165.7500   7.3555327514e+01   2.6785703320e+00    0.1686809    0.1142202  38.38 0.0003787511    1.535    0.349
        25 -10.4330     50.9089    163.8367   1.1364589089e+02   3.4676722400e+01    0.3590611    0.1868404 -45.32  0.001638032    2.443    0.591
        26 -10.9090    158.7071    161.7296   8.7168502261e+01   1.7211952840e+01    0.4393397     0.320377 -85.37  0.001094162    2.118    0.528
        27 -12.3370     90.5928    154.1146   1.0224085763e+02   3.1489448770e+01    0.6680269    0.4745603 -27.47  0.003148544    1.999    0.500
        28 -11.3671    133.6629    144.4485   8.9359727878e+01   2.6000492458e+01     1.203984     0.291609 -53.59   0.00284579    5.586    0.821
        29 -10.8053    174.3966    148.5994   8.0790145135e+01   1.6723696580e+01    0.3887959    0.2918664 -52.51  0.001432218    1.428    0.300
        30  -9.2699    112.5136    150.5281   9.5960508949e+01   2.8611429523e+01    0.1477422    0.1418407 -82.46 8.849677e-05    1.008    0.008
        31 -10.7761    143.9166    145.8164   8.7161703207e+01   2.3630633886e+01     0.292245    0.2377024 -65.14  0.001430626    1.347    0.257
        32 -10.3646     84.8667    144.1840   1.0193392422e+02   3.4787002450e+01    0.2341798    0.2107663 -89.26 0.0003411625    1.067    0.063
        33 -11.1340    103.8909    139.4612   9.5930307470e+01   3.2775200991e+01    0.5789233    0.3664416 -27.77   0.00236077    2.340    0.573
        34 -12.4446     91.2850    139.5456   9.9322317261e+01   3.4893018202e+01    0.2847905    0.2564779 -48.05 0.0004867064    1.139    0.122
        35 -10.6695    105.9632    130.7500   9.3481459958e+01   3.4487416850e+01    0.3607497    0.3099585 -75.84  0.001346649    1.207    0.171
        36 -10.6693    112.6462    130.0064   9.1509199966e+01   3.3430893424e+01    0.3678992     0.302864  -5.46 0.0008790891    1.549    0.355
        37 -11.5233    135.6230    127.1030   8.4816590161e+01   2.9537721298e+01    0.7988781    0.1919841 -49.00  0.002057936    4.334    0.769
        38 -10.4647    160.6386    127.7586   7.8918014523e+01   2.4025565500e+01    0.3474889    0.2769768 -55.84   0.00163898    1.325    0.245
        39 -11.0768     99.8061    126.1288   9.4127600987e+01   3.6691220344e+01    0.3234657    0.2602216 -18.33  0.001589499    1.550    0.355
        40  -9.1705     95.2072    127.2398   9.5659141341e+01   3.7219478465e+01    0.1975744    0.1666377 -89.35 0.0003752628    1.297    0.229
        41 -11.4399    119.1454    123.2760   8.8167350375e+01   3.3757537856e+01    0.6241904    0.3981581  -9.28  0.002154448    3.259    0.693
        42 -15.5172      9.3088    206.5909   1.2624205066e+02   2.9540166035e+01    0.8906174    0.6357806  30.70  0.006268855    1.808    0.447
        43 -10.0103    108.5023    119.0904   9.0043292792e+01   3.6783061184e+01     0.233277    0.2095311  42.08  0.001219365    1.170    0.145
        44  -9.9248    168.0827    113.0349   7.3445664387e+01   2.5434384960e+01    0.3791931    0.2592461 -78.76  0.001464724    2.409    0.585
        45 -10.4436    134.6289    106.0011   7.9576855736e+01   3.4441951874e+01    0.5961404     0.144352 -43.87  0.001570224    4.003    0.750
        46 -11.7119    117.8008    109.2586   8.4951339111e+01   3.7247616717e+01    0.6475456    0.5336922  85.74  0.003123352    1.507    0.336
        47 -11.0187     99.0593    181.0983   1.0461221871e+02   2.3857928803e+01     0.370932    0.2924539  -8.62  0.001422752    1.931    0.482
        48 -10.5475    145.5034    181.8042   9.4095432165e+01   1.5581456350e+01    0.2763736    0.1943351  40.78 0.0008112052    1.354    0.261
        49 -10.2248    205.4459    110.1522   6.5131184564e+01   1.7496178380e+01    0.3104284    0.2178287  39.78 0.0008902751    1.565    0.361
        50 -11.4917     35.2779    101.3947   1.0831115592e+02   5.1491443556e+01    0.3128351      0.23334  70.23  0.001303984    1.628    0.386
        51 -10.8170     52.8731     90.8882   1.0017903279e+02   5.2107712127e+01    0.4182456    0.2795681 -10.21  0.002051362    2.053    0.513
        52 -10.8737     55.5668     95.0029   1.0027387001e+02   5.0817941030e+01    0.4409367    0.2894489  43.60  0.001526773    1.781    0.438
        53 -16.9766      6.1964    246.3434   1.2873026709e+02   2.2227342144e+01     1.711401     1.145669 -69.57  0.009708631    1.747    0.428
        54  -9.0591    159.7032     87.2977   6.8178607429e+01   3.2519417352e+01    0.1561358    0.1229685 -74.03 0.0002896494    1.570    0.363
        55 -10.1006    157.6655     81.0952   6.6808872140e+01   3.4179550081e+01    0.2238972    0.2007059 -31.36 0.0009803224    1.108    0.097
        56  -9.4583    184.5779     77.2213   6.0207550708e+01   2.8324679027e+01    0.2133105    0.1464944 -22.47 0.0007993395    1.648    0.393
        57  -9.1935     60.3901     68.1282   9.1160576311e+01   5.6208766593e+01    0.1864962    0.1218288 -57.58  0.000368468    1.640    0.390
        58 -16.3909      2.6136    223.3622   1.2829897414e+02   2.6827580346e+01     7.794286          nan -71.11    0.0201001    9.957    0.900
        59 -10.6755    169.4963    214.8499   9.4709271220e+01   5.0904045275e+00    0.2780619    0.1593462  25.76   0.00122253    1.931    0.482
        60 -11.3825    114.1639    208.1215   1.0517076240e+02   1.5677843463e+01    0.3670829    0.2336906  79.59  0.001769834    2.163    0.538
        61 -11.6142    148.2607     52.1475   5.9845803347e+01   4.1420615081e+01     0.587118    0.3713798 -80.47  0.001412246    2.704    0.630
        62 -11.0108    149.8956     45.6169   5.7378112361e+01   4.1989043659e+01    0.2991286    0.2542447 -86.51 0.0004730982    1.322    0.244
        63 -11.1442     27.2193     35.5070   9.3409211118e+01   6.6460964695e+01    0.2524413    0.2008436  41.42  0.001042294    1.762    0.432
        64 -12.0066     17.2014     32.8993   9.7131655438e+01   6.7818912416e+01    0.3689049    0.2132012  31.13  0.001529628    2.114    0.527
        65 -10.3110     61.6999    220.4800   1.1729519968e+02   2.0864814954e+01     0.332967    0.1931279  63.66  0.001616949    1.562    0.360
        66  -9.7114    189.6555     14.9742   4.1864419050e+01   3.5819157266e+01    0.1852589    0.1669322 -51.30 0.0005640345    1.132    0.116
        67 -12.6915    196.0325    197.8622   8.6440371904e+01   3.3526213039e+00     1.189232    0.9996384 -89.62  0.006624088    1.878    0.468
        68 -16.7687     38.1498    249.1456   1.2366630781e+02   1.8330443609e+01     9.211634     2.774356  29.24   0.02577427   10.575    0.905
