#   1 NUMBER                 Running object number                                     
#   2 MAG_AUTO               Kron-like elliptical aperture magnitude                    [mag]
#   3 X_IMAGE                Object position along x                                    [pixel]
#   4 Y_IMAGE                Object position along y                                    [pixel]
#   5 X_WORLD                Barycenter position along world x axis                     [deg]
#   6 Y_WORLD                Barycenter position along world y axis                     [deg]
#   7 A_WORLD                Profile RMS along major axis (world units)                 [deg]
#   8 B_WORLD                Profile RMS along minor axis (world units)                 [deg]
#   9 THETA_WORLD            Position angle (CCW/world-x)                               [deg]
#  10 FWHM_WORLD             FWHM assuming a gaussian core                              [deg]
#  11 ELONGATION             A_IMAGE/B_IMAGE                                           
#  12 ELLIPTICITY            1 - B_IMAGE/A_IMAGE                                       
         1 -15.2705    194.3046    101.6714   3.3033724251e+01   2.3246926849e+01     3.177866     1.521505 -59.14   0.01220571    3.477    0.712
         2 -16.3235    197.1148     87.5264   2.9436442819e+01   2.4939283649e+01     3.204362     1.554368 -32.56   0.01510502    1.972    0.493
         3 -16.6088    217.3284    120.7450   3.3782799664e+01   1.6464964993e+01      2.64614     1.877367 -61.76   0.01588476    1.836    0.455
         4 -16.2663    224.2289     74.5778   2.3387297971e+01   2.1933748220e+01     1.790533     1.334696 -17.99   0.01076245    1.560    0.359
         5 -17.1839    240.4222     66.7614   2.0270591180e+01   2.0262191143e+01     4.798223     2.387532 -53.47   0.02744041    1.867    0.464
         6 -17.8473    245.3889    119.8908   3.0136321533e+01   1.2562002968e+01     3.616366     1.087715 -34.20   0.01638455    2.693    0.629
         7  -8.4851    195.8069     15.4479   1.2199731633e+01   3.4723059398e+01    0.3085395    0.1393881 -32.82 0.0007980261    1.948    0.487
         8 -10.4929    192.1342     10.2248   1.1134205582e+01   3.6048061959e+01    0.2770529      0.22318 -79.95 0.0005534898    1.155    0.134
         9  -8.9539    217.7579      7.3731   9.1087471838e+00   3.1123851157e+01    0.2514754    0.1513499 -46.01 0.0006318567    1.252    0.201
        10 -10.9931    237.8839      3.4242   7.4577731277e+00   2.7803291726e+01    0.3755138    0.3155667 -46.29  0.002232785    1.253    0.202
        11  -9.7052    249.1243      2.6885   6.9328265673e+00   2.5945814540e+01    0.2957144    0.2139087 -24.78  0.001235987    1.575    0.365
        12  -8.2908    244.7627      2.4225   7.0219222452e+00   2.6707540782e+01    0.1820779   0.09809885 -48.04  0.001235726    1.274    0.215
        13  -7.9728    200.7795      6.8554   9.8198917859e+00   3.4566589793e+01    0.1655836    0.1452566 -54.40 0.0007074929    1.198    0.165
        14  -9.0883    211.8908      4.1793   8.6562689524e+00   3.2582752015e+01    0.5885848    0.2567366  54.08  0.002864247    3.406    0.706
        15  -8.5559    185.8204      3.8367   9.8854514098e+00   3.8051179534e+01    0.2117058    0.1495813 -83.82 0.0004163007    1.267    0.211
        16  -8.8670    142.5398      3.5247   1.2891087698e+01   4.8280577421e+01    0.2293308    0.1932024 -71.95 0.0006014789    1.034    0.033
        17  -7.8047    197.4288      2.1139   8.8459560020e+00   3.5726674154e+01    0.1827035     0.144823  82.26 0.0008394924    1.349    0.259
        18 -10.3569    187.3814    237.2716   5.8392435827e+01   3.3251624514e+00    0.2913151    0.2307729 -29.80  0.001502777    1.453    0.312
        19  -9.6486    238.1189    206.7863   4.5812823928e+01   2.1282049790e+00    0.3801892    0.1841256  14.78  0.002305974    2.299    0.565
        20 -10.6381    245.3331    206.1893   4.4700154101e+01   1.5183767402e+00    0.8005948    0.2774591 -25.77  0.003143002    2.963    0.663
        21 -10.7224    244.5149    230.5976   4.8334537642e+01  -1.1755469611e+00    0.5012422    0.2804065 -10.95 0.0005376053    1.444    0.307
        22 -11.2031    247.6325    215.2768   4.5720233124e+01   2.6103611935e-01    0.4990686     0.256645 -26.44 0.0004496365    1.510    0.338
        23  -9.3736    250.1685    210.8175   4.4718557200e+01   5.4282524552e-01    0.1825182    0.1460184 -23.71 0.0007809831    1.451    0.311
        24 -12.9969    227.8934    244.4405   5.2664206721e+01  -1.2908798432e+00     2.008694     0.697274  25.44  0.002111585    2.590    0.614
        25 -12.4966    246.6771    243.1695   4.9734807844e+01  -2.6881298892e+00     2.403606    0.9735298  25.37   0.01615449    2.312    0.567
        26 -11.0945    235.4357    245.0748   5.1615336004e+01  -1.9868769294e+00    0.4735299    0.2537768 -30.89  0.000362258    1.670    0.401
        27 -10.1766    229.8217    236.2935   5.1275804474e+01  -5.5171498826e-01     0.314349    0.1942418  -5.97 0.0002542181    1.246    0.198
        28  -9.4817    182.8587    238.9036   5.9418968397e+01   3.5707448811e+00    0.1927403    0.1424642   2.79 0.0006728744    1.011    0.011
        29 -15.6218    230.5812     83.1766   2.4542016983e+01   1.9714161695e+01     1.410526    0.5459667 -32.65  0.006746479    2.240    0.554
        30  -9.8818    193.7532    237.7781   5.7338800655e+01   2.6238111907e+00    0.2297116    0.1361365 -31.03  0.001565487    1.610    0.379
        31 -15.1474    229.5542    115.2596   3.1115969287e+01   1.5423994037e+01    0.6125053    0.4410881 -50.68   0.00241964    1.411    0.291
        32 -16.0744    245.3001     93.8442   2.5194412952e+01   1.6025703477e+01    0.9443494    0.6785797  41.85  0.006621801    1.852    0.460
        33 -15.9650    240.6591     83.7206   2.3656268252e+01   1.8047627738e+01    0.7510098    0.6708919 -18.50  0.005783849    1.281    0.219
        34  -9.4641    123.9958    205.9968   6.7065811847e+01   1.5612503505e+01    0.1858906    0.1574266  15.33            0    1.014    0.013
        35 -10.8758    195.0211    201.5648   5.1883476041e+01   7.3873191140e+00    0.2035838    0.1621018 -17.63 0.0004848538    1.123    0.109
        36  -8.2509    167.8693    202.0557   5.7031878011e+01   1.0608824967e+01    0.1766678    0.1490311   1.82 0.0003126795    1.043    0.041
        37  -9.1568    156.9068    201.5206   5.9172655985e+01   1.2095251332e+01    0.2045311    0.1780065 -22.53 0.0004233411    1.186    0.157
        38  -8.4821    207.9982    197.2649   4.8994700970e+01   6.5022364814e+00    0.1659364     0.126127 -17.27 0.0002638374    1.085    0.078
        39  -9.6561    244.4173    195.7092   4.3232670066e+01   2.8565168245e+00    0.1721475    0.1277528 -16.11 0.0004531163    1.074    0.069
        40  -7.5950    212.2255    196.6068   4.8198879817e+01   6.1167191879e+00    0.1459003   0.08783801  10.86 0.0004707933    1.681    0.405
        41  -9.2407    183.0422    194.8380   5.2984973858e+01   9.8332845651e+00    0.1792468    0.1450055 -15.46 0.0002702164    1.087    0.080
        42  -7.6691    175.1302    195.1837   5.4537802803e+01   1.0779662295e+01    0.1883476    0.1367941  -9.48 0.0006238914    1.295    0.228
        43  -9.3255    200.5500    192.7095   4.9518546887e+01   8.0116517626e+00    0.2497161    0.2183386  68.37  0.001597097    2.123    0.529
        44  -8.6181    250.7626    190.7469   4.1600779480e+01   2.8361505995e+00    0.1279258   0.06681193 -33.59 0.0003661209    1.549    0.354
        45 -10.4865    158.8190    190.0922   5.6987858204e+01   1.3773562472e+01    0.2354867    0.1927046   4.82 0.0002277438    1.085    0.078
        46  -9.4677    204.4949    188.0296   4.8088480929e+01   8.2146687979e+00    0.2564256    0.1799894  -6.24  0.000980176    1.303    0.233
        47  -7.8386    193.9112    188.8421   5.0041675502e+01   9.3879708917e+00    0.1425167    0.1260478 -32.10  0.001006274    1.344    0.256
        48 -15.3502    207.4610    132.5219   3.7543872415e+01   1.6187219748e+01     2.581566     1.544025 -15.58   0.01320884    2.173    0.540
        49 -11.6878    247.2540    185.9629   4.1319093044e+01   3.7644423542e+00    0.1925683    0.1559552  -0.41   0.00025444    1.236    0.191
        50  -7.5884    199.8370    186.3872   4.8606239097e+01   9.0198489192e+00    0.1342297   0.09477363   6.97  6.36748e-05    1.348    0.258
        51  -8.3767    153.8756    186.0081   5.7366010300e+01   1.5168995027e+01    0.1903895    0.1658285   1.61 0.0003909538    1.008    0.008
        52  -8.6043    138.9067    185.1809   6.0537752372e+01   1.7447330243e+01    0.2331645    0.1837531 -22.04  0.000810157    1.294    0.227
        53 -14.9025    247.3193     62.9155   1.8944573629e+01   1.9643418924e+01    0.6836321    0.3493555 -42.21  0.004221749    1.433    0.302
        54  -7.9725    181.2416    182.7284   5.1328403068e+01   1.1967113043e+01    0.1596299     0.118168  -8.52  0.000257412    1.280    0.219
        55  -8.4714    197.8558    178.1328   4.7555792036e+01   1.0502585401e+01    0.2111513     0.143982 -33.69 0.0006343229    1.327    0.247
        56 -11.8989    199.6409    171.7731   4.6148297961e+01   1.1236505278e+01    0.3660041    0.3513496   1.08 0.0005889923    1.328    0.247
        57  -8.3520    158.3012    172.3057   5.4092689860e+01   1.6981227456e+01    0.2050038    0.1701116  -3.96 0.0002510525    1.147    0.128
        58 -10.1635    156.7234    168.8739   5.3815830145e+01   1.7842371065e+01    0.3979537    0.2863907  27.88  0.001400342    1.347    0.258
        59 -10.4000    148.6310    172.3333   5.6188826938e+01   1.8428233045e+01    0.4036134    0.2787942 -36.04  0.001012585    1.452    0.311
        60  -7.4702    172.0199    173.0027   5.1419587491e+01   1.4851499809e+01    0.1487571    0.1250098  14.39  0.000306309    1.124    0.110
        61  -8.3461    189.8056    166.9098   4.6995320621e+01   1.3334346032e+01    0.1841352    0.1509108 -31.68  0.001198439    1.165    0.142
        62 -10.5468    199.8526    163.7227   4.4679760067e+01   1.2444917735e+01    0.4273139     0.301891 -35.63  0.002684555    1.282    0.220
        63  -8.5390    181.9473    173.9256   4.9679095786e+01   1.3295002278e+01    0.1779298     0.153619  -7.54            0    1.023    0.023
        64 -10.1059    148.9073    159.6346   5.3821429610e+01   2.0800562613e+01    0.4707072    0.3075751 -72.29  0.001021892    2.763    0.638
        65  -8.6354    188.2130    159.5356   4.5930800147e+01   1.4755942061e+01    0.2201878    0.1667326 -46.72 0.0005682341    1.433    0.302
        66 -10.9786    164.1328    154.2895   4.9545109600e+01   1.9352591137e+01    0.4528298    0.3042213 -32.93 0.0006823449    1.453    0.312
        67  -9.5651    168.5047    153.5218   4.8512975736e+01   1.8792558278e+01    0.2407588    0.2222444  -9.44 0.0001071241    1.039    0.037
        68  -7.0700    177.6779    158.7386   4.7723003788e+01   1.6454420363e+01    0.1272924   0.09188849  -2.00  0.000526079    1.553    0.356
        69  -8.9551    195.6025    156.4558   4.4066134559e+01   1.4182556128e+01    0.2836586    0.2746815  85.12   0.00141922    1.422    0.297
        70 -10.4240    133.7829    154.2460   5.6316438666e+01   2.4363865306e+01    0.4232721    0.2844741 -50.53  0.001459926    1.554    0.357
        71 -10.3601    141.0168    150.3406   5.3834174102e+01   2.3939070696e+01    0.4263514    0.3039174  27.82  0.001192187    1.429    0.300
        72  -8.6335    181.1555    155.1991   4.6400727537e+01   1.6529198635e+01    0.1999258    0.1632007  20.90 0.0003045576    1.241    0.194
        73  -9.7709    157.7059    151.8560   5.0411704949e+01   2.0847531881e+01    0.4593988     0.270526  17.96  0.001700595    2.312    0.568
        74  -9.6367    166.4024    148.4241   4.7935638868e+01   2.0052594540e+01    0.2319011    0.2106609 -21.82 0.0003338714    1.029    0.028
        75  -9.7361    171.1081    147.5522   4.6828588209e+01   1.9441127007e+01    0.3431882    0.2803782 -49.90 0.0006415629    1.319    0.242
        76  -8.7873    151.7595    147.6819   5.0869451080e+01   2.2637937126e+01    0.2656083     0.182289 -53.78 0.0004796808    1.606    0.377
        77  -9.3466    132.9866    147.4033   5.5173933325e+01   2.5921332036e+01    0.3327906    0.2128078 -52.04  0.001088124    1.642    0.391
        78 -10.5431    132.1461    140.7011   5.4018231684e+01   2.7477325354e+01    0.4491893    0.3128168 -57.02  0.001284262    1.577    0.366
        79  -8.3935     69.4125    145.6003   7.3211005637e+01   3.6825421209e+01    0.4258298    0.2152082  55.81  0.001584962    2.403    0.584
        80  -8.2662    174.0191    142.0191   4.5156289738e+01   1.9947304519e+01    0.3274538    0.2301125 -82.99  0.001474718    2.928    0.658
        81  -8.4310    171.4670    138.0833   4.4841230242e+01   2.1076294890e+01    0.2301719    0.2038886 -37.86  0.000761767    1.094    0.086
        82  -7.5552    103.8567    141.3984   6.1745632054e+01   3.2332886544e+01    0.2047775    0.1414759  22.79 0.0004930904    1.584    0.369
        83  -8.9531     43.8390    140.0971   8.1248798332e+01   4.1640184136e+01    0.4193561    0.2561966  74.71  0.001806677    1.877    0.467
        84  -9.1881    166.5581    137.8057   4.5746778049e+01   2.1965563234e+01    0.3162452    0.1885712 -34.11  0.001456289    1.668    0.400
        85  -9.3403    155.2257    136.8852   4.7895365477e+01   2.4120176178e+01     0.304436    0.2297946 -52.59 0.0006948419    1.398    0.285
        86  -7.5597    181.3545    136.9898   4.2767727104e+01   1.9612093619e+01    0.1767824    0.1485538 -28.32 0.0003480273    1.077    0.071
        87  -8.1160    177.5350    134.9399   4.3043500874e+01   2.0606054349e+01    0.3250535    0.1751691 -30.75 0.0008170938    1.957    0.489
        88  -9.9754    159.8678    133.8774   4.6278765305e+01   2.3867687038e+01    0.4202426    0.2145944 -43.48   0.00121911    1.873    0.466
        89 -11.1295    171.6064    126.7163   4.2409644510e+01   2.3092649555e+01    0.7283189    0.3209895 -43.98  0.003112723    2.128    0.530
        90  -9.0561    168.4330    121.7894   4.1934241477e+01   2.4555765530e+01    0.2175714    0.1888076 -26.16 0.0003044798    1.122    0.109
        91 -10.8615    135.6173    127.7637   5.0378687627e+01   2.9555473052e+01    0.6112891    0.2556734 -44.31  0.002308159    2.385    0.581
        92  -9.1610    126.4133    130.6945   5.3328197056e+01   3.0669000630e+01    0.2765023    0.1436706 -52.74  0.001092341    2.023    0.506
        93  -9.0045    116.5237    129.4620   5.5682681452e+01   3.2795507029e+01    0.2610989    0.2486636 -42.11 0.0006018923    1.070    0.065
        94  -8.5787    165.6065    128.2782   4.3910438954e+01   2.3883594374e+01    0.2479083    0.1673532 -32.75  0.001049615    1.468    0.319
        95  -8.3838    179.2908    127.0569   4.1064258140e+01   2.1680174594e+01    0.3381673     0.241884  20.78  0.001813697    1.727    0.421
        96  -8.3176     49.4307    124.2006   7.6871247690e+01   4.5259390943e+01    0.2155053    0.1451412 -88.30 0.0006048166    1.655    0.396
        97  -8.9272    163.7179    122.9857   4.3121049405e+01   2.5205691910e+01    0.2272994    0.1868533   5.29 0.0004014923    1.426    0.299
        98  -9.7229     57.3215    121.5275   7.3398229044e+01   4.4907895821e+01    0.3283809    0.2206066 -37.54 0.0008830494    1.771    0.435
        99 -10.7108     61.0222    115.7079   7.0879665109e+01   4.5921373958e+01    0.4225737    0.3692765  55.12  0.002164964    1.116    0.104
       100  -9.7163    173.4222    102.4682   3.6587553841e+01   2.7043627858e+01    0.4595342     0.365548 -21.06  0.002036286    1.387    0.279
       101  -9.8391    169.1440    114.1750   4.0083754415e+01   2.5798300800e+01    0.5609513    0.4391339 -76.21  0.002011488    1.646    0.392
       102 -12.3031    158.3191    103.3205   3.9603404248e+01   2.9897004385e+01     0.955013    0.4683014 -41.19  0.004084113    1.927    0.481
       103 -12.0570    165.9531     98.6454   3.7008128968e+01   2.9195968586e+01    0.6477615     0.283361 -42.57 0.0002982126    2.103    0.524
       104  -9.3919    128.8645    112.2252   4.8408049919e+01   3.4154205673e+01    0.2686884    0.2053578 -60.93   0.00125695    1.407    0.289
       105 -12.3441    143.5117    113.9628   4.5325257954e+01   3.0838598142e+01     1.031854     0.869374  32.30   0.00530332    1.273    0.214
       106  -9.7301    134.1584    111.8522   4.7007215850e+01   3.3155119834e+01    0.2855741    0.2454551  15.47 0.0006741823    1.349    0.259
       107 -10.8874    133.5010    107.9900   4.6211015899e+01   3.4087819612e+01    0.5662704    0.4015541  -8.90  0.002441298    2.218    0.549
       108 -10.7811    141.7815     99.0300   4.2001098969e+01   3.4149742557e+01     0.700191    0.3357174 -39.84  0.002593155    2.097    0.523
       109 -10.7037     54.4691    109.3920   7.2193960100e+01   4.8580840045e+01    0.4450281    0.3912448 -58.76  0.001201246    1.160    0.138
       110 -10.3081    149.5468    103.5352   4.1452922862e+01   3.1652034474e+01    0.5214888    0.3432133 -56.24  0.001301639    1.630    0.386
       111  -8.1420     74.0141     98.9903   6.2109156048e+01   4.8112607944e+01    0.2395886    0.1907516 -14.36 0.0004358429    1.625    0.385
       112 -10.1613    134.6935     95.4292   4.2680377773e+01   3.6381413963e+01    0.3734778    0.3233667  67.39  0.001883723    1.193    0.162
       113  -9.4265    146.7499     94.3700   3.9711099360e+01   3.3983909231e+01    0.3038253    0.2172538  24.32  0.001407934    1.947    0.486
       114  -8.7503    157.1447     87.1227   3.5741092896e+01   3.3075705821e+01    0.2493961    0.1933824 -53.73  0.000312674    1.237    0.192
       115 -10.2623    142.0231     88.9108   3.9274458343e+01   3.6042777583e+01    0.4208236    0.3421499 -18.75  0.001310313    1.496    0.332
       116  -9.1757    147.6054     88.1497   3.7891394558e+01   3.4959670797e+01    0.3284521     0.219444  68.80    0.0010214    1.748    0.428
       117  -9.7394    158.0388     73.5425   3.1962781524e+01   3.5217433969e+01    0.4354231    0.3443017   4.76 0.0003344658    1.839    0.456
       118 -11.2674    151.8320     83.8022   3.5881692967e+01   3.4821264828e+01    0.6075707    0.2904841 -45.67 0.0004583148    1.991    0.498
       119  -9.4030    157.5162     80.4939   3.3925940724e+01   3.4153608737e+01    0.5127884    0.2144371 -38.59  0.001549865    2.275    0.560
       120  -8.1730      3.3543     84.6426   9.2121940212e+01   6.0421717752e+01    0.2476405    0.1585385  81.47 0.0005335319    1.579    0.367
       121  -9.9235    133.7069     83.2833   3.9570042258e+01   3.8969255965e+01    0.3742726    0.3122897  18.54 0.0008963919    1.545    0.353
       122  -9.2080    170.1699     69.8931   2.9001833884e+01   3.3137334134e+01    0.3648079    0.2131613 -37.29  0.001000875    1.603    0.376
       123  -9.0532    139.8588     68.0980   3.3836795295e+01   4.0311177868e+01    0.2335428    0.1878364 -71.02 0.0009159318    1.266    0.210
       124  -8.2515    155.4369     66.5209   3.0477498066e+01   3.6961216998e+01    0.1409134    0.1287871 -64.45 0.0001044649    1.021    0.020
       125  -8.0007    162.1615     65.0937   2.8968414147e+01   3.5664490155e+01    0.1927477    0.1453696 -62.53            0    1.289    0.224
       126  -9.0791    136.8718     62.8840   3.2874584467e+01   4.1909932127e+01    0.2209169    0.2084042  29.28   0.00124216    1.260    0.206
       127  -9.0564    157.2325     61.6835   2.8817976131e+01   3.7322369148e+01    0.2893178    0.2467903  70.08 0.0008266923    1.198    0.165
       128  -8.0636    168.7227     55.8733   2.5471338900e+01   3.5591666705e+01    0.2319371    0.1780762  58.99  0.001117257    1.414    0.293
       129  -9.3273    140.8387     53.9157   2.9358396294e+01   4.2415666346e+01    0.3942507    0.1451695 -47.34  0.001408684    2.728    0.633
       130  -8.1107    117.6843     54.6688   3.4424148662e+01   4.7972852864e+01    0.1477944    0.1180867  23.38 0.0002320276    1.683    0.406
       131 -15.6968    227.4940     99.1474   2.8146832697e+01   1.8008488582e+01     1.135562    0.7313901  75.65  0.006648406    2.355    0.575
       132  -8.0470    177.3110     43.9026   2.1158305742e+01   3.5347119799e+01    0.2279216    0.1382671 -40.92 0.0006743508    1.456    0.313
       133  -7.3183    132.6687     43.7039   2.7595203936e+01   4.5980620848e+01    0.1412929    0.1100809  35.24 0.0007027261    1.639    0.390
       134  -8.8210    162.8137     40.6819   2.2029020588e+01   3.9085902302e+01    0.2703698     0.186217 -55.25  0.001157645    1.313    0.239
       135  -7.1999    101.3441     41.2523   3.3627469140e+01   5.4255386777e+01    0.1475143    0.1092464  37.55 0.0003450512    1.581    0.367
       136  -7.9239    165.7358     36.7613   2.0552007515e+01   3.8920516523e+01    0.1836141    0.1314287 -65.11 0.0003841369    1.280    0.219
       137  -7.7940    167.1577     33.3364   1.9419131222e+01   3.9026582038e+01    0.1878487    0.1127111  89.22 0.0003864251    1.723    0.420
       138  -9.2830    162.9575     28.6072   1.8536635385e+01   4.0596213246e+01    0.2269596    0.1863079 -46.56 0.0002974217    1.167    0.143
       139  -8.6647    143.9721     20.6045   1.8296195233e+01   4.6161995975e+01    0.2413307    0.1717363 -49.27 0.0003854049    1.303    0.233
       140  -9.6804    177.5700    231.0694   5.9345026551e+01   5.1744719021e+00    0.2029465    0.1610933   3.47 0.0003522521    1.078    0.072
       141  -8.3325    183.0853     15.9206   1.3201586188e+01   3.7425272406e+01    0.3388718    0.1697479 -76.63  0.001675734    2.013    0.503
       142  -8.7255    194.9942    228.9695   5.5923534844e+01   3.6312347981e+00    0.1662953     0.124506  -2.09 0.0004148498    1.015    0.014
       143  -7.6757    166.7955    222.8436   6.0269918253e+01   7.5410824585e+00    0.1396193    0.1231963  12.64 0.0002350635    1.260    0.207
       144  -9.9516    225.9837    216.7471   4.9097523030e+01   2.0881791938e+00    0.1842755    0.1357938  -7.97 0.0004246038    1.036    0.035
       145  -9.2695    228.5417    213.7763   4.8270940426e+01   2.2032929626e+00    0.2158824    0.1919223  -9.75  0.001093267    1.517    0.341
       146 -10.1013    162.5826    212.2941   5.9610906727e+01   9.6441729329e+00     0.237861     0.226237  14.80 0.0004270898    1.356    0.263
       147 -15.0400    219.0765    172.8849   4.3207768116e+01   8.6104762109e+00     1.588754       1.5312   7.28   0.01246796    1.444    0.307
       148 -15.6484    245.8407    159.1323   3.7089189882e+01   7.3128245314e+00     1.568604     1.078275 -35.94    0.0113862    1.288    0.223
       149 -11.7371    235.6350    226.3726   4.9029870289e+01   6.1056127766e-02    0.5605776     0.283401   9.50  0.001978482    1.945    0.486
       150 -14.7965    215.6257    139.1674   3.7623264901e+01   1.3971752648e+01     1.461424    0.5489192 -39.54  0.006859148    2.245    0.555
       151  -7.8392    159.6365    240.5048   6.3983748619e+01   5.7794537670e+00    0.1627882    0.1023856 -40.46  0.001035745    1.781    0.439
