#   1 NUMBER                 Running object number                                     
#   2 MAG_AUTO               Kron-like elliptical aperture magnitude                    [mag]
#   3 X_IMAGE                Object position along x                                    [pixel]
#   4 Y_IMAGE                Object position along y                                    [pixel]
#   5 X_WORLD                Barycenter position along world x axis                     [deg]
#   6 Y_WORLD                Barycenter position along world y axis                     [deg]
#   7 A_WORLD                Profile RMS along major axis (world units)                 [deg]
#   8 B_WORLD                Profile RMS along minor axis (world units)                 [deg]
#   9 THETA_WORLD            Position angle (CCW/world-x)                               [deg]
#  10 FWHM_WORLD             FWHM assuming a gaussian core                              [deg]
#  11 ELONGATION             A_IMAGE/B_IMAGE                                           
#  12 ELLIPTICITY            1 - B_IMAGE/A_IMAGE                                       
         1 -13.1147    219.7776     53.3063   2.7712627645e+01   2.4614857110e+01     1.101365    0.7803481 -25.49  0.005415465    1.307    0.235
         2 -13.1511    240.5834     39.8413   2.2806679672e+01   2.2186106445e+01    0.7772945    0.7565501  40.12  0.005488646    1.300    0.231
         3 -10.0221      2.2769      4.8181   8.0440170218e+01   7.9325699237e+01    0.2984885   0.09244845 -57.39  0.001219174    2.818    0.645
         4 -15.5211     10.5984    237.9147   1.0561950121e+02   2.3878552649e+01     10.70904     5.365254 -87.06   0.05421463    2.204    0.546
         5  -9.9870    139.6883    250.1186   7.9758441349e+01   8.3522892644e+00    0.2073091    0.1154439  33.43  0.001321619    1.417    0.294
         6 -10.3599    134.5372    248.7193   8.0610063975e+01   9.1338345059e+00    0.2173077    0.1684326 -72.98   0.00153097    2.182    0.542
         7 -10.3985     81.0709    249.8986   9.1515796954e+01   1.5030899933e+01    0.1745791    0.1523935  46.72  0.001375678    1.217    0.178
         8 -10.3806     73.8190    232.1844   9.1711521876e+01   1.8707025757e+01    0.1547474    0.1280303   8.19  0.001083617    1.343    0.255
         9 -11.0184    110.6717    230.5035   8.3559102907e+01   1.4650881365e+01    0.2423912     0.173978  15.40   0.00157592    1.298    0.230
        10  -8.9577    128.2989    228.6509   7.9636656366e+01   1.2759376500e+01    0.1139777   0.08117775  50.88  0.000703643    1.686    0.407
        11 -10.4506     97.2239    221.6415   8.5574711904e+01   1.7761587750e+01    0.2283898    0.1665685 -40.99  0.001454733    1.686    0.407
        12 -10.4803     70.9876    213.1424   9.0783506846e+01   2.2441686800e+01    0.2742509    0.1831252  54.75  0.001164411    1.455    0.313
        13 -10.2142     78.9311    206.9887   8.8328303818e+01   2.2659340782e+01    0.2551147    0.1835826 -83.11 0.0007383918    1.720    0.419
        14  -8.8636    193.5256    196.0026   6.2109517831e+01   8.9745674133e+00    0.1400902    0.1053266 -58.51 0.0008090403    2.493    0.599
        15  -9.4139    102.3276    238.3059   8.6105861742e+01   1.4424257629e+01    0.1130724   0.07963746   1.48 0.0005552048    1.652    0.395
        16 -11.6445     36.8142    172.8645   9.6158703810e+01   3.4646482871e+01    0.3185729    0.2815024  -9.99 0.0005076935    1.385    0.278
        17 -11.6310     45.2591    167.0201   9.3255788687e+01   3.5113593929e+01    0.2921844    0.2694906   7.05 0.0004248747    1.239    0.193
        18  -8.1961    110.6662    167.3092   7.5249172287e+01   2.6189339305e+01    0.1413551    0.1026004  60.48 0.0007042457    1.674    0.403
        19 -10.6017     59.1572    157.9762   8.8207094707e+01   3.5622164765e+01    0.2590545    0.2333212  11.11 0.0003996239    1.223    0.182
        20 -12.8871     43.5720    153.9353   9.2448550247e+01   3.8411398441e+01    0.5210342    0.3483783 -19.08   0.00164979    2.136    0.532
        21 -11.9231     68.4182    152.0580   8.4654427092e+01   3.5826189279e+01    0.6828298    0.4847897  38.65  0.001734186    1.295    0.228
        22 -12.6387     68.0799    143.5186   8.3494666984e+01   3.7923616297e+01     1.075764    0.5372229  52.06  0.002745716    2.209    0.547
        23 -11.1686     24.2230    148.5070   9.7954031876e+01   4.1644856613e+01    0.2929952    0.2162334  51.56 0.0008099206    1.224    0.183
        24  -9.0297    134.0000    146.9784   6.5651761508e+01   2.6426217657e+01    0.3787903   0.08086538 -47.53   0.00104677    4.893    0.796
        25 -10.2125     40.1595    142.6178   9.2293796163e+01   4.1571781916e+01    0.3238673    0.1834823  65.91  0.001466094    1.939    0.484
        26 -10.4739     86.4325    140.3875   7.7338978682e+01   3.5953256099e+01    0.3827071    0.3251393 -28.37 0.0008884732    1.334    0.250
        27  -8.9382     90.5645    137.2904   7.5525228468e+01   3.6016335568e+01    0.2012109    0.1850572 -41.47 0.0004315244    1.150    0.131
        28 -11.3585     73.5652    137.4824   8.0794624088e+01   3.8608832075e+01    0.3505726    0.3050895 -73.96 0.0001753049    1.189    0.159
        29 -10.4930    244.1674    131.9839   4.2282780663e+01   1.0415099321e+01    0.2020685    0.1150617  -8.52 0.0006964232    2.021    0.505
        30 -10.4163    104.4863    130.2806   7.0010432598e+01   3.5249745002e+01    0.6112287    0.3456837  42.50  0.002636102    1.712    0.416
        31 -10.6963     67.4411    128.1801   8.1162543159e+01   4.1792455224e+01    0.5533003    0.2737931 -82.61  0.001882655    3.344    0.701
        32 -10.2344     88.1245    125.4523   7.3919105597e+01   3.9215830766e+01    0.2895163    0.2553776  27.34 0.0004267792    1.143    0.125
        33  -9.6982    112.9860    123.3712   6.6057117742e+01   3.5230082023e+01    0.5472409     0.288464  14.68  0.001487142    5.238    0.809
        34  -9.7477     15.9426    120.0000   9.8347650017e+01   4.9572843456e+01    0.2135048   0.07685073  17.87 0.0008045484    2.957    0.662
        35  -9.2667    101.7756    118.1980   6.8112505957e+01   3.8492471685e+01    0.2098587    0.2006121  66.28 0.0003742842    1.076    0.071
        36  -9.0307    204.8369    110.6032   4.3302196132e+01   1.9691010911e+01    0.3059047    0.1698574  27.41  0.001391022    2.485    0.598
        37 -10.3527     51.4325    110.6861   8.3667522507e+01   4.8451331957e+01    0.2880465    0.1444365 -71.37  0.001147561    2.126    0.530
        38  -8.4093    112.3595    109.3171   6.2825032272e+01   3.8442049837e+01    0.1589602    0.1209721  -1.01 0.0007043506    1.758    0.431
        39 -11.0993    241.8029    101.6118   3.6340895142e+01   1.4615096333e+01     0.223168    0.1473839 -37.54  0.001022807    1.308    0.236
        40  -8.5741     34.1471     97.1367   8.8137241512e+01   5.4028445539e+01    0.1958536    0.1570481  62.13 0.0002620865    1.290    0.225
        41 -10.2382     53.0180     90.9176   7.8866900893e+01   5.3350163326e+01    0.4186334    0.2564962 -70.58  0.001832447    1.757    0.431
        42  -9.3499     41.7716     92.1399   8.3912758595e+01   5.4495836152e+01    0.2135933    0.1916352  73.05 0.0005038683    1.139    0.122
        43  -9.3227    167.6687     87.2971   4.3792370410e+01   3.0805435896e+01    0.1444588    0.1106351 -70.11 0.0002809198    1.641    0.391
        44  -8.6002    102.4248     83.2209   5.8448395470e+01   4.6188098989e+01    0.2081753    0.1475394 -56.69 0.0005588513    1.535    0.349
        45 -10.1832    184.6150     77.2424   3.8209629936e+01   2.8702315210e+01      0.25121    0.1725976 -23.49 0.0008463757    1.473    0.321
        46 -10.4348     13.4342     60.1016   9.1225567784e+01   6.5536659408e+01    0.2425209    0.2249608  28.47 0.0004733632    1.175    0.149
        47 -11.8311    227.4671     46.3832   2.5348603356e+01   2.3925538833e+01    0.4806821    0.2587679 -50.62  0.002536732    1.720    0.419
        48 -10.6300    243.1810    249.8024   6.1985583151e+01  -2.5749911307e+00    0.2539411   0.06522551  34.37  0.001263543    3.917    0.745
        49 -14.4355      8.8200    208.0499   1.0516859807e+02   2.9598085748e+01     3.684462     1.415188 -53.20    0.0165883    3.863    0.741
        50  -8.5296     94.7057     46.3472   4.7627112193e+01   5.5172154305e+01    0.1548191    0.1177845 -72.05 0.0007031453    1.671    0.402
        51 -12.1226      1.7331    196.4134   1.0651441787e+02   3.2506201203e+01    0.2952071    0.1888133  88.01 0.0009517473    1.530    0.346
        52 -14.4277      7.8628    191.7050   1.0486877846e+02   3.3032637358e+01     2.031657     0.940865 -79.73  0.003677299    2.196    0.545
