#   1 NUMBER                 Running object number                                     
#   2 MAG_AUTO               Kron-like elliptical aperture magnitude                    [mag]
#   3 X_IMAGE                Object position along x                                    [pixel]
#   4 Y_IMAGE                Object position along y                                    [pixel]
#   5 X_WORLD                Barycenter position along world x axis                     [deg]
#   6 Y_WORLD                Barycenter position along world y axis                     [deg]
#   7 A_WORLD                Profile RMS along major axis (world units)                 [deg]
#   8 B_WORLD                Profile RMS along minor axis (world units)                 [deg]
#   9 THETA_WORLD            Position angle (CCW/world-x)                               [deg]
#  10 FWHM_WORLD             FWHM assuming a gaussian core                              [deg]
#  11 ELONGATION             A_IMAGE/B_IMAGE                                           
#  12 ELLIPTICITY            1 - B_IMAGE/A_IMAGE                                       
         1 -15.1352     12.1759    157.6603   1.4295330416e+02   4.0663884415e+01     5.502316     1.823922  87.57   0.02650947    3.151    0.683
         2 -13.6646    191.8337     26.6309   7.1069706875e+01   3.3720259219e+01     1.811437     1.379426 -11.72  0.007675644    1.306    0.234
         3 -13.7298    206.3992      8.7238   6.3454025758e+01   3.1689336728e+01     1.509727     1.114888  21.89   0.00761758    1.468    0.319
         4 -12.3305      2.2153     11.0333   1.2518555057e+02   7.2264853139e+01     1.093137    0.1637954 -52.52  0.004459107    3.106    0.678
         5  -9.7803     33.5162      8.9418   1.0781886753e+02   7.0117612607e+01    0.1924525   0.09872077 -42.84 0.0004669993    1.567    0.362
         6  -9.5887    198.3296    245.6873   1.1859708942e+02   3.5048858689e+00   0.09539779    0.0684934  54.07 0.0003729225    1.672    0.402
         7  -9.8286    249.8172    249.8464   1.1155367012e+02  -3.9066337185e+00    0.1288089   0.09367118  32.90  0.001071329    1.320    0.242
         8 -11.2437    139.4895    249.9995   1.2805212642e+02   1.1251729568e+01     0.235146    0.1435876  43.89  0.001790238    1.164    0.141
         9 -11.0192    102.4390    248.2420   1.3356658490e+02   1.6278561427e+01    0.2002469    0.1492756  63.67  0.000699114    1.190    0.160
        10 -10.3959     98.5142    249.4992   1.3425296513e+02   1.6607037252e+01    0.1657878    0.1280559  55.68 0.0009165244    1.111    0.100
        11  -9.2344     66.8782    250.6158   1.3903441677e+02   2.0168547292e+01      0.13606   0.05426615  50.03 0.0005476958    1.712    0.416
        12 -11.1100     34.3649    245.4258   1.4349723016e+02   2.4265256330e+01    0.3336951    0.2272597 -69.28  0.003026928    1.898    0.473
        13 -10.6505      2.4899    248.7445   1.4803061933e+02   2.6719799806e+01    0.2932252    0.1413191  76.10  0.002522122    1.587    0.370
        14 -10.5622      1.8950    240.8920   1.4791197779e+02   2.7849950095e+01    0.2642541   0.08700845 -82.96  0.001833206    2.810    0.644
        15  -9.6507     81.8311    242.5662   1.3630952216e+02   1.9518905182e+01    0.2151207    0.1024116  63.99  0.001427693    2.051    0.512
        16 -10.1333     12.7400    241.1751   1.4641115082e+02   2.6873189975e+01    0.1775344    0.1164124  71.90  0.001227343    1.137    0.120
        17  -8.5165     57.2767    240.3277   1.3989560218e+02   2.2606643520e+01   0.07331329   0.06958327  54.69   0.00032422    1.592    0.372
        18 -14.3199      9.5108    206.8023   1.4572021580e+02   3.2300357535e+01     9.047357          nan  40.48   0.01798922    7.402    0.865
        19 -10.1478     81.5058    248.3523   1.3673365627e+02   1.8796036727e+01    0.2095394    0.1030104  65.04  0.001292627    1.969    0.492
        20 -11.5731     64.8853    199.7016   1.3602609683e+02   2.7891307451e+01    0.2428374    0.1952028 -52.48  0.001307794    1.749    0.428
        21 -10.0458    192.3589    193.8507   1.1248932659e+02   9.9551480291e+00    0.4629101    0.2778616 -66.56  0.001740613    6.263    0.840
        22 -10.4881     12.7343    197.0934   1.4481114651e+02   3.3604181477e+01    0.2238026    0.1080108  48.90  0.001045116    1.612    0.380
        23  -8.7248     51.4515    197.4570   1.3822274091e+02   2.9775331486e+01    0.1032489   0.07636164  66.94 0.0001247722    1.022    0.022
        24 -11.0399    173.3971    222.2878   1.1967636001e+02   9.5809362379e+00    0.3447868      0.25202  54.92  0.002478826    1.444    0.307
        25 -11.9035     70.5866    191.5798   1.3433873155e+02   2.8570328333e+01    0.2085833     0.190617 -83.10 0.0007164045    1.321    0.243
        26 -13.3530     67.2382    176.6813   1.3362427147e+02   3.1576974803e+01     0.386791    0.2429758 -46.76   0.00172731    2.269    0.559
        27 -10.9794     80.1138    178.6432   1.3132071118e+02   2.9623246874e+01    0.1902501    0.1655052  68.79 0.0003683264    1.094    0.086
        28  -8.1322    221.6788    213.6926   1.1069266100e+02   3.1014007990e+00    0.1162214   0.06745838  20.33 0.0003813495    1.641    0.391
        29  -8.8370    171.1946    173.1738   1.1293142767e+02   1.6335877457e+01    0.1575041    0.1349181  55.09 0.0002859882    1.247    0.198
        30 -11.8919     87.3475    169.1540   1.2884330604e+02   3.0372778201e+01    0.5187767    0.4540642  53.70  0.003414747    1.148    0.129
        31 -12.7488     39.4407    234.4733   1.4227712099e+02   2.5296715112e+01    0.2226954    0.1876378 -87.90  0.000763482    1.463    0.317
        32 -10.5390    190.3651    153.8279   1.0581594641e+02   1.5633857029e+01    0.4002517    0.2918323 -84.50  0.001850072    2.866    0.651
        33 -10.1565     99.3482    152.7009   1.2418297793e+02   3.1737289886e+01    0.2531482    0.2224427 -67.24 0.0008048027    1.188    0.158
        34  -9.5481    102.1441    148.8147   1.2299814371e+02   3.2059520985e+01    0.2069163    0.1709096 -34.13 0.0008983584    1.546    0.353
        35 -12.1022     88.0873    152.3096   1.2656289371e+02   3.3434396513e+01    0.2336915    0.2199616 -51.66  0.000606355    1.286    0.223
        36 -12.5994     67.2099    143.9860   1.3008040067e+02   3.7824160022e+01    0.6518858    0.4049863  70.22  0.003780803    1.690    0.408
        37 -11.5506     57.3689    131.3087   1.3074088963e+02   4.1596707640e+01     1.000271     0.343714 -80.17  0.002877452    6.805    0.853
        38  -9.8004    184.1757    147.4969   1.0572314381e+02   1.7747485903e+01     0.257692    0.2131795 -87.43  0.001428444    1.824    0.452
        39 -14.4944     45.3881    227.1055   1.4100688671e+02   2.5760526759e+01     2.126171    0.9949906  34.65  0.005055892    2.286    0.563
        40 -12.1939     33.8545    133.2229   1.3645725061e+02   4.3638948487e+01     0.372535     0.240261  84.57  0.002426053    1.370    0.270
        41  -9.8075    110.2752    137.7496   1.1938386526e+02   3.2924759465e+01    0.3114792    0.2165353 -13.87   0.00117798    2.658    0.624
        42 -10.4488     86.1089    136.2840   1.2469270238e+02   3.6887924576e+01    0.2460272    0.1777409  64.18 0.0005367965    1.393    0.282
        43 -10.9370     97.4619    135.0645   1.2186359277e+02   3.5469491242e+01    0.2710213    0.2243558  32.84 0.0006137571    1.349    0.259
        44  -8.4300    192.2355    144.0241   1.0348182879e+02   1.6696633733e+01    0.1577316    0.1113024 -29.06 0.0003683101    1.495    0.331
        45  -8.6828    116.3153    130.2909   1.1664455357e+02   3.3380650888e+01    0.1263893     0.105408  -3.31 0.0002318495    1.594    0.373
        46  -9.9070    163.5581    128.0320   1.0573492580e+02   2.4947194029e+01    0.3977482    0.2611116  75.34  0.001299719    2.728    0.633
        47  -8.9049    180.1732    143.1472   1.0560778867e+02   1.9187942817e+01    0.1717311    0.1592634  74.02 0.0004459517    1.323    0.244
        48  -9.4898    107.3470    124.1763   1.1758300951e+02   3.6100429094e+01    0.1848027     0.170748  40.14 0.0003642769    1.142    0.125
        49  -9.0483    152.6263    213.0145   1.2200610579e+02   1.3869888483e+01    0.1394018    0.1223303  44.37 0.0003728009    1.125    0.111
        50 -10.5404      4.5905    229.2318   1.4720960142e+02   2.9289063603e+01     0.169893    0.1222003 -48.18  0.001425331    2.730    0.634
        51  -9.5821    203.5452    111.2819   9.3897003086e+01   1.9199303855e+01    0.1989186    0.1329298 -13.27 0.0009409142    1.602    0.376
        52 -10.4878    168.0105    113.1633   1.0134916763e+02   2.6573122511e+01    0.3167668    0.2771683  86.06 0.0007882939    1.449    0.310
        53  -9.5032     74.1041     86.8250   1.1852300255e+02   4.9117903686e+01    0.3157424    0.1822944  59.65  0.001282965    2.373    0.579
        54 -11.4340     20.7080    200.2319   1.4363012026e+02   3.2378835174e+01    0.3043217    0.1216267  55.19 0.0009438433    1.874    0.466
        55  -8.8750    184.5301     77.4761   8.8368783822e+01   2.8694496802e+01    0.1545053    0.1409999   7.48 5.408335e-06    1.038    0.037
        56  -9.3909    156.4950     75.5240   9.3596440323e+01   3.5663652222e+01    0.1530613    0.1438541   1.88 1.309112e-05    1.020    0.020
        57 -11.7375     10.2224     64.1378   1.3439476068e+02   6.0462119301e+01     0.384456    0.1983064  38.20  0.001060909    2.327    0.570
        58 -10.6160     29.5029     61.0190   1.2707873402e+02   5.9799548475e+01    0.3954751    0.1734536  40.98 0.0005451948    2.761    0.638
        59 -11.7025      2.2017     45.2855   1.3405614990e+02   6.5030122862e+01    0.6143436    0.1244806 -72.72  0.002058047    4.665    0.786
        60 -10.1759    238.3906    247.7853   1.1292023816e+02  -2.2314395095e+00    0.1256132   0.07920056   1.08 0.0009511994    1.655    0.396
        61  -8.7765     25.1949    247.1236   1.4486185149e+02   2.4913096298e+01    0.1219066   0.06458391  61.15 0.0004457642    1.277    0.217
        62 -11.5998    125.2002    250.0615   1.3024186367e+02   1.3143260305e+01    0.5082309    0.0917016  42.24  0.002164444    3.852    0.740
