#   1 NUMBER                 Running object number                                     
#   2 MAG_AUTO               Kron-like elliptical aperture magnitude                    [mag]
#   3 X_IMAGE                Object position along x                                    [pixel]
#   4 Y_IMAGE                Object position along y                                    [pixel]
#   5 X_WORLD                Barycenter position along world x axis                     [deg]
#   6 Y_WORLD                Barycenter position along world y axis                     [deg]
#   7 A_WORLD                Profile RMS along major axis (world units)                 [deg]
#   8 B_WORLD                Profile RMS along minor axis (world units)                 [deg]
#   9 THETA_WORLD            Position angle (CCW/world-x)                               [deg]
#  10 FWHM_WORLD             FWHM assuming a gaussian core                              [deg]
#  11 ELONGATION             A_IMAGE/B_IMAGE                                           
#  12 ELLIPTICITY            1 - B_IMAGE/A_IMAGE                                       
         1 -13.2339     54.5274    146.6525   1.0820101157e+02   3.8700136314e+01     2.818161     1.166845 -58.60   0.01183186    2.120    0.528
         2 -14.9265     68.6690    144.2805   1.0381944936e+02   3.7480872330e+01     5.153697     2.582222  67.62  0.009116182    3.843    0.740
         3 -14.4548    200.3926     39.3620   4.3922868131e+01   3.0228902340e+01     1.923983     1.378921  35.49  0.004788459    1.795    0.443
         4 -14.4578    211.6889     27.9216   3.9709639665e+01   2.8969845530e+01     1.292018      1.01925   1.36  0.003713842    1.809    0.447
         5 -11.1087      2.5090     29.6691   1.0254112752e+02   6.9567857705e+01    0.2065027    0.1762887 -50.11  0.001535123    1.307    0.235
         6 -11.6106      2.2300      8.9842   9.4800792248e+01   7.3197661045e+01    0.3524117    0.1455068 -49.82  0.001922527    2.205    0.547
         7 -12.4859      2.1942      3.3068   9.2183690945e+01   7.4089518771e+01    0.7035615    0.3517292 -40.56  0.004399166    1.623    0.384
         8 -13.1319    236.7898      3.8833   3.2062979665e+01   2.6003191134e+01    0.8062833    0.4191502  77.85  0.004479882    1.764    0.433
         9 -14.4478     57.4857    240.3826   1.1761809970e+02   1.7478268474e+01    0.8726174    0.5335132  61.60  0.004689478    1.392    0.282
        10 -12.0110    139.7916    248.7003   1.0208248726e+02   4.2000492420e+00    0.4354872    0.3299353 -61.76  0.002755015    1.705    0.414
        11 -13.0704     70.2484    172.8123   1.0777252694e+02   3.0324851367e+01     1.167063    0.5297756 -36.73  0.003731776    4.741    0.789
        12 -14.7541     84.8840    221.8929   1.1034910426e+02   1.7419125866e+01     4.950152    0.9630564  41.67   0.00453225    3.758    0.734
        13 -12.8211     12.5150    189.2891   1.2301145467e+02   3.2924107797e+01    0.2369112    0.1948596  71.33 0.0003750762    1.100    0.091
        14 -14.1595     25.0273    226.4367   1.2286315115e+02   2.3923504498e+01     1.267093    0.5147709  60.12   0.00654266    2.184    0.542
        15 -16.5648      7.4808    200.8115   1.2476641188e+02   3.0876099131e+01     8.869101     1.203113 -74.45   0.01138975    5.276    0.810
        16 -16.5515      7.4556    243.6808   1.2689730644e+02   2.2385269714e+01     1.959053     1.553149  34.87   0.01548552    1.589    0.371
        17 -10.5449    113.2370    206.3293   1.0212028856e+02   1.6255980044e+01    0.2211148    0.1999248 -89.11 0.0008651633    1.176    0.150
        18 -11.8364    194.4746    197.3084   8.2576887849e+01   3.7997117590e+00     1.269685    0.6782857 -61.89  0.004029259    5.395    0.815
        19  -9.6110     31.0703    202.6970   1.2004407789e+02   2.8210548589e+01    0.1827782    0.1281739  63.49 0.0006352869    1.212    0.175
        20 -11.5059     62.5824    199.5924   1.1286123497e+02   2.5196504873e+01    0.4980114     0.220649 -57.22   0.00155257    2.333    0.571
        21 -10.2516     66.2905    194.6580   1.1146953446e+02   2.5807709336e+01    0.2710656     0.210352  79.90 0.0007297477    1.212    0.175
        22  -8.6882    161.2556    199.6549   9.0153606710e+01   9.2802991312e+00    0.1318801     0.111363  78.80 0.0003430608    1.589    0.371
        23  -8.2154     73.2996    199.2849   1.1038336364e+02   2.3828370153e+01    0.1186516    0.1032823 -25.59 0.0001628834    1.552    0.356
        24  -9.1837    134.2225    196.3931   9.5746703195e+01   1.4746151220e+01    0.2017593    0.1216651  46.41 0.0004273061    1.573    0.364
        25  -8.7521     82.3468    195.2883   1.0779491173e+02   2.3429598639e+01    0.1272311    0.1065873 -15.72 0.0007023696    1.656    0.396
        26  -8.6791    120.2899    194.3014   9.8673800792e+01   1.7604642279e+01    0.1352002    0.1108872  -7.23 0.0003175461    1.564    0.361
        27  -9.4836     24.0759    193.6560   1.2084803722e+02   3.0892120206e+01    0.1930358    0.1307778  83.36 0.0004884464    1.254    0.203
        28 -11.8617    109.8137    200.9462   1.0213736940e+02   1.7941375496e+01    0.5996587    0.3256161 -38.51  0.001653732    2.596    0.615
        29  -8.7587     72.3368    188.6671   1.0933355368e+02   2.6343624744e+01     0.146263   0.09096836  66.71 0.0007052057    1.740    0.425
        30 -13.9675     42.9230    201.0258   1.1736762190e+02   2.7276489795e+01    0.8821256    0.6238439  86.61  0.004138951    1.267    0.211
        31  -8.7574     70.3017    184.6463   1.0931974596e+02   2.7545553063e+01    0.1446437   0.09249439  69.89 0.0005133751    1.704    0.413
        32  -9.4164     91.4627    183.0609   1.0392078040e+02   2.4823366053e+01     0.197968    0.1349795 -63.26 0.0004049008    1.495    0.331
        33 -10.2136     99.5033    180.8710   1.0159597953e+02   2.4050681439e+01    0.2601708    0.2234473  38.28   0.00052783    1.156    0.135
        34  -9.7749     37.8574    181.2340   1.1668800627e+02   3.2285487784e+01     0.190855      0.14388  69.83 0.0004623623    1.191    0.160
        35 -10.5526    150.2793    178.1393   8.8703450588e+01   1.5604632213e+01    0.4282546    0.2629051 -70.53  0.001671178    2.738    0.635
        36 -10.8720    144.3036    178.6293   9.0216553448e+01   1.6629888940e+01    0.3378206    0.2507792 -40.95  0.001321883    1.437    0.304
        37 -10.5257     42.3308    179.8223   1.1549235430e+02   3.2125403372e+01    0.2284568    0.1871148  86.77  0.000602912    1.053    0.051
        38 -10.7661     45.5133    176.5071   1.1437904223e+02   3.2541992011e+01    0.3434525    0.2546746 -61.34  0.001264895    1.351    0.260
        39  -9.7145    189.0134    178.0077   7.9947050420e+01   8.2572508983e+00     0.377443    0.2039179 -54.74  0.001503278    2.622    0.619
        40  -9.9892    187.4628    172.9441   7.9239625093e+01   9.5037358075e+00    0.3373294    0.2235117 -67.41  0.001380668    2.691    0.628
        41 -11.3588    124.7192    247.0872   1.0492193142e+02   6.7825588311e+00    0.4344991    0.1746548 -49.13  0.002009968    3.067    0.674
        42 -13.2231     81.3467    161.0525   1.0311332952e+02   3.1561117074e+01     1.527354    0.5926807  53.88 0.0004070315    3.788    0.736
        43 -13.7930     69.7441    156.2804   1.0547923629e+02   3.4382440192e+01    0.6502028    0.5445185 -12.17   0.00357803    1.536    0.349
        44 -10.5110    105.0668    246.4843   1.0880462731e+02   9.8361761834e+00    0.1896379     0.101437  38.65 0.0005718885    1.543    0.352
        45 -11.1695    132.2559    172.4386   9.1971062198e+01   2.0229353126e+01    0.3765904    0.1371391  40.78  0.001296953    2.582    0.613
        46  -9.5561     34.5261    171.4767   1.1651799386e+02   3.4903480281e+01    0.2221287    0.1372809  68.90 0.0007918818    1.612    0.380
        47 -10.7952    137.7795    169.2793   8.9997350485e+01   1.9886116867e+01    0.3601125    0.2734357  48.50   0.00176674    1.310    0.237
        48 -14.3499     53.4966    189.7680   1.1390366386e+02   2.8541682102e+01     2.740222       1.6833 -80.28   0.01477267    1.574    0.364
        49 -10.1165    156.2496    157.9659   8.3157160703e+01   1.8712929558e+01    0.3733445     0.257913 -75.10  0.001237808    2.308    0.567
        50 -12.2726     88.3344    154.2769   1.0006834850e+02   3.2133964849e+01    0.6340501    0.4571999 -22.34  0.001787795    1.930    0.482
        51  -9.7970    235.3136    155.3161   6.6103235220e+01   3.7595855433e+00     0.141541    0.0991031  -1.25            0    1.643    0.391
        52  -9.7241    187.2071    151.8046   7.4725657074e+01   1.3647059299e+01    0.2163791     0.174839   3.41  0.001071969    1.355    0.262
        53 -11.3063    133.7829    144.6151   8.5838333206e+01   2.6217835784e+01     1.182051    0.3273155 -54.49  0.002886234    5.228    0.809
        54  -8.9342    112.6594    150.3210   9.2679912594e+01   2.8943886289e+01    0.1592422    0.1181168  73.87 0.0003667935    1.719    0.418
        55 -10.3807    174.3772    148.8417   7.6891824863e+01   1.6893871219e+01    0.3110309    0.2757706  85.10 0.0008573359    1.410    0.291
        56 -10.5403     38.9639    146.2836   1.1247281153e+02   4.0506107651e+01    0.2897916    0.2421384  81.19  0.000846597    1.142    0.125
        57 -10.0620    143.4750    144.9726   8.3428240816e+01   2.4166682309e+01    0.2210003     0.140528 -72.15 0.0008100533    2.566    0.610
        58 -10.8018     83.3554    142.9223   9.9377564687e+01   3.5686218795e+01    0.2516842    0.2230185  49.45 0.0002922409    1.151    0.131
        59 -10.8788    102.3990    139.3774   9.3239142166e+01   3.3405408386e+01    0.5588123    0.3548618 -22.74  0.002194419    2.449    0.592
        60 -12.3785     89.6057    139.4288   9.6903951306e+01   3.5556737910e+01    0.2992335    0.2548391 -43.79 0.0002807967    1.194    0.163
        61 -10.5990    105.9969    130.8362   9.0336463056e+01   3.4812515064e+01    0.3663853    0.3236478 -79.18  0.001299505    1.231    0.188
        62 -10.2572    111.5075    130.0825   8.8587358651e+01   3.3967014688e+01    0.3114225      0.24288  -8.50 0.0008125257    1.645    0.392
        63 -11.8816     44.1299    129.8683   1.0861904125e+02   4.4013794917e+01    0.3491285    0.2883341  72.37   0.00169744    1.282    0.220
        64 -12.3254     40.4015    127.7877   1.0941154669e+02   4.4908930019e+01    0.6905706    0.2515622 -68.45  0.002357079    2.553    0.608
        65 -10.9475    135.7022    127.1059   8.1212134524e+01   2.9802093965e+01    0.4993601     0.142621 -50.42  0.001340338    3.993    0.750
        66 -10.9474     98.8458    126.1108   9.1341781137e+01   3.7231136298e+01     0.334308    0.2652137 -12.80  0.001599416    1.554    0.356
        67 -10.9387    118.3609    123.4626   8.5060380860e+01   3.4192369686e+01    0.6438482    0.3972274  -3.52  0.002046681    3.694    0.729
        68  -9.7243     91.9760    124.6686   9.3062240780e+01   3.8763590999e+01    0.2485845    0.2031396  83.31 0.0006859792    1.472    0.321
        69  -9.9652    160.9791    127.9844   7.5055606540e+01   2.4133638502e+01    0.2555885    0.2027733 -85.34  0.001143081    1.729    0.422
        70 -12.2556     34.2442    118.2779   1.0979469569e+02   4.7830893732e+01    0.4174696    0.2611935 -33.93  0.002081247    1.835    0.455
        71  -9.9487    107.9063    119.0199   8.6976981252e+01   3.7259115718e+01    0.2203805    0.2142134 -16.24 0.0003148289    1.027    0.027
        72 -11.1645     45.1057    118.1530   1.0634262724e+02   4.6797802341e+01    0.2470236    0.1884981 -80.34 0.0005868322    1.324    0.245
        73 -10.4922    135.0000    112.9470   7.7774727127e+01   3.3103815756e+01    0.4422007    0.0901477 -44.70  0.001048782    4.911    0.796
        74  -9.3726    168.2464    113.0746   6.9559190947e+01   2.5588152741e+01    0.2646004    0.1838118 -69.44   0.00107372    2.068    0.516
        75 -12.0082     34.0584    109.7391   1.0841999253e+02   4.9927195603e+01    0.4040373     0.259106  72.15  0.002002957    2.068    0.516
        76 -10.1393    205.5193    110.1568   6.1140570746e+01   1.7693771562e+01    0.3120427     0.214197  41.25 0.0008999593    1.563    0.360
        77 -10.3775    115.3839    109.4255   8.2322451474e+01   3.8009375171e+01    0.3429082    0.2021274 -32.03  0.001346699    2.008    0.502
        78  -9.5487    134.5269    105.9938   7.6027307197e+01   3.4717472581e+01    0.2442819    0.1556673 -43.55 0.0007017979    1.573    0.364
        79 -12.2042     42.0812    104.1330   1.0469148379e+02   5.0521287549e+01    0.4395716     0.287814  45.98  0.001714005    1.798    0.444
        80  -8.6539    140.5737    107.5210   7.4842143255e+01   3.3047892654e+01    0.1568676    0.1535743  -8.38 0.0001016488    1.010    0.010
        81  -9.6419     65.1136    103.6739   9.6771098255e+01   4.7920533902e+01    0.2174931    0.1763959  53.70 0.0005908272    1.433    0.302
        82  -9.4730    128.1038     95.4881   7.4826933009e+01   3.8362641411e+01    0.2343692    0.1539162  45.69 0.0006903104    1.521    0.342
        83 -10.2568     53.4578     90.9917   9.7779735000e+01   5.2389171495e+01    0.2214409    0.1243443 -55.41 0.0004579729    1.607    0.378
        84  -9.5157    156.8759     88.8219   6.5568648143e+01   3.3040484479e+01     0.295555    0.2004232 -65.97  0.001207359    2.035    0.509
        85 -16.1599     35.8802    249.2290   1.2222258513e+02   1.8400903849e+01     10.79474     3.097793  26.85   0.02465486   14.646    0.932
        86  -9.0971    116.2635     85.3836   7.5213101965e+01   4.3019033943e+01    0.2127915     0.145382  52.95 0.0007200154    1.593    0.372
        87  -9.8315    158.5106     82.0157   6.3238014108e+01   3.3916014297e+01    0.2327164    0.1527366 -37.97 0.0005848178    1.542    0.352
        88  -9.4341     55.8268     66.1446   8.9940012882e+01   5.7568991766e+01    0.1867995    0.1811866 -28.72 0.0003247665    1.205    0.170
        89 -10.8801     13.4265     59.7864   1.0584006820e+02   6.2927270514e+01    0.2288369    0.1924311 -58.59 0.0004336307    1.196    0.164
        90 -13.3456    190.7702     46.3211   4.7101215832e+01   3.1643372276e+01    0.9229102    0.6219508  40.90 0.0009890525    1.737    0.424
        91 -10.0045     44.0144    229.9153   1.1944530577e+02   2.1134033771e+01    0.2010432    0.1499288 -87.68  0.001131436    1.263    0.208
        92  -8.8434     47.2780    228.9302   1.1873337552e+02   2.0943959663e+01    0.1865104   0.07358611  81.81 0.0007008018    4.074    0.755
        93 -11.0986    142.1104     47.2635   5.6265642333e+01   4.3661311201e+01    0.4573733     0.301655 -85.83 0.0005972297    2.378    0.580
        94 -10.0494    145.0727     41.9457   5.3910226966e+01   4.3671377582e+01    0.2145068    0.2011524  55.85 0.0003201567    1.015    0.015
        95 -10.8929    187.9773     31.0261   4.3395563127e+01   3.4317426314e+01    0.2141411    0.1949441  81.02 0.0005718368    1.038    0.037
        96 -12.9764     27.8987    215.0291   1.2157889173e+02   2.5935518456e+01     0.779461    0.3170306  77.63  0.002894166    2.880    0.653
        97  -9.5426    189.6911     14.9924   3.8943359156e+01   3.5712061670e+01     0.179349    0.1624097 -64.94 0.0005649738    1.121    0.108
        98  -8.8960     37.4209    224.2513   1.2033092941e+02   2.3019141306e+01    0.1007642   0.09017155 -16.48 0.0004255276    1.747    0.428
        99 -10.0310     59.7628    220.4006   1.1550443945e+02   2.1127217869e+01    0.3176565    0.1930846  27.56  0.001034642    1.930    0.482
