#   1 NUMBER                 Running object number                                     
#   2 MAG_AUTO               Kron-like elliptical aperture magnitude                    [mag]
#   3 X_IMAGE                Object position along x                                    [pixel]
#   4 Y_IMAGE                Object position along y                                    [pixel]
#   5 X_WORLD                Barycenter position along world x axis                     [deg]
#   6 Y_WORLD                Barycenter position along world y axis                     [deg]
#   7 A_WORLD                Profile RMS along major axis (world units)                 [deg]
#   8 B_WORLD                Profile RMS along minor axis (world units)                 [deg]
#   9 THETA_WORLD            Position angle (CCW/world-x)                               [deg]
#  10 FWHM_WORLD             FWHM assuming a gaussian core                              [deg]
#  11 ELONGATION             A_IMAGE/B_IMAGE                                           
#  12 ELLIPTICITY            1 - B_IMAGE/A_IMAGE                                       
         1 -11.4698      9.1410     25.4045   1.2268899687e+02   6.9518874517e+01    0.5139502    0.2298653 -44.14  0.002939081    1.655    0.396
         2 -11.5789     56.6106     29.6293   1.0336898462e+02   6.3727164706e+01    0.6427288    0.1795409 -32.69  0.002070372    4.455    0.776
         3 -10.4581     54.1350     23.3603   1.0162281696e+02   6.5053807719e+01    0.2480581    0.2137559 -30.39 0.0004776175    1.257    0.205
         4 -11.2283     84.2665     22.3607   9.0434242115e+01   6.0070152495e+01    0.3294466    0.2223678   2.42  0.001462821    1.631    0.387
         5 -11.5265     25.6182     20.2542   1.1271267856e+02   6.9040724451e+01     0.471787    0.2553623 -15.03  0.002512845    2.216    0.549
         6 -10.8438    107.8714     17.8034   8.1863248096e+01   5.5693629971e+01    0.3810505    0.2399882  -9.14 0.0008030138    1.758    0.431
         7 -12.2731    130.7232     13.6617   7.5162374654e+01   5.0785047538e+01    0.5830151    0.4179917   8.12  0.003046694    1.581    0.367
         8 -11.0575     75.2865     17.4610   9.1183056988e+01   6.2378829157e+01    0.3311094    0.2067515   9.49 0.0008473002    1.856    0.461
         9  -9.9803    123.6031     14.7158   7.7015889192e+01   5.2391815298e+01    0.2490069    0.1928757  46.91 0.0008072192    1.173    0.148
        10 -10.5636    119.6044     11.7899   7.6740449009e+01   5.3633442027e+01    0.2358181    0.1881728  65.08  0.000590821    1.276    0.216
        11 -10.2712     99.6248     14.3156   8.2538221295e+01   5.7884677219e+01    0.2666648    0.2047917   1.17  0.001030802    1.299    0.230
        12 -11.8822     26.1597     13.6026   1.0945726824e+02   7.0042315489e+01    0.2542034    0.2111184 -11.36 0.0003755598    1.133    0.117
        13  -9.7996    175.6700     11.9812   6.7325642843e+01   3.9586876962e+01    0.1820099    0.1753613 -55.98 0.0003835126    1.098    0.089
        14 -11.1042     78.1374      9.6032   8.6649798772e+01   6.2765347018e+01    0.3407067    0.2424222  11.46     0.001921    1.356    0.262
        15 -11.7647     81.4145      6.1867   8.4055352684e+01   6.2487215748e+01    0.3281731    0.2089908 -21.69 0.0001652805    1.549    0.354
        16  -9.9289      1.9046      8.3932   1.1967467688e+02   7.2935045235e+01    0.1935985    0.1397758 -89.80  0.001060758    3.754    0.734
        17 -10.0302    161.0551      8.0159   6.8090424969e+01   4.3720597892e+01    0.2021586    0.1826996  69.94 0.0003055023    1.015    0.015
        18 -10.0521      9.0839      7.4384   1.1531125389e+02   7.2570417023e+01     0.303321    0.1601932 -10.55  0.001534321    2.161    0.537
        19 -10.2396    127.4639      5.9532   7.2911043415e+01   5.2304612012e+01    0.2974214    0.1645485 -40.70 0.0005611404    2.060    0.515
        20 -10.7024     75.0533      5.1840   8.5542909606e+01   6.3816623582e+01    0.3645686    0.1730407 -20.19  0.001767348    2.110    0.526
        21  -9.4281     59.9975      5.3301   9.0769666594e+01   6.6491444935e+01    0.3038522    0.1010591  45.94  0.001305901    2.890    0.654
        22  -9.8409     91.8377      3.9125   8.0080491905e+01   6.0582616857e+01    0.1979931    0.1516507  22.88 0.0006741026    1.184    0.155
        23 -11.8342     27.5698      2.8908   1.0340400550e+02   7.1422778669e+01      0.46349    0.2356106  30.18  0.002303148    2.031    0.508
        24  -9.8011     18.7441      3.9896   1.0845791785e+02   7.2225760875e+01    0.1529886    0.1099639 -21.80 0.0002802672    1.063    0.059
        25  -9.2949    100.7279      3.6615   7.7720106941e+01   5.8693488835e+01    0.1374183   0.08628017  25.63 0.0003588334    1.605    0.377
        26 -10.3956    116.2627      5.4726   7.4964048261e+01   5.5009581816e+01    0.3270208    0.2192118 -52.91  0.001668653    1.942    0.485
        27  -8.9061    124.2788      1.2746   7.1735093285e+01   5.3469251866e+01    0.1357679    0.0878021  36.04            0    1.497    0.332
        28  -9.5727     53.6785    234.6863   1.4276269890e+02   2.1021066001e+01   0.08884344   0.08647118 -55.76 0.0006688118    1.656    0.396
        29  -9.9435    243.0075    247.4857   1.1104019647e+02  -9.1580816144e+00    0.1586349    0.1133789  22.84 0.0005005385    1.055    0.052
        30 -10.9537    246.9004    250.1930   1.1082407502e+02  -9.9675358750e+00    0.3694685    0.1272329  38.65  0.001572203    2.356    0.576
        31 -10.6006    250.5820    244.7670   1.0939964954e+02  -9.9355286003e+00    0.4196245    0.1510756 -31.50  0.002185828    3.035    0.671
        32 -11.5223    178.7578    243.6930   1.2142093375e+02   1.0044959920e+00    0.3928237    0.1391425  42.43  0.001649696    2.236    0.553
        33 -10.0119    127.9190    249.6391   1.3113120944e+02   8.1588059098e+00    0.1631487    0.1572013 -55.42 0.0009575193    1.378    0.274
        34  -9.6983     72.8534    250.0933   1.4064069558e+02   1.5964684923e+01    0.1370689    0.1330189   3.43  0.001112508    1.700    0.412
        35 -10.1941     32.0771    249.2464   1.4720204482e+02   2.1055591314e+01    0.2505443    0.1309037 -55.79  0.001557816    2.989    0.665
        36 -11.5827     27.7482    246.1119   1.4771966039e+02   2.2054643209e+01    0.3855996    0.1596295 -80.72  0.002335358    2.280    0.561
        37 -12.4819     22.2316    249.0464   1.4872179503e+02   2.2155833598e+01    0.8809137    0.1542416  52.61   0.00409364    3.493    0.714
        38 -11.5107     17.5010    247.4869   1.4937638902e+02   2.2909878716e+01    0.2691223    0.1265793  50.72  0.001278029    1.575    0.365
        39 -10.6783     11.5431    250.1537   1.5039429898e+02   2.3074490727e+01    0.2155221   0.07443631  53.48  0.001343257    1.976    0.494
        40  -9.3670     50.2869    240.3336   1.4372428272e+02   2.0452919134e+01    0.0876458   0.08176836 -69.24 0.0004812121    1.624    0.384
        41  -9.9370     79.5784    231.3618   1.3794112564e+02   1.8226071889e+01    0.2035234    0.1188787  43.38 0.0005654026    1.505    0.336
        42  -9.6280     89.0000    240.9537   1.3712191985e+02   1.5270924652e+01    0.1567228   0.06190914 -65.01 0.0007946539    2.889    0.654
        43  -9.5559    235.9880    230.4882   1.0952339332e+02  -6.3163363564e+00    0.1688921   0.09426095  35.05 0.0004593388    1.488    0.328
        44 -11.1913    153.4089    233.6465   1.2465175158e+02   6.5228443348e+00    0.2135966    0.1798054  -1.03 0.0008219874    1.532    0.347
        45 -10.2393    152.3503    228.5070   1.2416661544e+02   7.4808425022e+00    0.2131663     0.161946 -43.57  0.001361523    1.619    0.382
        46 -10.8188    116.0853    227.1701   1.3079278309e+02   1.3567614253e+01    0.3789184    0.1372162 -62.77  0.001620145    3.655    0.726
        47  -9.1716     93.6763    229.3479   1.3518787375e+02   1.6579825570e+01    0.1263489   0.07329758  67.30 0.0007049472    1.745    0.427
        48 -10.4992    129.8283    226.8670   1.2817539427e+02   1.1433808285e+01    0.3738426    0.1690903  54.90   0.00175041    2.278    0.561
        49 -10.3054    190.4190    226.4444   1.1685073203e+02   1.4326029030e+00    0.2060281    0.1799337  -3.11 0.0007579597    1.237    0.192
        50 -10.2845     88.1098    227.1462   1.3599550081e+02   1.7771007192e+01    0.1684301    0.1495031  50.31  0.001223406    1.282    0.220
        51  -9.6120      6.6703    227.3038   1.5016848580e+02   2.7472161115e+01    0.1102637   0.05046326  64.90 0.0005581529    1.652    0.395
        52 -10.2475    144.4445    226.5207   1.2538221674e+02   9.1014318891e+00    0.1241576    0.1018343  49.52 0.0001104376    1.034    0.032
        53 -10.5212     66.4920    226.3414   1.3986527477e+02   2.0882561401e+01    0.2509218    0.1242405  45.28  0.001050208    1.686    0.407
        54 -10.4005     81.3669    224.6384   1.3699899718e+02   1.9174370643e+01    0.2200808     0.152167  80.71 0.0009320271    1.376    0.273
        55 -10.8341     13.0675    222.1907   1.4887850573e+02   2.7774650764e+01     0.170218    0.1285449  83.08 0.0003953297    1.171    0.146
        56 -11.1770    142.6716    220.5993   1.2492800386e+02   1.0356840853e+01    0.5708631    0.3138854  22.30  0.002435473    3.202    0.688
        57  -9.1130    134.8580    223.0000   1.2673609189e+02   1.1255748687e+01    0.2043733   0.05999837  41.79 0.0007883071    2.845    0.649
        58 -11.0107    123.3078    221.4897   1.2874867292e+02   1.3391885197e+01    0.2607579    0.2008118  51.21 0.0009411545    1.074    0.069
        59  -9.1078     51.6463    222.6890   1.4224139002e+02   2.3431465844e+01   0.09407746   0.08827455 -39.09 0.0007044357    1.727    0.421
        60 -10.3565    174.0539    219.9908   1.1888829601e+02   5.1224498436e+00    0.1972053    0.1629285  38.62 0.0006279459    1.025    0.024
        61  -9.6693    250.2927    219.0386   1.0523473970e+02  -7.1455861171e+00    0.1630415    0.1259124   0.31 0.0006915971    1.116    0.104
        62  -9.6591     50.0191    218.4528   1.4221232706e+02   2.4417349293e+01      0.16338    0.0953332  43.34 0.0007819968    1.590    0.371
        63 -10.7374     10.1020    217.1235   1.4911954545e+02   2.8993464662e+01    0.2505877    0.1360508  60.65 0.0007837588    1.404    0.288
        64 -10.6983    201.5436    216.0706   1.1318351678e+02   1.0044829251e+00    0.2370708    0.1763185  21.14  0.001457445    1.244    0.196
        65 -10.4019    191.7517    216.9552   1.1512163050e+02   2.5426966906e+00    0.2007019    0.1542694  17.66  0.001078646    1.284    0.221
        66 -10.2985    194.6623    215.3176   1.1432026128e+02   2.2802399443e+00    0.1985491    0.1428095  50.26 0.0009830351    1.451    0.311
        67  -9.3076     37.5670    217.4749   1.4437873011e+02   2.6060183968e+01    0.1105102   0.08287292  73.63 0.0001114215    1.028    0.027
        68  -9.9902     24.5888    216.9386   1.4662884694e+02   2.7574947466e+01     0.234575   0.09284963  54.71  0.001336565    2.007    0.502
        69 -10.1784    234.8168    216.6250   1.0740847193e+02  -4.5025424941e+00    0.1677475    0.1010245  45.38 0.0009478337    1.760    0.432
        70  -9.2843    179.6806    215.7034   1.1717114053e+02   4.8006405629e+00    0.1266215   0.09040301  15.54 0.0007018182    1.614    0.380
        71  -9.5691    137.2173    215.6194   1.2530301071e+02   1.2107984431e+01    0.1825686    0.1061272  35.14 0.0009443294    1.690    0.408
        72  -9.8210     30.9781    215.4822   1.4541617911e+02   2.7166397004e+01    0.1585036   0.09005009  45.13   0.00103447    1.598    0.374
        73  -9.6304    212.8711    211.8589   1.1043031870e+02  -3.2485672125e-01    0.1873691    0.1592572 -59.47 0.0005531951    1.748    0.428
        74 -10.4863    208.9898    212.0668   1.1116439912e+02   3.0014535904e-01    0.2361148    0.1753207  24.60 0.0005124116    1.177    0.151
        75 -10.1867    170.0837    213.2642   1.1860961417e+02   6.8425114080e+00    0.1879009    0.1486111  41.11  0.001155649    1.080    0.074
        76  -9.6152    142.8486    213.1841   1.2386715903e+02   1.1569572776e+01    0.1685607    0.1421698  23.98 0.0005143887    1.320    0.243
        77 -10.9619     20.6181    211.5740   1.4700355190e+02   2.8996378264e+01    0.2777675    0.1351465  70.97 0.0007882064    1.744    0.427
        78 -11.8319      4.4187    207.3522   1.4959823536e+02   3.1355198550e+01    0.3941399    0.2235038  70.69  0.002771753    1.331    0.248
        79  -9.2920     27.5557    205.5092   1.4537396794e+02   2.9445189647e+01    0.1139515    0.0807558  74.20 0.0003080159    1.060    0.057
        80  -9.4838    238.5275    201.4437   1.0408742995e+02  -3.1867547271e+00    0.1267527    0.1003957  11.71 0.0001466428    1.058    0.055
        81 -10.6516    210.6840    201.1673   1.0895885692e+02   1.5422996879e+00    0.1847548    0.1694783 -54.01  0.001193317    1.458    0.314
        82  -9.0216     34.6695    200.7302   1.4371046594e+02   2.9619801377e+01   0.09488764   0.08521646 -56.90 0.0002487132    1.584    0.369
        83 -10.9168    227.2990    196.7078   1.0516494878e+02  -6.9222675725e-01    0.2692987    0.1825962   9.76 0.0007599791    1.554    0.356
        84 -11.7883    192.0718    194.8704   1.1131241652e+02   5.8134570708e+00    0.3173981    0.2933629 -81.01  0.001988174    1.413    0.292
        85  -9.7658    202.9232    195.8728   1.0943997134e+02   3.6941211416e+00    0.2014963    0.1603681  13.87 0.0006673426    1.222    0.182
        86 -11.7597    215.5643    193.9488   1.0675544703e+02   1.7293045064e+00    0.3588995     0.187238 -34.97  0.001669125    2.031    0.508
        87 -11.1961    232.5600    191.3252   1.0323600302e+02  -8.4691068254e-01    0.3096642    0.1789866  24.47  0.001583149    1.787    0.440
        88 -10.1903    163.0000    191.4107   1.1643673346e+02   1.1758868440e+01    0.2792924   0.07832757 -46.28 0.0009408078    3.984    0.749
        89  -9.5219      7.0000    195.9896   1.4853765590e+02   3.3318862130e+01    0.1695994    0.0485429 -78.19 0.0004943009    2.895    0.655
        90 -11.6801    187.4543    189.4166   1.1121719832e+02   7.5414528932e+00    0.3704033    0.1881163 -34.75  0.001680101    2.254    0.556
        91  -9.6638    246.3206    190.3295   1.0069555631e+02  -3.0088586155e+00    0.1325674   0.08444037   7.78  0.000467063    1.691    0.409
        92  -9.4390    205.5931    190.2463   1.0790608591e+02   4.0669199770e+00    0.1714853    0.1213669 -19.85 0.0005553159    1.545    0.353
        93 -10.8637    225.5854    189.0185   1.0402589527e+02   6.7904490026e-01    0.3072319    0.1543929  14.62  0.001088741    3.986    0.749
        94  -9.3062    150.3092    193.3119   1.1934254405e+02   1.3750665468e+01     0.130473    0.1038854   8.29 0.0005156972    1.625    0.384
        95  -9.6086    169.7271    185.3708   1.1400846721e+02   1.1562982145e+01    0.1921416    0.1298255  54.83 0.0009659859    1.554    0.356
        96  -9.9495    166.5355    183.4846   1.1431823383e+02   1.2503308578e+01    0.2435088    0.1254936  43.67  0.001090569    1.767    0.434
        97  -9.5330     61.6137    184.7944   1.3687363624e+02   2.9668312135e+01    0.1761939     0.102791 -84.16 0.0009533016    1.690    0.408
        98 -11.5500    248.4982    182.6468   9.8850336634e+01  -2.3486775102e+00    0.4634086    0.2157418  25.04  0.001984725    2.758    0.637
        99 -11.9045     16.3439    183.2587   1.4597290883e+02   3.5026078990e+01    0.3638389     0.204809  84.79  0.001762067    1.468    0.319
       100  -9.8198    250.4606    190.0094   9.9945612124e+01  -3.6387797831e+00     0.181546    0.1110955 -27.58 0.0005191643    1.569    0.363
       101 -11.5965    224.2770    178.4137   1.0219853585e+02   2.4571863046e+00     0.292088    0.2524653 -13.19 0.0005405438    1.120    0.107
       102 -10.4354      2.1393    180.1173   1.4852738335e+02   3.6920139470e+01    0.1802578    0.1252881  69.23 0.0005192582    1.168    0.144
       103 -11.4899    244.5887    177.7504   9.8539130565e+01  -1.0244175324e+00    0.3012348    0.1524625 -24.41  0.001440514    2.031    0.508
       104 -10.0819    236.4845    182.4679   1.0085026879e+02  -2.8950557986e-01     0.130388    0.1105478   7.52 0.0002499302    1.002    0.002
       105 -11.0236    200.2083    176.6714   1.0632282735e+02   7.2199989943e+00    0.2291636    0.1955492 -16.03 0.0008317253    1.192    0.161
       106  -9.9618    211.3643    174.8423   1.0384731889e+02   5.3941220481e+00    0.1947188    0.1216799 -22.67 0.0009450296    1.781    0.438
       107  -9.8486    183.4979    173.0028   1.0888501328e+02   1.1083460512e+01    0.1943313    0.1208494 -14.30 0.0008100905    2.497    0.600
       108 -10.6916     18.2987    173.4435   1.4485889437e+02   3.6891876428e+01    0.2661298    0.1269861  44.53  0.001546295    1.982    0.495
       109  -9.6256     59.6256    171.7857   1.3583798142e+02   3.2712021435e+01    0.1788169    0.1047437 -82.49 0.0009445784    1.668    0.400
       110  -9.6463     74.4966    171.4875   1.3247824677e+02   3.0780306260e+01    0.1292449    0.1121484  82.52 1.690828e-05    1.027    0.026
       111  -9.3935     70.2189    177.5867   1.3419932992e+02   3.0054766004e+01    0.1492077    0.1201712  33.67 0.0004495599    1.483    0.326
       112  -9.8556      4.5121    168.0256   1.4728920580e+02   3.9230701745e+01    0.1762612   0.08576061 -80.21  0.001041216    1.615    0.381
       113  -9.7085    209.9862    166.3064   1.0236608651e+02   7.0279684903e+00     0.196365    0.1692424  25.25 0.0005173249    1.081    0.075
       114 -10.7519     10.0003    165.1784   1.4595215376e+02   3.9380773140e+01    0.1817461    0.1256534 -87.40 0.0003333324    1.114    0.102
       115 -10.6213     52.5555    163.4138   1.3643949598e+02   3.5432691661e+01    0.4848472    0.2544376 -34.89  0.001849842    4.618    0.783
       116  -9.1290    229.4992    164.5404   9.8446495031e+01   3.5886736319e+00    0.1370312    0.1188046   5.10 0.0001321823    1.036    0.035
       117 -11.4524    247.8339    158.8205   9.4128333012e+01   1.0913817512e+00    0.4252016    0.2387427 -31.94  0.002144236    1.662    0.398
       118  -9.2956    200.0492    162.7736   1.0352682326e+02   9.5738096529e+00    0.1837282    0.1117528  44.85 0.0004216728    1.594    0.373
       119 -10.5406     36.2819    161.6563   1.3992935940e+02   3.7661557184e+01    0.3747306    0.1335612 -66.56  0.001732446    2.340    0.573
       120  -9.5663     48.4897    158.5322   1.3679405003e+02   3.7002739549e+01    0.1262473    0.1037449  87.57   0.00019645    1.011    0.011
       121 -11.0539     22.4341    156.7712   1.4255439876e+02   4.0106374175e+01    0.3414193    0.2788888 -56.38  0.002400381    1.437    0.304
       122 -10.1558      8.8581    158.3480   1.4567355257e+02   4.0939144708e+01    0.2811913    0.1190753  34.30  0.001447004    2.530    0.605
       123  -9.2244    235.6610    154.6975   9.5292657248e+01   3.9369604627e+00    0.1420674   0.09794048   9.65 0.0007038158    1.670    0.401
       124  -9.7730    217.2821    154.6286   9.8534575301e+01   7.5023345478e+00    0.2705884    0.1317501  49.63   0.00113934    2.171    0.539
       125  -9.9808    205.2768    152.2915   1.0027253608e+02   1.0309965730e+01    0.2598672     0.174973 -30.48  0.001268921    1.508    0.337
       126 -10.1644    197.2037    153.6242   1.0212812022e+02   1.1734513445e+01    0.2116706     0.127431  36.20 0.0009516987    1.688    0.408
       127  -9.2204    151.6652    153.3280   1.1165028679e+02   2.1204869265e+01    0.1511286    0.1154687  83.26 0.0007051848    1.722    0.419
       128 -10.3245      9.8872    152.8154   1.4500352005e+02   4.2055052450e+01    0.1973566    0.1178833  46.69 0.0007574491    1.706    0.414
       129 -10.4439    178.3392    151.4512   1.0547681548e+02   1.6052527362e+01    0.3148206    0.2587011  67.01  0.001624193    1.415    0.293
       130  -9.2719     92.6741    148.2926   1.2463794443e+02   3.3211265811e+01    0.1432554    0.1008403  74.57 0.0005282814    1.619    0.383
       131  -9.4019    233.5298    146.9585   9.3976115391e+01   5.5410628226e+00    0.2104375    0.1277117 -31.11  0.001021743    1.566    0.361
       132 -10.5679    206.9122    145.9567   9.8557002018e+01   1.1061410023e+01     0.246992    0.2035534  40.47 0.0007736817    1.204    0.170
       133  -9.7440    215.6819    145.6741   9.6856757540e+01   9.3038556408e+00    0.1486069    0.1068192   7.84 0.0004646668    1.676    0.403
       134 -10.9537      3.5927    143.1149   1.4561756638e+02   4.4655677156e+01    0.2727739    0.1560493 -49.00  0.001642462    2.059    0.514
       135 -10.1462    212.4551    141.5875   9.6530686675e+01   1.0657399687e+01    0.3880319    0.2075262  28.67  0.001527177    2.489    0.598
       136  -9.8579     37.2176    142.3777   1.3752625614e+02   4.1893589682e+01    0.1672225    0.1026943  48.78 0.0009488651    1.679    0.404
       137 -11.4301     12.2878    141.5522   1.4345636320e+02   4.4342880029e+01    0.2881868    0.1550076 -35.59  0.001462652    3.105    0.678
       138 -10.3867    236.2289    138.6711   9.1677083330e+01   6.3135193941e+00    0.2247282     0.205703 -44.86 0.0005730185    1.233    0.189
       139 -11.1861     57.3398    138.3541   1.3190700625e+02   4.0541086661e+01    0.4345975    0.2406141  68.50 0.0007927644    2.322    0.569
       140 -11.5847      3.6983    136.0346   1.4498427241e+02   4.6205696585e+01    0.4878207    0.1816922 -56.08  0.001720395    2.497    0.599
       141 -11.7261      9.1315    136.7894   1.4375601554e+02   4.5644911375e+01     0.217108    0.2043635 -53.45 0.0002472496    1.371    0.271
       142 -10.3794     21.9798    136.1979   1.4056248208e+02   4.4741432326e+01     0.188419    0.1363189  74.46  0.001213458    1.302    0.232
       143  -9.8917    138.3353    135.2555   1.1081612998e+02   2.7693621011e+01    0.2799994    0.1818451  33.44 0.0008188463    1.732    0.423
       144  -9.5483     67.6056    134.1581   1.2856749336e+02   4.0184678253e+01    0.1876563    0.1112158 -54.13 0.0005095612    1.591    0.371
       145  -9.5567     79.6908    133.3010   1.2524236028e+02   3.8664427233e+01    0.1404267    0.1006982  77.74 0.0003190585    1.602    0.376
       146 -12.0836     36.4762    130.9443   1.3623008927e+02   4.4590067040e+01    0.3800705    0.2759788 -71.13   0.00149205    1.149    0.130
       147 -10.3357    249.6669    130.2615   8.7618429714e+01   4.9984428385e+00    0.2385427     0.206897 -46.82  0.001413278    1.282    0.220
       148  -9.5503     29.0092    130.6926   1.3813132696e+02   4.5366334378e+01    0.1584356    0.1388403 -83.25  0.001091898    1.102    0.092
       149 -10.1810    125.3366    130.1397   1.1282711462e+02   3.1420272840e+01    0.3956017    0.2126129  24.14  0.001326098    3.449    0.710
       150 -10.1613     73.9245    129.3732   1.2604591361e+02   4.0417962800e+01    0.2548018    0.1822219 -56.05 0.0006458127    1.305    0.234
       151  -9.3491    242.8364    128.3813   8.8267822771e+01   6.6179078252e+00    0.1788126     0.124754  35.17 0.0004287198    1.531    0.347
       152  -9.4861     60.0823    128.5402   1.2960911116e+02   4.2476775986e+01    0.1731552    0.1301791  39.67 0.0003748454    1.467    0.318
       153  -9.5080     25.5404    127.5231   1.3862963073e+02   4.6404302507e+01    0.1230214   0.09856401 -77.60  0.000141459    1.020    0.019
       154  -9.7918      1.3411    126.6794   1.4470140202e+02   4.8436088554e+01     0.222899   0.08599643 -79.34  0.001102188    2.100    0.524
       155 -10.5048    219.6220    124.5594   9.1269664700e+01   1.2026520461e+01     0.265434     0.244452 -15.34 0.0005613811    1.022    0.022
       156 -11.7125     10.7489    122.3544   1.4186708692e+02   4.8760875168e+01    0.4261357    0.2869582 -21.09  0.002601568    2.247    0.555
       157 -10.4669     17.9084    116.1407   1.3921210962e+02   4.9634852165e+01    0.2522041    0.1646719 -58.38  0.001059298    1.344    0.256
       158  -9.9142     20.1410    112.8326   1.3815485519e+02   5.0214717568e+01     0.186011    0.1433966 -58.69 0.0005908523    1.197    0.165
       159 -12.1447     16.6001    108.6878   1.3858253648e+02   5.1430599728e+01    0.3667684    0.3028931 -80.64 0.0006909518    1.072    0.067
       160  -9.3048     56.3224    121.6619   1.2944705670e+02   4.4547094484e+01    0.1379178   0.09394949  77.64 0.0007050682    1.716    0.417
       161  -9.1990     20.5056    121.5638   1.3920453295e+02   4.8192207325e+01    0.1211743   0.09696256 -77.18 0.0001696519    1.013    0.013
       162  -9.6605    221.7156    120.0069   8.9816926103e+01   1.2339596156e+01    0.2115783    0.1783441 -26.35 0.0007479637    1.125    0.111
       163  -9.7779     41.2817    120.6248   1.3343198307e+02   4.6486764963e+01    0.1329154   0.08704561  80.55  0.000701231    1.708    0.415
       164  -9.1222    166.6363    118.7384   1.0031646972e+02   2.4962540939e+01    0.1566214    0.1195378  17.43 0.0002774996    1.638    0.390
       165  -9.6099     54.2600    117.6178   1.2930520231e+02   4.5738302373e+01    0.1639325     0.129926  13.16 0.0009449133    1.655    0.396
       166 -10.1687    179.4239    116.2629   9.6943912433e+01   2.2519220984e+01    0.2693051    0.2090614  48.35  0.000506143    1.295    0.228
       167 -10.0778    100.6697    116.3353   1.1607630680e+02   3.9146295823e+01    0.1516463    0.1127133  84.53 0.0007052122    1.729    0.422
       168  -9.3711     63.4773    114.5841   1.2611706503e+02   4.5291890594e+01    0.1340302    0.1192083 -74.36 0.0001723296    1.034    0.033
       169 -11.3013     36.1121    111.2467   1.3338261678e+02   4.9178041301e+01    0.5327504    0.2682251 -64.69  0.002152371    1.633    0.388
       170  -9.3399     66.5576    113.0253   1.2492250787e+02   4.5244618334e+01    0.1958281    0.1212886 -61.08  4.77324e-05    1.450    0.311
       171  -9.4484      5.2361    113.4017   1.4232039744e+02   5.1149961621e+01    0.1511048   0.09511693  46.97 0.0009494733    1.796    0.443
       172  -8.7551    212.5211    112.4903   8.9596755101e+01   1.5636484620e+01    0.1479652    0.1396739 -11.92 0.0008100501    1.030    0.029
       173  -9.3273    106.6908    110.6831   1.1308454125e+02   3.9324490703e+01    0.1472254    0.1168155 -14.39 0.0003016647    1.635    0.389
       174  -9.9336     42.4941    110.4883   1.3140812508e+02   4.8711614312e+01    0.1295247    0.1090532 -71.04 6.639597e-05    1.015    0.015
       175  -9.7624    167.4629    109.0406   9.7634217670e+01   2.6677835124e+01    0.2338601     0.151452 -39.13 0.0005097455    1.538    0.350
       176 -10.1893    242.1724    108.3844   8.3722280715e+01   9.8753127582e+00    0.1844665    0.1374924  69.24 0.0005846412    1.677    0.404
       177 -11.1208     62.0373    106.8536   1.2496742549e+02   4.7272046180e+01     0.341884    0.1646183 -52.92 0.0005529699    1.817    0.450
       178 -11.1126     23.3300    107.2316   1.3644253217e+02   5.1239272059e+01    0.2514641    0.1782901 -84.87 0.0002913177    1.303    0.233
       179  -9.5538    133.4574    107.4852   1.0523298045e+02   3.4644820484e+01    0.1519677    0.1477027 -17.21 0.0002339633    1.062    0.058
       180 -10.3461      6.3675    106.2146   1.4115494746e+02   5.2691983948e+01    0.2475577    0.1523245 -69.52 0.0008046534    1.242    0.195
       181 -10.9033      2.8247    105.1716   1.4202535643e+02   5.3142525108e+01    0.2504513    0.1485387 -80.06  0.000446404    1.368    0.269
       182  -9.4249    126.8193    106.6422   1.0670372765e+02   3.6228601882e+01      0.20054    0.1418704  55.80 0.0001265429    1.526    0.345
       183  -9.9799    223.2405    103.9550   8.5641625831e+01   1.4671670387e+01     0.221849    0.1862491 -51.10 0.0005989491    1.231    0.188
       184 -10.3029     92.7519    103.4557   1.1518899589e+02   4.3433293596e+01    0.4001127    0.2518388 -71.93  0.001397648    2.106    0.525
       185 -11.1644     70.3637    102.6115   1.2156069280e+02   4.7121869898e+01    0.3885764    0.2353595  21.66  0.001013778    2.228    0.551
       186 -10.7627    247.8744    102.1168   8.1399126030e+01   9.6618974058e+00    0.2173335    0.1814846 -51.33 0.0009244712    1.239    0.193
       187  -9.6067     59.6222    102.7001   1.2480990849e+02   4.8538948981e+01    0.1377232   0.09699762 -28.70 7.777583e-05    1.761    0.432
       188 -10.2233     36.4442    101.5808   1.3161510371e+02   5.1373537058e+01    0.2304253    0.1621258  15.80 0.0008804318    1.848    0.459
       189 -10.1340     10.2290    102.2413   1.3953140556e+02   5.3337069730e+01    0.1734775    0.1648078 -82.65  0.001320716    1.227    0.185
       190  -9.8772    120.3764    101.2800   1.0696253946e+02   3.8707133939e+01    0.2361927    0.1822077  -6.30 0.0008346603    1.747    0.428
       191 -10.3001     27.9095    100.9635   1.3408898270e+02   5.2290699528e+01    0.1775881    0.1464515 -66.04 0.0002857716    1.024    0.023
       192 -10.9951     18.3385    100.7302   1.3692348896e+02   5.3109737903e+01    0.2243931    0.1639315  37.49 0.0003916116    1.636    0.389
       193 -10.8633     20.5072     97.5281   1.3576628400e+02   5.3672713743e+01    0.3576039    0.1780906 -79.41  0.001665069    2.023    0.506
       194 -10.8827     20.5698     94.5240   1.3525252385e+02   5.4348331089e+01    0.3995301    0.1206568 -61.45  0.001733492    2.379    0.580
       195 -11.1689     62.1966     98.5671   1.2311630945e+02   4.9155576703e+01    0.5706241    0.2474502  48.50  0.002302428    2.960    0.662
       196  -9.4332     50.4183     99.2257   1.2688224854e+02   5.0445428234e+01    0.1790545    0.1142219 -71.60 0.0004992003    1.551    0.355
       197 -10.2782     92.6044     96.2217   1.1337598205e+02   4.5069537761e+01    0.2890647    0.1333843 -52.83  0.001143736    2.099    0.524
       198 -10.7341      3.7737    100.7641   1.4121051679e+02   5.4071945445e+01    0.2498821    0.1987573  46.22 0.0009748837    1.506    0.336
       199 -10.7705      7.1068     88.8280   1.3854365439e+02   5.6538370428e+01    0.2016104    0.1479268 -87.77  0.000347094    1.312    0.238
       200 -11.3690      8.3590     94.8813   1.3905452396e+02   5.5110819308e+01    0.2798305    0.2006705 -51.00 0.0003202191    1.299    0.230
       201 -10.5705     10.3297     91.3016   1.3791573396e+02   5.5787949756e+01    0.2372122    0.1827715 -13.81  0.001609837    1.675    0.403
       202 -10.6219      1.5937     93.7648   1.4094108865e+02   5.5756073320e+01    0.3110804   0.07342573 -63.08   0.00134161    2.658    0.624
       203 -11.1316    109.2636     93.1051   1.0774702115e+02   4.2676195922e+01     0.405304    0.1926297 -42.12 0.0009646193    2.067    0.516
       204  -9.3177    226.5658     93.4886   8.2498671508e+01   1.5627914373e+01    0.1452215    0.1337422 -39.57 0.0001871146    1.030    0.029
       205 -10.0520     57.6667     92.6807   1.2317644570e+02   5.1071309043e+01    0.1382456   0.09461043 -30.80 0.0005731634    1.696    0.411
       206  -9.4360    171.2131     91.5679   9.2075553895e+01   2.9109360119e+01    0.2253889    0.1427817  41.35 0.0009496692    1.675    0.403
       207  -9.4951    115.5417     91.0315   1.0541955130e+02   4.1861565859e+01     0.222756    0.1436593 -45.41 0.0003608369    1.501    0.334
       208 -10.6045     96.3409     90.3918   1.1069805751e+02   4.5683067856e+01    0.3316518    0.2129262 -10.28  0.001284561    2.861    0.650
       209  -9.5901     37.8965     90.2452   1.2896200424e+02   5.3818191205e+01    0.1664865    0.1229995 -43.35 0.0002538481    1.294    0.227
       210  -9.2169     73.2812     88.7079   1.1726325981e+02   4.9833779644e+01    0.1315523    0.1064222  89.96 0.0002354671    1.531    0.347
       211 -11.1320     46.2945     83.1650   1.2463122227e+02   5.4538308012e+01    0.5949672    0.2584955 -57.55  0.002362313    1.949    0.487
       212 -10.7300    113.2839     86.7408   1.0479939231e+02   4.3211133739e+01    0.2591818     0.189383  48.59 0.0006761978    1.435    0.303
       213 -10.9824     85.3282     82.2653   1.1172186896e+02   4.9336022211e+01    0.4858201    0.2278031 -53.24  0.001973613    2.144    0.534
       214 -10.8698     67.6800     84.5793   1.1795748410e+02   5.1551628125e+01    0.3059578      0.18508 -32.70  0.001440684    1.898    0.473
       215 -12.4070     72.2992     78.7713   1.1486339516e+02   5.2142189641e+01    0.4241019    0.3499512 -19.01 0.0004358288    1.309    0.236
       216 -10.9476    118.2685     83.3067   1.0240672728e+02   4.2883378576e+01    0.3370681    0.2684393  10.55  0.001131014    1.534    0.348
       217 -11.4151     23.6973     78.3934   1.3122250808e+02   5.7717268702e+01    0.4101904    0.2514494 -78.76  0.001647816    1.753    0.430
       218 -11.7887     19.9024     82.0405   1.3323321388e+02   5.7198396960e+01    0.3253223    0.2161566 -79.90 0.0009325998    1.506    0.336
       219 -11.3851     15.9775     81.6497   1.3446918465e+02   5.7564977430e+01    0.2945913    0.1925098 -45.66  0.001144828    1.391    0.281
       220 -10.0061      7.3581     77.2689   1.3657531555e+02   5.9076574779e+01    0.2512569    0.1230593 -50.54 0.0009423203    1.652    0.395
       221 -10.4384      2.4107     71.8436   1.3731926555e+02   6.0528118053e+01    0.2765158    0.1273784 -49.46  0.001553786    1.741    0.426
       222 -10.9656      3.5371     77.7013   1.3793399891e+02   5.9195048532e+01    0.3270411    0.2029055 -69.54  0.001400787    1.267    0.211
       223 -11.3932      6.5184     73.6781   1.3622330000e+02   5.9908414532e+01    0.4302529    0.2152574  10.78  0.002394986    2.694    0.629
       224 -11.5441    151.0359     78.6174   9.2747696623e+01   3.6368046293e+01    0.2810564    0.2658143 -85.42 0.0003528471    1.126    0.112
       225 -10.1032    101.2582     78.4136   1.0574658821e+02   4.7285512511e+01    0.2712319    0.1415512  38.42  0.001123921    2.072    0.517
       226  -9.9240     93.1800     77.6740   1.0794380095e+02   4.8934640743e+01    0.3297027    0.1583367 -28.06  0.001098975    3.426    0.708
       227 -10.1742     54.5711     72.4465   1.1904114142e+02   5.5912115236e+01    0.2493847    0.2017025  54.03 0.0004794528    1.537    0.349
       228 -11.0943     59.0555     76.5550   1.1864150053e+02   5.4463290001e+01    0.3821323    0.2576741  72.96  0.001791373    2.523    0.604
       229 -11.9496     62.6487     72.7760   1.1635632513e+02   5.4792976289e+01    0.4547817    0.4219661 -39.52  0.001957202    1.062    0.058
       230 -10.3174      7.1806     82.5048   1.3752129113e+02   5.7935483551e+01    0.3269779    0.1208412 -55.63  0.001236227    1.980    0.495
       231 -11.4212    108.2538     75.6341   1.0285101942e+02   4.6472769037e+01    0.4506168    0.3062282 -22.72 0.0005296896    1.744    0.427
       232 -10.1467    121.6041     76.2052   9.9325230459e+01   4.3572758605e+01    0.2151238     0.140951 -29.62 0.0009475023    1.633    0.388
       233 -11.3724     40.1574     72.9338   1.2422389454e+02   5.7432430606e+01    0.2841769    0.2205155 -68.68  0.000365449    1.309    0.236
       234 -11.1245     77.7496     71.9230   1.1105663938e+02   5.2739153445e+01    0.2846762    0.2618892  62.10 0.0002978143    1.284    0.221
       235 -11.2801     26.0243     68.8241   1.2827729998e+02   5.9618424763e+01    0.3494379    0.2515027 -58.17  0.001649684    1.147    0.128
       236 -10.9326     21.1269     66.1029   1.2942802291e+02   6.0587488423e+01    0.2607599    0.1848637  20.54  0.001430077    1.716    0.417
       237 -11.0158    151.9134     72.1256   9.0568928409e+01   3.7323184055e+01     0.287564      0.21013  46.59  0.001343997    1.368    0.269
       238  -9.6774    175.1687     70.7897   8.5291382398e+01   3.1791910907e+01    0.2052589    0.1782185  16.01 0.0003152853    1.298    0.230
       239  -9.9266    115.6155     70.6931   9.9204823094e+01   4.5908829861e+01    0.2912789    0.1398685 -36.17  0.001130212    2.104    0.525
       240 -11.7230     68.8555     67.4552   1.1264253966e+02   5.5019679058e+01     0.365073    0.2649462 -37.99 0.0008435763    1.252    0.201
       241 -11.4922     43.0414     65.8800   1.2130793967e+02   5.8636794133e+01     0.550719    0.3763045 -88.97  0.002788717    2.396    0.583
       242 -11.2115     49.0345     70.7593   1.2051163672e+02   5.6934505492e+01    0.2471576    0.2171863 -15.49            0    1.203    0.168
       243 -10.2830     50.7038     67.6876   1.1905533507e+02   5.7388786462e+01    0.1818637    0.1680641 -24.95 0.0005024556    1.109    0.098
       244 -11.2732    130.4580     65.4343   9.3563484365e+01   4.3589903788e+01    0.5598571    0.2412952 -46.93  0.001985378    2.616    0.618
       245 -10.8224     94.8215     68.4750   1.0454701515e+02   5.0480302057e+01    0.3718342    0.2235807  -8.66 0.0009855545    3.253    0.693
       246 -10.8103     37.0284     67.0421   1.2381909664e+02   5.9009575714e+01    0.3615763    0.2173098 -52.13  0.001757691    1.363    0.266
       247  -9.1232    171.3299     68.2522   8.5290851336e+01   3.3176726432e+01    0.1533433    0.1155554  28.56  0.000681643    1.553    0.356
       248 -10.9982     31.1964     66.2767   1.2575822063e+02   5.9720333292e+01    0.2823617     0.186583 -60.97 0.0008205447    1.343    0.255
       249 -10.1164      6.7979     67.9594   1.3505028940e+02   6.1129563201e+01    0.1765746    0.1505985 -36.91  0.001048338    1.232    0.188
       250 -10.6231    156.1148     66.3382   8.7849433656e+01   3.7291982763e+01    0.2199126    0.1998421  63.42  0.001147015    1.119    0.106
       251 -10.6805    119.1606     65.7968   9.6635730218e+01   4.6055354834e+01    0.3432832    0.2429174  22.37 0.0003395204    1.725    0.420
       252 -10.3746    122.6679     61.6735   9.4326045737e+01   4.6017439380e+01    0.3261261    0.2028875  36.35  0.001016048    1.743    0.426
       253  -9.8392     14.6192     66.2967   1.3186592166e+02   6.1006897106e+01     0.239999    0.1562865  -2.30  0.001312514    1.969    0.492
       254 -11.0909      2.6605     64.6523   1.3590677953e+02   6.2059812300e+01    0.3390251    0.1177674 -50.32  0.001705073    2.112    0.526
       255 -10.9444    106.0013     64.4106   9.9861962284e+01   4.9080713911e+01    0.3608865     0.175825 -44.54   0.00146218    2.052    0.513
       256 -11.1943     84.0952     62.9881   1.0612044187e+02   5.3468977659e+01    0.4447031    0.3330607 -66.00  0.002068825    1.761    0.432
       257 -11.1379     86.1187     58.1155   1.0380506610e+02   5.4038214002e+01    0.3987835    0.2277854 -43.65 0.0009024449    1.675    0.403
       258 -10.4376    173.9418     63.7999   8.3451564131e+01   3.3244213562e+01    0.2641816    0.2204022 -55.06 0.0005081542    1.250    0.200
       259 -10.8067     87.1228     52.7650   1.0158750490e+02   5.4831903749e+01    0.3028523    0.1840827 -45.17  0.001208924    1.661    0.398
       260  -9.4234    141.8035     63.5920   9.0200402141e+01   4.1245238152e+01    0.2009322    0.1464925  68.26  0.000248556    1.578    0.366
       261 -10.4174     51.8280     62.3612   1.1707416430e+02   5.8358079560e+01    0.2661742    0.1753004 -34.73  0.001327134    1.427    0.299
       262 -11.2931     10.8685     62.4253   1.3240880296e+02   6.2072293660e+01    0.2253155    0.1744937 -49.73 0.0004506573    1.065    0.061
       263 -10.2631     93.0214     61.3815   1.0274060869e+02   5.2172259853e+01    0.2662502    0.1852113 -25.20 0.0005466006    1.508    0.337
       264  -9.9557     71.8135     61.7948   1.0981865297e+02   5.5708780464e+01    0.2034774    0.1921735  14.32 0.0002601772    1.143    0.125
       265 -10.8230     70.5177     58.0765   1.0902219153e+02   5.6632322291e+01    0.3723286    0.1779753 -33.52  0.001373804    2.251    0.556
       266 -11.4672     57.5313     59.5421   1.1411842172e+02   5.8202179849e+01    0.4530158    0.2592556 -40.58  0.002306891    1.550    0.355
       267 -10.1183     38.7276     58.4331   1.2077539732e+02   6.0636721001e+01    0.3081624    0.1650578 -10.26  0.001312618    3.325    0.699
       268 -11.0230     27.2195     61.2653   1.2594713751e+02   6.1126308915e+01    0.3589331    0.1972661  18.64  0.001969879    2.237    0.553
       269 -10.0575     33.1208     60.0673   1.2337959285e+02   6.0850408712e+01    0.2635856    0.1663431 -24.68   0.00147288    1.767    0.434
       270 -10.1666     18.2121     59.7611   1.2900231556e+02   6.2146006690e+01    0.2473822    0.1419225 -70.53 0.0007316835    1.787    0.440
       271  -9.5257    134.3942     60.2228   9.0869395646e+01   4.3576375642e+01    0.2282851    0.1485807 -33.56 0.0003475157    1.540    0.351
       272 -11.2824    137.5489     54.5264   8.8212278883e+01   4.3765411037e+01    0.4244538    0.2694033 -27.59  0.001902827    1.649    0.394
       273 -11.7595    135.9135     50.7476   8.7316868270e+01   4.4754325646e+01    0.4364886    0.3127667 -71.91  0.001008936    1.984    0.496
       274 -10.9741     64.4568     59.9359   1.1176694680e+02   5.7169441308e+01    0.3061026    0.1836022  46.94  0.001098645    2.066    0.516
       275 -11.3195    113.4965     57.4970   9.5376337513e+01   4.8755933667e+01    0.4395399    0.2149664  41.70  0.001774622    2.119    0.528
       276  -9.2806    170.4802     57.5525   8.2219268081e+01   3.5106158052e+01    0.1494793    0.1455154 -87.98 9.662669e-05    1.028    0.027
       277  -9.8166     80.9725     56.8306   1.0504262724e+02   5.5173537946e+01    0.1865337    0.1721936  -3.77 0.0004776403    1.060    0.057
       278  -9.7769     46.9724     58.0000   1.1752556060e+02   5.9822996037e+01     0.188058   0.07324706  30.76 0.0002950026    2.936    0.659
       279  -9.9285    122.1280     56.1322   9.2583104797e+01   4.7089529586e+01    0.1944029    0.1752885 -67.44 0.0004375553    1.283    0.221
       280 -10.7780     99.5423     55.8958   9.8840312768e+01   5.1918532088e+01    0.4992394    0.1959692  41.29  0.001858611    2.687    0.628
       281 -11.6837     38.5284     51.6223   1.1876293426e+02   6.2029401801e+01    0.5593109    0.3426613 -33.45  0.002861292    1.518    0.341
       282 -10.0001     44.8992     51.2734   1.1615773790e+02   6.1398029092e+01    0.2530801    0.1692342 -24.30 0.0009047902    1.534    0.348
       283 -10.8437     46.0818     46.9916   1.1424145284e+02   6.2083594448e+01    0.2173393    0.1704299 -42.64 0.0002826354    1.145    0.127
       284 -12.4902    127.9705     51.6123   8.9531569741e+01   4.6493018152e+01    0.4165033    0.3143093 -23.63 0.0004307679    1.367    0.269
       285 -11.9147      4.2731     53.0660   1.3284947256e+02   6.4409869964e+01    0.6974789    0.2525789 -46.09  0.003567775    2.111    0.526
       286 -11.0331     12.8122     50.2380   1.2871281725e+02   6.4485578381e+01    0.3566191    0.1373763 -54.74  0.001734077    1.890    0.471
       287 -11.9125      8.9313     45.7242   1.2911757253e+02   6.5642354625e+01    0.3794262    0.3108138 -10.96  0.001195453    1.351    0.260
       288 -11.0501      6.9690     40.8813   1.2862407702e+02   6.6722730144e+01    0.2664184    0.2332992   4.07  0.001858144    1.373    0.272
       289 -10.4330     73.4938     52.3338   1.0598892650e+02   5.7245919512e+01    0.3182985    0.2587108 -72.69  0.001206741    1.754    0.430
       290 -10.5033     76.8369     49.8701   1.0394782794e+02   5.7143864711e+01    0.2296264    0.1793021  17.11 0.0008775155    1.354    0.261
       291 -10.4147    157.8481     52.1427   8.3000340860e+01   3.9133949482e+01    0.2146887    0.2035827 -75.13 0.0003756244    1.101    0.092
       292 -10.6976     76.7115     65.2259   1.0928572965e+02   5.4259858886e+01    0.3152016    0.1823366  53.98  0.001400128    2.397    0.583
       293 -11.2741     51.6766     48.5336   1.1260633166e+02   6.1102822605e+01    0.5282109    0.1966164 -47.72  0.002242285    2.383    0.580
       294 -10.6309    114.8443     49.4487   9.2169730668e+01   4.9809412590e+01    0.3036321    0.2413077  -4.38  0.001405525    1.370    0.270
       295 -11.7657    100.0675     47.3168   9.5579388587e+01   5.3276892013e+01    0.5497281     0.373654 -62.09  0.001344654    2.229    0.551
       296 -11.3950    142.6995     46.7791   8.4426511144e+01   4.3711056602e+01    0.4268689    0.2816242 -18.63  0.001444099    1.715    0.417
       297 -11.6279    139.4341     44.5362   8.4384348070e+01   4.4840037158e+01    0.4681522    0.3055333  88.14  0.001927315    2.395    0.582
       298 -10.8189    155.0360     48.5196   8.2400116250e+01   4.0384072573e+01    0.2292635    0.1448689  59.46 0.0005641287    1.560    0.359
       299 -10.0120    162.7984     47.6060   8.0579900488e+01   3.8551917520e+01    0.2005539    0.1423531  72.92 0.0003308321    1.530    0.346
       300  -9.3196    104.3331     46.2934   9.3952531705e+01   5.2567206773e+01    0.1470945    0.1058594  13.82  0.000522032    1.637    0.389
       301  -9.6680     91.7029     46.1344   9.7688832152e+01   5.5119007985e+01    0.2165157    0.1651254 -48.71 0.0008765651    1.477    0.323
       302  -9.5239     22.6743     46.1882   1.2349363448e+02   6.4577559329e+01    0.1692235   0.08295214 -47.65 0.0004424232    1.579    0.367
       303 -10.1007     17.7721     45.5874   1.2536389454e+02   6.5076521434e+01     0.273968     0.174867  81.60  0.001333067    3.374    0.704
       304  -9.7262    233.1754     45.1490   6.9381543850e+01   2.1263881690e+01    0.1908492    0.1808941 -17.99 0.0005147165    1.185    0.156
       305 -10.6791    122.3711     43.9466   8.8223680483e+01   4.8974046917e+01    0.4315183    0.2730095 -28.23  0.001426506    1.610    0.379
       306 -10.7066    119.3267     39.4936   8.7370196592e+01   5.0326257635e+01    0.2746455    0.2179675   4.67 0.0006676026    1.367    0.268
       307 -10.3487     86.6120     45.0188   9.8886335582e+01   5.6261564637e+01    0.2814232    0.1259084  36.18 0.0007369887    2.488    0.598
       308  -9.5313     75.8953     44.0000   1.0207507215e+02   5.8327698624e+01    0.2101514   0.07549428  42.31 0.0008017177    2.937    0.660
       309 -10.9328     64.0787     41.5002   1.0532998730e+02   6.0649272708e+01    0.2573259    0.1813204 -34.89  0.001457758    1.273    0.215
       310 -10.9604     69.0368     38.2210   1.0223656794e+02   6.0429163402e+01     0.557842     0.255116 -24.89  0.002206698    2.878    0.653
       311 -10.3381    162.8511     41.9102   7.8752636937e+01   3.9343014607e+01    0.2095101     0.172069 -64.72 0.0007027648    1.343    0.256
       312 -10.3502     23.8547     41.4686   1.2150740043e+02   6.5400581877e+01    0.2138455    0.1795763 -31.20  0.001512398    1.084    0.077
       313 -10.2616    226.3226     40.5119   6.9000742600e+01   2.3501137787e+01    0.2428454    0.2033869 -51.37 0.0005956125    1.103    0.093
       314 -10.7642     89.0811     39.1011   9.5812588966e+01   5.6753342591e+01    0.4260119    0.3028141 -77.90   0.00136473    2.895    0.655
       315 -11.4399     82.3419     36.7666   9.7063095470e+01   5.8375513523e+01    0.3066836    0.2784227  -0.89 0.0008622205    1.045    0.043
       316 -10.4339     95.4800     40.3053   9.4302207018e+01   5.5317037319e+01    0.3101917    0.2436794  73.70  0.001617404    1.808    0.447
       317 -10.2531     44.0775     39.6060   1.1237952065e+02   6.3690654019e+01    0.2650248    0.1593489 -43.98  0.001005107    1.451    0.311
       318 -10.3919     19.1743     37.9543   1.2238397272e+02   6.6455549050e+01    0.1899433    0.1467213 -19.28 0.0003333364    1.244    0.196
       319  -9.6865     29.1836     39.9163   1.1870994503e+02   6.5220116425e+01    0.2819898    0.1141752 -39.34  0.001023365    2.145    0.534
       320 -11.2877     24.8169     35.5951   1.1909190744e+02   6.6427261861e+01     0.298977     0.228314  41.65 0.0008603722    1.786    0.440
       321 -10.2993     14.3083     39.1272   1.2489742738e+02   6.6592472494e+01     0.243613   0.06535058 -50.77  0.001070714    2.539    0.606
       322 -10.4943     14.2124     33.9377   1.2326922744e+02   6.7589705908e+01    0.2206553    0.1435442  48.19  0.001316375    2.438    0.590
       323 -10.7165      2.3275     37.5413   1.2972630538e+02   6.7636301780e+01    0.4194303    0.1512878 -39.28 0.0008109804    2.330    0.571
       324 -12.1522    232.0565    247.0276   1.1276266284e+02  -7.5535476742e+00     0.529911    0.2806969  20.99  0.003079382    1.847    0.459
       325 -10.1653      1.4797     31.5117   1.2835424751e+02   6.8844048826e+01    0.1719113    0.1167558 -56.34 6.182081e-05    1.244    0.196
       326 -10.9079      9.2058     33.5553   1.2542610248e+02   6.8003269807e+01     0.306853      0.21793 -33.41  0.001628544    1.170    0.146
       327 -11.2506      5.9631     30.0855   1.2580889996e+02   6.8859566849e+01    0.3541802    0.2077673 -30.19  0.001211833    1.516    0.340
       328 -10.2625    111.0858     34.9906   8.7817284523e+01   5.2816023208e+01    0.2291979    0.2026065 -37.81 0.0004020886    1.218    0.179
       329 -10.3652    103.5644     36.8395   9.0591845196e+01   5.4177735904e+01     0.401836    0.1950949  49.46  0.001617266    2.028    0.507
       330 -10.5848    106.2307     34.3755   8.8892250351e+01   5.3961601982e+01    0.2867918    0.2571325  11.90  0.001218098    1.042    0.041
       331 -10.7321     76.3322     33.7375   9.7856497888e+01   5.9917929074e+01    0.2605178    0.1677015  30.00  0.001364161    1.602    0.376
       332 -11.5473     60.7809     24.1755   9.9396245588e+01   6.3928813209e+01      0.46945    0.2260294 -41.85  0.002251219    2.167    0.538
       333 -11.5172     66.2795     21.3791   9.6100122505e+01   6.3438066529e+01    0.3738114    0.2538711  41.16  0.002153281    1.538    0.350
       334 -12.1069    225.9371    246.2400   1.1366042831e+02  -6.5769619343e+00    0.6122559     0.330516   9.43  0.003242668    2.510    0.602
       335  -9.4317    168.6476    250.6848   1.2410956362e+02   1.6813303581e+00    0.1166297   0.07877555  19.48 0.0007046327    1.735    0.424
       336 -10.1064     97.7229     32.0158   9.0371331949e+01   5.6086273974e+01    0.1947547    0.1660739  -6.79 0.0004369761    1.115    0.103
       337  -9.6398    178.1343     31.1476   7.2811528710e+01   3.6811032486e+01    0.2012442    0.1628879 -67.61 0.0004710607    1.306    0.234
       338  -9.7689     49.6938     31.3024   1.0682492374e+02   6.4422155735e+01     0.164515    0.1470982 -27.48 0.0004458689    1.200    0.167
       339 -10.1905     50.3898     27.7992   1.0507048554e+02   6.4897449987e+01     0.285623     0.137687 -27.43  0.001168642    2.157    0.536
       340 -10.4075     82.3795     29.5522   9.4097255153e+01   5.9446988768e+01     0.277713     0.250296  81.17  0.001674499    1.561    0.359
       341  -9.9598     78.4673     29.9589   9.5563140524e+01   6.0105125735e+01    0.1932878    0.1211102 -30.04 0.0003274465    1.510    0.338
       342  -9.3213    196.3153     28.2810   6.9401353693e+01   3.2488971319e+01    0.1410462    0.1038273  37.89 0.0002487568    1.575    0.365
       343  -9.0618    191.6772     28.7450   7.0150004280e+01   3.3618192257e+01    0.1414715    0.1024595  40.79 0.0002161016    1.544    0.352
       344  -9.5775    124.5482     27.9460   8.1812672348e+01   5.0663566623e+01    0.1960655    0.1382308 -20.55 0.0003375367    1.479    0.324
       345  -9.3013     90.5133     26.5370   9.0276345148e+01   5.8297056556e+01    0.1342708    0.1208045   7.54 1.591196e-05    1.027    0.026
       346 -10.7490     70.7907     26.0449   9.6541561667e+01   6.2019855190e+01    0.3887707    0.1867502  34.02  0.001793336    2.212    0.548
       347  -9.9087     17.0634     24.4316   1.1850921630e+02   6.9102045394e+01    0.2585851    0.1129412 -39.79  0.001395427    1.804    0.446
       348  -9.2798     90.3772     31.5116   9.2370147197e+01   5.7636166389e+01     0.135288    0.1191121  -1.86 0.0001214809    1.034    0.033
       349 -10.2238    112.8958     23.2405   8.2786867782e+01   5.3935304648e+01    0.4487706    0.1643033 -33.28  0.001073383    2.700    0.630
       350 -10.4667      1.3664     23.7265   1.2590137612e+02   7.0302873902e+01    0.1598103    0.0730589 -48.06 0.0009371243    1.565    0.361
       351 -10.4010    100.1257     22.3970   8.5777652184e+01   5.6845759848e+01    0.2626487    0.2070638 -43.31 0.0008312846    1.474    0.322
       352  -9.5343    160.9603    250.0000   1.2536955132e+02   2.9779314521e+00    0.1948435   0.05258251  41.84 0.0004631949    2.871    0.652
       353 -10.2054    137.1358    247.3632   1.2925821302e+02   7.0770488186e+00    0.1646254    0.1594523 -28.64 0.0007178863    1.364    0.267
       354  -9.9472    124.1420     21.8308   7.9604966795e+01   5.1489918177e+01    0.1926574    0.1867296 -82.67  0.000347876    1.165    0.142
       355 -10.3390     35.0674     21.0982   1.0871412603e+02   6.7892826443e+01     0.302155      0.18483 -38.91  0.001282774    1.430    0.301
       356 -10.7449      6.3182    245.1057   1.5097547666e+02   2.4429135495e+01    0.2304575    0.1312282  71.81  0.001161144    1.232    0.188
       357  -9.9894    104.4032     18.7212   8.3121753477e+01   5.6356673366e+01    0.2350414    0.1288568  -8.98 0.0008826929    2.229    0.551
       358  -9.3721     45.4889     20.5316   1.0390241842e+02   6.6685728219e+01    0.1236801   0.09945612 -12.56  0.000282071    1.012    0.012
       359 -10.8408    217.5304     16.2278   6.3713257610e+01   2.8564882805e+01    0.4845836    0.1650291  58.22   0.00188752    2.761    0.638
       360  -9.0792    151.5158     18.5784   7.3083989207e+01   4.5097391252e+01    0.1405365    0.1293506  59.05 9.626667e-05    1.012    0.012
       361 -11.4274      8.5242    241.7383   1.5050269548e+02   2.4781106623e+01    0.3778926    0.1522033  68.26  0.002374998    1.957    0.489
       362  -9.6648    115.4552    244.7053   1.3281164517e+02   1.0801403850e+01    0.1285409    0.1111004 -52.72 0.0006676388    1.531    0.347
       363 -10.0135     18.8242     18.6033   1.1528138349e+02   6.9949958708e+01    0.2259307    0.1067752  16.74  0.001214777    2.517    0.603
       364  -9.8116     20.0010     15.4589   1.1332866685e+02   7.0358550230e+01    0.1882985    0.1233762 -23.08 0.0005664479    1.281    0.219
       365  -9.1320     95.4790     17.4998   8.5015010716e+01   5.8409087801e+01    0.1386089    0.1142201  19.55 0.0004160552    1.111    0.100
       366 -10.0442      9.9053     16.2398   1.1876387090e+02   7.1070617126e+01    0.1910158    0.1225025 -39.41 0.0006553042    1.192    0.161
       367  -9.5892    188.4581     16.5655   6.7047328092e+01   3.5828683724e+01    0.1379337    0.1268971  81.36 6.558197e-05    1.021    0.021
       368  -9.7314     32.6214     33.7449   1.1499302345e+02   6.6017047645e+01    0.2341769    0.1015242  19.56  0.001074832    3.040    0.671
       369  -8.9981    118.6691     16.7252   7.8870032916e+01   5.3344399585e+01    0.1450393   0.09310225  32.06 0.0004752553    1.595    0.373
       370 -10.9100    147.2379    244.4054   1.2711823348e+02   5.9255796643e+00    0.2354693   0.09333176  39.38  0.001109341    2.094    0.522
       371 -10.3892    109.9189    243.2552   1.3364553003e+02   1.1859786846e+01    0.2494002    0.1491423  74.12  0.001440768    2.021    0.505
       372 -10.1458     72.1685    243.9545   1.4028746744e+02   1.7067537721e+01    0.1943491    0.1302149  50.85 0.0009431728    1.209    0.173
       373 -11.4099    145.2510     31.6895   7.8729183506e+01   4.5149987553e+01    0.2461165    0.2407621  61.32 0.0002665156    1.044    0.042
       374 -11.9362    155.9521    241.5457   1.2520526192e+02   4.9505729585e+00    0.3333963    0.1956159  32.81  0.001237334    1.610    0.379
       375  -9.0575     90.2848     13.2482   8.4646983349e+01   5.9963272752e+01    0.1301628   0.08758905  24.54   0.00026222    1.466    0.318
       376  -9.9657     64.2573     13.0237   9.2970731912e+01   6.4870232679e+01    0.2649488    0.1732276  61.24 0.0009810816    2.415    0.586
       377 -11.5662     34.7383    241.5249   1.4635731731e+02   2.2061114743e+01    0.4890557    0.1928848  42.98  0.002920503    2.074    0.518
       378  -9.4012     24.4765    232.4710   1.4753006398e+02   2.4759601664e+01    0.1809273    0.1018653  55.73  0.001272998    1.351    0.260
       379 -10.3990     31.8347    237.3220   1.4659232108e+02   2.3110585406e+01    0.2254977    0.1228784  68.35  0.000730491    1.430    0.301
       380  -9.0687     51.3382     11.2948   9.7095474984e+01   6.7150756347e+01    0.1267899   0.08099505   5.83  0.000357825    1.651    0.394
       381  -9.4182    165.7161     14.6818   6.9550571473e+01   4.1873539318e+01    0.1425806   0.09964206  34.95 0.0003500495    1.586    0.370
       382 -10.1757     29.0285    232.9943   1.4680945061e+02   2.4177880749e+01    0.2727078    0.1189542  59.79  0.001666261    1.794    0.443
       383 -11.4571     19.3319    238.8927   1.4868861382e+02   2.4177678341e+01    0.4164926     0.229514  58.49  0.003026754    1.323    0.244
       384 -11.4397     74.2154    238.4916   1.3949930227e+02   1.7719223443e+01    0.4954042    0.2610089  50.67  0.003062145    1.478    0.323
       385 -10.5474    174.2035    238.7805   1.2156365044e+02   2.3959132761e+00    0.2632079    0.1843507  27.28   0.00110835    1.355    0.262
       386 -10.7713    177.6812    234.9630   1.2040787186e+02   2.3560243739e+00    0.2585734    0.1832815  19.85  0.001254796    1.512    0.338
       387 -10.2791     12.1751    238.2326   1.4978530355e+02   2.5019277063e+01     0.145039   0.07894409  66.67 0.0005718187    1.320    0.243
       388 -10.8203    159.9127    235.6997   1.2373223092e+02   5.1560783054e+00    0.2412117    0.1608439  31.05 0.0008691025    1.429    0.300
       389  -9.6366    135.6712    236.6997   1.2828457832e+02   8.9201052755e+00    0.1128622   0.08748192  19.41 0.0004746637    1.642    0.391
       390 -10.7212     73.5397    232.9815   1.3916094082e+02   1.8763899686e+01    0.2629876    0.1413799  53.12 0.0008777067    1.474    0.321
       391 -10.5657    167.0060    233.8413   1.2218853618e+02   4.2640077009e+00    0.1847399    0.1757277  16.69 0.0008080584    1.201    0.167
       392 -10.0712     86.1855    233.5076   1.3694704935e+02   1.6930940844e+01    0.2145238    0.1159569  81.95  0.001146971    2.328    0.570
