#   1 NUMBER                 Running object number                                     
#   2 MAG_AUTO               Kron-like elliptical aperture magnitude                    [mag]
#   3 X_IMAGE                Object position along x                                    [pixel]
#   4 Y_IMAGE                Object position along y                                    [pixel]
#   5 X_WORLD                Barycenter position along world x axis                     [deg]
#   6 Y_WORLD                Barycenter position along world y axis                     [deg]
#   7 A_WORLD                Profile RMS along major axis (world units)                 [deg]
#   8 B_WORLD                Profile RMS along minor axis (world units)                 [deg]
#   9 THETA_WORLD            Position angle (CCW/world-x)                               [deg]
#  10 FWHM_WORLD             FWHM assuming a gaussian core                              [deg]
#  11 ELONGATION             A_IMAGE/B_IMAGE                                           
#  12 ELLIPTICITY            1 - B_IMAGE/A_IMAGE                                       
         1 -11.4838     79.9297     23.4727   7.7093581550e+01   6.1139266683e+01    0.7808567    0.3120821  37.95  0.003054911    2.822    0.646
         2  -9.7288     27.4555     21.3407   9.8173516260e+01   6.9125777520e+01    0.6876873    0.2161031 -41.75  0.002939626    2.686    0.628
         3  -9.7412     31.5418     10.8677   9.1357879613e+01   7.0526864125e+01    0.3999161     0.301275   8.18 0.0006427868    1.368    0.269
         4  -9.1939     32.0864      6.0376   8.8600131920e+01   7.1239654154e+01    0.3408499    0.1798217 -38.22 0.0003288269    1.612    0.380
         5  -8.8022    144.6676     23.3606   6.0102691460e+01   4.6267884281e+01     0.261833    0.2271368  33.98 0.0002989887    1.147    0.128
         6  -9.6752     20.3310      8.8251   9.6259315054e+01   7.2040425584e+01    0.3668431    0.2085984 -17.97  0.001023675    1.978    0.494
         7  -8.7136     15.4744     15.4828   1.0188042526e+02   7.1274610278e+01     0.227293    0.1668537 -41.61  0.000731016    1.071    0.066
         8  -9.0495     45.9330     21.2442   8.9455962468e+01   6.7003420992e+01    0.4360996    0.1636133 -42.57  0.001658324    2.332    0.571
         9  -9.4127     64.1237     14.4580   7.8614937978e+01   6.5311971521e+01     0.504294    0.2917478   6.70  0.002056908    2.614    0.617
        10  -9.8765     77.4831     13.1294   7.3097736084e+01   6.3068408392e+01    0.6966428    0.2695199  47.38  0.002682581    2.544    0.607
        11  -8.7953     71.9129      8.9457   7.2962277459e+01   6.4668854679e+01    0.2006594    0.1754445   1.82 0.0004814247    1.022    0.022
        12  -8.1517     88.0604     13.2656   6.9733571698e+01   6.0932039251e+01     0.244178    0.1729288   9.62 0.0006997534    1.512    0.339
        13  -8.4282     96.8414     12.0099   6.6569505793e+01   5.9206224065e+01    0.2526502    0.1808062   8.55 0.0009468065    1.487    0.328
        14  -9.3006    125.3729     10.3162   5.8912889783e+01   5.2662594487e+01    0.3337824    0.1929868  37.08  0.001137878    1.780    0.438
        15  -8.4387    108.8323     11.3102   6.3095648225e+01   5.6562254815e+01    0.2117728    0.1757395  73.01  0.001165007    1.381    0.276
        16  -8.4166    156.0038      7.5397   5.2380722640e+01   4.5000657543e+01    0.3212939    0.1870352 -11.09  0.001421285    1.974    0.493
        17  -8.0160    142.8122      9.4214   5.5225858303e+01   4.8294248676e+01    0.2066974    0.1189258  52.12 0.0003722934    1.594    0.373
        18  -9.6925    133.7758     13.5820   5.8514560874e+01   5.0194029011e+01    0.3237033     0.236999  55.30 0.0002327848    1.280    0.218
        19  -9.6634    119.2432      6.9185   5.8796778119e+01   5.4528219609e+01    0.2425949    0.2166724  31.96 0.0002208506    1.039    0.037
        20  -9.5176     46.6193      6.2718   8.1719764025e+01   6.9264925129e+01    0.3413193     0.223802  16.09 0.0002928374    1.639    0.390
        21  -9.0673     41.1195      6.0657   8.4156755310e+01   7.0075302925e+01    0.3516219    0.2180486 -10.23  0.001183277    1.770    0.435
        22  -8.4710    134.0423      3.2499   5.4386777305e+01   5.1155560393e+01    0.2805114    0.1711272  41.81 0.0004047139    1.589    0.371
        23 -10.0273      7.8845      5.3492   1.0171184311e+02   7.3682417906e+01    0.4760654     0.234638  -4.64  0.001798488    2.859    0.650
        24  -8.5478     92.1467      5.5868   6.4877410694e+01   6.0960011763e+01    0.3983335    0.1756262  45.38  0.001529439    2.096    0.523
        25  -9.7013     84.8993      5.3704   6.6894466049e+01   6.2526126379e+01     0.296486    0.2257554 -15.64  0.001704966    1.257    0.204
        26  -8.7910     77.2395      5.8134   6.9547340693e+01   6.4028400549e+01    0.3364264    0.2272496 -48.74  0.001754039    1.972    0.493
        27  -7.2123    179.4915      5.4923   4.8501249118e+01   3.8918974888e+01    0.1417723    0.1332992  81.20 8.742477e-05    1.003    0.003
        28  -8.1111    125.6355      3.8573   5.6205329088e+01   5.3236152641e+01    0.2352653    0.1715519  47.30  0.000458938    1.260    0.206
        29  -9.0736    110.9904      3.4284   5.9108035166e+01   5.6870241002e+01    0.3639601    0.2132948 -34.29  0.001354782    1.800    0.445
        30  -8.5690    153.2197      3.2983   5.1275550119e+01   4.6135727328e+01    0.2354452    0.1582018  50.87 0.0007823788    1.394    0.283
        31  -8.7933     57.3614      3.1649   7.5426631219e+01   6.7989686963e+01    0.2854056    0.1743167  38.89 0.0009490717    1.641    0.390
        32  -8.1121    143.0170      2.0556   5.2397408574e+01   4.8935265638e+01    0.2085033    0.1950028  63.04 0.0003657464    1.035    0.034
        33  -8.4981    105.8019      1.8651   5.9606447788e+01   5.8247610712e+01    0.2214683    0.1686733  27.95  0.001031111    1.250    0.200
        34  -7.9723    100.0189      6.4036   6.3126557008e+01   5.9125433182e+01    0.2064795    0.1721052  83.99  0.000835738    1.517    0.341
        35  -7.0797    170.3047    125.3030   8.5465656468e+01   2.2933281138e+01    0.1483275    0.1143971  11.82 0.0003131813    1.596    0.374
        36  -9.4703    200.8559    250.4433   1.0142713975e+02  -7.0607664342e-01    0.2767743   0.07768601  39.86  0.001295227    2.614    0.617
        37  -7.3914    153.3261    124.3418   8.8946962944e+01   2.6789964812e+01    0.1520688    0.1171877   6.57 0.0007051178    1.735    0.424
        38  -7.2738     84.9986    122.0000   1.0536468493e+02   4.0189933991e+01    0.2117104   0.07645115  38.35 0.0007911718    2.865    0.651
        39  -8.7120     12.4324    120.3794   1.2451048556e+02   4.8832886007e+01    0.2274735   0.08501883 -70.70 0.0009075669    2.081    0.520
        40  -7.9127    100.2783    118.8653   1.0070050744e+02   3.8369248449e+01    0.2815554    0.1663526  18.60  0.001065166    3.225    0.690
        41  -7.8707    119.8251    118.6828   9.5631975481e+01   3.4812687260e+01    0.2969258    0.1302668  36.56  0.001082807    2.665    0.625
        42  -8.1554    246.2285    112.0027   6.8618963745e+01   8.6777378446e+00    0.1836363    0.1036817 -28.28 0.0006768338    1.632    0.387
        43  -7.5739     38.6260    110.1986   1.1615821618e+02   4.8836691827e+01    0.1784633   0.09408425 -59.52 0.0005507757    1.651    0.394
        44  -8.3433      2.3383    109.2364   1.2614334079e+02   5.1984505524e+01    0.2715902   0.09486283 -45.29  0.001151703    4.017    0.751
        45  -8.0748    133.7676    106.6612   8.9276352124e+01   3.4492465302e+01    0.3572893    0.2008992 -29.74  0.001383218    2.404    0.584
        46  -7.8110    124.2555    106.9921   9.1745368882e+01   3.6400419965e+01    0.2570784    0.1632486   9.69 0.0008857913    3.508    0.715
        47  -7.3050     76.2921    107.6412   1.0492731656e+02   4.4750170593e+01    0.1416697    0.1003346  83.19 0.0007029176    1.693    0.409
        48  -7.3401    142.6733    111.6923   8.8379263116e+01   3.1569974725e+01    0.1508779    0.1195145   7.71 0.0007037573    1.654    0.395
        49  -7.4033    109.4973    106.4626   9.5468554897e+01   3.9409491622e+01    0.1420312    0.1394281 -48.91 3.692453e-05    1.075    0.069
        50  -9.4211     14.5111    105.4146   1.2238167752e+02   5.2013874161e+01    0.2739312    0.1580883 -37.65  0.001531099    2.312    0.567
        51  -8.2481    163.2800    104.1247   8.1739855847e+01   2.8430360134e+01     0.235552    0.1972011  35.79  0.000275919    1.213    0.176
        52  -8.0675     68.0119    104.3390   1.0664119859e+02   4.6684372271e+01    0.2037412    0.1171587   6.12 0.0007044588    4.538    0.780
        53  -7.6746     94.3247    103.3184   9.8875692364e+01   4.2836724639e+01    0.1408028    0.1121354 -17.72 0.0006435608    1.674    0.403
        54  -9.0053    219.5955     98.2623   6.9450578306e+01   1.6352647372e+01    0.2518314    0.2391167  22.15  0.000312941    1.059    0.055
        55  -8.4476    243.5000     97.4776   6.5575481837e+01   1.1246660380e+01    0.1382823     0.125109 -13.73 0.0008102698    1.002    0.002
        56  -7.6952    130.4490     96.8045   8.7538710818e+01   3.7213953321e+01    0.2087468    0.1434076 -30.74 0.0009335495    1.656    0.396
        57 -10.4272     12.4956     94.2706   1.2162360180e+02   5.4662818407e+01    0.4482063    0.3494415   1.88  0.002287801    1.765    0.434
        58  -9.3467     22.9734     89.8440   1.1776341151e+02   5.4891450186e+01    0.2856444    0.1647803 -33.08  0.001519918    2.324    0.570
        59  -7.5484    224.3059     95.2977   6.7942471625e+01   1.5737399215e+01    0.1459939    0.1072641  16.06 0.0002066774    1.588    0.370
        60  -8.7394     43.4256     92.5017   1.1177435901e+02   5.2392322871e+01    0.3568333    0.2509857 -32.19  0.002017956    1.773    0.436
        61  -7.5025     83.2079     93.6039   9.9772090692e+01   4.6847776672e+01    0.1832052    0.1359835  23.71 0.0005709372    1.662    0.398
        62  -8.2567     96.5632     90.5896   9.5083557956e+01   4.5241792367e+01    0.3959591    0.2600994 -10.11  0.001553285    2.979    0.664
        63  -8.1256    109.5975     90.9773   9.1491186593e+01   4.2712847631e+01    0.3605512    0.2023361  23.45  0.001289232    3.152    0.683
        64 -10.0896     37.3921     81.2292   1.1153706679e+02   5.5575962093e+01    0.6322767    0.3502827 -26.20  0.002910849    2.897    0.655
        65  -7.6594    126.2499     84.0098   8.5039434926e+01   4.0707084245e+01    0.2647043    0.1600331  16.06  0.000883037    3.440    0.709
        66  -7.9558     66.1639     84.1527   1.0273245422e+02   5.1516524289e+01    0.2031773     0.168345 -38.83 0.0003960081    1.246    0.197
        67  -8.5229     88.5435     78.7544   9.4248015904e+01   4.9213334296e+01    0.5064124    0.2928059  14.52  0.001788027    3.749    0.733
        68  -9.6679      8.0062     77.6372   1.2078796113e+02   5.8683386534e+01    0.4153929    0.2438679 -41.05  0.001849922    1.839    0.456
        69  -7.8628    184.1418     78.1356   7.0296067330e+01   2.7998541125e+01    0.2325374    0.2069505   8.85  0.001174412    1.203    0.169
        70  -8.8746     49.1552     77.2291   1.0669079716e+02   5.5229947745e+01      0.43305    0.2495273   5.23  0.001907303    3.138    0.681
        71  -7.6765    105.4906     76.5139   8.8525460088e+01   4.6542065572e+01    0.1461994    0.1394258 -26.05  0.000809851    1.055    0.052
        72  -9.1510     29.3451     68.8382   1.1174809338e+02   5.9106710510e+01    0.4453268     0.228862  -8.03  0.001858084    4.009    0.751
        73  -9.4050     23.8840     74.2067   1.1477884373e+02   5.8356646131e+01    0.4605384    0.1610325 -52.90  0.002098769    2.297    0.565
        74  -7.9687     23.4797     69.4794   1.1399869902e+02   5.9447772879e+01    0.2107375    0.1741684 -69.43 0.0005474386    1.058    0.055
        75  -8.1098     74.9720     74.2774   9.7284275106e+01   5.2404557364e+01    0.1813845    0.1768666   5.96  0.000376701    1.117    0.105
        76  -8.3379     48.4983     71.2540   1.0547164321e+02   5.6639677824e+01     0.238715    0.1585578   9.55  0.001016633    2.095    0.523
        77  -7.2607    129.3523     69.2950   7.9740288750e+01   4.2866798093e+01    0.1569168    0.1187018  14.83 0.0007032664    1.685    0.406
        78  -7.5408    116.4603     68.4419   8.2903218300e+01   4.5888195169e+01    0.1487859    0.1415671  -5.32 0.0008054829    1.070    0.065
        79  -8.7837     83.4141     64.5882   9.1616407242e+01   5.3075337076e+01    0.5744361    0.3327627 -18.01  0.002114191    3.339    0.701
        80  -8.4448     15.8370     64.3770   1.1578012224e+02   6.1141343983e+01    0.2360146    0.1754728 -33.44 0.0009364691    1.464    0.317
        81  -9.5641     19.6760     60.9897   1.1364223503e+02   6.1619006482e+01    0.2300828    0.1770358  -9.81 0.0007986291    1.609    0.379
        82  -6.9142    148.3392     63.3268   7.3222253690e+01   3.9419012026e+01    0.1627645    0.1189969  18.68 0.0003512124    1.730    0.422
        83  -8.0682    121.1413     61.8666   7.9467518792e+01   4.6099696318e+01    0.2187992    0.2054707 -67.05 0.0004374104    1.148    0.129
        84  -9.3202     62.7184     61.2414   9.7640079946e+01   5.7002640603e+01    0.5756037    0.3315284  15.40  0.002345435    2.743    0.635
        85  -8.9637     57.8749     62.3268   9.9701646187e+01   5.7431234602e+01    0.5528806    0.1501653  33.38  0.001885091    4.309    0.768
        86  -8.9098     26.7997     59.5949   1.1059914460e+02   6.1367325850e+01    0.1798463    0.1445142 -44.39  0.001187837    1.156    0.135
        87  -9.4085     37.5931     58.8346   1.0626297072e+02   6.0540404551e+01     0.394204    0.2232347 -22.43  0.001387053    2.607    0.616
        88  -8.2716     96.0155     59.7453   8.6009657157e+01   5.1748543918e+01    0.2661027     0.158091  -9.48 0.0009024185    3.666    0.727
        89  -7.9256     11.3152     60.6592   1.1675467365e+02   6.2254019621e+01    0.1163593   0.08052837  77.05 0.0005045034    1.705    0.413
        90  -8.2548    111.3945     58.3213   8.0954529184e+01   4.8887211733e+01    0.3198584    0.2068133  23.50  0.001234059    2.089    0.521
        91  -7.5158     49.4951     58.5286   1.0166504628e+02   5.9297190232e+01    0.1301245    0.1127577 -48.88 0.0001686833    1.013    0.013
        92 -10.1901     74.6533     50.0432   8.9683752275e+01   5.7458890083e+01    0.5297045    0.3505875 -38.96 0.0004232468    1.392    0.282
        93  -8.0402    106.7282     67.0108   8.5200168813e+01   4.8204432450e+01    0.2110543    0.1946359 -30.08  0.001163866    1.056    0.053
        94  -9.2453     45.2274     49.0147   1.0040162379e+02   6.1799937511e+01     0.389375    0.2281211 -28.53  0.001482573    2.012    0.503
        95  -8.1495    217.2847     50.5563   5.7092712167e+01   2.3806147320e+01    0.2819623    0.2079108  11.14  0.001103261    1.705    0.414
        96  -8.4667    118.5477     51.0277   7.6410206230e+01   4.8612485210e+01    0.2520019    0.2068854  70.68 0.0002780168    1.424    0.298
        97  -8.5890    106.7243     48.6198   7.8845916478e+01   5.1631088284e+01    0.3625621    0.2372227   3.08  0.001497256    2.383    0.580
        98  -8.9572     13.6923     45.7034   1.1251596241e+02   6.5344302343e+01    0.1966937    0.1495494 -61.46 0.0003697262    1.091    0.084
        99  -9.1823     56.1355     43.3088   9.4136739070e+01   6.1570432884e+01    0.6766728    0.3103277 -25.02  0.002141549    4.964    0.799
       100  -8.9430      3.0608     41.8123   1.1617224759e+02   6.6782528063e+01    0.5915293   0.08519398 -61.57  0.002247622    3.519    0.716
       101  -9.2066      6.1723     34.2270   1.1289260504e+02   6.8205409467e+01    0.3266422    0.2693397 -37.69  0.002044533    1.170    0.145
       102  -8.1100      2.5244     31.5288   1.1388773987e+02   6.8954274332e+01    0.1511853    0.1279486 -53.23 0.0008050856    1.112    0.100
       103  -8.6327      1.4665     28.5386   1.1358584908e+02   6.9618264723e+01    0.4461444   0.04417145 -54.09  0.001711713    3.560    0.719
       104 -10.9813     83.1894     40.0381   8.2964140714e+01   5.7823083700e+01    0.3904678    0.2652897 -21.44  0.001952975    1.584    0.369
       105  -8.7313     87.5955     38.1614   8.0747381326e+01   5.7319011226e+01    0.2957698    0.2277309  -2.35 0.0008872196    1.451    0.311
       106  -6.8476    190.6847     42.2522   5.8504354138e+01   3.1714095041e+01    0.1488589    0.1114047 -69.42 0.0001357952    1.526    0.345
       107  -8.8459     10.5971     47.2349   1.1419324351e+02   6.5212534368e+01    0.3543915     0.154479 -58.35  0.001039278    1.691    0.409
       108  -7.9986    124.0525     39.9383   7.0905964917e+01   4.9141573742e+01    0.2386703    0.1729492  16.65 0.0006553786    1.661    0.398
       109  -8.3401     92.5312     37.3889   7.8843555836e+01   5.6481752377e+01    0.3053098    0.1921978 -41.41  0.001187159    1.576    0.365
       110  -9.4278     68.6411     37.1229   8.6979363475e+01   6.0862903319e+01    0.4595351    0.2674242  13.23  0.001929208    2.866    0.651
       111  -8.5720     73.8329     34.1830   8.3876046816e+01   6.0512247579e+01    0.2216532    0.1978732  22.85  0.000564384    1.159    0.137
       112  -8.6076     35.4176     37.2848   1.0056457725e+02   6.5259982242e+01    0.2890785    0.1426439 -48.94   0.00148771    1.661    0.398
       113  -9.1005     38.9191     35.4895   9.8395878710e+01   6.5237737920e+01    0.2630223    0.1835529  -1.81 0.0009368389    1.734    0.423
       114  -7.9833    105.9265     36.8449   7.4583827035e+01   5.3765017699e+01     0.232652     0.186517  16.31  0.001212876    1.337    0.252
       115  -8.1231     24.5163     36.5033   1.0513914815e+02   6.6448947213e+01    0.3181682    0.1125761 -63.32 0.0009871747    3.225    0.690
       116  -9.2703     19.0439     35.7820   1.0739481239e+02   6.7038139662e+01    0.3247746    0.1350086 -32.78 0.0007217888    2.908    0.656
       117  -9.2913     21.9963     32.0503   1.0482399332e+02   6.7557570511e+01    0.3380535    0.2231012  21.77  0.001109684    1.789    0.441
       118  -8.5844     55.9152     35.4813   9.1260033479e+01   6.3094707111e+01    0.2453123    0.1665521 -35.25 0.0003479269    1.311    0.237
       119  -9.3014     61.1593     27.5205   8.5849755726e+01   6.3734824645e+01    0.5157803    0.2549005 -25.85  0.001786541    2.443    0.591
       120  -7.3924    139.3420     29.3270   6.3393299770e+01   4.6882658112e+01     0.161328    0.1075916  27.73  0.000705122    1.738    0.425
       121  -8.5146     42.3036     27.9960   9.3992393979e+01   6.6266439116e+01    0.2184772    0.1532091 -12.32 0.0003435159    1.573    0.364
       122  -7.7404    249.6588    249.6555   9.3722438591e+01  -7.4929843691e+00    0.1119457   0.05834398  17.36 0.0004740369    1.784    0.439
       123  -7.7412    110.3161     26.3589   6.9125709221e+01   5.4335508455e+01    0.1545956    0.1048043  18.13 0.0007043692    1.754    0.430
       124  -9.1076    241.7836    248.2453   9.4716720128e+01  -6.3124533160e+00    0.1901478    0.1404555  24.11 0.0003792639    1.108    0.097
       125  -8.2762    217.3445    249.6972   9.8705823093e+01  -3.0215852601e+00   0.09800062   0.07358794  50.91 0.0007039698    1.684    0.406
       126  -9.6750    173.7565    249.1420   1.0568253488e+02   3.4530379612e+00    0.2233696    0.1641073 -11.66  0.001596603    1.915    0.478
       127  -7.9550    102.0246     25.4478   7.1032215782e+01   5.6323438455e+01    0.2103314    0.1332121  48.50 0.0004795241    1.557    0.358
       128 -10.5982    190.8563    248.1981   1.0276434032e+02   1.0045090593e+00    0.3428542    0.2438632  62.42  0.002316952    2.018    0.504
       129  -7.9298    129.0968     22.2135   6.2886774855e+01   5.0373772794e+01    0.2310098     0.182078  33.32 0.0006092686    1.266    0.210
       130  -9.1881     92.3909     20.4603   7.1703631802e+01   5.9083378412e+01    0.2814628    0.2295535  19.22 0.0007709376    1.198    0.165
       131 -10.1136    185.2446    248.3952   1.0370547310e+02   1.8194580386e+00    0.3248914    0.1539291  53.66   0.00171327    2.577    0.612
       132  -8.8722      8.7302     20.3714   1.0733562136e+02   7.0833422264e+01    0.3799435     0.214086  35.10  0.002299358    2.300    0.565
       133  -8.8160     13.0311     18.4679   1.0437257662e+02   7.0902587845e+01     0.276723    0.1759952  -7.66  0.001048378    1.810    0.447
       134  -8.4187    158.9953    249.3223   1.0814642341e+02   5.6383315847e+00    0.1803186   0.07075258  29.43 0.0006574357    4.234    0.764
       135  -8.3630    154.3239    248.9961   1.0888772087e+02   6.3743806301e+00    0.1440924   0.08649251 -82.31 0.0007049326    4.294    0.767
       136  -8.1854    112.0797     19.2125   6.5683464720e+01   5.4866865627e+01    0.2123526    0.1736592  25.54 0.0003181162    1.200    0.167
       137  -8.2974    140.3611     20.0829   5.9718896854e+01   4.7772286947e+01    0.2378242    0.1859717  46.48 0.0003701186    1.221    0.181
       138  -8.5498    166.3001    247.3293   1.0670796054e+02   4.7823288249e+00    0.1062298   0.07279156  21.17 0.0004883552    1.643    0.391
       139  -8.2149    127.4115     17.0334   6.1199912819e+01   5.1413984145e+01    0.2311191    0.1834851  42.52  0.000461301    1.197    0.164
       140  -7.0025    189.4579     15.5092   5.0438768301e+01   3.5258472930e+01    0.1431362    0.1351003  54.12 0.0008076237    1.087    0.080
       141  -7.8936     99.8342    240.1808   1.1723735370e+02   1.5485947044e+01    0.1374784    0.1105559  40.19 0.0004665722    1.338    0.253
       142  -9.8070    188.1600    234.3584   1.0143779864e+02   2.9618018113e+00    0.2137044    0.1610737 -40.10 0.0008830141    1.751    0.429
       143  -9.7725    135.3229    233.9445   1.1049764551e+02   1.1215240471e+01     0.200073    0.1670817  51.70 0.0003677744    1.108    0.097
       144  -7.9423      7.8997    221.3142   1.3150374226e+02   2.9333748250e+01    0.1356942   0.09037036  57.32 0.0004923284    1.172    0.147
       145  -7.5135    137.7204    219.3622   1.0840349234e+02   1.2953844656e+01    0.1589967    0.0919212  38.22 0.0002539984    1.491    0.329
       146  -8.4598     11.5035    207.4865   1.3034042424e+02   3.1382857900e+01    0.1025153    0.0719656  70.34 -3.261933e-05    1.020    0.020
       147  -8.6989    244.9701    205.6521   8.7686171124e+01  -2.7145782996e+00    0.1824215    0.1497752  -8.21 0.0003910371    1.270    0.213
       148  -7.4567    177.6498    205.2667   9.9168171747e+01   8.3916676258e+00     0.119623   0.08692472  60.09 0.0002518434    1.619    0.382
       149  -8.7292    242.7880    187.1864   8.4811287997e+01  -3.4458936723e-01    0.2088855    0.1933645  16.79  0.000801026    1.332    0.249
       150  -8.6774    231.1788    182.6799   8.5899824151e+01   2.1264282580e+00    0.2386679    0.1803037  39.68  0.001050676    1.295    0.228
       151  -7.5621     13.5039    179.5765   1.2859068972e+02   3.6377369849e+01    0.1080279   0.07851404  73.97 0.0001541813    1.014    0.014
       152  -8.3009    232.0590    177.9388   8.4871975063e+01   2.5616664691e+00      0.18674    0.1530897  16.50  0.000354889    1.005    0.005
       153  -8.0031    153.0301    172.6367   9.8679345746e+01   1.7898418716e+01    0.1886823    0.1520863  43.81  0.001100364    1.097    0.088
       154  -7.3948    242.2976    172.7332   8.2194023373e+01   1.4438257797e+00    0.1032639    0.1005784  66.63 0.0002626969    1.516    0.340
       155  -7.9728     86.9229    172.3078   1.1269193483e+02   2.9151578166e+01    0.1692534    0.1418882  57.76 0.0003027201    1.092    0.084
       156  -7.5670     85.8019    157.3683   1.1095105917e+02   3.2373593411e+01     0.158763    0.1180171  35.47  0.000273307    1.480    0.324
       157  -8.3313    205.9034    151.5236   8.4238866620e+01   1.1069366065e+01    0.2117772    0.1260211  44.43   0.00102748    1.577    0.366
       158  -9.1419     67.1722    144.7227   1.1359059307e+02   3.7719068233e+01    0.4261885    0.2446922  61.06  0.002193847    1.810    0.447
       159  -7.8523    247.4147    141.1895   7.4963229513e+01   4.5244785267e+00    0.1726398    0.1130404 -36.44 0.0006209399    1.592    0.372
       160  -7.6639    139.9365    138.9895   9.5190835464e+01   2.6684234400e+01    0.2177697    0.1742445   9.32 0.0008630934    1.644    0.392
       161  -7.3738    108.7851    136.9612   1.0214258900e+02   3.2960380299e+01    0.1782316    0.1101421 -55.28 0.0006125988    1.641    0.391
       162  -7.3002     55.3627    135.3150   1.1522923752e+02   4.1297484211e+01    0.1220245   0.09384771 -36.84  0.000704124    1.761    0.432
       163  -8.1494      5.2401    133.7357   1.2741499270e+02   4.6454905320e+01    0.1425401   0.09682195  -1.68 0.0008963795    2.481    0.597
       164  -7.5701     40.9425    129.5188   1.1814875679e+02   4.4227388281e+01    0.1572114    0.1067906 -13.59 0.0008085789    2.741    0.635
