#   1 NUMBER                 Running object number                                     
#   2 MAG_AUTO               Kron-like elliptical aperture magnitude                    [mag]
#   3 X_IMAGE                Object position along x                                    [pixel]
#   4 Y_IMAGE                Object position along y                                    [pixel]
#   5 X_WORLD                Barycenter position along world x axis                     [deg]
#   6 Y_WORLD                Barycenter position along world y axis                     [deg]
#   7 A_WORLD                Profile RMS along major axis (world units)                 [deg]
#   8 B_WORLD                Profile RMS along minor axis (world units)                 [deg]
#   9 THETA_WORLD            Position angle (CCW/world-x)                               [deg]
#  10 FWHM_WORLD             FWHM assuming a gaussian core                              [deg]
#  11 ELONGATION             A_IMAGE/B_IMAGE                                           
#  12 ELLIPTICITY            1 - B_IMAGE/A_IMAGE                                       
         1  -9.9180     51.6177     36.8323   1.0423723454e+02   6.2380062679e+01    0.7707329    0.4709006 -52.99  0.004074542    2.439    0.590
         2 -10.6351     39.1771     30.1423   1.0648947162e+02   6.4905046703e+01    0.6110917    0.3274401 -45.14  0.003431368    2.043    0.511
         3  -9.5621     66.5093     30.7202   9.6582294120e+01   6.1100864896e+01    0.6121487    0.2182609 -32.59  0.002658666    2.766    0.639
         4 -11.7076     43.3109     20.1716   1.0087888603e+02   6.5771301589e+01    0.8528664    0.7195781  34.85  0.005061036    1.547    0.353
         5 -11.6452    128.3912     17.6150   7.5072125933e+01   5.0452739740e+01     1.137631     1.016045  68.30  0.006749068    1.144    0.126
         6 -11.8400    131.5146      3.1799   6.9826920788e+01   5.1046918814e+01     2.056692    0.5182906  64.94  0.007171293    3.590    0.721
         7 -12.2919    120.7349      4.0452   7.2114772661e+01   5.3396866084e+01     3.153923    0.5249459  60.54  0.009948236    4.411    0.773
         8 -13.7804    169.0086     16.4812   6.7734355475e+01   4.0947360286e+01     3.757951     1.442375  65.39   0.01489832    2.236    0.553
         9 -10.6069     76.5402     19.6564   8.8972369449e+01   6.0793399926e+01    0.8477159    0.3726763 -19.64  0.003895283    2.659    0.624
        10 -10.2259     71.0737      5.5067   8.4943037137e+01   6.3174829801e+01    0.5059012    0.2843438  39.57  0.002212705    1.507    0.337
        11 -10.0648     78.4358     12.1781   8.5429178502e+01   6.1243954399e+01    0.4589311    0.3386717  57.28   0.00283405    1.617    0.382
        12 -11.2811     84.2406      3.8998   8.0490964781e+01   6.0930850609e+01    0.8316771    0.3958387  43.92  0.003813818    1.729    0.422
        13  -8.9807     10.4388     24.4720   1.1647573674e+02   6.8480424988e+01    0.2908694    0.1850433 -49.45  0.001973541    1.678    0.404
        14  -9.6764    116.9368     16.7209   7.7199910124e+01   5.3093458428e+01    0.5909213     0.269522 -17.25  0.002625495    2.738    0.635
        15  -9.7847    111.9750     15.5641   7.7917005754e+01   5.4280113889e+01     0.478169    0.2576004  37.68  0.002408878    1.774    0.436
        16  -9.4987     93.8333     17.6318   8.3176979379e+01   5.7800706539e+01    0.3371351    0.3343436  77.64   0.00156781    1.299    0.230
        17 -10.0580    248.7365     15.1814   5.8649282209e+01   2.2394234900e+01    0.3119067    0.2460458 -80.23  0.001914765    1.039    0.038
        18  -8.6010     69.5934     14.0638   8.8932042034e+01   6.2588788950e+01    0.2470915      0.20152  83.80  0.001496262    2.301    0.565
        19  -8.5089     20.4324     14.0098   1.0788080956e+02   6.9130154360e+01    0.3280853    0.1424079 -31.37  0.001881471    1.954    0.488
        20 -12.8114    169.4044      5.7582   6.4771647076e+01   4.1905274051e+01     2.153882    0.6999605  71.12  0.008227253    2.871    0.652
        21 -10.5737    244.1167      8.0231   5.7599346482e+01   2.4235548071e+01    0.3422791    0.2847804 -48.22  0.002348729    1.330    0.248
        22 -10.0727    249.8637      4.9280   5.6548895138e+01   2.3347862066e+01    0.5138918    0.2008531 -35.91  0.002512901    2.548    0.607
        23 -10.4652    200.9353      8.2535   6.1641602292e+01   3.4094874295e+01    0.4578243    0.2035976  78.48  0.001784755    2.135    0.532
        24  -9.7084    203.8364      3.5894   6.0253907955e+01   3.3884694517e+01    0.3563172    0.1963339 -65.37  0.001631816    1.887    0.470
        25  -8.7830     52.2571      2.0278   8.9675822162e+01   6.6542595876e+01    0.3468847    0.3065373 -77.36  0.002399171    2.263    0.558
        26  -9.0867     54.0027      7.4892   9.1456005840e+01   6.5746458407e+01      0.31595    0.1899731  55.88  0.001472638    2.614    0.617
        27  -9.1614     39.6606      7.3465   9.6814316561e+01   6.7768209004e+01    0.2983585    0.2173292  26.01  0.001740148    1.309    0.236
        28  -9.7463     60.8048      2.8606   8.7101572261e+01   6.5132563439e+01    0.4592349    0.3231161  15.27  0.003112648    1.201    0.167
        29  -9.2398    229.8128      5.8158   5.8331702158e+01   2.7652575923e+01    0.2193294    0.1807709 -78.65  0.001393452    1.064    0.060
        30 -10.2421    215.0111      4.1108   5.9289626877e+01   3.1219490162e+01    0.3883446    0.2618522  48.65  0.002241196    1.806    0.446
        31  -8.7295     26.5036      2.6386   1.0015532763e+02   6.9883788656e+01    0.2162618    0.1704177 -20.74  0.001459961    1.373    0.271
        32  -8.9863    222.2500      2.4980   5.8286103029e+01   2.9723053595e+01    0.2220336    0.1587423  -9.58  0.001277187    2.229    0.551
        33  -8.9605     17.1704      1.9287   1.0401631155e+02   7.0954821362e+01    0.2056979    0.1467531  33.47  0.001032341    1.846    0.458
        34  -8.3656     39.7314      1.4154   9.4096910304e+01   6.8381330540e+01    0.2520769   0.08846909  38.06  0.001282075    2.594    0.614
        35  -8.7472    198.5940     54.9223   7.3465233466e+01   2.8747642716e+01    0.2335636    0.1866201  54.14 0.0006685191    1.295    0.228
        36  -7.7956     34.8025     52.4045   1.1597877529e+02   6.1756568125e+01    0.1542895    0.1038979   3.32  0.000937748    1.598    0.374
        37  -7.8736     23.4745     52.5046   1.2033873545e+02   6.2768861784e+01    0.1160809   0.09338688 -34.22 0.0001725206    1.058    0.055
        38 -10.0314     83.9570     48.0432   9.7213613256e+01   5.5729472840e+01    0.5185943    0.3694162  55.48  0.002809295    1.788    0.441
        39  -8.0661    110.9896     45.8265   8.8610757480e+01   5.0857350661e+01    0.2377984    0.1438491  26.02  0.001086443    1.987    0.497
        40 -10.4108      3.9379     39.4760   1.2425767110e+02   6.6457266512e+01    0.5715969      0.35655 -35.36  0.003369903    1.207    0.172
        41  -9.0159     12.4777     34.0351   1.1894646291e+02   6.6813251606e+01    0.3398342    0.1830998 -48.20  0.001429972    1.619    0.382
        42  -8.3278     97.2534     43.9442   9.1765839084e+01   5.3891188717e+01    0.1899462    0.1655225 -10.52 0.0008931304    1.112    0.101
        43  -9.6581     80.8268     40.6287   9.5561438504e+01   5.7374482960e+01    0.3833653    0.3037837  -4.71  0.002334885    1.196    0.164
        44  -9.8524    182.1234    246.6334   1.1869165210e+02  -3.3495457463e+00    0.2648599    0.1407974  30.17  0.001293315    1.925    0.480
        45 -10.2531    159.7169    240.4290   1.2209222341e+02   1.5225914423e+00    0.3692096    0.1636158  44.56  0.001684309    1.922    0.480
        46  -9.7956     50.0703     27.6812   1.0130985304e+02   6.3895213074e+01    0.3401801    0.2900736  29.74   0.00184481    1.395    0.283
        47  -8.7188     69.5001     36.4929   9.7752875065e+01   5.9837427639e+01    0.2904079    0.2004906 -27.43  0.001723013    1.370    0.270
        48  -8.7594    196.3418    241.6900   1.1521148597e+02  -5.0031193899e+00    0.1222605   0.09611154  64.47 0.0007044938    1.695    0.410
        49  -8.0962     62.5339     29.5353   9.7501856925e+01   6.1870240946e+01    0.1619143    0.1111482  43.49 0.0002237875    1.645    0.392
        50  -9.1790    208.5039    226.4843   1.1034250689e+02  -4.7350321947e+00    0.1306639    0.1135799  21.13 0.0001836351    1.008    0.007
        51  -8.4854     27.2495     35.1997   1.1318621878e+02   6.5387318731e+01     0.192431     0.133258  -5.39  0.001287475    1.351    0.260
        52  -9.4511     86.3943     31.3934   9.0445187404e+01   5.7631476846e+01    0.2758744    0.1973551 -20.74  0.001616054    1.391    0.281
        53 -10.4175    225.3089     29.1451   6.3816872685e+01   2.5917480387e+01    0.4267909    0.3076393  64.43  0.001312893    1.382    0.276
        54  -9.4285    238.3456    203.4417   1.0049993160e+02  -6.1852415278e+00    0.2444654    0.1764039  11.50  0.001140734    1.437    0.304
        55 -12.0120     10.7507    139.7023   1.4112229815e+02   4.5136124979e+01    0.9529933    0.5105228 -50.69  0.005396816    1.809    0.447
        56 -12.6727    240.7941    133.2355   8.5388419180e+01   5.4836547015e+00     1.524484     1.139218  51.47   0.00551545    1.476    0.322
        57  -9.7147     41.2951    142.0688   1.3379449821e+02   4.1792887970e+01     0.302611    0.2157367  51.93  0.001764324    1.542    0.352
        58  -8.5060    125.4768     28.8573   7.9385058448e+01   4.9898945193e+01    0.2703883    0.1879155  31.78  0.001280368    1.478    0.324
        59  -8.8503     80.6755     27.5199   9.0733193484e+01   5.9145347886e+01    0.4522421    0.2195516  21.90  0.001874629    3.040    0.671
        60  -8.0232     90.4744     27.9595   8.7968096730e+01   5.7295365302e+01    0.1849457    0.1204301 -24.08  0.001024626    1.571    0.363
        61 -11.6087     12.3015    127.1568   1.3915396891e+02   4.7873102405e+01     1.244188    0.2069758 -50.69  0.004019519    5.058    0.802
        62 -10.2834     13.6728    119.9805   1.3779323617e+02   4.9397869538e+01    0.3270603    0.1729725  52.16  0.001401793    2.397    0.583
        63 -10.3404     16.9290    104.1207   1.3437253583e+02   5.2711219250e+01    0.5239574     0.308885 -74.62  0.002974222    1.601    0.375
        64  -9.8235     29.3648    102.3732   1.3032955721e+02   5.2106131857e+01    0.4042718    0.1684858 -43.08  0.001767624    2.316    0.568
        65  -8.5864    104.7778     25.7339   8.3259424046e+01   5.4723506730e+01    0.3793643    0.1861494  50.57  0.001817992    1.826    0.452
        66  -9.2639     56.8836     96.9104   1.2062310718e+02   5.0434189072e+01    0.2258001    0.1937643  41.47  0.001375949    1.346    0.257
        67  -8.2380     19.0289     21.9761   1.1173516217e+02   6.8151937283e+01    0.1986926    0.1204347   1.87  0.001298243    1.626    0.385
        68  -7.4307     58.3177     90.3164   1.1853567532e+02   5.1682217418e+01    0.1379673   0.09293285 -26.09 0.0007039077    1.653    0.395
        69  -8.7956      2.4115     89.2697   1.3620442579e+02   5.6849856143e+01    0.6238685    0.1861628 -70.60  0.002496931    3.382    0.704
        70  -8.6477     97.3026     28.5665   8.6266534352e+01   5.5902182581e+01    0.4326089    0.2173043  -7.21  0.001726339    3.303    0.697
        71 -10.0160     24.4298     65.7070   1.2367763985e+02   6.0205229319e+01    0.6703756    0.2039558 -47.16  0.002994659    2.438    0.590
        72  -7.9472     22.4893     23.4958   1.1082417094e+02   6.7615846931e+01    0.1711392   0.08120765 -32.56 5.973338e-05    1.755    0.430
        73  -8.5667     64.3746     16.4140   9.1618201679e+01   6.3189614507e+01    0.2247903    0.1869631 -77.03  0.001245169    2.409    0.585
        74 -10.2028      3.6611     76.0866   1.3334805821e+02   5.9524422449e+01    0.4929149    0.3746959 -68.36  0.002899091    1.257    0.205
        75  -9.1176    228.6617     15.3063   6.0444943493e+01   2.6839996428e+01    0.2509944    0.1367092 -60.47  0.001301097    1.747    0.427
        76  -8.8650    225.3412     14.6675   6.0622211250e+01   2.7674080604e+01    0.2388761    0.1128217  84.36  0.001102067    2.140    0.533
        77 -10.0200     13.0092     77.8550   1.3056940827e+02   5.8601798443e+01    0.5093558    0.2648115 -26.09  0.002772633    2.228    0.551
        78 -10.8147     13.0383     71.8438   1.2923289457e+02   5.9822842390e+01    0.7231216     0.533289  45.26  0.004839511    1.851    0.460
        79  -7.3660     13.3014     15.2809   1.1162609194e+02   6.9598586875e+01    0.1087046   0.06247018 -15.40 0.0006965013    1.548    0.354
        80 -11.6485     43.7813     82.0061   1.2117120756e+02   5.5117175083e+01    0.9931418     0.726979 -19.85  0.005259805    1.457    0.314
        81  -8.9100     19.5056     88.9696   1.3074878285e+02   5.5819698125e+01    0.2156938    0.1878521 -57.65  0.001300368    1.113    0.102
        82  -9.0445    227.6319     78.7526   7.4954637930e+01   1.8006967703e+01    0.3371534    0.2729674  15.74  0.001735315    1.808    0.447
        83  -8.2921     77.6094     78.1654   1.0899862701e+02   5.1465338332e+01    0.2041708    0.1157302 -36.01 0.0009480648    1.730    0.422
        84  -7.5196    204.4754     76.5231   7.8000097253e+01   2.3850530427e+01    0.1493794    0.1353977 -76.22 0.0001068755    1.031    0.030
        85  -9.5019     73.9638     68.4832   1.0723181841e+02   5.3885648338e+01    0.3435215    0.2872955 -53.38  0.001727915    1.349    0.258
        86  -9.0544     35.0517     78.8448   1.2331757543e+02   5.6644238649e+01    0.3561404    0.1598395 -54.66  0.001745125    1.865    0.464
        87  -8.5402     33.5705     69.0000   1.2127959804e+02   5.8763246258e+01    0.2337604    0.1588363  -9.47    0.0013941    1.656    0.396
        88  -9.4199     16.5832     63.7349   1.2601794034e+02   6.1184747140e+01     0.327946    0.1647552 -64.14  0.001733972    2.110    0.526
        89  -9.2885     48.4990     62.2884   1.1401747462e+02   5.8480062162e+01    0.3769841    0.2329199  29.79  0.002131769    1.769    0.435
        90  -7.7219     88.6914     61.3628   1.0025428478e+02   5.2727686074e+01     0.131642    0.1099936 -76.55 0.0007039559    1.744    0.427
        91  -8.0749     93.1602     57.3678   9.7566785438e+01   5.2593973374e+01    0.1872327    0.1261247  51.46 0.0009453421    1.677    0.404
        92  -9.3326     68.5407     62.6889   1.0719305018e+02   5.5761215682e+01     0.447346    0.2467007   3.81  0.001698967    3.646    0.726
        93  -7.6832      9.3338     56.3118   1.2680496193e+02   6.3086382750e+01    0.1215594   0.06357592 -33.40 0.0007044496    1.680    0.405
