#   1 NUMBER                 Running object number                                     
#   2 MAG_AUTO               Kron-like elliptical aperture magnitude                    [mag]
#   3 X_IMAGE                Object position along x                                    [pixel]
#   4 Y_IMAGE                Object position along y                                    [pixel]
#   5 X_WORLD                Barycenter position along world x axis                     [deg]
#   6 Y_WORLD                Barycenter position along world y axis                     [deg]
#   7 A_WORLD                Profile RMS along major axis (world units)                 [deg]
#   8 B_WORLD                Profile RMS along minor axis (world units)                 [deg]
#   9 THETA_WORLD            Position angle (CCW/world-x)                               [deg]
#  10 FWHM_WORLD             FWHM assuming a gaussian core                              [deg]
#  11 ELONGATION             A_IMAGE/B_IMAGE                                           
#  12 ELLIPTICITY            1 - B_IMAGE/A_IMAGE                                       
         1 -12.0625    104.4026     13.4767   1.4740813479e+01   5.7232126321e+01    0.5179189    0.3658517  -7.23  0.002686514    1.709    0.415
         2 -12.4295    105.7708     20.2366   1.7240798476e+01   5.6142343414e+01    0.3697844    0.3579383 -26.55 0.0003421408    1.127    0.112
         3 -10.4741     59.9684     22.7724   3.3300914919e+01   6.6171739500e+01    0.4037011    0.1784021 -34.58  0.001739667    2.335    0.572
         4 -10.3949      1.2807      8.5165   6.2248931726e+01   7.6555440294e+01    0.3215994   0.09912743 -57.86   0.00136666    3.182    0.686
         5 -10.5435      2.0545      2.0940   5.8036199357e+01   7.7646847554e+01    0.2735263    0.1431719 -33.51  0.001330017    1.657    0.396
         6 -11.7994     20.4800     21.9522   5.4551373632e+01   7.2381624600e+01    0.7629119    0.3910598 -35.58  0.002396155    1.842    0.457
         7 -11.5480      7.1367     10.2911   5.8357664865e+01   7.5789391715e+01    0.5346534     0.483208  31.31  0.003815801    1.429    0.300
         8 -11.1024      9.4652     19.5801   6.1122223071e+01   7.3861950733e+01    0.5697116    0.2712404 -15.65  0.001800432    2.755    0.637
         9 -10.9253     12.8971      8.1023   5.2598709624e+01   7.5634988225e+01    0.3411179    0.2383434 -56.58  0.001533875    1.834    0.455
        10 -11.9126     16.8692     12.3875   5.2084727861e+01   7.4483837406e+01    0.6347016    0.2655758 -37.11  0.003015623    2.263    0.558
        11 -12.0072     23.0787     10.8747   4.6843149882e+01   7.4001513561e+01    0.4883248    0.3362192   1.59   0.00244095    1.468    0.319
        12 -12.0062     35.6883     18.8752   4.3452599934e+01   7.0964672468e+01    0.7000495    0.3935956 -25.63  0.002614375    1.940    0.485
        13 -10.9794     68.0721     19.2375   2.8211777547e+01   6.5024029386e+01    0.3889889    0.3327216  88.48  0.002240621    1.554    0.356
        14 -12.0200    165.2199     17.7466   6.2621039690e+00   4.1161882804e+01    0.5377787    0.3004958  47.71  0.001808853    2.067    0.516
        15 -11.4891     85.9162     14.2895   1.9827661318e+01   6.1637908225e+01    0.6251062    0.4187299  17.16   0.00259389    1.823    0.451
        16 -10.5631     89.2987      8.4721   1.6177177896e+01   6.1444962822e+01    0.3219481    0.2152482 -21.38  0.001007711    1.655    0.396
        17 -11.1934    137.2356     14.5934   9.0458675524e+00   4.8704581198e+01    0.4252199    0.2965029  63.94  0.001671162    1.300    0.231
        18 -11.2895    127.1550     16.6155   1.1434731844e+01   5.1101169307e+01    0.6206686    0.3318216 -12.96  0.001990637    2.527    0.604
        19 -11.4953    132.2208     15.6599   1.0222079873e+01   4.9892353216e+01    0.4780477    0.2720585  51.54  0.002190527    1.703    0.413
        20 -11.4977    227.7781     15.2308   3.5997780637e+02   2.6745420848e+01    0.4100559    0.2060709 -70.58   0.00145361    1.954    0.488
        21 -12.2430     48.8623     12.9325   3.3108829935e+01   6.9652200612e+01    0.6241404    0.2743783  46.86   0.00282606    2.189    0.543
        22 -11.6264    192.6893      8.6479   9.8174327030e-01   3.5363665100e+01    0.5008288    0.2366411 -28.94  0.002386321    2.156    0.536
        23  -9.8195    114.4688     12.6733   1.2295584106e+01   5.4772550465e+01    0.2403777    0.1304827 -31.37 0.0009869318    1.956    0.489
        24 -12.0063    212.3935      9.2256   3.5963739920e+02   3.0751749193e+01    0.5718746    0.3372158 -25.60  0.002283537    1.880    0.468
        25 -11.0481    206.1566      2.0303   3.5832809410e+02   3.2899205491e+01    0.5539956    0.2190857 -86.73  0.002373237    2.710    0.631
        26 -10.7698    164.5614      4.6675   2.4225183320e+00   4.2669504989e+01    0.4035395    0.2594186  18.49  0.001947701    2.446    0.591
        27 -11.3893    168.9436      9.5516   3.4172134249e+00   4.1087768226e+01    0.5237436     0.217516  60.10  0.002015096    2.255    0.557
        28  -9.2179    163.5124      9.5337   3.9891080237e+00   4.2460357195e+01    0.1695231    0.1360645  -7.61 7.693342e-05    1.591    0.371
        29 -11.0902    153.1845      8.8940   4.9745068294e+00   4.5159562029e+01     0.425835    0.2586725  -1.99  0.001965826    2.455    0.593
        30 -10.4777    145.2137      9.3037   6.1105783680e+00   4.7172692694e+01    0.3036126    0.1892727   4.97  0.001398526    2.429    0.588
        31  -9.7894     78.0101      7.6661   1.8956587557e+01   6.4180207606e+01    0.1936119    0.1528836  55.10 0.0005768645    1.155    0.134
        32 -11.8705    184.6243      5.5171   8.2064147599e-01   3.7618049420e+01    0.4821529    0.2363847 -43.40  0.002373358    1.826    0.452
        33 -10.3843    158.0357      6.9082   3.7917036179e+00   4.4111114774e+01    0.2138929    0.1491666  43.85  0.001129898    1.679    0.405
        34 -10.1849     63.2816      6.2881   2.3185783856e+01   6.7585549184e+01    0.3146311    0.2189941  71.17  0.001678926    1.790    0.441
        35  -9.9562     64.3629      2.0850   2.0450878363e+01   6.7778901431e+01     0.198979    0.1580767   6.79 0.0005315466    1.292    0.226
        36  -9.5253    231.9622      6.2908   3.5773064914e+02   2.6834951099e+01    0.1679586    0.1281318 -71.16 0.0005085916    1.095    0.086
        37 -10.3311    233.9164      2.9209   3.5688956955e+02   2.6780931795e+01     0.348117    0.1454035 -55.67  0.001311172    1.942    0.485
        38 -11.0691    176.8292      5.8544   1.5937800707e+00   3.9491920825e+01    0.2910182    0.1789588 -82.56 0.0008922108    1.524    0.344
        39 -10.4468    121.9341      5.3356   8.1084405206e+00   5.3560181759e+01    0.2174833    0.1782864 -44.88  0.000437367    1.309    0.236
        40 -10.6118     72.9038      3.8437   1.8567527729e+01   6.5719142290e+01      0.53084    0.2185387  42.27  0.002253781    2.303    0.566
        41 -11.7026    137.8593      4.1906   5.3530763015e+00   4.9551508124e+01    0.5274968    0.2257764  68.51 0.0004690425    1.997    0.499
        42 -12.0420    133.2731      2.4871   5.3744970447e+00   5.0885819613e+01    0.8309173    0.2811306  73.22  0.003121007    2.665    0.625
        43 -10.2585    115.6811      4.4741   8.8262266663e+00   5.5240295930e+01    0.2844484     0.227023 -10.71  0.001197262    1.468    0.319
        44 -10.4344    112.9795      1.7109   8.1943624422e+00   5.6165926055e+01    0.2779011     0.183309  71.75 0.0006805758    1.348    0.258
        45 -11.0613     41.5532      3.7858   3.1280868783e+01   7.2141567261e+01    0.3936845    0.2222178  27.54  0.001618478    1.828    0.453
        46 -10.5008    243.2721      4.0808   3.5664974338e+02   2.4765355277e+01    0.2124621    0.1167952 -70.39  0.001136874    1.590    0.371
        47 -10.4268    223.7381      2.7175   3.5740833597e+02   2.8942977163e+01    0.2311852    0.1577887 -60.73 0.0003528544    1.167    0.143
        48 -10.3376    105.2580      1.7451   9.6112225775e+00   5.8118246243e+01    0.3115517    0.1685573  87.95  0.001366417    2.221    0.550
        49  -9.7721     12.9485      2.2903   4.8939313038e+01   7.6574336083e+01    0.1683264    0.1329284   4.85 0.0005193017    1.116    0.104
        50 -10.2736    218.6687      3.5634   3.5790062517e+02   2.9953650375e+01    0.2131729    0.1764141 -53.63 0.0008346591    1.137    0.120
        51  -9.6783    152.4491      1.3579   2.6686397670e+00   4.6049988228e+01    0.2203888    0.1132416  76.59 0.0005921412    1.726    0.421
        52  -9.2052     81.8786      1.0000   1.4527043163e+01   6.3900130790e+01    0.2135958   0.06759403  63.53 0.0005189753    2.811    0.644
        53 -10.8904     35.4485    102.9247   7.0779842119e+01   5.2160389713e+01    0.4678159    0.2653627 -12.72  0.001479976    2.825    0.646
        54 -11.3516     17.2585    100.7508   7.7461847071e+01   5.4331836422e+01    0.3252843    0.2323941  39.96 0.0004241974    1.503    0.335
        55 -12.0550     26.0730    106.3063   7.4907430047e+01   5.2178260704e+01    0.8881121    0.5286745 -57.37  0.003936258    1.518    0.341
        56 -11.5849     28.0135    113.0525   7.5189242298e+01   5.0244633811e+01    0.3605578    0.2958347  22.32  0.001102424    1.369    0.269
        57 -12.2708      2.6428    111.5726   8.4118894960e+01   5.2481607046e+01    0.5941746    0.3632109  59.20  0.001075977    1.668    0.401
        58 -11.3485      4.0094    105.4501   8.3037834762e+01   5.3971538710e+01     0.411767    0.3427097  56.65  0.002285312    1.253    0.202
        59 -10.0006     49.3322    112.1317   6.7303508255e+01   4.8175670148e+01    0.2776422    0.2015657  40.60 0.0008107733    1.415    0.293
        60 -11.0721     15.4722    109.9384   7.9337928666e+01   5.2085221392e+01    0.4428544    0.2676242  12.80  0.001642424    1.981    0.495
        61 -11.5362     80.0707    108.1818   5.5622510975e+01   4.4594614367e+01    0.3696213    0.3112999  18.17 0.0007249588    1.344    0.256
        62 -11.1824     51.5205    100.1873   6.4073234243e+01   5.0984566574e+01    0.7242548    0.3761266 -30.87  0.002643978    2.988    0.665
        63  -9.8071     85.8595    103.6411   5.2541742999e+01   4.4686756005e+01    0.2563927    0.2079759 -42.29 0.0005826774    1.272    0.214
        64 -11.7787    248.1598     95.1088   1.5750438137e+01   1.2100502884e+01    0.4398898    0.2731281 -13.85  0.002227502    2.206    0.547
        65 -11.9248      9.1227     97.0730   8.0144185658e+01   5.5821755786e+01    0.4291542    0.3802894  56.10 0.0006138946    1.213    0.176
        66 -11.5469     21.9586    114.5097   7.7568978623e+01   5.0393269405e+01    0.5010579    0.2695787   7.30   0.00225286    2.468    0.595
        67  -9.3798     64.6834     98.7065   5.8780309946e+01   4.9486729151e+01    0.2116085    0.1826241 -46.33 0.0004880728    1.150    0.131
        68 -11.5642     68.0103     95.1155   5.6650469389e+01   4.9860424729e+01    0.5556678    0.2901995  42.84  0.002167983    1.977    0.494
        69  -9.0969    210.4350     98.4512   2.1544796634e+01   1.8738571071e+01     0.137973    0.1237784 -38.69  0.000114043    1.026    0.025
        70 -11.7712     76.3223     79.9238   4.9278219373e+01   5.2077374748e+01    0.9387596    0.6714794  80.06  0.001261514    2.084    0.520
        71  -8.9001     33.5066     98.5190   7.0734790192e+01   5.3499210322e+01    0.2052009    0.1238181  39.77 0.0007182403    1.747    0.428
        72  -9.9903     30.5198     96.0248   7.1464005995e+01   5.4434845398e+01    0.2716229    0.1679176 -85.14  0.001097776    1.752    0.429
        73 -12.0254    126.0269     94.5811   3.7835644600e+01   3.8429838785e+01    0.2693537    0.2556968 -58.12 0.0002265247    1.050    0.048
        74 -11.7932     41.9975     91.1727   6.5843456277e+01   5.4463495523e+01    0.5657733    0.4057829  72.23  0.001420995    1.694    0.410
        75 -11.6899     45.0721     84.5311   6.3024529482e+01   5.5764140660e+01    0.5228071    0.4128524   3.71  0.001824838    1.463    0.316
        76 -10.2022     37.4519     85.8815   6.6547263008e+01   5.6313469049e+01    0.3311551    0.2176263  23.14  0.001058305    1.663    0.399
        77 -10.5765     19.1731     86.3759   7.4425468063e+01   5.7873054650e+01    0.5178515    0.3213038 -29.95  0.002594021    1.836    0.455
        78 -11.1011     22.8166     94.5397   7.4306849082e+01   5.5500432167e+01    0.2857804    0.2634669  17.12 0.0007352104    1.220    0.180
        79 -10.8478     19.3913     91.8057   7.5252448493e+01   5.6472723640e+01     0.315577    0.2028807 -63.95  0.001130996    1.348    0.258
        80 -10.0425     28.5519     84.5287   7.0052219118e+01   5.7552526006e+01    0.2946191    0.2125257  53.53  0.001000833    1.575    0.365
        81 -10.3340     25.5822     86.6210   7.1739818829e+01   5.7289932597e+01    0.5999243    0.3898052  89.55  0.002963476    1.740    0.425
        82 -10.3918     35.6817     92.6132   6.8720330472e+01   5.4794457545e+01    0.3409346    0.2380041  87.92  0.001207175    1.633    0.388
        83 -10.4893    240.3600     91.2003   1.5835506992e+01   1.4073857693e+01    0.2971388    0.1169767 -51.49  0.001164357    2.984    0.665
        84  -9.8984     50.1901     91.7679   6.2681010595e+01   5.3299455114e+01    0.4026623    0.1762083  24.96  0.001527312    2.635    0.621
        85 -10.9456     98.4852     91.0386   4.4931234764e+01   4.5213862973e+01    0.3020276    0.2213616  44.04 -0.0001131545    1.365    0.268
        86 -11.7571      7.1333     88.4737   7.9822582999e+01   5.8126688398e+01     0.581372    0.3985104   4.24  0.003263174    1.733    0.423
        87 -10.1510     90.5305     86.8901   4.6334879133e+01   4.7771659033e+01    0.4368222    0.2891105 -46.23  0.001947314    1.506    0.336
        88  -9.6928     66.9023     88.4538   5.5305200937e+01   5.1674210856e+01    0.2522079    0.1958688 -36.23 0.0007983302    1.357    0.263
        89 -10.7554     52.1745     87.0399   6.0727097880e+01   5.4217312831e+01    0.2260427    0.2099183 -53.27 0.0003307421    1.018    0.018
        90 -10.1218    143.1847     84.5002   3.0599322750e+01   3.6482385926e+01    0.2508565    0.2074727 -43.60 0.0003151101    1.204    0.169
        91  -9.4407     71.9567     84.3316   5.2228527510e+01   5.1820451227e+01    0.1941651    0.1883363  28.70 0.0003635643    1.057    0.054
        92 -12.0597    247.6611     76.8780   1.1908692459e+01   1.4818776089e+01     0.368582    0.2766041 -62.03  0.002304856    1.329    0.247
        93  -9.8045    112.3389     82.8267   3.8204039870e+01   4.4030885450e+01    0.4556342     0.214678  53.06  0.001644957    2.270    0.560
        94 -10.0797     67.2967     81.5528   5.3204824095e+01   5.3265986783e+01    0.3663747    0.2417941 -32.80  0.001638458    1.750    0.429
        95  -9.4602     92.4867     71.5365   4.0827664046e+01   5.0748870550e+01    0.2633514    0.1498709 -45.83  0.001053575    1.770    0.435
        96 -10.3889     89.3040     77.4214   4.3836921277e+01   5.0142052741e+01    0.4850126     0.327205  49.49  0.001360772    1.526    0.345
        97 -10.5821     94.5435     76.2717   4.1694211706e+01   4.9310147396e+01    0.3300494    0.2859726  49.61 0.0006513073    1.157    0.136
        98 -10.9460     53.4902     76.4969   5.7336936202e+01   5.6601915455e+01    0.3944457    0.3154692 -69.90  0.002070686    1.335    0.251
        99 -10.5070     52.8882     72.4907   5.6417735626e+01   5.7636175031e+01    0.2638544    0.2423713 -82.39  0.000395801    1.196    0.164
       100 -10.1079     58.0498     77.7419   5.5795415048e+01   5.5635194520e+01     0.250647     0.202323 -54.98 0.0005368768    1.196    0.164
       101  -9.6479     46.7057     75.8839   6.0071556895e+01   5.7675454944e+01    0.2755286    0.1602544 -53.36  0.001269143    1.582    0.368
       102 -11.2279     13.7884     74.4022   7.4643394784e+01   6.1256409232e+01    0.4213711    0.3369685  76.41  0.002280312    1.384    0.278
       103  -9.3732    103.1651     74.4203   3.8315666918e+01   4.7839885203e+01    0.2213941    0.1456895  58.81 0.0009446124    1.684    0.406
       104 -11.3605     79.3365     92.5277   5.1842847957e+01   4.8565595142e+01    0.8624482    0.5722271 -67.41  0.003776876    1.739    0.425
       105  -9.6837     24.5917     73.7514   6.9500055906e+01   6.0594403225e+01    0.2625801    0.1122096 -61.34  0.001119977    1.998    0.499
       106 -10.1575     28.5673     71.6958   6.7167763768e+01   6.0736230503e+01    0.2926767    0.1243438  19.52 0.0005268172    2.685    0.628
       107 -10.7846      2.0731     71.4056   7.9582724357e+01   6.2639342503e+01    0.3717697    0.1972185 -67.58  0.001874377    1.553    0.356
       108  -9.8836     80.8137     72.7938   4.5354195412e+01   5.2837155485e+01    0.3171068    0.2047388 -54.58  0.001411971    1.632    0.387
       109 -11.9353     40.9723     69.8289   6.0930098106e+01   5.9844584118e+01    0.4806874    0.2803987 -58.14  0.000543688    1.609    0.379
       110 -10.6170     34.6555     71.6018   6.4317043566e+01   6.0141990145e+01     0.400054    0.2089557  39.84  0.001561661    2.104    0.525
       111 -10.5257    122.7015     68.8857   3.0882802727e+01   4.4410693448e+01    0.4277706    0.2388957  48.04  0.001582734    1.768    0.434
       112 -10.0255     14.4945     67.4125   7.2913009123e+01   6.2924817797e+01    0.3239764    0.1283859  16.37  0.001367843    2.833    0.647
       113 -10.8261     13.4932     57.4181   7.1156864731e+01   6.5385350850e+01    0.5049534     0.172235 -50.28  0.001326808    2.336    0.572
       114 -12.3960      6.3204     62.0480   7.5880728766e+01   6.4710333550e+01    0.6152071    0.4151779  -5.75  0.003515738    1.667    0.400
       115 -10.6661      9.4866     56.4910   7.3056776978e+01   6.5857357731e+01    0.3339291    0.2285596  56.84  0.001461152    1.854    0.461
       116  -9.9302    202.1375     64.9459   1.4537945413e+01   2.5879651887e+01    0.2270287    0.1919301  84.18 0.0004487396    1.218    0.179
       117  -9.4801     96.5585     65.5029   3.7419202592e+01   5.1108929711e+01    0.2541862    0.2307101  62.49 0.0005168086    1.137    0.121
       118 -10.8266     92.5406     62.8045   3.7799835358e+01   5.2518786537e+01    0.4552262    0.2722616  53.65  0.001559808    1.765    0.434
       119  -9.7500    158.8432     62.9684   2.0910502873e+01   3.6530567588e+01    0.2663801     0.174488  46.13 0.0005925687    1.656    0.396
       120 -10.7818     40.6436     57.0569   5.7147581151e+01   6.2830701674e+01     0.336585    0.2113343  38.89 0.0009451298    1.724    0.420
       121 -10.9765     43.1911     61.7156   5.7448461376e+01   6.1453932517e+01    0.3431219    0.2494078 -59.64   0.00180252    1.387    0.279
       122 -10.8450     50.9797     60.9980   5.3601522938e+01   6.0539260577e+01    0.6559203    0.2841776 -52.68  0.002358568    2.221    0.550
       123 -10.8472     46.4275     59.3171   5.5136753458e+01   6.1560330456e+01    0.3391481    0.2657293  50.04  0.001068087    1.486    0.327
       124  -9.6948     57.7990     61.9869   5.0904999605e+01   5.9278030242e+01    0.2295104    0.1710083 -83.92   0.00108364    1.951    0.488
       125  -9.5423    113.5312     60.9976   3.0723744566e+01   4.8074783757e+01    0.2333662    0.1510386 -38.69  0.001030296    1.588    0.370
       126  -9.7470     64.8512     60.8955   4.7517901759e+01   5.8339105128e+01    0.2675043    0.2399802 -87.48  0.001466883    1.338    0.253
       127 -10.8699     31.5944     53.1452   6.0411978248e+01   6.4774367987e+01    0.5137254    0.2419169  18.78  0.001650908    2.471    0.595
       128 -10.6825     27.3523     59.6523   6.4580188305e+01   6.3724566407e+01    0.5711671    0.2737997  26.82   0.00261862    2.189    0.543
       129 -11.0544     74.4918     53.4736   4.0870456529e+01   5.8071880112e+01    0.3354783    0.2976938  89.18  0.001113217    1.386    0.278
       130 -11.9228     73.0992     47.9415   3.9236049115e+01   5.9398848281e+01     1.103462    0.5219083 -57.28  0.003744192    3.601    0.722
       131  -9.9535     87.6928     56.7130   3.7240820124e+01   5.4744317463e+01     0.396504    0.1357893 -40.19  0.001179651    3.025    0.669
       132  -9.6161     91.9954     57.7882   3.6169930897e+01   5.3610462771e+01    0.2497237    0.1799691  81.22  0.001086536    2.045    0.511
       133 -10.0492    124.5113     56.5032   2.6286656236e+01   4.6199744214e+01    0.2408261    0.1521744 -22.79 0.0007960273    1.990    0.498
       134 -10.2622    118.9740     56.8229   2.7807180552e+01   4.7506003316e+01    0.4508007    0.2882409 -89.78   0.00172654    2.572    0.611
       135 -10.9924    110.9979     40.5691   2.3994663732e+01   5.2113898193e+01    0.6143907    0.5622253 -24.96  0.003421581    1.170    0.146
       136  -9.9464    112.5196     50.5361   2.7293115949e+01   5.0151981546e+01    0.3048801    0.2442246  30.71  0.000898436    1.385    0.278
       137 -11.6029    117.2262     45.4128   2.4198946747e+01   4.9827043758e+01    0.7545209    0.4642044 -26.82  0.003333889    1.855    0.461
       138 -12.0968    119.4185     38.0433   2.0961260682e+01   5.0388747540e+01    0.6810259    0.3612285 -44.41  0.002882903    2.004    0.501
       139  -9.5351    157.1056     55.3421   1.8941883474e+01   3.8196129653e+01     0.399379    0.1809893 -44.86  0.001545866    2.184    0.542
       140 -10.1719    154.9947     49.4889   1.7529909680e+01   3.9631860639e+01    0.4412584     0.220556 -24.55 0.0006372845    2.521    0.603
       141 -10.7208     25.4925     55.6766   6.4381469593e+01   6.4821695519e+01    0.3922856    0.2351373 -34.97 0.0009805731    1.662    0.398
       142  -9.9143    100.0761     55.0625   3.2560707228e+01   5.2306496988e+01    0.2203775    0.2100745  75.31 0.0004072916    1.085    0.078
       143  -9.9079    246.6883     54.6798   7.2144175675e+00   1.8055050908e+01    0.1117495   0.09519963   4.55 0.0003688281    1.648    0.393
       144 -10.8374     60.6148     48.7850   4.4767854475e+01   6.1558381308e+01    0.7777628    0.3551549 -38.73  0.003147769    2.277    0.561
       145  -9.9343     55.2040     50.4749   4.7854738675e+01   6.2130244402e+01    0.2180323    0.1785772 -28.45 0.0008564831    1.196    0.164
       146  -9.7898     51.8304     48.3850   4.8603360138e+01   6.3093279458e+01    0.2197352    0.1785409  -3.43 0.0005542195    1.303    0.232
       147  -8.7244     93.5174     52.5145   3.3696608779e+01   5.4252761678e+01    0.1477823    0.1419152  28.58 0.0008101472    1.023    0.023
       148 -10.5590     10.8158     51.6769   7.1174152472e+01   6.6900164258e+01    0.2198432    0.1747507 -63.53 0.0003090392    1.172    0.147
       149 -10.1142     13.0692     46.4411   6.8483869878e+01   6.7945706281e+01    0.3222792    0.1405548 -43.19  0.001494303    2.012    0.503
       150  -9.6946    243.7641     51.3800   6.7589161569e+00   1.9054343699e+01    0.1497682     0.113062  61.69 0.0006238226    1.576    0.365
       151  -9.3291    239.8221     51.1322   7.0590720512e+00   1.9858331095e+01    0.1562561    0.1467462 -16.83 0.0007284735    1.335    0.251
       152 -10.0158    144.9337     50.5458   1.9762939421e+01   4.2028019884e+01    0.2424366    0.2074671 -11.26 0.0002941439    1.397    0.284
       153 -10.9628     46.2293     48.1365   5.1197923920e+01   6.3990413128e+01    0.4492847    0.3126743  24.55  0.001833591    1.487    0.328
       154 -11.1061     44.4737     43.9488   5.0418595650e+01   6.5099147884e+01    0.3390216      0.29231  33.42 0.0007798017    1.229    0.187
       155 -10.6100     39.2398     44.0109   5.3127749696e+01   6.5812965444e+01    0.3932948      0.24138 -30.50  0.001939427    1.720    0.419
       156  -9.7031      2.0364     48.9648   7.5434026830e+01   6.8000719141e+01    0.1926159    0.1630315 -48.25 0.0007386485    1.022    0.022
       157 -10.9502     20.9720     46.2282   6.3910320613e+01   6.7365348857e+01    0.3772747    0.2317833 -49.81   0.00174742    1.415    0.293
       158  -9.4307     82.6649     46.6608   3.5126270323e+01   5.7669338009e+01    0.2226592    0.1670642   8.51  0.000845143    1.680    0.405
       159  -8.9374    146.6705     46.2626   1.8046687352e+01   4.2236194906e+01    0.1505411    0.1087594 -76.41 0.0001933216    1.570    0.363
       160 -10.5013     23.1935     37.2993   5.9465585679e+01   6.9073760337e+01    0.4528432    0.2019783  35.95  0.002069494    2.474    0.596
       161 -10.5751     31.7168     44.9553   5.7500577846e+01   6.6547640137e+01    0.3956266    0.2201595  28.43  0.001649837    1.860    0.462
       162 -10.6136     26.2121     43.0500   5.9857198171e+01   6.7554179904e+01    0.2400667    0.2138079 -60.59 0.0007782642    1.232    0.188
       163  -9.8936    234.2126     45.3928   6.2856764571e+00   2.1739931626e+01    0.1711654     0.109497 -85.70 0.0009464679    1.709    0.415
       164  -9.7606    200.5153     45.4891   9.7716105716e+00   2.9066551122e+01    0.1381903    0.1191793 -63.73  0.000109291    1.010    0.010
       165 -10.3976    156.1104     42.1921   1.5071086818e+01   4.0414676766e+01    0.2991741     0.232874 -40.31 0.0007835021    1.294    0.227
       166  -9.2002    139.5267     43.5162   1.8533927580e+01   4.4470718924e+01    0.1470471     0.138691  62.94 0.0005716683    1.074    0.069
       167 -10.1405     98.1813     41.4074   2.7912661161e+01   5.5069836166e+01    0.2755793    0.2131774  64.60 0.0007618158    1.346    0.257
       168  -9.9677     57.1617     41.9602   4.3502209214e+01   6.3469219366e+01    0.2564718    0.1889529  37.42  0.001363847    1.353    0.261
       169  -8.8313     91.2866     41.5956   3.0137194433e+01   5.6632517486e+01    0.1498717    0.1126603 -70.54 0.0006988846    1.796    0.443
       170  -9.4212     77.5868     40.7157   3.4528150095e+01   5.9772968677e+01    0.2553108    0.1929514   2.71 0.0007345792    1.620    0.383
       171 -10.3104     80.5933     39.1999   3.2786095522e+01   5.9389162484e+01    0.4414004    0.2790331  77.91  0.001714915    3.007    0.667
       172 -11.1277     78.4097     33.9145   3.1282917662e+01   6.0706516042e+01    0.5840862    0.3630095  34.22  0.002513952    1.699    0.411
       173  -9.8116     17.9708     40.6682   6.3797057700e+01   6.8841661403e+01    0.2150625    0.1486263 -42.47 0.0005342325    1.255    0.203
       174 -10.2884      3.8068     39.6649   7.2082759952e+01   7.0025274671e+01    0.3607517    0.1990191  49.27  0.001798602    2.562    0.610
       175 -10.8645      4.3627     35.8721   7.0646464549e+01   7.0831277439e+01    0.3214178    0.3095113 -22.14  0.001647879    1.182    0.154
       176 -10.7901     10.4945     32.0269   6.5421130152e+01   7.1269499179e+01    0.6166554    0.2396502 -43.51  0.002842147    2.168    0.539
       177  -9.8763      7.2155     30.5998   6.7077989678e+01   7.1793131250e+01     0.307273    0.1714157 -13.03  0.001622925    1.954    0.488
       178 -10.4694     68.2474     32.6909   3.4613964619e+01   6.3012990585e+01    0.5077134    0.2870573  51.82  0.002336972    1.850    0.459
       179 -10.6018     60.3448     37.0000   3.9910198656e+01   6.3804041081e+01    0.2857178    0.2431265 -36.70 0.0007276161    1.203    0.168
       180  -9.8418     62.6744     33.7049   3.7401807931e+01   6.3934634941e+01    0.2269807    0.1865411  26.50 0.0006154386    1.169    0.145
       181  -9.2710    231.3580     37.3112   4.7071755423e+00   2.3365911856e+01    0.1161093    0.0968614  29.22 0.0007042874    1.738    0.425
       182 -11.2504    175.6633     32.6707   9.3405827815e+00   3.6753949849e+01    0.6047251    0.3990312 -22.75  0.001408801    1.770    0.435
       183 -10.5444    153.0130     36.0431   1.3653175041e+01   4.2055016409e+01    0.2542863    0.1948215  61.01            0    1.264    0.209
       184 -10.2587     48.7487    246.7550   8.1873955233e+01   1.6981758037e+01    0.1943501    0.1287713 -23.90  0.001031228    3.169    0.684
       185  -9.2199     34.6569    245.3221   8.4634011796e+01   1.8822584262e+01    0.1279454   0.05871608  55.49 0.0007050321    1.728    0.421
       186 -12.3526    104.9324     32.4116   2.2408065264e+01   5.4789931442e+01    0.7875633     0.382127  39.70  0.003081338    2.381    0.580
       187 -12.2958    114.3170     24.9524   1.7162423414e+01   5.3429574968e+01     0.868073    0.3218566  59.72  0.002417797    2.375    0.579
       188  -9.1569    217.3060     32.2852   4.7630461296e+00   2.6998809197e+01    0.1147016   0.09977528  34.99 0.0002036502    1.564    0.361
       189 -10.3649    131.7117    240.9873   6.4129606020e+01   7.1389343609e+00    0.1663403    0.1447178  30.39 0.0007078599    1.093    0.085
       190 -12.2816     58.0636     29.9788   3.7686102895e+01   6.5414523848e+01     0.389354    0.3060967   1.13   0.00131216    1.354    0.261
       191 -11.7607     49.3137     30.3977   4.2019704327e+01   6.6883721405e+01    0.6684436    0.2864498  36.73  0.002307673    2.332    0.571
       192  -9.7742    240.8175     31.5955   2.6823573968e+00   2.2147590685e+01    0.1637897    0.1019655 -81.63 0.0009317635    1.641    0.391
       193 -11.6005    157.7414     29.1144   1.0737551143e+01   4.1736768176e+01    0.4592962    0.2444507  78.73 0.0007945804    1.964    0.491
       194 -11.6522    164.2308     27.7753   9.4102002700e+00   4.0245062367e+01    0.3840272    0.2927688 -66.93 0.0004125161    1.265    0.209
       195 -10.2055     13.9610     22.6580   5.9313197913e+01   7.2887150343e+01    0.2681512    0.1970121   6.60  0.001677366    1.342    0.255
       196 -10.4679     67.6529    240.9140   7.7574454398e+01   1.5775888464e+01    0.1611548    0.1478896 -53.34 0.0007039343    1.443    0.307
       197 -10.6141    147.5166    239.2154   6.0681657857e+01   5.2018532779e+00      0.23311    0.1697209  49.41 0.0009020115    1.511    0.338
       198 -11.6361     26.5423     28.4458   5.3728277114e+01   7.0480912781e+01    0.4473495    0.3102008 -58.94  0.001827218    1.705    0.413
       199 -10.3383     76.1702    239.8566   7.5694191743e+01   1.4889473990e+01    0.1558471    0.1398728  16.18  0.001089531    1.355    0.262
       200  -9.0337     15.4959    233.9794   8.7979786435e+01   2.2946993622e+01    0.1438737   0.07903991 -55.09 0.0008100973    2.578    0.612
       201  -9.9037    248.5530    223.5229   3.9944275529e+01  -5.7968668847e+00    0.1105599   0.08033312  -2.48  0.000196382    1.010    0.010
       202  -9.4826    164.5019    211.9097   5.3355337800e+01   7.0951095948e+00    0.1720205    0.1265455 -41.44 0.0005565961    1.526    0.345
       203 -10.6920      8.9976    211.4794   8.8436196803e+01   2.8100678025e+01    0.1858258    0.1350781  77.30 0.0008394117    1.172    0.147
       204  -9.1824    171.6394    208.7181   5.1389280859e+01   6.5331839914e+00    0.1334761   0.09011314   5.72 0.0006255479    1.674    0.403
       205 -11.2575    189.0226     27.3196   6.2812406936e+00   3.4143894346e+01    0.3627635    0.3233315  61.21  0.001262953    1.270    0.213
       206  -9.7382    187.5326     22.9274   5.2530476173e+00   3.5028453144e+01    0.2017557    0.1684019 -87.73 0.0005821595    1.093    0.085
       207 -12.3744    125.6003     27.7492   1.5818384638e+01   5.0203077090e+01     0.465539    0.3698764 -82.86  0.001040851    1.339    0.253
       208 -10.4166     98.1584     27.9214   2.2402220485e+01   5.7048744115e+01    0.4035197    0.2234421 -38.01  0.001647214    1.907    0.476
       209  -9.1322    196.6833     28.6721   5.8361292619e+00   3.2150213151e+01    0.1272999    0.1022102  35.04 0.0007045584    1.677    0.404
       210 -10.3105    230.0195     27.0995   2.4996772019e+00   2.4901224027e+01    0.2213103    0.1688873  68.50 0.0009426553    1.470    0.320
       211 -10.5979    151.1816     26.9772   1.1043707147e+01   4.3687641019e+01    0.4736955    0.1872594  50.11  0.001720289    2.685    0.628
       212 -10.5535    155.3177     21.3158   8.6354079639e+00   4.3291289030e+01    0.2559483     0.199865  40.91 0.0009521414    1.495    0.331
       213 -10.6663    144.5919     25.6194   1.1635647545e+01   4.5555804255e+01    0.4363095    0.2061594  82.79  0.001580326    2.651    0.623
       214 -10.4208    147.6923     22.3009   1.0053535823e+01   4.5145188588e+01    0.3892055    0.1446864  45.97  0.001330234    3.377    0.704
       215  -9.1260     85.9602     23.9364   2.4260054705e+01   6.0455055970e+01    0.1632623    0.1454083  44.00 0.0002920307    1.034    0.033
       216 -10.6660     38.8298     22.1857   4.3426725434e+01   6.9947583847e+01    0.2316164    0.1650134 -22.63 0.0004169314    1.381    0.276
       217  -8.9400     61.4982    206.5402   7.6086803081e+01   2.3395527033e+01    0.1320864    0.1082304  55.57 5.105525e-05    1.014    0.014
       218 -11.1422    135.3040     22.3279   1.2060779856e+01   4.8352347728e+01    0.4987593    0.3095073  74.35  0.002380176    1.546    0.353
       219  -8.5937     91.3127     23.3251   2.2369817130e+01   5.9283933353e+01    0.1470478    0.1009141  27.37 0.0007041108    1.661    0.398
       220 -11.0954    178.5032     20.9295   5.6644673122e+00   3.7472040852e+01    0.5232336    0.2440633  49.12  0.002202658    2.589    0.614
       221 -10.9173      3.8722    205.2649   8.9312893242e+01   2.9873938095e+01    0.2583126    0.1207935 -58.81  0.001326572    2.626    0.619
       222  -9.6928    216.5192     20.0411   1.9083726452e+00   2.8637943472e+01    0.1859834     0.110892 -36.38 0.0004685585    1.537    0.349
       223  -9.6585     79.0624    204.2055   7.1656683385e+01   2.1543125356e+01    0.2618936    0.1529602  70.34  0.001080413    2.074    0.518
       224  -9.8278     74.8194     19.3829   2.5811473367e+01   6.3554749345e+01    0.2471705    0.1706633  -1.12 0.0008396877    1.766    0.434
       225  -9.7358     46.6386     20.1261   3.8178321856e+01   6.9010448010e+01    0.2162563     0.171244  42.63 0.0007344148    1.330    0.248
       226 -12.0701      5.4222    185.5333   8.8121621796e+01   3.4101569628e+01    0.5058657    0.2707525 -76.15  0.002765738    1.745    0.427
       227 -11.5876      2.9898    182.5728   8.8573814127e+01   3.4977405692e+01    0.5079982    0.1802464 -61.78  0.002245045    2.964    0.663
       228  -9.3476    198.9830     17.5429   2.7441598482e+00   3.2916763760e+01    0.1890808    0.1175101  78.09  0.001009797    1.535    0.349
       229  -9.6712     27.9923    175.9973   8.1856386233e+01   3.4257581189e+01    0.1927851    0.1486033 -46.79 0.0006038634    1.620    0.383
       230 -10.4303     16.0998    174.3671   8.4840513983e+01   3.5781692413e+01    0.2750182    0.1367989  75.18    0.0013331    1.914    0.477
       231 -11.1735     13.4998    156.4521   8.4328981505e+01   4.0358007114e+01    0.2911447    0.1967041  67.28  0.001616973    1.312    0.238
       232 -10.1095    238.4985     16.6170   3.5958649189e+02   2.4367256518e+01    0.1889553    0.1056053  81.53  0.001075407    1.819    0.450
       233 -11.9881      9.1104    166.6610   8.6194316157e+01   3.8224547315e+01    0.4000347     0.273184  19.90  0.002113403    1.721    0.419
       234  -9.9345    211.0571     16.0782   1.3834881062e+00   3.0305897122e+01    0.1876206    0.1546149 -63.22 0.0003295554    1.027    0.027
       235 -10.2943    147.3302     16.1700   8.0910817729e+00   4.5922322576e+01     0.336837    0.1113212  55.88  0.001237182    2.731    0.634
       236 -10.8100    186.4684     14.9734   3.2080892520e+00   3.6186112840e+01     0.238265    0.1762592  85.49 0.0003427948    1.236    0.191
       237 -12.3009     11.6962    162.0194   8.5209650791e+01   3.9138416141e+01    0.3915863    0.3543684 -53.07  0.002591709    1.337    0.252
       238 -10.4105     18.5077    164.8417   8.3551139038e+01   3.7862539425e+01    0.1995929    0.1821447 -46.25  0.001291214    1.359    0.264
       239 -10.4908    205.1654    163.4187   3.6654579355e+01   8.6973831128e+00    0.2450329    0.1730385 -32.35 0.0008617844    1.321    0.243
       240 -10.0036     28.2354    160.5856   8.0513016463e+01   3.7993083511e+01    0.1753411     0.130814  10.13 0.0009626123    1.709    0.415
       241 -10.6737     31.4805    157.2712   7.9282580355e+01   3.8494139700e+01     0.324394    0.1669778  64.88  0.001195434    2.020    0.505
       242  -9.2472    104.3296    155.3271   5.8106639979e+01   2.8699398348e+01    0.1515143    0.1187897 -14.29 0.0007050977    1.707    0.414
       243 -12.9167     22.9079    148.7249   8.0983154668e+01   4.1477982719e+01    0.5627823    0.3119744 -45.28   0.00150807    2.200    0.545
       244 -11.2346     47.2974    147.6790   7.3524510755e+01   3.9177040170e+01    0.7806523    0.4531714 -48.51  0.003595762    1.930    0.482
       245 -10.9295      4.6083    153.6777   8.6636660118e+01   4.1732717274e+01    0.2231884    0.1183642  48.88  0.000783161    1.712    0.416
       246 -10.5881    120.3997     11.5448   1.0739608507e+01   5.3367798253e+01    0.2867584    0.1213293  65.96 0.0009182118    2.070    0.517
       247  -9.0150     61.3314    152.6604   6.9989068179e+01   3.6112041634e+01    0.1581512    0.0990425  65.09 0.0007051721    1.743    0.426
       248  -9.5150     65.2939     10.4129   2.4680796407e+01   6.6701818110e+01    0.2520982       0.1114  50.25  0.001117341    1.998    0.499
       249 -10.9225     16.6345    147.7083   8.2751947512e+01   4.2282774220e+01    0.2854773    0.1949288 -87.68 0.0007004035    1.291    0.225
       250 -12.2777      4.2909    143.2046   8.6058860912e+01   4.4353892758e+01    0.7443991    0.3648902  56.39  0.002722165    1.925    0.481
       251 -10.7182     33.1425    144.5565   7.7472096747e+01   4.1552396612e+01    0.2840741     0.237787  62.14 0.0007493827    1.118    0.106
       252 -10.3190     40.6459    139.0846   7.4475513815e+01   4.2162293373e+01    0.4271249    0.2015551 -71.95  0.001815433    1.995    0.499
       253 -10.9688     80.3045    138.6657   6.1984989054e+01   3.6849993645e+01    0.2914242    0.2414818  54.29  0.000461177    1.180    0.153
       254 -11.7524     22.7726    136.1270   7.9797966680e+01   4.4711276317e+01    0.5734248    0.3359654  51.30  0.002014206    1.675    0.403
       255 -10.7257     30.1651    132.7779   7.7049417211e+01   4.4893582038e+01    0.3614902     0.244097 -37.08 0.0009934807    1.814    0.449
       256 -11.1880     12.2461    135.9356   8.3091595273e+01   4.5619732955e+01    0.5476261    0.2684103 -49.96  0.002532492    2.222    0.550
       257  -9.3977     32.0553    137.5057   7.7004332568e+01   4.3480619917e+01    0.1959663     0.135519  27.86 0.0006284419    1.555    0.357
       258 -11.0271      9.9969    127.2603   8.3047130743e+01   4.8002340701e+01    0.3666781    0.2563754 -45.89  0.002047493    1.576    0.366
       259  -9.3765     22.9699    126.7325   7.8709064196e+01   4.7125972675e+01    0.1787807    0.1657828  76.44 0.0003689094    1.082    0.075
       260  -9.6926     33.3928    126.1892   7.5140910017e+01   4.6291539705e+01    0.2018933    0.1224112 -87.29 0.0006808356    1.665    0.399
       261  -9.8066      2.1033    125.7078   8.5481791366e+01   4.8909107823e+01    0.2415425    0.1512483  84.32  0.001238536    1.418    0.295
       262 -10.8806    104.4202    122.5058   5.1294411592e+01   3.6583992480e+01     0.384518    0.3420393  79.11  0.001259729    1.186    0.157
       263  -9.6996     18.8062    123.8303   7.9779762269e+01   4.8226799553e+01    0.1936792    0.1669589 -67.86 0.0004543937    1.119    0.107
       264  -9.3419     84.9034    123.1095   5.7438269690e+01   4.0013820075e+01    0.1967895    0.1782301 -23.93            0    1.255    0.203
       265  -9.8264     56.1301    121.8624   6.6712038891e+01   4.4758654072e+01    0.2264928     0.186576  69.31 0.0005273832    1.240    0.194
       266 -11.2654    182.9346     25.5675   6.4693623499e+00   3.5836097753e+01    0.3823869    0.2859238  82.93  0.001290452    1.254    0.202
       267 -11.1843    244.0107    116.9946   2.0886346427e+01   9.5551899692e+00    0.2063282     0.187992  70.26  0.001389601    1.382    0.276
       268  -9.6225     44.5398    120.0297   7.0393824779e+01   4.6691701170e+01    0.2740619    0.1928792  88.02 0.0005613719    1.496    0.332
       269  -9.6313     43.3976    116.2071   7.0157497454e+01   4.7824955621e+01    0.2137571    0.1722969 -80.73 0.0005839909    1.179    0.152
       270  -9.5437     78.8996    115.2961   5.7670199384e+01   4.3007054203e+01    0.2092717    0.1987975  41.07 0.0009382511    1.085    0.079
