#   1 NUMBER                 Running object number                                     
#   2 MAG_AUTO               Kron-like elliptical aperture magnitude                    [mag]
#   3 X_IMAGE                Object position along x                                    [pixel]
#   4 Y_IMAGE                Object position along y                                    [pixel]
#   5 X_WORLD                Barycenter position along world x axis                     [deg]
#   6 Y_WORLD                Barycenter position along world y axis                     [deg]
#   7 A_WORLD                Profile RMS along major axis (world units)                 [deg]
#   8 B_WORLD                Profile RMS along minor axis (world units)                 [deg]
#   9 THETA_WORLD            Position angle (CCW/world-x)                               [deg]
#  10 FWHM_WORLD             FWHM assuming a gaussian core                              [deg]
#  11 ELONGATION             A_IMAGE/B_IMAGE                                           
#  12 ELLIPTICITY            1 - B_IMAGE/A_IMAGE                                       
         1 -14.5384      2.3194    124.0680   1.2919680153e+02   4.8683260119e+01     5.062407    0.7976969 -78.06   0.01696917    5.104    0.804
         2 -14.9790      2.1480     24.3238   1.1426576499e+02   7.0433485700e+01     5.613842    0.8358445 -63.57   0.01890442    4.767    0.790
         3 -13.6381    111.4772     51.5989   8.1776958640e+01   5.0285900639e+01      1.26112     1.012653 -41.66  0.006598142    1.196    0.164
         4 -13.3625    198.0737     27.8685   5.6107001830e+01   3.2045490780e+01     1.096125    0.8039629  -4.90  0.005302913    1.561    0.359
         5 -12.0224    205.4769     19.3807   5.2583609232e+01   3.1081452375e+01    0.5422148     0.399785  33.49  0.001178225    1.565    0.361
         6 -13.0565    211.7521     11.2570   4.9474814709e+01   3.0316627826e+01    0.7665674    0.7140728 -64.10   0.00286646    1.013    0.013
         7 -12.3563    123.1918    207.8697   1.1232733592e+02   1.7446312243e+01    0.5703823    0.4678967  38.23  0.002805529    1.288    0.224
         8 -13.3058    246.6358    246.0272   9.6961162807e+01  -6.0289177498e+00    0.8283781    0.4642428  20.65  0.005786126    1.529    0.346
         9 -14.7337    120.0623    244.6507   1.1661615252e+02   1.2518449742e+01     1.728265     1.386331  70.31    0.0100116    1.240    0.194
        10 -13.9221    106.1172    244.2551   1.1882508637e+02   1.4514482380e+01    0.8587993    0.5960369  45.25  0.004612181    1.227    0.185
        11 -12.5173    107.7076    221.0515   1.1647972832e+02   1.7696782165e+01    0.5885246    0.3553335 -74.16  0.003656035    1.987    0.497
        12 -12.4137    110.3888    214.1821   1.1532014627e+02   1.8382555225e+01    0.6689782    0.3405547  43.76  0.003310651    1.615    0.381
        13 -10.3391     69.6167    250.2776   1.2499108233e+02   1.8391992104e+01    0.1773341   0.09806536  50.53 0.0007323198    1.286    0.222
        14 -13.1634    104.0825    202.9690   1.1528083016e+02   2.1156189130e+01     1.664565     1.190062  -3.95  0.008293686    3.763    0.734
        15 -12.8799     71.7429    165.6489   1.1753453937e+02   3.2728941906e+01    0.6928518    0.4178137 -87.46  0.001114093    1.677    0.404
        16 -15.1751     78.4399    147.8198   1.1380100993e+02   3.5503273618e+01     2.617145     1.437049  59.69    0.0132899    1.874    0.466
        17 -14.1017     46.0297    214.4044   1.2659297592e+02   2.6808040275e+01     1.754636    0.6661983  31.30  0.008263218    4.024    0.751
        18 -16.0144     68.2332    200.1460   1.2162779043e+02   2.6614986409e+01     3.215967     2.089521  76.61   0.02173231    1.358    0.263
        19 -14.0514     26.3958    207.0611   1.2950945258e+02   3.0193841004e+01    0.9295575    0.4645567  54.27  0.004756289    1.500    0.333
        20 -14.3310     10.4907    207.3363   1.3218542209e+02   3.1694713588e+01    0.8586037    0.4118232  51.91  0.003721287    1.561    0.359
        21 -16.6542     11.2285    239.4591   1.3326594916e+02   2.6378756599e+01     1.640099    0.9163889  79.90   0.01218006    1.374    0.272
        22 -14.7403     29.8831    244.4198   1.3069699155e+02   2.3757498359e+01    0.5985252     0.476429  72.02  0.004545384    1.316    0.240
        23 -10.9975    122.9486    198.4753   1.1124947120e+02   1.9012134487e+01     0.352632    0.2251844  37.82  0.001780048    1.533    0.348
        24 -13.1288    133.7812    159.6266   1.0344556642e+02   2.4074741531e+01    0.9358573    0.7507941  10.86  0.005208655    1.749    0.428
        25 -12.8949    130.6240    181.8396   1.0755970770e+02   2.0592155440e+01     1.409888    0.7493905 -34.69   0.00619267    3.382    0.704
        26 -11.9362    132.4440    168.7876   1.0522608697e+02   2.2613932572e+01    0.7559477    0.3887154  58.18  0.003448961    2.168    0.539
        27 -13.1562    133.9637    143.8495   1.0056801315e+02   2.7075578414e+01    0.8207608    0.5505902 -47.68   0.00367285    1.583    0.368
        28 -13.3253    140.7059    136.0894   9.7546545728e+01   2.7301013457e+01    0.8771517     0.766344 -54.60  0.005015122    1.184    0.155
        29 -10.7245    131.3112    201.9359   1.1012542312e+02   1.7110906388e+01    0.2837681    0.2262779 -66.52  0.001779718    1.458    0.314
        30  -9.0921     22.2861    193.7390   1.2951555979e+02   3.2988313036e+01    0.1058448   0.05490737  65.25 0.0004796227    1.487    0.327
        31 -10.7778     30.9022    186.1226   1.2749430450e+02   3.3534202136e+01    0.3054398    0.1757509  62.66   0.00131431    1.368    0.269
        32 -10.7179     13.9315    185.4542   1.3057798512e+02   3.5316749261e+01    0.3616682    0.1480802  64.77  0.002118491    1.999    0.500
        33 -11.3576    115.3423    179.0728   1.1021074700e+02   2.3620192525e+01    0.4159565    0.3005215  35.80  0.002289174    1.492    0.330
        34 -11.7329    122.9197    173.1359   1.0783672046e+02   2.3456292032e+01     0.600708    0.2932037  37.03  0.002799786    2.162    0.537
        35 -11.6403     35.9401    170.2794   1.2539360135e+02   3.6080020878e+01     0.531772    0.2859606  48.04  0.002662251    1.650    0.394
        36 -12.9628    164.0883    244.0045   1.0945457854e+02   6.1678585057e+00     0.388906    0.3626964 -41.02  0.003332517    1.452    0.311
        37 -10.7121     87.2854    242.7436   1.2172285407e+02   1.7250142224e+01      0.36999      0.27718  44.91  0.002399078    1.335    0.251
        38 -12.1079    125.5059    151.7777   1.0386476135e+02   2.7073747603e+01    0.4460944    0.1813069  44.15  0.001840907    2.306    0.566
        39 -13.4115    112.1980    146.9444   1.0597648147e+02   3.0380102075e+01    0.7577191    0.5978582  62.91  0.004134604    1.199    0.166
        40 -12.2259    102.5759    145.8335   1.0797103898e+02   3.2225018574e+01    0.4822407    0.3845017 -67.58  0.002196176    1.235    0.191
        41 -15.3311     58.7819    234.5051   1.2572725288e+02   2.2051210673e+01     2.211505     1.048581  48.06   0.01489039    1.562    0.360
        42 -13.1791     61.6581     76.8882   1.0511739700e+02   5.3670148392e+01    0.8614217    0.6808028  74.60  0.004997659    1.486    0.327
        43 -12.9033     63.9270     89.7816   1.0743835064e+02   5.0459666274e+01    0.8852577     0.561905 -89.19  0.004286054    2.060    0.514
        44 -14.0260     73.8208     90.7446   1.0469989837e+02   4.8867227795e+01     1.937412    0.5740854 -51.58  0.006941048    2.948    0.661
        45 -14.1423     64.9532    124.9710   1.1368553371e+02   4.2337177449e+01     1.379178    0.8710121 -54.93  0.005768701    1.575    0.365
        46 -12.6960     69.5245    108.9906   1.0974142355e+02   4.5333338737e+01    0.8058804    0.4516577 -74.38  0.003847671    1.885    0.469
        47 -13.0232    118.2564    130.1599   1.0147342262e+02   3.2780142492e+01     1.049638    0.5895222  39.26  0.004805935    1.885    0.470
        48 -10.8687     99.3819    129.6696   1.0590300003e+02   3.6184208919e+01    0.2841283    0.2449815 -27.87 0.0009463026    1.516    0.341
        49  -9.9255    167.4900    112.3199   8.6307327238e+01   2.6218274492e+01    0.3141489    0.2297136 -75.27   0.00093361    1.918    0.479
        50 -10.8412    134.8311    105.6797   9.1999038212e+01   3.4617232402e+01    0.4099479    0.1920073 -48.82  0.001598545    2.153    0.536
        51 -10.8818     48.9410    107.1411   1.1510228821e+02   4.8320620326e+01     0.203438    0.1532284  82.32  0.001223912    1.287    0.223
        52 -12.6789     84.6880     96.8037   1.0296131486e+02   4.5852511204e+01    0.8155094     0.485187 -41.73  0.003843174    1.845    0.458
        53 -12.1880     83.4421     89.7501   1.0163644816e+02   4.7627108004e+01     0.785907    0.2474838 -53.24  0.002783311    2.863    0.651
        54 -10.9637    120.2701     88.9822   9.1240700915e+01   4.1080564652e+01    0.2200878     0.195624 -48.10 0.0008964304    1.085    0.079
        55 -10.8658    101.5644     78.7181   9.3432504510e+01   4.6899803528e+01    0.2896403    0.1320561 -43.47  0.001141458    2.107    0.525
        56 -13.1290     73.4977     71.2587   9.9800537057e+01   5.3247804558e+01    0.8082013    0.4701041 -62.33   0.00381221    1.783    0.439
        57 -12.0618     79.8085     71.5279   9.7870797595e+01   5.2211793068e+01    0.5897377    0.4302981 -39.49  0.003145433    1.347    0.257
        58 -14.2102     83.6202     63.1471   9.4114777953e+01   5.3362924262e+01     1.696259     1.195369  -8.97  0.008023352    2.125    0.529
        59 -12.6044    107.0802    161.5776   1.0943665223e+02   2.8293536424e+01    0.6116454    0.4889561 -16.29  0.003437817    2.051    0.512
        60 -12.5921    233.3419    243.5338   9.8589490428e+01  -3.9756911694e+00    0.7728654    0.1906282  35.57  0.003315341    3.556    0.719
        61  -9.1875    160.6972     54.3108   7.0933606665e+01   3.8155115087e+01    0.1578425    0.1181552 -65.27 0.0007017605    1.609    0.378
        62 -12.4040    189.9031     34.1885   5.9238759246e+01   3.3418199914e+01      0.57934    0.3935574  30.12  0.001802276    1.765    0.433
        63 -13.8974    136.3962    246.7233   1.1418384209e+02   9.9110631181e+00      1.24833     0.442391  42.38  0.005627808    2.114    0.527
        64 -10.2502     94.5023    225.3503   1.1914553587e+02   1.8893127699e+01    0.2205874    0.2038627 -28.46  0.001550168    1.761    0.432
