#   1 NUMBER                 Running object number                                     
#   2 MAG_AUTO               Kron-like elliptical aperture magnitude                    [mag]
#   3 X_IMAGE                Object position along x                                    [pixel]
#   4 Y_IMAGE                Object position along y                                    [pixel]
#   5 X_WORLD                Barycenter position along world x axis                     [deg]
#   6 Y_WORLD                Barycenter position along world y axis                     [deg]
#   7 A_WORLD                Profile RMS along major axis (world units)                 [deg]
#   8 B_WORLD                Profile RMS along minor axis (world units)                 [deg]
#   9 THETA_WORLD            Position angle (CCW/world-x)                               [deg]
#  10 FWHM_WORLD             FWHM assuming a gaussian core                              [deg]
#  11 ELONGATION             A_IMAGE/B_IMAGE                                           
#  12 ELLIPTICITY            1 - B_IMAGE/A_IMAGE                                       
         1 -13.9237    217.7389      7.6747   3.8119814186e+01   2.9652531700e+01     2.525663     1.552657  37.04   0.01128265    2.384    0.581
         2 -13.4095    191.8735     39.1284   4.9324642405e+01   3.2280902135e+01     1.015121    0.9878139 -66.12   0.00414054    1.079    0.073
         3 -12.9083    197.0912     33.0553   4.6924307084e+01   3.1761212663e+01    0.7870551    0.7112572  79.45  0.001492842    1.069    0.065
         4 -10.5970    189.4262     14.8968   4.2860872171e+01   3.5809063390e+01    0.2866035    0.2143584 -88.00 0.0009627659    1.282    0.220
         5 -13.2184    177.1796     52.2605   5.5447446700e+01   3.4153716024e+01     1.874185     1.277894  29.51  0.005096706    1.898    0.473
         6 -10.4885     59.1043    230.3735   1.1953270361e+02   1.9683431081e+01     0.180048    0.1358115  89.46 0.0002351602    1.228    0.186
         7 -12.1256    248.1126    246.2895   8.6397249048e+01  -1.1185589000e+01    0.6847767     0.399031 -15.26  0.004365568    1.689    0.408
         8  -8.6449     80.8353    220.0473   1.1442000853e+02   1.8734147643e+01    0.1845916    0.1058101  57.78 0.0005490574    1.557    0.358
         9  -9.0832     61.5376    220.0702   1.1820706416e+02   2.1363193933e+01    0.1464678    0.1011367 -59.31 0.0006999585    1.707    0.414
        10  -9.7598     72.0268    244.9535   1.1834972777e+02   1.5316746576e+01    0.3051144    0.1644335  71.95  0.001173883    1.920    0.479
        11  -9.2687     55.6963    216.9188   1.1906676144e+02   2.2740590041e+01    0.2628767    0.1213209  75.28  0.001218373    2.627    0.619
        12  -9.7109    183.8212    211.2466   9.2296937581e+01   3.3931027355e+00     0.347801    0.1799454 -48.44  0.001638976    2.349    0.574
        13  -9.5456     56.6541    210.9263   1.1835383319e+02   2.3832571696e+01    0.2547289    0.1091404 -60.34  0.001257829    2.422    0.587
        14  -9.6338    174.7764    211.4306   9.4126146506e+01   4.9355054274e+00    0.1931464    0.1133053  30.81 0.0008138822    1.649    0.394
        15 -10.0602     43.9540    210.0465   1.2078487274e+02   2.5572802227e+01    0.1781769    0.1156716  68.29 0.0002987229    1.286    0.222
        16  -5.2117     42.6041    206.1939   1.2073826525e+02   2.6527107416e+01    0.2805697    0.2003973 -45.19  0.001713773    2.086    0.521
        17 -19.5325     18.0558    145.2750   1.2059841908e+02   4.2677380809e+01     19.22693     4.598684 -75.62   0.06609844    3.912    0.744
        18 -11.1990     33.4459    207.0243   1.2259757927e+02   2.7397179820e+01    0.3359328    0.1550804  70.65  0.001207949    2.142    0.533
        19  -8.9215    224.1964    206.4375   8.3756929417e+01  -2.6779785431e+00    0.1632966    0.1138465  42.49 0.0004449834    1.527    0.345
        20 -11.0317    194.1924    197.4917   8.7810598659e+01   3.8223539180e+00     1.210016     0.587611 -59.10  0.003823505    5.483    0.818
        21 -10.4725     66.9869    204.2249   1.1561003210e+02   2.3867028726e+01    0.3355181    0.2030647 -47.35   0.00103424    2.263    0.558
        22  -8.5723     71.2265    200.5905   1.1433837802e+02   2.4054244166e+01    0.3142195    0.1760507  84.47  0.001547404    2.073    0.518
        23 -12.4436     57.2505    197.6102   1.1697365805e+02   2.6549912753e+01    0.7942317    0.2680807 -54.43  0.003231243    3.432    0.709
        24 -10.1629     50.2648    224.6223   1.2072638844e+02   2.1898398279e+01    0.1975071    0.1141546  83.65 0.0007473428    1.631    0.387
        25  -9.9178    204.5073    199.5076   8.6170589312e+01   1.6768620060e+00    0.2437394    0.1123092  31.04  0.001030334    2.282    0.562
        26 -10.5294    150.4121    196.5785   9.6680242805e+01   1.1937496956e+01    0.3358468    0.2397828 -68.09   0.00171712    1.794    0.443
        27 -10.3722     35.5807    197.6178   1.2144644524e+02   2.9133125929e+01    0.1827449    0.1087096  52.26  0.000606644    1.484    0.326
        28  -9.6986     82.0581    194.8546   1.1134765994e+02   2.3735853905e+01    0.2271229    0.1846069  78.52 0.0004295184    1.106    0.096
        29 -10.7883     96.1909    188.3909   1.0736337946e+02   2.2976674129e+01    0.5144031    0.4503312 -55.91  0.001982806    1.283    0.221
        30 -10.5915     99.3745    180.7054   1.0551858375e+02   2.4154016635e+01    0.2903418    0.2711551   4.83 0.0007658809    1.353    0.261
        31  -9.3040    156.3521    189.9859   9.4264797233e+01   1.2109025030e+01    0.1846416    0.1805142 -19.63 0.0004666253    1.099    0.090
        32 -10.6108    149.8513    188.0638   9.5332416797e+01   1.3690453851e+01    0.3890963    0.1768075  38.95  0.001589588    2.088    0.521
        33  -9.4328    238.4713    185.5014   7.7203773938e+01  -1.9547315105e+00    0.1314387    0.1109059  -1.59 0.0002220247    1.014    0.013
        34  -9.2988    133.3145    185.6629   9.8572334390e+01   1.7214575807e+01    0.1457922      0.10662  75.00 0.0005017568    1.694    0.410
        35 -10.8471    150.7527    179.5086   9.3582661954e+01   1.5228170673e+01    0.4334162    0.3030001 -75.32  0.002002693    2.032    0.508
        36 -10.8569    139.9002    172.5877   9.4738379194e+01   1.8727972912e+01    0.5064909     0.274655  53.31   0.00185552    2.010    0.503
        37 -11.1617    144.8391    180.3250   9.5051341053e+01   1.6181701968e+01     0.372888     0.310695  37.31  0.001198571    1.155    0.134
        38 -10.3680    142.3961    176.7927   9.4953170146e+01   1.7371647063e+01      0.27141    0.2425392  18.96 0.0007883184    1.213    0.175
        39 -10.2387    130.8549    180.7768   9.8288223240e+01   1.8682504374e+01    0.1982236    0.1621211  75.20 0.0006377453    1.340    0.254
        40 -10.4590    188.7048    176.6763   8.4900972318e+01   8.4574671590e+00    0.7606742     0.390386 -56.91   0.00228437    3.145    0.682
        41  -9.5861     59.0464    176.8049   1.1432246662e+02   3.0933281232e+01    0.1853942    0.1606947  79.70 0.0004200297    1.053    0.050
        42  99.0000     49.4047    218.8775   1.2043896434e+02   2.3133006472e+01    0.3320684    0.1644005  78.43 0.0007306458    2.143    0.533
        43 -10.4777    238.7001    175.1427   7.5080385354e+01  -4.3106648059e-01    0.2084945    0.1621268 -39.65  0.001181006    1.412    0.292
        44  -9.2727     63.2810    172.5320   1.1281672209e+02   3.1362370798e+01    0.4508637    0.2132726  58.03  0.001974017    2.352    0.575
        45  -9.8136    240.3837    168.8384   7.3488164455e+01   2.5306539135e-01     0.190376    0.1133766 -22.78 0.0004962908    1.653    0.395
        46  -9.8568    231.4652    169.4959   7.5192327783e+01   1.7123181532e+00    0.1375396    0.1186492  -4.85  6.92448e-05    1.014    0.014
        47  -9.7420     72.0000    249.1929   1.1869306784e+02   1.4579161384e+01     0.208102   0.09612049 -71.63 0.0009607693    2.384    0.581
        48 -11.5967     95.2962    151.7512   1.0171057711e+02   3.1496807494e+01     0.648956    0.4861795 -31.63  0.002577806    1.722    0.419
        49  -9.8719    187.4466    152.3056   7.9976645356e+01   1.3286207427e+01    0.3272862     0.232331  85.49  0.001343224    2.543    0.607
        50 -10.7634    133.7779    145.4046   9.0684309020e+01   2.5887470709e+01     1.236713    0.2942938 -53.68  0.002908581    5.747    0.826
        51  -9.4771    113.1943    150.7612   9.6955763330e+01   2.8608456934e+01    0.2955583    0.2241573  86.69  0.001068076    1.578    0.366
        52  -9.5842    174.5087    148.8762   8.1967616422e+01   1.6673770321e+01     0.320344    0.2633608 -66.61 0.0009534667    1.456    0.313
        53  -9.3437    108.9202    147.0971   9.7315696101e+01   3.0240214005e+01    0.2285086    0.1883874  81.69 0.0005466286    1.316    0.240
        54  -9.7662    143.3739    145.2741   8.8314768275e+01   2.3966799488e+01    0.2913835    0.1997646 -57.86  0.001304095    1.579    0.367
        55  -9.6255     87.3608    144.0190   1.0235842154e+02   3.4634773255e+01    0.3847783    0.2123418  73.25  0.001368298    3.247    0.692
        56 -10.9690    107.3718    138.0984   9.5865024076e+01   3.2643118308e+01    0.5466524    0.3966525 -46.71  0.002194655    1.385    0.278
        57 -10.5653    105.9067    130.7482   9.4660985521e+01   3.4651907114e+01    0.3896376     0.319868 -68.39  0.001280143    1.229    0.186
        58  -8.3996    101.5580    132.5538   9.6236828470e+01   3.5003769034e+01    0.2097421    0.1368973  51.53 0.0001301369    1.636    0.389
        59 -11.6385     95.1951    137.6362   9.9023280217e+01   3.4887062571e+01    0.2883822    0.2654717 -50.98 0.0004306506    1.116    0.104
        60  -9.7656    135.6071    129.3753   8.6546617701e+01   2.9127490094e+01    0.4658363    0.1489864 -48.73  0.001410644    3.153    0.683
        61 -10.2802    114.5995    129.0592   9.1937264039e+01   3.3423579676e+01    0.3434103    0.2990402 -10.76 0.0007388684    1.376    0.273
        62 -10.5088    120.0030    124.0276   8.9303664501e+01   3.3538145408e+01    0.5498222    0.2839895 -36.75  0.002039689    2.319    0.569
        63 -10.4539    102.1813    124.8104   9.4342372463e+01   3.6736889520e+01    0.3125989    0.2545303 -22.22 0.0006390035    1.490    0.329
        64  -9.2712    135.1347    120.8161   8.4553208262e+01   3.1147138768e+01     0.394528    0.1043553 -46.50  0.001079501    3.726    0.732
        65  -9.4937    109.9436    118.2047   9.0618574165e+01   3.6853117909e+01    0.2434992    0.2107381 -51.89 0.0003153575    1.109    0.099
        66 -10.1142    231.1572    113.6743   6.2691841868e+01   1.1142206322e+01    0.2765635    0.2707367  85.93 0.0008063134    1.150    0.131
        67  -9.1742    167.5061    112.4721   7.4598875103e+01   2.5681954029e+01    0.3503276    0.2399178 -78.69  0.001165521    2.362    0.577
        68  -9.2527    134.6612    111.9708   8.2382747517e+01   3.3212288914e+01    0.3795765    0.1448489 -44.91  0.001249238    2.566    0.610
        69 -11.0377    118.4480    110.3703   8.6276255286e+01   3.6980356274e+01    0.6671031    0.4526518  71.64  0.002737105    2.149    0.535
        70  -9.4036    205.4874    110.1554   6.6263431809e+01   1.7358991628e+01     0.318863     0.217882  41.80  0.001049546    1.575    0.365
        71  -9.2052     65.0000    223.9807   1.1788362030e+02   2.0142368510e+01    0.1676186   0.06252924 -69.22 0.0007733694    2.745    0.636
        72  -9.5420     36.9509    224.2625   1.2315927775e+02   2.3548683051e+01    0.1256715    0.1204597  35.09 0.0003661172    1.573    0.364
        73  -8.3889    154.9442     81.7643   6.8806909798e+01   3.4737452119e+01    0.1986176    0.1305891  50.73 0.0003733613    1.528    0.346
        74  -8.6150    184.4669     77.4760   6.1439713071e+01   2.8237347758e+01    0.1508238    0.1485855 -33.71 0.0008088883    1.043    0.041
        75  -8.3781     84.2258    245.7001   1.1620905451e+02   1.3517373752e+01    0.1110749   0.07082387  68.73 0.0006786652    1.464    0.317
        76  -9.7038    168.5080    220.4859   9.6829670697e+01   4.5225772861e+00    0.1307256    0.1115712  31.70 9.404394e-05    1.016    0.016
        77  -9.8822    167.9196    232.7052   9.8782512289e+01   2.6847175780e+00     0.223406    0.1789133  46.28 0.0007074891    1.187    0.158
        78  -9.4658     55.7433    223.4017   1.1959886219e+02   2.1452886391e+01    0.1214212   0.09390257  61.51 0.0002415435    1.084    0.078
