#   1 NUMBER                 Running object number                                     
#   2 MAG_AUTO               Kron-like elliptical aperture magnitude                    [mag]
#   3 X_IMAGE                Object position along x                                    [pixel]
#   4 Y_IMAGE                Object position along y                                    [pixel]
#   5 X_WORLD                Barycenter position along world x axis                     [deg]
#   6 Y_WORLD                Barycenter position along world y axis                     [deg]
#   7 A_WORLD                Profile RMS along major axis (world units)                 [deg]
#   8 B_WORLD                Profile RMS along minor axis (world units)                 [deg]
#   9 THETA_WORLD            Position angle (CCW/world-x)                               [deg]
#  10 FWHM_WORLD             FWHM assuming a gaussian core                              [deg]
#  11 ELONGATION             A_IMAGE/B_IMAGE                                           
#  12 ELLIPTICITY            1 - B_IMAGE/A_IMAGE                                       
         1 -13.7059    235.5348     18.0830   3.2450609219e+01   2.5946103091e+01    0.7377595     0.707548 -74.85  0.002601606    1.292    0.226
         2 -14.3722    218.3515     33.2982   3.7223610555e+01   2.7736306618e+01      2.31256     1.368112  34.14   0.01090731    3.023    0.669
         3 -11.1775      2.5950      3.1238   8.4598598845e+01   7.3780948031e+01    0.3430779    0.1951566   5.77  0.002223519    1.588    0.370
         4  -9.0925    250.5027      1.5192   2.8224763014e+01   2.4787074875e+01    0.1101225   0.08429382 -68.64 0.0008103531    1.011    0.010
         5 -10.7503     29.1403    219.0974   1.1799378706e+02   2.4336243034e+01    0.3032555    0.2439634  12.15  0.001428735    1.708    0.414
         6 -13.0313     45.0132    217.4262   1.1452651840e+02   2.2976248438e+01    0.6918991    0.5982498  63.63   0.00274645    1.065    0.061
         7 -14.8477     84.0151    221.8721   1.0647684528e+02   1.7107769402e+01     5.528774    0.4829114  39.35  0.003896139    5.785    0.827
         8 -14.9502      9.3063    207.7207   1.2128760702e+02   2.8678475919e+01     2.015204     1.151815 -86.32  0.006736862    1.505    0.335
         9 -16.1669     32.8555    186.9995   1.1444107729e+02   3.1156101972e+01     9.733727     4.006799  77.11   0.03372898    4.183    0.761
        10 -10.8931    195.3515    199.0382   7.8256135089e+01   4.0485744335e+00    0.4006167    0.2401789 -58.94  0.001725742    2.786    0.641
        11 -10.5286    192.4974    193.9877   7.7877051613e+01   5.4240182188e+00    0.4671869    0.2687264 -63.63  0.001678769    4.041    0.753
        12 -10.2653     56.2563    193.1945   1.0953464354e+02   2.7101195430e+01    0.2435369     0.180732  69.68 0.0006226599    1.331    0.249
        13  -9.0711     99.5047    181.0399   9.7101336177e+01   2.3939172790e+01    0.2079775    0.1396661 -58.05   0.00045797    1.494    0.331
        14 -12.1140     55.9746    177.7193   1.0771635022e+02   3.0811779849e+01    0.4423019     0.305542 -32.02   0.00224896    1.909    0.476
        15 -11.9825     61.7185    172.2385   1.0549794498e+02   3.1435216851e+01     0.337298     0.271253 -36.39 0.0008873045    1.434    0.303
        16 -11.8297     72.3094    162.6248   1.0121801967e+02   3.2405759377e+01    0.3788666    0.3580404  26.52  0.000427408    1.150    0.130
        17 -13.3888     57.7742    131.0386   9.9885246738e+01   4.2185500769e+01     3.265732     1.014259 -70.71  0.006545243    9.312    0.893
        18 -13.9331     78.9098    156.3292   9.8334990733e+01   3.3033358780e+01     3.434361     1.483672  57.17   0.01030564    4.433    0.774
        19  -8.6651     72.7721    172.9698   1.0271416773e+02   2.9805553624e+01    0.1730077    0.1106033 -62.72 0.0002130717    1.494    0.330
        20  -9.0235    137.6913    170.6573   8.5610195642e+01   1.9830000155e+01     0.156069    0.1157517 -12.62 0.0007044161    1.694    0.410
        21  -9.6560     47.2909    168.4125   1.0875419332e+02   3.4090072629e+01    0.1784758    0.1183057  45.35 0.0004022429    1.547    0.353
        22  -9.7587     40.9903    165.0279   1.0997704288e+02   3.5605737259e+01    0.2073429    0.1632089  74.78 0.0005564051    1.266    0.210
        23 -11.0506     36.7910    161.1706   1.1060674866e+02   3.6987639722e+01    0.3605211    0.2336513  67.80  0.001581488    1.701    0.412
        24 -11.7717     32.9318    157.3358   1.1116382684e+02   3.8313022195e+01    0.3696437    0.2996673 -69.62 0.0007516653    1.085    0.078
        25 -13.4557     59.0327    158.7026   1.0423323632e+02   3.5110102271e+01    0.5585634    0.3237809 -42.25  0.001410119    1.924    0.480
        26  -8.8667    174.7088    149.3407   7.2345779710e+01   1.7382477622e+01    0.1473817    0.1212419 -78.18 0.0003718548    1.649    0.394
        27 -10.2012    133.3250    142.9926   8.0777401478e+01   2.6918138676e+01    0.4683354    0.1497646 -54.28   0.00127688    4.092    0.756
        28 -13.6250     11.2905    232.6343   1.2237287671e+02   2.3286692574e+01    0.8017822    0.4582369  84.54  0.001642199    1.528    0.346
        29  -9.8043    178.4663    144.4456   7.0412445337e+01   1.7642574657e+01    0.2826339    0.2425082 -75.33 0.0009811546    1.477    0.323
        30 -10.9106     95.2777    142.3351   9.1003257092e+01   3.3950716967e+01    0.4230581    0.3292714 -24.82 0.0009591334    1.471    0.320
        31  -9.5302     98.9252    139.0748   8.9264087343e+01   3.4134327408e+01    0.2658906    0.1843148 -19.72    0.0011458    1.922    0.480
        32 -12.3548     83.1726    140.7899   9.4176608146e+01   3.6250388014e+01    0.3282688    0.2771854 -45.65 0.0004637279    1.141    0.123
        33 -15.0556     43.5108    249.3111   1.1733648027e+02   1.6668701807e+01     10.44164     2.843581  25.07   0.02071042   17.177    0.942
        34 -13.2337     25.9015    204.5205   1.1755823853e+02   2.7840778070e+01    0.4981911    0.4313604 -40.40 0.0008509151    1.503    0.335
        35 -12.4746     67.7688    129.3682   9.6473696931e+01   4.1305625379e+01    0.8127744    0.5555566  81.12  0.003634572    2.107    0.525
        36 -10.8359    106.9169    131.0857   8.5175795920e+01   3.4654761589e+01    0.4198191    0.3474455  28.93   0.00111876    1.261    0.207
        37 -13.3883     68.3815    144.4801   9.9204303218e+01   3.7455995039e+01    0.9090099    0.6432049  89.65  0.002960011    1.735    0.424
        38 -12.5258     58.0292    242.0025   1.1394824062e+02   1.6380680704e+01    0.5103793    0.3248888  53.91 0.0006500827    1.351    0.260
        39 -11.1812     94.4209    127.5303   8.7980364589e+01   3.7685157789e+01    0.2824813    0.2570551 -29.39 0.0002789958    1.088    0.081
        40 -10.0045    115.0135    125.0186   8.1426950641e+01   3.4578492391e+01    0.2543963    0.1894876  -9.80  0.001128506    1.728    0.421
        41 -10.7640     19.7321    120.9655   1.1006372320e+02   4.8445753456e+01    0.3034488     0.146572  43.48  0.001408444    2.462    0.594
        42  -9.7847    105.2454    119.7874   8.2922720974e+01   3.7613992771e+01    0.2109933    0.2021727 -48.01 0.0004344333    1.057    0.054
        43  -9.1680    167.8491    112.9838   6.5100602370e+01   2.6217314380e+01    0.2586443    0.1729151 -64.71  0.001078827    2.037    0.509
        44 -10.0865    205.1646    110.6341   5.7207868094e+01   1.8730125964e+01    0.3135515    0.2461038  30.38  0.001097446    1.484    0.326
        45  -9.7443     66.1870    103.7568   9.1207366663e+01   4.7729290128e+01    0.2358562    0.1566525  76.50 0.0006770587    2.775    0.640
        46  -9.1678    198.6579    222.9217   8.1907745618e+01  -5.2054199986e-01    0.1734802    0.1485282 -12.14 0.0004437327    1.120    0.107
        47 -11.2662     52.6838     90.8965   9.2669731087e+01   5.2473625555e+01    0.3640752    0.2703746 -62.02  0.001071536    1.420    0.296
        48 -10.7560     45.8319     91.7851   9.5392880571e+01   5.3072433722e+01    0.2600321      0.22054 -61.37  0.001010127    1.219    0.180
        49  -9.9360     41.6708     92.0781   9.6988994395e+01   5.3455711849e+01    0.2485923    0.1893163  14.65 0.0005877149    1.443    0.307
        50  -9.3433     49.4648     71.4505   8.8420877053e+01   5.7112541132e+01    0.2355699    0.1145238  40.74   0.00102337    2.485    0.598
        51 -14.4681      7.5047    245.1214   1.2370718740e+02   2.1192814476e+01     1.595031     1.232226  48.00   0.01225285    1.271    0.213
        52 -10.6921     13.3351     60.3458   1.0029781055e+02   6.2888944515e+01     0.232996    0.1794353 -42.21 0.0004414918    1.052    0.050
        53 -12.0805     32.8245    234.3041   1.1834669653e+02   2.0792128186e+01    0.4663559     0.259142  61.33  0.002739396    1.605    0.377
        54 -11.8321    207.1306     41.5504   4.0346599267e+01   2.9136326039e+01    0.4585344    0.3399554  59.16  0.001471434    1.405    0.288
        55 -11.4190     58.9797    229.7657   1.1268257202e+02   1.8722751191e+01    0.3299232    0.2317328 -66.99  0.001168901    1.478    0.323
        56  -9.8594     28.9530     52.9358   9.1142253252e+01   6.3105093448e+01    0.1847414     0.158264 -20.14 0.0004408079    1.088    0.081
        57 -10.0334     11.8272     53.1931   9.8989104438e+01   6.4460010314e+01    0.1801493    0.1127144 -32.90 0.0005627792    1.323    0.244
        58 -10.9518    129.5119     37.1473   5.1519736085e+01   4.7720013451e+01    0.3884665    0.2694566 -66.83  0.001088704    1.989    0.497
        59 -10.4060    189.8387     15.3566   3.6002152183e+01   3.6049183803e+01    0.2089547    0.1554984 -53.49 0.0007107565    1.302    0.232
        60 -10.8810      3.1110     15.2166   9.0014213508e+01   7.1940854957e+01    0.2100759    0.1385062  21.12 0.0009521957    1.646    0.392
        61 -11.1292     32.3066    222.4610   1.1759490674e+02   2.3292989429e+01    0.2960273    0.2738788  -3.31   0.00212041    1.501    0.334
