#   1 NUMBER                 Running object number                                     
#   2 MAG_AUTO               Kron-like elliptical aperture magnitude                    [mag]
#   3 X_IMAGE                Object position along x                                    [pixel]
#   4 Y_IMAGE                Object position along y                                    [pixel]
#   5 X_WORLD                Barycenter position along world x axis                     [deg]
#   6 Y_WORLD                Barycenter position along world y axis                     [deg]
#   7 A_WORLD                Profile RMS along major axis (world units)                 [deg]
#   8 B_WORLD                Profile RMS along minor axis (world units)                 [deg]
#   9 THETA_WORLD            Position angle (CCW/world-x)                               [deg]
#  10 FWHM_WORLD             FWHM assuming a gaussian core                              [deg]
#  11 ELONGATION             A_IMAGE/B_IMAGE                                           
#  12 ELLIPTICITY            1 - B_IMAGE/A_IMAGE                                       
         1 -14.8152    163.6378     39.9321   8.1071611921e+01   3.9111547412e+01     1.375677     1.014922 -11.60  0.003781504    1.493    0.330
         2 -14.4139    176.9367      6.9266   6.8429690804e+01   3.9381508860e+01    0.9634333    0.8676607  67.58   0.00382578    1.034    0.032
         3 -10.2340    150.7179    248.0249   1.2974065303e+02   5.9575708947e+00    0.1365355    0.1272707  55.22 0.0007998486    1.216    0.178
         4 -19.9069     74.1400    171.3958   1.3481669365e+02   3.0988960718e+01     16.91177     6.388786 -65.73   0.07398099    2.628    0.620
         5 -11.7152    111.4580    209.7771   1.3216588965e+02   1.8045968519e+01    0.2312465    0.1865806  19.58 0.0008508943    1.713    0.416
         6 -12.6919    133.6893    249.7518   1.3278783454e+02   8.3324818859e+00    0.1783482     0.169795 -84.21  0.001153331    1.321    0.243
         7 -12.7430    163.5733    203.8394   1.2144266078e+02   1.0289831732e+01    0.4605351    0.2705798 -56.60  0.002252365    2.233    0.552
         8 -11.0080    159.2617    205.4046   1.2250062824e+02   1.0799955322e+01    0.2710364    0.1865368  41.99  0.001074344    1.252    0.201
         9 -11.7988    169.0181    202.5845   1.2021514533e+02   9.5214009634e+00    0.2073559    0.1792712 -77.31 0.0001828961    1.476    0.322
        10 -11.1113    114.0236    249.4920   1.3602817351e+02   1.1289830555e+01    0.1332058    0.1159645  89.13 -0.0001079726    1.297    0.229
        11 -10.6047    140.7305    199.6561   1.2518108102e+02   1.4984564913e+01    0.2268644    0.1323112  41.12  0.000298407    1.542    0.351
        12 -10.6220    136.3960    197.1864   1.2565895164e+02   1.6161582455e+01    0.3966802    0.2380837  82.62  0.001682342    3.236    0.691
        13  -9.9174      8.2998    246.8213   1.5230539483e+02   2.4642069789e+01   0.08969951   0.04362887  59.49 0.0004166542    1.439    0.305
        14 -11.5003    160.7252    194.5559   1.2049643814e+02   1.2306454399e+01    0.2541547     0.176584  47.53 0.0007973399    1.290    0.225
        15 -12.1084    157.5160    191.7395   1.2065763160e+02   1.3360916375e+01    0.2351743    0.1934821  79.00 0.0005550924    1.465    0.317
        16 -14.3758    206.3110    179.9850   1.0919175434e+02   6.1340907094e+00    0.8380537    0.6963074  33.49  0.003353654    1.098    0.090
        17 -13.4679    197.1826    173.4742   1.0962398747e+02   8.8808136719e+00      0.75036    0.4306467 -49.29  0.002710771    2.194    0.544
        18  -9.7943    153.4797    194.4806   1.2189468127e+02   1.3623981568e+01     0.130871    0.1145617  51.18 4.493445e-06    1.049    0.047
        19  -9.7746     23.5313    182.6924   1.4618381032e+02   3.4599335580e+01    0.1718093    0.1253796 -45.64 0.0008244228    2.034    0.508
        20 -10.4069     13.3715    243.9383   1.5145084540e+02   2.4606509674e+01     0.284541    0.1005132 -69.15  0.001772236    2.794    0.642
        21 -12.5170     30.2944    183.5067   1.4496410775e+02   3.3758910399e+01    0.3592731    0.1800716  53.76  0.001092879    1.785    0.440
        22  -9.2252     30.9545    178.6832   1.4443551421e+02   3.4656791556e+01    0.6096299    0.2664109  22.71  0.002702707    4.527    0.779
        23 -11.8749      4.0638    180.3925   1.4964438156e+02   3.6819770183e+01    0.2302637    0.1896791  18.27  0.001523147    1.913    0.477
        24 -10.6230    168.2069    175.8117   1.1573367883e+02   1.4101115802e+01     0.183635    0.1549378  10.93 0.0003313383    1.316    0.240
        25 -10.7361     10.7240    174.6755   1.4802405832e+02   3.7380498108e+01    0.1643452    0.1111038 -88.65  0.000596775    1.130    0.115
        26 -12.6500    178.4032    173.2112   1.1321073867e+02   1.2575255944e+01    0.3243295    0.2715588 -76.02  0.001807111    1.581    0.367
        27 -12.4638    138.7109    172.1249   1.2112842198e+02   2.0343712618e+01    0.5006793    0.3537325 -82.48  0.002407569    1.945    0.486
        28 -11.6718    147.9766    172.9906   1.1934541142e+02   1.8458275555e+01    0.3244657    0.1843419  56.73  0.001430596    1.950    0.487
        29 -12.7849    144.0676    168.2805   1.1930830600e+02   2.0078953036e+01    0.5174587    0.3339873  55.54  0.001685014    1.590    0.371
        30 -11.6212    231.5212    170.5177   1.0278699030e+02   2.8059269257e+00    0.2346426    0.1147628 -42.72  0.001038853    2.433    0.589
        31 -11.9094    202.5606    166.4749   1.0719568366e+02   8.9430331104e+00    0.3725269     0.322143  75.77  0.001699552    1.545    0.353
        32 -11.2419    123.0693    165.9903   1.2340134432e+02   2.4372045462e+01    0.3267231    0.1956942  59.78  0.001154875    1.868    0.465
        33 -11.5184    223.9694    164.2456   1.0281476195e+02   5.1267670351e+00    0.2662248    0.1898437 -41.10 0.0007041288    1.573    0.364
        34  -9.9310    119.3725    244.4265   1.3463217167e+02   1.1245368330e+01    0.1112082   0.08411963  58.75 0.0001317548    1.093    0.085
        35  -9.9892      3.2506    164.2943   1.4873923632e+02   4.0093075943e+01   0.09717479   0.06700139 -64.48 0.0002966162    1.486    0.327
        36 -10.3800     13.4286    163.1164   1.4662677239e+02   3.9491690175e+01    0.1603306   0.08507025 -76.96 0.0004683995    1.501    0.334
        37 -11.3562    237.4396    159.2483   9.9421655930e+01   3.3008020844e+00    0.1810664    0.1199907 -38.95 0.0008213719    1.627    0.386
        38 -11.3329    164.0746    158.4858   1.1320110727e+02   1.8021955259e+01    0.2262053    0.1334911  44.73  0.001037319    1.604    0.377
        39 -14.3064    134.2313    145.7148   1.1707965371e+02   2.6419217063e+01     1.415279     0.418127 -53.47  0.004224308    4.218    0.763
        40 -14.2563    143.4339    143.7188   1.1458615930e+02   2.5016682621e+01     1.050249    0.5405161 -61.21  0.003960443    2.785    0.641
        41 -10.4614    135.2130    235.2517   1.3090821075e+02   1.0183398605e+01    0.1436418    0.1148061  80.82 0.0006295169    1.413    0.292
        42 -14.2002    135.7336    125.9727   1.1239388336e+02   3.0191342263e+01     1.622376    0.3319812 -48.14  0.004097651    5.235    0.809
        43  -9.6885    182.6624    149.3319   1.0744101182e+02   1.5871273428e+01    0.1445003    0.1167227 -87.80    0.0007052    1.740    0.425
        44 -11.1304    174.6700    148.9571   1.0899074264e+02   1.7605313738e+01     0.274847    0.2426144  41.32 0.0007436072    1.090    0.083
        45  99.0000     26.7691    231.1406   1.4878682870e+02   2.5350330048e+01    0.2117224    0.1577819 -37.29  0.001467197    2.949    0.661
        46 -11.3909     22.8779    155.2021   1.4397413443e+02   4.0301947367e+01    0.2752548    0.1912641 -89.94  0.001056158    1.159    0.137
        47 -11.8223      4.9434    137.7100   1.4627475243e+02   4.5500115961e+01    0.2480572    0.1854803 -65.32 0.0007300992    1.286    0.223
        48 -11.1116     23.7485    137.7277   1.4197859832e+02   4.3978182279e+01    0.2158551    0.1597098  -6.51 0.0007904831    2.226    0.551
        49 -11.0455     24.1043    228.4127   1.4905438431e+02   2.6092349215e+01    0.1812219    0.1178667 -74.01 0.0004636416    1.575    0.365
        50 -12.0778    160.6210    127.9088   1.0717675333e+02   2.4567984536e+01     0.347084    0.2712096 -47.69  0.001688459    1.318    0.241
        51 -10.9011     25.4732    223.5919   1.4856393928e+02   2.6781124289e+01      0.23681   0.05691919 -64.59  0.001126467    3.927    0.745
        52 -12.3036    208.3135    228.4382   1.1723929962e+02  -7.7983216087e-01    0.1736261    0.1534254 -66.82  0.001201887    1.768    0.434
        53 -11.5353    219.5608    225.2723   1.1483126132e+02  -2.2210488833e+00    0.2844955    0.1064607 -41.42  0.001296236    3.506    0.715
        54 -11.1026    172.2577    117.7943   1.0216820278e+02   2.3927418017e+01    0.3223749    0.2439826  86.78  0.001157181    1.898    0.473
        55  -9.8667     19.7195    223.0958   1.4945720590e+02   2.7456284646e+01    0.1135676   0.09191705 -89.62 0.0004979153    1.322    0.243
        56  -9.8906     15.1198    220.4055   1.5004571909e+02   2.8381771129e+01    0.1756207   0.09809574 -60.91  0.001204314    2.218    0.549
        57 -10.5794    139.5258    249.8550   1.3182447678e+02   7.4320584224e+00    0.2102643    0.1363549  59.18  0.001197491    1.468    0.319
        58 -10.8441    205.3331    110.2313   9.3689054295e+01   1.7714605293e+01    0.3132852    0.2058567  44.04 0.0008782023    1.542    0.352
        59 -11.0145    155.1593    104.9335   1.0256731499e+02   3.0249828091e+01    0.2381915    0.2153086  46.75 0.0002852058    1.118    0.105
        60 -11.1071      9.3225    101.9576   1.4122435455e+02   5.2955397882e+01    0.2100699    0.1783179  32.40  0.001032445    1.508    0.337
        61 -11.0315     10.2699    211.0843   1.5033424245e+02   3.0500037353e+01    0.1256056   0.07132702  87.17 0.0006184317    1.375    0.273
        62 -13.3826     11.6742    206.1665   1.4983333026e+02   3.1260294815e+01    0.3878233    0.2502373  36.04  0.002456518    1.873    0.466
        63 -10.9924      9.3778    201.7743   1.4997278399e+02   3.2281487170e+01    0.1456072    0.1012017 -83.71 0.0003921896    1.253    0.202
        64 -14.4586    152.0354     54.6401   8.8196138967e+01   3.9909491069e+01     1.164418     1.052348  11.33  0.002662576    1.127    0.113
        65 -12.0813    125.0361    247.4523   1.3399243117e+02   9.9593965685e+00     0.238971    0.1413762 -58.12  0.001543099    2.111    0.526
        66 -12.9347    167.2246     31.6815   7.7751730580e+01   3.9246069911e+01    0.4077744    0.3586293  -1.33 0.0009152326    1.203    0.169
        67 -11.1320     13.6260     60.0174   1.3237754772e+02   6.1710516511e+01    0.1649447    0.1520199 -71.81 0.0004695127    1.243    0.196
        68 -10.4778    144.8725     34.0855   8.2726825989e+01   4.4588686201e+01     0.211686    0.1946959 -72.39  0.000292618    1.234    0.190
