#   1 NUMBER                 Running object number                                     
#   2 MAG_AUTO               Kron-like elliptical aperture magnitude                    [mag]
#   3 X_IMAGE                Object position along x                                    [pixel]
#   4 Y_IMAGE                Object position along y                                    [pixel]
#   5 X_WORLD                Barycenter position along world x axis                     [deg]
#   6 Y_WORLD                Barycenter position along world y axis                     [deg]
#   7 A_WORLD                Profile RMS along major axis (world units)                 [deg]
#   8 B_WORLD                Profile RMS along minor axis (world units)                 [deg]
#   9 THETA_WORLD            Position angle (CCW/world-x)                               [deg]
#  10 FWHM_WORLD             FWHM assuming a gaussian core                              [deg]
#  11 ELONGATION             A_IMAGE/B_IMAGE                                           
#  12 ELLIPTICITY            1 - B_IMAGE/A_IMAGE                                       
         1 -14.3688      8.4194    153.5033   1.4369684774e+02   4.1879850709e+01     3.975122     1.422572  82.68   0.01538219    3.825    0.739
         2 -14.6994      2.5074    131.7817   1.4316050034e+02   4.7195303910e+01     5.717701     0.242749 -72.92   0.01333456    9.223    0.892
         3 -13.5009    198.8369     27.8695   6.6687213276e+01   3.1967814433e+01     1.503355     1.327173  14.76  0.006931034    1.377    0.274
         4 -13.4596    214.6039      8.7408   5.9997154244e+01   3.0243538440e+01     0.940366    0.8143954  63.66  0.003135416    1.232    0.189
         5 -10.8498     75.5434    177.7067   1.3100728025e+02   2.8993062339e+01    0.2383844    0.2089238  89.49 0.0003669996    1.057    0.054
         6 -12.7620    242.0050    247.9818   1.0881325982e+02  -9.4978896042e+00    0.7471186    0.3925975  34.65  0.004635243    1.579    0.366
         7 -13.0193    141.8341    249.2070   1.2653007430e+02   5.3972745163e+00    0.8231709    0.3528696  42.40  0.004258177    1.838    0.456
         8 -11.7894     99.0210    247.8212   1.3409229455e+02   1.2035031309e+01    0.3702636    0.2960271   4.81  0.002408908    2.137    0.532
         9  -9.8638     66.5827    250.1729   1.3995999040e+02   1.6070769252e+01    0.1751152    0.1105887  44.11 0.0006687153    1.395    0.283
        10 -11.1738     46.0368    249.0019   1.4333852582e+02   1.8813083842e+01    0.2917295    0.1667224  58.83  0.001604152    1.314    0.239
        11 -11.5719     28.9625    248.6606   1.4610895044e+02   2.0820118139e+01    0.3737439    0.2525576  59.62   0.00161448    1.117    0.104
        12 -12.8589     34.5020    244.3204   1.4496623249e+02   2.0955425126e+01    0.6623608     0.490118  77.97  0.005221027    1.125    0.111
        13 -12.4966     19.3009    243.4446   1.4739597354e+02   2.2755843817e+01     0.642532    0.3235265 -75.76  0.003316915    1.888    0.470
        14 -12.1693     11.6445    232.4983   1.4810736367e+02   2.5480352049e+01      0.30966    0.1750263  83.83  0.001670321    1.405    0.288
        15 -11.9422      2.7030    237.8762   1.4978794196e+02   2.5384766688e+01    0.4558392    0.2419058 -71.80  0.003220432    1.905    0.475
        16 -12.1377      5.4312    248.7537   1.4980634189e+02   2.3238787387e+01    0.7207975      0.37636  46.18  0.004157557    1.604    0.376
        17 -12.6363     11.6454    239.9757   1.4845839763e+02   2.4145114210e+01    0.6150033    0.2749662  66.82  0.003939316    1.751    0.429
        18 -11.3764     50.0239    235.5535   1.4176262845e+02   2.0698690009e+01    0.2689119    0.1618334 -64.20  0.001369274    1.879    0.468
        19 -13.1685     45.9865    215.5572   1.4100566720e+02   2.4942401274e+01     1.094108    0.7340054  85.07  0.006345982    1.285    0.222
        20 -12.9575     30.5789    233.3185   1.4498022951e+02   2.3353587779e+01    0.2793908    0.2224698  89.27 0.0007526772    1.260    0.206
        21 -14.0469     35.4319    226.8723   1.4373655382e+02   2.4002345336e+01    0.7303048    0.4970695  67.21   0.00233978    1.113    0.102
        22 -12.7046    123.9876    232.2673   1.2782521063e+02   1.0865397073e+01    0.7407046    0.2071846  42.99  0.002964782    2.874    0.652
        23 -12.5982    112.3840    231.6318   1.2995344336e+02   1.2776551340e+01    0.7238273    0.1762012  44.00  0.002759769    3.236    0.691
        24 -13.2459     91.0218    227.4149   1.3355537303e+02   1.6717329871e+01     1.597351    0.2087077  46.83  0.004630688    5.919    0.831
        25  -8.8774     57.3203    240.3076   1.4083005398e+02   1.8950073334e+01   0.09002468   0.08843683 -23.29 0.0003579334    1.639    0.390
        26  -9.7074    173.5204    222.7448   1.1705665058e+02   4.2871119835e+00    0.2797944    0.1325486  49.79   0.00129615    2.177    0.541
        27 -11.6297     54.6663    210.2977   1.3891259303e+02   2.4922086733e+01      1.09023    0.2665495  56.04  0.003265971    6.237    0.840
        28  -8.8068    152.5027    213.0943   1.1967680636e+02   9.4294527855e+00    0.1615778    0.1303314 -50.80 0.0003051316    1.430    0.301
        29 -12.4761      9.8584    207.0014   1.4708927259e+02   3.0470477671e+01    0.6086124    0.3799337  33.41  0.002868692    1.914    0.478
        30 -10.6100     55.8031    205.7883   1.3828559011e+02   2.5684530653e+01    0.4196674    0.1407457  52.83  0.001828747    2.795    0.642
        31 -11.8130     58.1387    199.3044   1.3720307657e+02   2.6715319802e+01    0.2525691    0.2134408 -80.85 0.0005186539    1.207    0.171
        32 -13.0405     18.6159    124.8292   1.3821687714e+02   4.7609744044e+01     1.216711    0.5088699  47.17  0.005710763    2.682    0.627
        33 -12.5427      4.1921    170.7817   1.4593347611e+02   3.8436374456e+01    0.8697415    0.3518851 -80.58  0.004614996    1.994    0.499
        34 -11.1051    198.6176    247.7976   1.1617633968e+02  -3.2024104183e+00    0.3229798    0.1449471 -41.03  0.001716254    2.737    0.635
        35 -11.5544    171.9909    248.3887   1.2098852952e+02   8.2143878550e-01    0.2955365    0.2163875  52.78  0.001685965    1.420    0.296
        36 -13.2087     61.9721    175.8945   1.3383983626e+02   3.1242330046e+01    0.4891913    0.2695529 -47.50  0.001654458    2.289    0.563
        37  -9.2944     95.9571    172.9853   1.2566650121e+02   2.6951179634e+01    0.2225615     0.149228  71.92  0.000641069    1.689    0.408
        38  -9.9891      9.2227    194.0152   1.4644478894e+02   3.3132822902e+01    0.2021189    0.1296295  56.26 0.0007060237    1.360    0.265
        39 -11.8902     82.8245    169.0733   1.2813502500e+02   2.9851577737e+01    0.7224523    0.4621629 -53.38  0.002115936    1.627    0.385
        40 -10.0801     90.0014    167.3002   1.2618022809e+02   2.9153724738e+01    0.2913824    0.2425003  78.44  0.001694492    1.144    0.126
        41 -12.0530     64.7788    190.7663   1.3493591673e+02   2.7643130409e+01    0.2549885    0.2267268 -76.58 0.0004537661    1.225    0.184
        42 -10.3158     96.2715    152.7738   1.2224547172e+02   3.1443050037e+01    0.3416325    0.2905799 -45.24 0.0008308671    1.290    0.225
        43  -9.4375     99.2798    148.7223   1.2075648719e+02   3.1870963069e+01    0.2172761    0.1988963  46.06  0.000857073    1.148    0.129
        44 -12.1016     84.8066    151.7700   1.2492832426e+02   3.3498182500e+01    0.2919123    0.2433223 -48.51 0.0005605629    1.298    0.230
        45 -12.2410     67.3554    143.5589   1.2800789936e+02   3.7942920705e+01    0.6665415    0.4147485  64.78  0.002700777    1.860    0.462
        46 -10.0343    108.4962    137.8097   1.1625854498e+02   3.2767436363e+01    0.4116624    0.2838669 -15.51  0.001223085    2.472    0.596
        47 -11.5605     26.4186    129.0003   1.3665828935e+02   4.5978524490e+01    0.4535328    0.2162801  51.57  0.002232573    2.378    0.579
        48 -10.6518     95.6035    134.9264   1.1901832193e+02   3.5680358875e+01    0.2385585     0.234258 -21.81 0.0004262081    1.147    0.128
        49  -8.8027     76.2269    129.4156   1.2313565409e+02   4.0028730922e+01    0.1847697    0.1250978  52.80 0.0004607295    1.594    0.373
        50  -8.8953    106.1163    124.1066   1.1388557758e+02   3.6340557878e+01    0.1968719    0.1903661 -18.46 0.0002875259    1.127    0.113
        51  -8.7242    168.1424    113.1673   9.5896904301e+01   2.5655239419e+01     0.208337    0.1831886 -81.69 0.0004245974    1.306    0.234
        52  -8.9657     39.8243     95.5629   1.2717395137e+02   5.2523971349e+01    0.1649028      0.11738  47.40 0.0005962958    1.656    0.396
        53 -10.6558    242.5231     93.4925   7.7632253365e+01   1.2357438191e+01    0.2685651    0.1056298 -43.04  0.001040552    2.337    0.572
        54  -8.7725     65.0653     81.5508   1.1544603584e+02   5.2655375707e+01    0.1739068    0.1146574  61.80 0.0007237695    2.267    0.559
        55 -10.4554    158.5019     76.8911   8.7884615486e+01   3.4825341189e+01    0.2514639    0.2195138 -85.41 0.0006029932    1.292    0.226
        56  -9.6147    192.7117    194.5563   1.0862901183e+02   5.4144650393e+00    0.4007833    0.2190634 -64.70  0.001253102    5.873    0.830
        57 -11.7769      3.1031     49.8092   1.3027933184e+02   6.5333073029e+01    0.3119462    0.2753638  83.56  0.001873747    1.458    0.314
        58  -9.6355     85.3203    246.6407   1.3641867686e+02   1.4162382086e+01    0.1226463   0.06808148  65.86 0.0007043816    1.767    0.434
        59 -10.2936    181.4999    244.4948   1.1875101677e+02  -1.3635407353e-01    0.1196829   0.09565617  33.57 0.0008105457    1.025    0.024
