#   1 NUMBER                 Running object number                                     
#   2 MAG_AUTO               Kron-like elliptical aperture magnitude                    [mag]
#   3 X_IMAGE                Object position along x                                    [pixel]
#   4 Y_IMAGE                Object position along y                                    [pixel]
#   5 X_WORLD                Barycenter position along world x axis                     [deg]
#   6 Y_WORLD                Barycenter position along world y axis                     [deg]
#   7 A_WORLD                Profile RMS along major axis (world units)                 [deg]
#   8 B_WORLD                Profile RMS along minor axis (world units)                 [deg]
#   9 THETA_WORLD            Position angle (CCW/world-x)                               [deg]
#  10 FWHM_WORLD             FWHM assuming a gaussian core                              [deg]
#  11 ELONGATION             A_IMAGE/B_IMAGE                                           
#  12 ELLIPTICITY            1 - B_IMAGE/A_IMAGE                                       
         1 -10.4161     50.7926     37.2215   8.7540497821e+01   6.3581193125e+01    0.8759087    0.5996608 -66.97  0.004278975    2.741    0.635
         2  -9.9280     38.5481      8.8946   8.0087428246e+01   6.9574712732e+01    0.6390775    0.3231272  -9.44  0.002998604    2.677    0.627
         3 -10.7634     39.8130     29.8573   8.9266690976e+01   6.6221553935e+01    0.5756385    0.3480587 -44.88  0.002850911    1.588    0.370
         4 -12.0581     44.3720     22.1198   8.3843275557e+01   6.6909073639e+01     1.044728    0.9120838 -59.58  0.006805473    1.791    0.442
         5 -11.8800    128.6393     15.4355   5.4193382380e+01   5.1168948861e+01      1.38218      1.22846  67.97  0.008140929    1.143    0.125
         6 -11.9241    131.3006      3.6050   4.9305845193e+01   5.1618813593e+01     2.224262    0.4164413  65.31  0.006346554    4.637    0.784
         7 -10.6875    120.9266      4.0955   5.1459578054e+01   5.4105394854e+01    0.6610011    0.4473526  64.48   0.00261305    1.388    0.280
         8 -11.0906    109.0315      4.5822   5.4190513413e+01   5.6866957499e+01     1.009066    0.4317256  61.43  0.004234006    2.177    0.541
         9 -12.1432    155.9642     20.9288   5.1021052815e+01   4.3686861530e+01     1.359204    0.6948865  49.19   0.00506551    1.851    0.460
        10 -13.3216    168.7263     16.3963   4.7568751283e+01   4.0874838229e+01     3.150031     1.464934  75.16   0.01271714    2.249    0.555
        11 -12.9042    169.3141      5.8849   4.4252119054e+01   4.1767098996e+01     2.673968    0.8755663  74.02   0.00926121    3.138    0.681
        12 -10.0724    116.1768     16.6263   5.7384843687e+01   5.4038952529e+01    0.9055009    0.3584859 -41.40  0.003443585    3.082    0.675
        13  -9.5382     96.3275      3.8688   5.6960283972e+01   5.9784680951e+01     0.510431    0.2739701 -35.67  0.002508953    2.133    0.531
        14 -11.3248     78.0405     14.8010   6.7286338637e+01   6.2429571346e+01     1.009881    0.5272115 -25.15  0.005012156    1.889    0.471
        15 -11.3559     84.0945      3.8954   6.0335722207e+01   6.2371485194e+01    0.9875702    0.5916581  47.25  0.004229791    1.482    0.325
        16 -10.1211     71.5897      5.7014   6.5142762418e+01   6.4647247221e+01    0.4945582    0.3408286  41.48  0.002031709    1.344    0.256
        17 -10.3902    247.8333     15.2826   3.8757687888e+01   2.1522672699e+01     0.375678    0.2369542 -61.10  0.002112801    1.408    0.290
        18 -10.0902     65.3414     16.9955   7.2812486577e+01   6.4460287386e+01    0.3566331    0.2935429  72.46  0.002083229    2.049    0.512
        19  -8.2888     20.4351     13.7828   9.1529716522e+01   7.0897829533e+01    0.5220024    0.2012907 -31.32  0.002495385    2.458    0.593
        20  -9.3880    226.1711     14.3363   4.0373885917e+01   2.6624730817e+01    0.3269334    0.2165552  86.61  0.001778424    1.435    0.303
        21  -9.3778     69.5693     13.6236   6.9663003258e+01   6.4138688433e+01    0.3026987    0.2700885 -41.55  0.001953894    1.486    0.327
        22  -9.8578    104.3089     12.1680   5.8466573444e+01   5.7230208125e+01    0.4347458    0.2805134 -17.32  0.002114229    1.625    0.385
        23  -8.6457     52.4521      1.9826   7.0353987797e+01   6.8372916247e+01    0.2404196    0.1632946  34.78  0.001498887    1.380    0.275
        24  -9.7397     60.2210      9.4987   7.1138061893e+01   6.6249780367e+01    0.3945582    0.2026409 -34.06  0.002043589    1.997    0.499
        25 -10.0107     60.8088      2.2906   6.7262667882e+01   6.6941822878e+01    0.5824712    0.2873437  39.07   0.00296311    1.819    0.450
        26  -9.4755     94.2856     17.6673   6.3518379311e+01   5.8825050720e+01    0.4559742    0.3408272  77.23  0.002021181    1.928    0.481
        27  -9.9074    250.3914      4.8002   3.6259873739e+01   2.2133148407e+01     0.334947    0.1710681 -26.54  0.001698342    2.163    0.538
        28  -8.3059     54.2447      7.4034   7.2449207594e+01   6.7474256030e+01    0.1501786    0.1120384  44.15 0.0003257766    1.566    0.361
        29  -8.2254    230.7289      6.5697   3.8129311146e+01   2.6401288288e+01    0.1802965    0.1088458 -86.48 0.0008914012    1.588    0.370
        30  -8.7798     49.7067      6.3019   7.3763256820e+01   6.8313988504e+01    0.2472227    0.1168144  24.10  0.001163942    2.442    0.590
        31 -10.8294    213.8909      4.4638   3.9049806670e+01   3.0645893889e+01    0.7018878    0.2209711  74.68   0.00263575    3.009    0.668
        32  -8.9114     17.1167      1.8141   8.7315390072e+01   7.3003336918e+01    0.1836247    0.1379771 -37.41 0.0007182432    1.493    0.330
        33  -9.6500    203.6794      3.8757   3.9844323367e+01   3.3220108201e+01    0.2718975    0.1781154  84.41  0.001174838    1.402    0.287
        34  -8.3750     26.6017      3.2850   8.3012456382e+01   7.1793804370e+01    0.2209319   0.09417599 -38.66   0.00115436    2.205    0.547
        35  -9.7247    217.8182      1.9993   3.8099916391e+01   2.9942964018e+01    0.3232916    0.1790385  81.91  0.001543704    1.677    0.404
        36  -8.7798     40.6803      1.8262   7.5348038667e+01   7.0172066276e+01    0.2836613    0.1456848  32.00  0.001589588    1.850    0.460
        37  -9.3593     66.6875     29.3495   7.7891027739e+01   6.2502432010e+01    0.3251849    0.2220794 -16.62   0.00179752    1.411    0.291
        38  -8.3043     35.6770     53.0411   9.9515150447e+01   6.2310299521e+01    0.1966227    0.1443836 -61.80  0.001164455    1.472    0.321
        39  -8.2219     23.0390     52.5253   1.0460888249e+02   6.3526485713e+01    0.2015998    0.1351115 -51.35 0.0009867866    1.206    0.171
        40 -10.1657     84.1003     47.8897   7.9156165094e+01   5.6467566424e+01    0.6374626    0.4609406  51.08  0.003318472    1.627    0.385
        41  -7.9837    110.4975     46.9997   7.0571185109e+01   5.1285310739e+01    0.2081307    0.1255992  -5.42 0.0008102026    2.510    0.602
        42 -10.3930     82.5582     38.9828   7.6196730626e+01   5.8232986768e+01    0.5374469    0.3323778 -29.81  0.002688169    1.555    0.357
        43 -10.2828      3.3783     40.8084   1.0987075420e+02   6.7162093187e+01    0.4287376    0.3663148 -66.57  0.003177808    1.305    0.233
        44  -9.2308     10.3816     34.9432   1.0488536829e+02   6.7926235674e+01    0.6017036    0.3771315 -18.53  0.003829339    1.594    0.373
        45 -10.3335    172.2736    239.8258   1.0072890538e+02   1.0693963736e+00    0.2730711     0.148294  32.86  0.001463829    1.628    0.386
        46  -8.8980    162.2923    240.3492   1.0267218792e+02   2.6215609008e+00    0.1191312   0.08792388  11.42 0.0007029382    1.671    0.402
        47 -10.8649    202.9635    224.9174   9.2716773461e+01  -1.8654194913e+00    0.3095603    0.2267956  30.65   0.00191857    1.130    0.115
        48 -11.5664     10.1155    141.5152   1.2372517096e+02   4.4172433852e+01    0.6491091     0.415343 -88.38  0.004050851    1.269    0.212
        49  -9.2056    184.0437     40.4343   5.2526714991e+01   3.3974893170e+01     0.317061    0.1626479  47.45  0.001291485    2.062    0.515
        50  -8.5986    147.0346     39.4632   5.8918631887e+01   4.3670955890e+01    0.2320372    0.1400904  58.45  0.001025949    1.578    0.366
        51  -8.7980    109.0593     38.6242   6.7819320008e+01   5.2886809357e+01    0.3032789    0.1627624  38.64  0.001305164    1.893    0.472
        52  -9.2038     67.6414     36.3078   8.0472617019e+01   6.1252481009e+01    0.4084176    0.2900338 -67.99   0.00191486    2.801    0.643
        53  -8.8474     44.5242     38.8089   9.0805140043e+01   6.4090727704e+01    0.2773108    0.1862941  33.87  0.001609444    1.699    0.412
        54  -8.6732     38.5287     37.8158   9.3013865613e+01   6.4962207844e+01    0.2523105    0.1764508  28.66  0.001440497    1.609    0.379
        55  -8.2401     27.6405     35.2806   9.6942955609e+01   6.6530391798e+01    0.2050255    0.1268919  -9.52  0.001167747    1.788    0.441
        56  -9.8358     86.4670     31.4865   7.1811868641e+01   5.8628310584e+01    0.3282469    0.2200094  32.68  0.001399906    1.450    0.311
        57  -8.5446     90.6949     28.2388   6.9097684605e+01   5.8244052326e+01    0.2696154    0.2013866 -12.11 0.0009734685    1.324    0.245
        58 -10.0894    225.1576     28.7545   4.4022818378e+01   2.5155249732e+01    0.4715908    0.3375699  59.93  0.002078604    1.459    0.315
        59  -8.2588     54.0000    143.9622   1.1294478790e+02   3.9320029523e+01    0.2285166   0.06734487 -65.62 0.0008106423    3.000    0.667
        60 -12.8116    241.9080    130.9249   6.6736318023e+01   5.7034337774e+00     1.482348     1.351011  -3.60  0.006435066    1.066    0.062
        61  -9.8752     11.3168    128.3413   1.2211486868e+02   4.7131116195e+01    0.1984372    0.1449388 -65.29  0.001298186    1.202    0.168
        62  -8.4578     23.0071    125.4939   1.1867202552e+02   4.6893389760e+01    0.1585101   0.09659661 -27.14 0.0008098983    2.483    0.597
        63  -9.4721     41.0199    141.8155   1.1600900196e+02   4.1307395835e+01    0.3202513    0.2195005  74.25  0.001812475    1.470    0.320
        64  -9.0261     14.8212    113.9779   1.1947728319e+02   5.0238583271e+01    0.2093176   0.09607583 -52.74  0.000795569    1.935    0.483
        65 -10.0854     17.1964    126.7094   1.2038351708e+02   4.7073229244e+01     0.438796    0.1815408  71.73  0.001669692    3.893    0.743
        66  -9.0811     75.0661     27.3147   7.3925195773e+01   6.1358138030e+01    0.2328106    0.1683927 -14.08 0.0007654314    1.319    0.242
        67  -9.8416     71.5169     24.6080   7.4009985435e+01   6.2369886951e+01    0.4139528    0.1899535  40.59   0.00190465    2.131    0.531
        68  -8.7483    105.6805     26.3517   6.3927429763e+01   5.5310651476e+01    0.2763163    0.1949389 -51.69  0.001378204    1.847    0.459
        69  -8.4784    102.6560     26.3124   6.4749261808e+01   5.5981094319e+01    0.2845694    0.2221351  77.12  0.001158783    1.733    0.423
        70  -8.6630     20.9677     22.8786   9.5270301096e+01   6.9346299382e+01    0.2492851     0.185214  31.61  0.001675974    1.720    0.419
        71  -9.2917     68.9957    105.2826   1.0158399248e+02   4.6701248316e+01    0.2790064    0.1642891 -45.62  0.001303356    1.622    0.383
        72  -9.1608    111.5111     16.4958   5.8447017021e+01   5.5139643394e+01    0.3304484    0.2028651  54.71  0.001190486    1.502    0.334
        73  -9.6588     16.6722    104.8638   1.1769047902e+02   5.2244192328e+01    0.3323509    0.2443928 -54.70  0.002131026    1.226    0.185
        74  -9.6315     46.4412    101.4736   1.0785211957e+02   5.0403282390e+01    0.4294998    0.1706032 -53.63    0.0018384    2.068    0.516
        75  -9.3096     30.0211    101.8757   1.1311337180e+02   5.1901420210e+01    0.3670425    0.1847718 -41.58  0.001777226    2.126    0.530
        76  -9.1389     90.3137    102.3641   9.4335476701e+01   4.4075472689e+01    0.2372033    0.1783636 -18.14  0.001125367    1.702    0.412
        77 -11.9313     43.0390     81.6504   1.0460812459e+02   5.5380582773e+01      1.07007    0.7505208  -7.48  0.005875555    1.819    0.450
        78  -7.8821     83.4847     89.5174   9.3027319031e+01   4.8160838498e+01    0.1472812    0.1329401 -34.51 0.0008094526    1.063    0.059
        79  -9.1170     20.0493     88.5799   1.1398326417e+02   5.5794548284e+01    0.2674674    0.1405694 -86.91  0.001066136    2.409    0.585
        80  -8.5917    100.9918     83.0250   8.5651951911e+01   4.6459280392e+01    0.2355145    0.1896208 -87.09  0.001049921    1.683    0.406
        81 -11.0662      4.1425     76.1721   1.1723956807e+02   5.9580887578e+01    0.6454775    0.4513482  64.32  0.004098108    1.815    0.449
        82 -11.7345     14.7162     72.0460   1.1266166188e+02   5.9902549389e+01    0.8438438     0.711306  41.58  0.005867051    1.497    0.332
        83  -8.4769    126.0273     29.1766   5.9887173940e+01   5.0235619565e+01    0.2566361    0.2113016 -20.04  0.001393599    1.266    0.210
        84 -10.2669     25.2618     65.2570   1.0713034720e+02   6.0650541605e+01    0.5248221    0.2459107 -52.67    0.0018224    1.641    0.390
        85  -8.5205    139.1125     78.3818   7.3548189229e+01   3.9149694828e+01    0.3191659     0.183001 -25.47  0.001213597    2.151    0.535
        86  -8.4300    228.6742     77.9483   5.6005191646e+01   1.7257118147e+01    0.2130462      0.17667 -38.72 0.0005404858    1.116    0.104
        87  -9.4764     77.3765     77.3038   9.1495953000e+01   5.1844085582e+01    0.2885533     0.224237 -55.80   0.00152732    1.303    0.232
        88  -9.3918      2.4937     88.6267   1.1975189818e+02   5.6855672298e+01    0.3718272    0.2059315 -84.37  0.002092106    1.715    0.417
        89  -9.3085     83.5466     69.1228   8.6850752285e+01   5.2542737341e+01    0.3504364      0.31952  35.59  0.002014523    1.190    0.160
        90  -9.4548     75.0663     68.6503   8.9590687820e+01   5.4040746405e+01    0.5039466    0.3553495   1.18  0.002465067    1.830    0.453
        91  -8.9412     97.3199     28.1819   6.7054145820e+01   5.6883362834e+01    0.3921662    0.2231449  -1.28  0.001630403    2.539    0.606
        92  -9.4632     46.0125     62.4613   9.8309694169e+01   5.9272475608e+01    0.5421304     0.292925 -33.19  0.002624617    1.901    0.474
        93  -8.4179     61.3283     64.3086   9.3108885754e+01   5.6973158825e+01    0.1413811   0.09651753 -19.53 0.0007039465    1.660    0.398
        94  -8.5709     76.4108     59.2470   8.5970328715e+01   5.5711480798e+01    0.2008233    0.1266634 -50.91 0.0009570983    1.677    0.404
        95  -8.9342    199.2951     55.6954   5.4521402337e+01   2.7868044427e+01    0.2633812    0.2452547  45.53 0.0005458809    1.157    0.136
        96  -8.2998    138.1771     55.8164   6.6451794892e+01   4.3408542330e+01    0.2244502    0.1796441  21.48  0.001090151    1.389    0.280
        97  -8.7961     66.2505     54.0435   8.7812898386e+01   5.8315133958e+01    0.4209957    0.1590938 -46.18  0.001596312    2.470    0.595
        98  -8.3930    164.4901     53.0115   5.9811904247e+01   3.7222199255e+01    0.2340553    0.1507799 -31.53   0.00103481    1.596    0.374
