#   1 NUMBER                 Running object number                                     
#   2 MAG_AUTO               Kron-like elliptical aperture magnitude                    [mag]
#   3 X_IMAGE                Object position along x                                    [pixel]
#   4 Y_IMAGE                Object position along y                                    [pixel]
#   5 X_WORLD                Barycenter position along world x axis                     [deg]
#   6 Y_WORLD                Barycenter position along world y axis                     [deg]
#   7 A_WORLD                Profile RMS along major axis (world units)                 [deg]
#   8 B_WORLD                Profile RMS along minor axis (world units)                 [deg]
#   9 THETA_WORLD            Position angle (CCW/world-x)                               [deg]
#  10 FWHM_WORLD             FWHM assuming a gaussian core                              [deg]
#  11 ELONGATION             A_IMAGE/B_IMAGE                                           
#  12 ELLIPTICITY            1 - B_IMAGE/A_IMAGE                                       
         1 -11.0104    187.0079     42.8355   6.1313222458e+01   3.3019884188e+01     2.376776    0.5625679 -45.02  0.005503098    6.067    0.835
         2 -13.8645    243.9461    111.0872   7.0756888155e+01   9.6390287715e+00     6.508671     1.069787 -30.56   0.01710187    5.595    0.821
         3 -12.4393    212.5522     69.0768   6.4927153569e+01   2.2748667430e+01     2.846294     1.162424 -53.60  0.008131536    4.509    0.778
         4 -13.8074    222.4739     44.3809   5.6612853804e+01   2.3663407786e+01     4.079823     1.172062 -41.39   0.01310658    3.308    0.698
         5 -13.0709    133.0171     38.4140   7.0550448855e+01   4.7626938391e+01     3.693531     1.789562  53.63   0.01473161    2.009    0.502
         6 -12.1399    232.9622     39.9131   5.4102827933e+01   2.1638273225e+01    0.9155635    0.5599101  -1.28  0.002205471    2.217    0.549
         7 -12.0137    159.8942     50.3455   6.8751961910e+01   3.9030218883e+01     1.782736     1.016132 -68.68  0.005972721    3.319    0.699
         8 -12.3309    146.2332     28.2959   6.3841036902e+01   4.5724468495e+01     1.622186     1.016723  65.13  0.007240088    1.645    0.392
         9 -13.1836    181.2815     80.3503   7.3667366803e+01   2.8740161347e+01     6.197816    0.9893755 -39.19   0.01462141    5.494    0.818
        10 -11.6723    247.6569     23.0744   4.8155997772e+01   2.0078258246e+01    0.4599355    0.3360177 -36.02 0.0009655906    1.237    0.192
        11  -9.5203    223.7713     16.7469   4.8751849205e+01   2.6583555289e+01    0.5650426    0.1979332 -43.22  0.001719485    2.679    0.627
        12 -11.2448    179.4216     22.9044   5.6096506372e+01   3.7571009674e+01     1.321598    0.7525411 -84.28   0.00512159    2.470    0.595
        13 -10.3415    180.0793     15.4248   5.3534392612e+01   3.8229636827e+01    0.6647791    0.4719585  85.69  0.002530959    1.502    0.334
        14 -12.2203    197.1804     12.9713   5.0551718866e+01   3.3897903550e+01     2.069217     1.079147 -87.84   0.00815556    2.434    0.589
        15 -10.7494    217.4294      7.7562   4.6855942241e+01   2.9124783247e+01    0.3945358     0.295677 -84.62  0.001277584    1.341    0.254
        16  -9.4880    116.2187     12.2928   6.4137986298e+01   5.5201100149e+01    0.3181041    0.2912331  19.25  0.001428218    1.018    0.017
        17 -10.4674    120.3724      8.8728   6.1692179299e+01   5.4576848705e+01    0.3938093    0.3849091 -22.75  0.001018973    1.118    0.105
        18  -8.4948    145.8488      8.4794   5.6433592300e+01   4.8126784738e+01    0.3259964    0.1645409 -40.43  0.001346951    2.123    0.529
        19 -13.3160    236.0451      3.6187   4.4110402301e+01   2.4870916418e+01     2.727853     0.455378  65.72  0.008471036    4.454    0.775
        20  -8.7051      2.3331      5.3402   1.0862590881e+02   7.3983800990e+01    0.1217937   0.05855354 -36.12 0.0004228234    1.750    0.428
        21  -9.3339    171.8866      2.4265   5.0279499253e+01   4.1732034324e+01    0.3534931    0.2226643 -54.21  0.001467663    1.756    0.431
        22  -8.1844    243.2211     11.0085   4.5446622857e+01   2.2405653131e+01    0.1650343    0.1029548 -26.67 0.0003942607    1.533    0.348
        23  -9.4605    137.0228    241.9818   1.1261172787e+02   1.0573264976e+01    0.1772001    0.1062622  60.87  0.001138305    1.714    0.417
        24  -9.0464    230.0457    250.5170   9.8552400704e+01  -4.0889288067e+00    0.1624665   0.07519281  38.07 0.0004633504    1.554    0.356
        25 -10.1039    141.9324    228.6732   1.1036502139e+02   1.1622813484e+01    0.1747598    0.1624937  63.70 0.0006146886    1.247    0.198
        26 -10.5310    197.2779     63.8880   6.5957617063e+01   2.7334126004e+01    0.3841148    0.2630973  37.63  0.001400912    1.588    0.370
        27 -11.3585    203.2821     60.0014   6.3836367049e+01   2.6381265804e+01    0.5443208    0.4522972  57.37  0.001418716    1.218    0.179
        28 -11.8813      2.7756    206.1152   1.3303069129e+02   3.2686031135e+01     0.583013    0.2645395 -87.49  0.003266623    1.838    0.456
        29  -8.1479    204.2753    152.6710   8.6808283214e+01   1.1739040589e+01    0.1245188     0.109533 -80.75 0.0002767712    1.592    0.372
        30  -8.4884    134.4096    148.2921   1.0029517564e+02   2.6311126496e+01    0.1863891    0.1312646 -65.61 0.0008188752    1.643    0.391
        31  -9.2046    224.6727    146.4062   8.1843279573e+01   8.6249625477e+00    0.3020153    0.2244057  59.35 0.0006914979    1.676    0.403
        32  -9.9449     69.4100    145.2144   1.1495318022e+02   3.7465538908e+01    0.4551284    0.2678995  85.29  0.001631668    1.935    0.483
        33  -9.5765     66.6537    144.3285   1.1549401846e+02   3.8016411831e+01    0.4426703    0.2359105  86.53  0.001833795    2.366    0.577
        34  -8.5969    192.3081    144.1239   8.7298504260e+01   1.5481399679e+01    0.1854003    0.1751513 -14.63 0.0004745304    1.118    0.106
        35 -11.2492    189.2668    138.2864   8.6638702334e+01   1.7062574060e+01    0.4510869    0.3233822  40.09  0.001915384    1.302    0.232
        36  -9.4941    156.9212    139.6247   9.3624152578e+01   2.3549031318e+01    0.3286195    0.2225481  69.45   0.00150899    1.962    0.490
        37  -8.7227    146.4176    136.6225   9.5319043163e+01   2.6238196724e+01    0.3758184    0.2332799 -81.08  0.001409558    3.256    0.693
        38  -8.8919    166.4838    136.1904   9.0844452038e+01   2.2204451828e+01    0.3641417    0.1384196 -33.30  0.001178533    3.757    0.734
        39  -8.5986    211.4705    136.4878   8.2041330612e+01   1.2714739882e+01    0.1403179     0.126183  16.51  0.000192948    1.005    0.005
        40 -10.8854    187.4354     72.3701   7.0183730955e+01   2.8511118056e+01    0.7077391    0.3824099 -55.86  0.002587565    2.592    0.614
        41  -8.6951    250.5382    199.0121   8.7567737106e+01  -2.2371837009e+00    0.1498804    0.1024915 -15.70 0.0002969432    1.460    0.315
        42 -12.3774    178.4473     60.8406   6.8430212031e+01   3.2618774413e+01     0.919446     0.550092  51.43  0.003934636    1.638    0.390
        43  -9.1340    205.3591    121.9958   7.9857159453e+01   1.6250077335e+01    0.2491284    0.2064308  84.03 0.0008961432    1.636    0.389
        44  -8.5468    141.3372    121.6663   9.3248044085e+01   3.0200393930e+01    0.1515615    0.1145355  85.81 0.0007051959    1.743    0.426
        45 -10.5268    233.1772    119.3584   7.4392946763e+01   1.0714139139e+01    0.4057829    0.2720635 -61.65  0.001171233    2.466    0.594
        46 -11.0500    229.6274    114.6547   7.3870940253e+01   1.2128056790e+01    0.5089834    0.3097647  15.11  0.002214749    2.226    0.551
        47  -8.7721    174.7022    115.1464   8.4264628873e+01   2.4214845181e+01    0.2366556    0.1895128 -60.50  0.001177826    1.475    0.322
        48 -10.2164    167.8448    113.4706   8.5315417407e+01   2.6055129146e+01    0.3370723    0.3034076 -71.80 0.0006267828    1.259    0.206
        49 -10.0752    200.9767    116.1593   7.9281967406e+01   1.8147891191e+01    0.3602846     0.244876  49.62  0.001676345    1.453    0.312
        50  -8.4975    134.7575    113.0384   9.2822632693e+01   3.3292680578e+01    0.2243637    0.1568901 -47.61 0.0007715364    1.459    0.315
        51  -9.1161    135.0000    108.9870   9.1789204406e+01   3.4066734514e+01    0.3548509    0.1098174 -45.36  0.001124113    3.284    0.696
        52 -10.0592    215.7106    115.5575   7.6455991035e+01   1.4990499503e+01    0.3908626    0.2534609 -33.94  0.001893651    1.532    0.347
        53  -7.8639    140.3151    105.3066   8.9580685791e+01   3.3685924613e+01    0.1489544    0.1192564   6.36 0.0003429461    1.626    0.385
        54 -10.1987    201.8136    125.6091   8.1364119486e+01   1.6445664369e+01    0.4021881    0.2904862 -80.39  0.001757518    2.435    0.589
        55  -9.0325    167.7025     98.5409   8.1523851228e+01   2.8821592640e+01    0.2746451     0.235147  26.55   0.00070266    1.227    0.185
        56  -9.5729    149.8317     97.4356   8.5262394795e+01   3.3138664536e+01    0.4749512    0.2469339  37.08  0.001580127    2.230    0.551
        57  -8.7612    136.1062     94.8545   8.7892134013e+01   3.6687938041e+01    0.2346138    0.2002806 -87.68  0.001190146    1.359    0.264
        58  -9.3995    159.9706     90.5018   8.1039918118e+01   3.2109225724e+01    0.4352325    0.2889962  52.29  0.001634722    1.501    0.334
        59  -9.6643    163.4655     88.5109   7.9707087376e+01   3.1646307399e+01    0.3182534     0.277424  69.08 0.0009773757    1.235    0.191
        60  -8.1959    194.4819     88.4702   7.3392792760e+01   2.4172651405e+01    0.1495407    0.1457816   5.70 0.0001922371    1.011    0.011
        61  -9.9940    144.4420     86.5450   8.3540079234e+01   3.6462031063e+01    0.3158332    0.2974146 -28.54 0.0007643874    1.077    0.072
        62  -8.1141    206.6262     82.7957   6.9671007865e+01   2.2137274364e+01    0.2141377    0.1311748 -40.61 0.0009365523    1.635    0.388
        63 -11.1441    160.2729     78.4447   7.7512120512e+01   3.4227631794e+01    0.3944356    0.3072683 -17.63 0.0006454047    1.434    0.303
        64  -8.0927    202.6459     80.3020   6.9680217429e+01   2.3489171577e+01    0.1547195    0.1172482 -70.11 0.0007038846    1.705    0.414
        65  -8.0866    110.9731     79.0301   9.0134765851e+01   4.5158262606e+01    0.1656586    0.1596962 -49.33            0    1.005    0.005
        66  -7.5422    207.2822     74.3106   6.7233362389e+01   2.3269647396e+01     0.151171    0.1136664  17.44 0.0002433406    1.568    0.362
        67  -8.6969    168.3421     71.8441   7.3801779039e+01   3.3389124246e+01    0.2159187    0.1452407 -20.97 0.0004088056    1.679    0.405
        68  -9.3541    150.3254     68.8910   7.6858948314e+01   3.8344131588e+01    0.5219607    0.2371783 -49.01  0.001814915    2.625    0.619
        69  -9.0322    193.2466    195.5153   9.6658441114e+01   7.6926187688e+00    0.2255135    0.1507261 -54.01  0.001182505    2.189    0.543
        70  -8.3999     91.0568    152.9990   1.1096184012e+02   3.2746503398e+01    0.1506437    0.1281843  63.44 0.0003964395    1.058    0.055
        71 -13.6315     30.9170    182.9733   1.2684865697e+02   3.4247600991e+01     1.099649    0.8170241  29.33  0.007558328    1.772    0.436
        72 -10.0029    144.3309     59.4446   7.5223027157e+01   4.1451371282e+01    0.3437846    0.2914122 -85.44 0.0008244904    1.410    0.291
        73  -9.8810    243.5579     60.2747   5.8202309690e+01   1.6565061149e+01    0.3705038     0.284893  67.77  0.002004772    1.436    0.304
        74 -10.2143    124.3333     57.2431   7.9507547007e+01   4.6546353278e+01    0.2639673    0.2478543   8.16 0.0003209036    1.079    0.073
        75  -8.0235     72.5667     58.4418   9.5919617087e+01   5.6215252474e+01    0.1349957    0.1222852 -47.12 0.0001960515    1.037    0.036
        76  -8.1652    138.3181     57.6143   7.6057854524e+01   4.3219882766e+01    0.1624683    0.1183891 -68.57 0.0007016382    1.836    0.455
        77  -9.6807    248.1944     55.4006   5.6389536824e+01   1.6129625180e+01    0.3558177    0.2354617 -37.85  0.001823861    1.378    0.275
        78 -11.2384    248.1048     45.8430   5.3951839511e+01   1.7333644302e+01    0.4343374    0.3728468  78.53 0.0006803393    1.267    0.211
        79 -10.1005    209.7103     46.2476   5.8873818489e+01   2.6646465879e+01     0.322585    0.2382289 -48.43 0.0007553748    1.375    0.273
        80 -12.9957     44.4208    173.1785   1.2344279333e+02   3.4716595519e+01    0.8919168    0.7029672  74.90  0.003294067    1.029    0.028
        81  -8.1503    211.3161    193.6894   9.3159511005e+01   4.7987963076e+00    0.1112858    0.0950285  65.30  0.000245769    1.637    0.389
        82  -9.3783    160.3966    128.5193   9.0472233964e+01   2.4890580259e+01    0.3599351     0.251753 -58.42  0.001688639    1.706    0.414
        83 -10.1114    244.4115     33.9087   5.1262338110e+01   1.9615003155e+01    0.6011934    0.2633151 -32.90  0.002095687    1.985    0.496
        84 -10.6772    243.9452     24.7391   4.8928255624e+01   2.0768340093e+01    0.4321179    0.1838026 -47.04  0.001232988    2.283    0.562
        85  -9.5094    248.5627    181.0961   8.4706165588e+01  -9.7676776708e-03     0.241385    0.2004053 -51.27  0.001162356    1.950    0.487
        86  -8.5783    249.2358     32.3884   5.0387592317e+01   1.8665054791e+01    0.2430745    0.1396007 -48.18  0.001168216    1.674    0.403
        87 -11.6558    197.9998    121.4364   8.1109246812e+01   1.7950376731e+01    0.7551793    0.5333028 -84.94  0.003211623    2.577    0.612
        88  -7.7582    195.3563     28.2535   5.5504764170e+01   3.2674254254e+01    0.1536032    0.1051817  38.92 0.0006958789    1.608    0.378
        89  -9.7742    236.7928    175.6058   8.5600595981e+01   2.6099405719e+00    0.2899388    0.2318307  46.61  0.001303816    1.432    0.302
        90  -8.9697    237.2867    171.1309   8.4672915994e+01   3.0644888529e+00    0.2068764    0.1541332  30.30 0.0002422159    1.162    0.139
        91  -9.0540    228.0769    175.5614   8.7054300027e+01   4.1386988457e+00    0.1907971     0.109754  43.26  0.001017913    1.586    0.370
        92  -8.4840     92.0248    168.4959   1.1285403840e+02   2.9470395806e+01    0.1695397    0.1109967  44.69 0.0009671194    1.401    0.286
        93  -8.5415    158.7322    167.1666   9.8499453387e+01   1.8287383102e+01    0.1891999    0.1660765  61.66 0.0005324013    1.165    0.141
        94  -8.2170    240.1484     27.2498   4.9951931735e+01   2.1391729281e+01    0.1906989    0.1406666 -60.95 0.0003766983    1.372    0.271
        95  -9.7569    166.2986     26.0221   5.9256298963e+01   4.0722450879e+01    0.3074093    0.1861998 -17.40 0.0005927702    1.816    0.449
        96 -10.8457    205.0933    110.8215   7.7212624338e+01   1.8082370349e+01    0.5113267    0.3549643  22.39  0.002008665    1.673    0.402
        97  -8.8087    149.1554     19.9809   6.0176842766e+01   4.5998542595e+01     0.333306    0.1799482 -32.69 0.0009845692    1.853    0.460
        98  -7.8872    234.5423     14.0046   4.6978626493e+01   2.4193075693e+01      0.19913   0.08477612 -47.35 0.0008023179    2.272    0.560
        99  -9.6967    237.4994    166.2518   8.3697071226e+01   3.6255243442e+00     0.222467    0.1545817  37.71 0.0005239064    1.311    0.237
       100 -11.0647     57.5440    164.3530   1.1986607452e+02   3.4967905421e+01    0.3391946    0.1950701  68.92  0.001934712    1.676    0.403
       101 -10.1624    205.8016    163.9190   8.8767102397e+01   9.7943448749e+00    0.2703891     0.190118  46.64 0.0005345527    1.364    0.267
       102  -7.9362    159.3462    158.6534   9.6840572633e+01   1.9640279780e+01    0.1405068    0.1050321  78.35 0.0007043251    1.804    0.446
       103 -10.7883    223.4300     91.7233   6.9225882438e+01   1.6839168583e+01    0.6388493    0.4683334  11.19 0.0003853431    1.589    0.371
       104  -8.9589    248.0036    241.8458   9.4633984662e+01  -5.8454449735e+00    0.1490676     0.111324  31.50 0.0004888116    1.265    0.210
