#   1 NUMBER                 Running object number                                     
#   2 MAG_AUTO               Kron-like elliptical aperture magnitude                    [mag]
#   3 X_IMAGE                Object position along x                                    [pixel]
#   4 Y_IMAGE                Object position along y                                    [pixel]
#   5 X_WORLD                Barycenter position along world x axis                     [deg]
#   6 Y_WORLD                Barycenter position along world y axis                     [deg]
#   7 A_WORLD                Profile RMS along major axis (world units)                 [deg]
#   8 B_WORLD                Profile RMS along minor axis (world units)                 [deg]
#   9 THETA_WORLD            Position angle (CCW/world-x)                               [deg]
#  10 FWHM_WORLD             FWHM assuming a gaussian core                              [deg]
#  11 ELONGATION             A_IMAGE/B_IMAGE                                           
#  12 ELLIPTICITY            1 - B_IMAGE/A_IMAGE                                       
         1 -11.7398     42.0494     20.5464   8.1747285565e+01   6.7436425648e+01    0.5652363    0.3405422  37.62  0.002460096    1.860    0.462
         2 -12.3549    216.0547     14.8670   4.0038412116e+01   2.9275385227e+01    0.6872575    0.5638811  46.42  0.004126871    1.459    0.315
         3 -12.9744    189.4627      8.7913   4.1172926144e+01   3.6431246584e+01    0.6423674    0.3371539 -76.34  0.002809405    2.290    0.563
         4 -10.0996     56.6824      9.6953   7.0282997095e+01   6.6704159917e+01    0.3845413    0.1746995  26.63  0.001463456    2.584    0.613
         5 -10.7259     57.6961      6.6681   6.8367324920e+01   6.6877871639e+01    0.2759184    0.1694279  37.28 0.0009254642    1.499    0.333
         6 -11.7349     43.8500      8.2884   7.4904846056e+01   6.8861577578e+01    0.2501339    0.2029946  20.26 0.0004341511    1.222    0.181
         7 -10.5834    167.9033      8.1471   4.3565783497e+01   4.1925279205e+01    0.2099836     0.169959 -74.73 0.0005061063    1.249    0.199
         8 -10.3934    109.4751      8.5240   5.3795130548e+01   5.6243555671e+01    0.1321166    0.1189262  40.36  0.000175354    1.041    0.040
         9 -11.2211    165.4574      1.6945   4.1926948042e+01   4.3127172656e+01    0.3712556    0.1384652  69.29  0.001501926    2.326    0.570
        10 -10.8104    149.0123    222.4882   1.0101293766e+02   7.4933920582e+00    0.2741587     0.169301 -58.87  0.001448684    2.034    0.508
        11 -10.9498    227.1703    221.7822   8.5946162720e+01  -5.2611431172e+00    0.1777024    0.1426822  82.34 0.0009569967    2.889    0.654
        12  -9.9094    211.3362    217.9937   8.8178458821e+01  -2.2507952637e+00    0.1834618    0.1025745 -58.36 0.0007050218    4.464    0.776
        13 -11.0018    239.6258    215.2665   8.2602799090e+01  -6.2892536816e+00    0.3252761    0.1004806 -41.27  0.001256277    4.019    0.751
        14  -9.4610     36.3301    222.6600   1.2316382146e+02   2.3931756541e+01    0.1259673   0.06305945  66.15 0.0007051667    1.741    0.426
        15 -10.7561    115.9031    209.3255   1.0596347142e+02   1.5452413720e+01    0.2975096    0.1740801 -70.52  0.001463457    2.096    0.523
        16 -10.5054      4.8626    200.9002   1.2763807454e+02   3.1514916549e+01    0.2239738    0.0879694  56.19  0.001224492    2.120    0.528
        17 -10.3232    149.4812    198.9753   9.7278941911e+01   1.1650444859e+01    0.1867449    0.1220342 -80.30 0.0008103634    2.608    0.617
        18 -10.4156     48.7778    201.4798   1.1909368048e+02   2.6779886385e+01    0.3072372    0.1412728  85.74  0.001399742    2.591    0.614
        19 -12.1480    160.0244    191.9762   9.3832448087e+01   1.1048845686e+01    0.7020329    0.4993801  81.15  0.003138468    2.257    0.557
        20  -9.8223    215.2291    193.5049   8.2997686612e+01   7.6062375173e-01    0.2636526   0.09604567 -48.08 0.0008838652    4.290    0.767
        21  -9.9453     66.3111    194.6560   1.1473876213e+02   2.5998047217e+01    0.1378419   0.08227461  70.29 0.0005768182    1.703    0.413
        22 -10.2285     94.7599    186.7748   1.0745932393e+02   2.3555540211e+01    0.2143719    0.1090041 -74.91 0.0008926863    2.482    0.597
        23 -10.4257    183.2368    183.1334   8.7305115378e+01   8.3290337635e+00    0.3506189     0.192362 -39.14   0.00158487    1.918    0.479
        24  -9.7577     12.5130    176.5000   1.2457593554e+02   3.6029329718e+01    0.1197424    0.0892254  83.03 0.0001014728    1.030    0.029
        25  -9.7724    105.3322    174.6609   1.0317981386e+02   2.4515246997e+01    0.1509968    0.1027742  73.75 0.0007051774    1.744    0.427
        26 -10.9605     38.0416    174.5258   1.1884694385e+02   3.3952954878e+01    0.2368954     0.103719  40.41     0.001165    2.209    0.547
        27 -11.2535     44.7421    170.2084   1.1686730341e+02   3.4191267190e+01    0.5671214     0.211378 -78.76  0.002234966    2.962    0.662
        28 -10.5037     79.0261    163.1948   1.0772421191e+02   3.1337447235e+01    0.3839757    0.1793587 -88.29  0.001098863    5.261    0.810
        29 -11.4173    106.5639    157.9418   9.9992996933e+01   2.8123562018e+01    0.5732374    0.3631165  68.33  0.002495668    2.035    0.509
        30 -10.4518    120.8626    169.0121   9.8528737940e+01   2.3053656332e+01    0.2445914    0.1669571 -88.51  0.001089292    2.005    0.501
        31 -10.4146     22.3105    159.1790   1.2095127465e+02   3.9062767579e+01    0.2545394    0.1181104  57.68  0.001257718    2.226    0.551
        32 -10.6938    167.5017    157.5034   8.5420426052e+01   1.6384718214e+01    0.3353035     0.236728  86.66   0.00137963    2.425    0.588
        33 -10.8743    119.3868    157.1135   9.6657219580e+01   2.6005148364e+01    0.4793952    0.2837068  46.37  0.002127632    1.667    0.400
        34 -10.3279    218.4984    156.4955   7.4778147293e+01   6.2778623894e+00    0.3054398    0.1325183 -37.52  0.001221141    2.201    0.546
        35  -9.9101     81.3352    154.6579   1.0579120504e+02   3.3015945506e+01    0.1515173    0.1009384  74.58 0.0007050573    1.760    0.432
        36  -9.9449     68.3257    154.6535   1.0910496428e+02   3.4892914272e+01    0.1476211   0.09577045  74.18  0.000623319    1.747    0.427
        37 -11.4763     55.3548    167.9488   1.1411576508e+02   3.3445089990e+01    0.4923081     0.256873  87.69  0.002199097    2.311    0.567
        38  -9.6831     23.4873    153.5338   1.2011671069e+02   4.0267130506e+01    0.1257225   0.09909356 -89.59 6.036634e-06    1.026    0.025
        39 -10.4469    242.6582    151.3260   6.9375995048e+01   2.6196769196e+00    0.1312933    0.1071927 -64.49 0.0007051171    1.735    0.424
        40 -10.3337    189.8509    150.7238   7.9121370744e+01   1.3091154368e+01     0.286802    0.2009561 -67.06   0.00124512    2.110    0.526
        41 -10.9919    107.9132    146.2611   9.7407630922e+01   3.0617779816e+01    0.4470962    0.2556615  70.46   0.00160165    3.013    0.668
        42 -10.7736     55.4678    145.5868   1.1106409021e+02   3.8751611820e+01    0.4489029    0.2047536  84.89  0.001347577    5.038    0.802
        43 -10.1354    148.2001    144.8045   8.7053590735e+01   2.3070501866e+01    0.2605081     0.172141  89.08 0.0009486411    2.830    0.647
        44  -9.9830    124.7020    143.0672   9.2443886096e+01   2.8214487663e+01    0.2500869    0.1232625 -69.97 0.0007032531    4.300    0.767
        45  -9.8827    182.0099    142.1695   7.8805460382e+01   1.6419772510e+01     0.249077    0.1835887  79.54  0.001079543    2.038    0.509
        46 -10.0561    132.4921    132.0116   8.7964076689e+01   2.9178613592e+01    0.2254141    0.1364438 -71.49 0.0008102948    2.593    0.614
        47 -10.5170     82.8927    131.7962   1.0121820499e+02   3.8295080601e+01    0.3668352    0.2018505 -77.79   0.00141026    2.570    0.611
        48 -12.0006     99.3644    128.3615   9.5921436274e+01   3.6391894403e+01    0.8484064    0.5097427  81.56  0.002956476    3.316    0.698
        49 -11.3877     43.1536    121.9517   1.1075503046e+02   4.5909731314e+01    0.7405848     0.337771 -88.26  0.002508214    4.030    0.752
        50 -10.8426     13.9870    121.0968   1.1895235037e+02   4.8708252429e+01    0.3643019    0.2314137 -38.99  0.002107165    1.854    0.461
        51 -11.4546    193.3830    118.3573   7.0654813991e+01   1.8565942155e+01    0.5577996    0.4458949 -74.75  0.002420628    1.591    0.372
        52 -10.2122     70.8315    120.0199   1.0227798964e+02   4.2953798091e+01    0.2413985    0.1579062 -89.79  0.001007043    2.036    0.509
        53 -10.6378    108.5743    113.1685   8.9744430917e+01   3.8286133077e+01    0.5302946    0.2699853 -66.98  0.001716936    3.303    0.697
        54  -9.7805     71.3635    115.3024   1.0112555053e+02   4.4021654336e+01    0.1462302    0.1064157 -26.35 0.0007036228    1.730    0.422
        55 -10.8439     78.6472    112.5271   9.8322447606e+01   4.3610669535e+01     0.472627    0.2765447 -86.99   0.00169539    3.266    0.694
        56 -11.7407    160.3572    112.2860   7.6176187729e+01   2.7372419279e+01    0.4591669    0.3346747  77.82  0.001954783    1.884    0.469
        57 -10.4456     91.8108    111.2074   9.4088458649e+01   4.1787700996e+01    0.4607586    0.1968115 -61.83  0.001543601    2.968    0.663
        58 -11.0019    174.2651    110.5861   7.2613726386e+01   2.4489839038e+01    0.4174123    0.2785484 -41.93  0.001148138    1.462    0.316
        59 -11.5273     14.7932    109.5816   1.1721110135e+02   5.1377970117e+01    0.6395561    0.3617095  89.20  0.003364476    1.861    0.463
        60 -11.9803     44.6141    100.7187   1.0637489281e+02   5.0875415058e+01    0.7262492    0.3891929 -82.11  0.003035303    2.645    0.622
        61 -12.0347    127.5873    100.9664   8.1237968260e+01   3.7151765458e+01    0.5343595    0.3086758 -55.76  0.002105956    1.973    0.493
        62 -12.1821    108.4189     99.0374   8.6032351096e+01   4.1537653290e+01    0.7828754    0.5092997  82.24  0.002832419    3.068    0.674
        63 -10.5814     59.1713    124.6762   1.0658767199e+02   4.3382761015e+01     0.411725     0.228713  87.79  0.001628009    2.822    0.646
        64 -10.6894     94.6622     97.0993   8.9574551912e+01   4.4560844089e+01    0.3443809    0.1841509 -59.52  0.001350773    2.160    0.537
        65 -11.0371     63.0031     95.9123   9.9292506438e+01   4.9803556982e+01    0.4387089    0.2350798 -79.17  0.001527041    3.644    0.726
        66 -11.2443     27.4058    121.1271   1.1516843684e+02   4.7630438966e+01    0.6569434    0.2861195  83.75  0.002245324    4.358    0.771
        67 -12.4246    170.3938     91.5314   6.8236985530e+01   2.9134212253e+01    0.5358999    0.3856747 -46.33 0.0009376891    1.385    0.278
        68 -12.5397    141.2940    103.7127   7.8448190483e+01   3.3531857455e+01    0.7580131    0.4953136 -49.69  0.003258917    1.556    0.357
        69 -10.7392     34.2081     87.6591   1.0709039928e+02   5.4981124387e+01    0.6317754    0.1608503 -62.49  0.002167366    3.407    0.707
        70 -10.2167      4.4773     91.0150   1.1773229506e+02   5.6355051455e+01    0.1962256   0.09474739 -70.22 0.0007132697    1.611    0.379
        71 -11.0380     86.9133     86.8903   8.9103670828e+01   4.8208943494e+01    0.4455607    0.3100853  85.85  0.001860938    2.554    0.608
        72 -11.0815     46.6072     82.9317   1.0164615838e+02   5.4811157111e+01    0.5488462    0.3392336  82.42  0.002290415    3.164    0.684
        73 -11.0261    104.5303     83.0792   8.2507895940e+01   4.5770751211e+01    0.3795138    0.2666071 -70.42  0.001647765    2.024    0.506
        74 -10.7544     23.9087     79.3097   1.0891942186e+02   5.7771353406e+01    0.4437637    0.1631462 -69.82   0.00173637    2.987    0.665
        75 -10.3937      8.8273     80.8303   1.1459208416e+02   5.8441720681e+01    0.1650223    0.1292337 -87.66  0.001081689    1.343    0.255
        76 -11.2909     82.1342     72.8470   8.6382175350e+01   5.2035893702e+01    0.4602563    0.2987917 -73.01  0.001869809    2.755    0.637
        77 -11.1794     62.6826     71.8762   9.2825449650e+01   5.5250320697e+01    0.6142076    0.1505179 -49.66  0.001964153    3.531    0.717
        78  -9.9915    115.9907     72.9907   7.5969247194e+01   4.5436753320e+01    0.3035686    0.1916585 -81.28 0.0009562646    4.110    0.757
        79 -12.6821    223.4498     70.6008   5.3240213864e+01   1.9976459673e+01    0.2927348    0.2724314 -87.17 0.0006217677    1.101    0.091
        80 -10.0133    140.6148     82.8265   7.2540633399e+01   3.7957302193e+01    0.2331709    0.1416247 -48.92  0.000952483    1.735    0.424
        81 -10.7683     51.8677     70.8316   9.6454778848e+01   5.6887501909e+01    0.2474242    0.1917956 -58.41  0.001413908    1.290    0.225
        82  -9.9015    196.1769     67.8032   5.6670503888e+01   2.6959779871e+01    0.3333152    0.1256161  66.69  0.001038934    3.494    0.714
        83 -11.6299     41.9486     62.7666   9.7830649160e+01   5.9748117764e+01    0.4944608    0.2872622  52.60  0.002073337    2.797    0.642
        84 -11.5953     21.1210     50.8803   1.0279969406e+02   6.4145881670e+01    0.5639741    0.2865252 -52.51  0.003060339    1.563    0.360
        85 -11.1217     28.9166     52.3369   9.9927614384e+01   6.3196544151e+01    0.3917757    0.2452529 -12.71  0.001590963    1.846    0.458
        86 -13.1887     28.0256     60.3580   1.0266515994e+02   6.1608203020e+01     1.132122    0.5886588  24.72  0.002904402    2.227    0.551
        87 -11.7043     19.5661     59.6091   1.0588924650e+02   6.2439582912e+01    0.4772092    0.2115452 -43.77   0.00178226    1.834    0.455
        88 -12.6403    231.5248     58.8362   4.9233458777e+01   1.9907708374e+01    0.6819235    0.3727436 -68.70 0.0005757753    2.495    0.599
        89  -9.6883    100.3312     60.6543   7.6412102261e+01   5.1034519936e+01    0.1459687    0.1180829 -77.41 0.0007050004    1.759    0.432
        90 -11.3657      9.0086     56.5679   1.0944502782e+02   6.3774040417e+01    0.4806906    0.3429238  84.81  0.002927971    1.949    0.487
        91  -9.8806    119.3513     56.6784   6.9534657951e+01   4.7658443798e+01    0.1509312    0.1191835 -77.05 0.0006156371    1.748    0.428
        92 -10.2299     54.0119     53.7091   9.0141820763e+01   6.0138955545e+01    0.3771981    0.1888011 -63.14   0.00135914    3.935    0.746
        93 -10.1916    161.2184     53.3791   5.8740253156e+01   3.8039224739e+01     0.218006    0.1426771  72.10 0.0009518692    1.716    0.417
        94 -11.3650    148.7725     51.9708   6.0843219091e+01   4.1384037777e+01    0.3279855    0.2173394  56.45 0.0007018067    1.470    0.320
        95 -10.4021     92.3895     51.1889   7.5483168263e+01   5.4289554829e+01    0.2079483    0.1270611 -45.82 0.0009550998    1.767    0.434
        96 -10.1839     10.2510     43.6667   1.0544643842e+02   6.6364073521e+01    0.2548283    0.1716512  -3.09 0.0008916805    1.648    0.393
        97 -11.0647      5.8300     42.8430   1.0720943456e+02   6.6788534452e+01    0.3319534    0.2046663 -80.61  0.001845471    2.319    0.569
        98 -11.6861     71.5519     42.3722   7.9214187448e+01   5.9568983311e+01    0.6076377    0.3109255  52.99  0.002551338    2.877    0.652
        99 -11.7042     40.6447     37.8442   8.9786768781e+01   6.4767796918e+01    0.5641775    0.3218709   9.97  0.002519388    2.186    0.543
       100 -11.6438    120.5336     34.4982   6.1227899184e+01   5.0750834040e+01    0.3171566     0.263559  57.87 0.0005455973    1.215    0.177
       101 -11.0182     50.2960     34.6857   8.4393539785e+01   6.4091861618e+01    0.2729346    0.2092816  21.85  0.001009408    1.327    0.247
       102 -10.4165     73.2799     32.1699   7.4402370010e+01   6.0889917020e+01    0.2354795    0.1861834  74.14  0.001251859    2.136    0.532
       103 -10.6122    102.5402     29.7268   6.4095358236e+01   5.5445218916e+01    0.4003266    0.2937893  74.05  0.002024137    1.853    0.460
       104 -11.9389    203.0118     21.2653   4.3027916406e+01   3.1718698436e+01    0.3615727    0.2141379 -77.12  0.001699757    1.888    0.470
       105 -11.6025    220.8527    248.2585   9.1373429492e+01  -7.6405287917e+00    0.4067202    0.2119833  41.01  0.002332378    1.782    0.439
       106  -9.7864     46.7174     16.6339   7.7826184530e+01   6.7356321989e+01    0.2122275    0.1410479  -8.61 0.0008981135    1.423    0.297
       107 -11.1502    239.3869     20.5399   3.9281055645e+01   2.3214568820e+01    0.2803926    0.2016969 -86.47 0.0006149079    1.312    0.238
       108  -9.8347     32.6483    242.2754   1.2504104110e+02   2.0659802619e+01    0.1169007   0.05643148  62.13 0.0004189828    1.640    0.390
       109  -9.9624     89.1950     18.3396   6.3205239822e+01   5.9665811810e+01    0.2682666    0.1756507  82.59  0.001161599    3.080    0.675
       110 -10.0293     65.1528     11.3926   6.7923244083e+01   6.5062362695e+01    0.1595923    0.1161495  52.15 0.0007092621    1.639    0.390
       111 -11.8973     22.5268    239.4397   1.2658800784e+02   2.2285055132e+01    0.3457007    0.1799615  78.41  0.002241644    1.603    0.376
       112 -10.3081      8.1620    240.8063   1.2901090806e+02   2.3513200007e+01    0.1291536     0.105835  85.19 0.0009784998    1.340    0.254
       113  -9.8438      2.5235    240.4662   1.2989863319e+02   2.4122467371e+01    0.1053886   0.06960684  70.23 0.0001404238    1.027    0.026
       114 -10.5439     12.9671    227.7684   1.2760422790e+02   2.5442810306e+01    0.1805671    0.1175733  83.70 0.0004780074    1.194    0.163
       115 -10.0352    104.4616    224.9844   1.1026035380e+02   1.4281272187e+01    0.1741488    0.1207598 -66.29  0.001033271    1.600    0.375
       116 -11.0131     95.9581    224.8754   1.1193384640e+02   1.5593767754e+01    0.3425445     0.151496  53.43  0.001614545    2.115    0.527
