#   1 NUMBER                 Running object number                                     
#   2 MAG_AUTO               Kron-like elliptical aperture magnitude                    [mag]
#   3 X_IMAGE                Object position along x                                    [pixel]
#   4 Y_IMAGE                Object position along y                                    [pixel]
#   5 X_WORLD                Barycenter position along world x axis                     [deg]
#   6 Y_WORLD                Barycenter position along world y axis                     [deg]
#   7 A_WORLD                Profile RMS along major axis (world units)                 [deg]
#   8 B_WORLD                Profile RMS along minor axis (world units)                 [deg]
#   9 THETA_WORLD            Position angle (CCW/world-x)                               [deg]
#  10 FWHM_WORLD             FWHM assuming a gaussian core                              [deg]
#  11 ELONGATION             A_IMAGE/B_IMAGE                                           
#  12 ELLIPTICITY            1 - B_IMAGE/A_IMAGE                                       
         1  -8.3463    226.7948     28.4104   5.6888002917e+01   2.4468274750e+01    0.1966839    0.1288117  54.44 0.0005422687    1.541    0.351
         2 -10.2192    217.7346    247.1566   1.0487526220e+02  -9.5488879526e-02    0.6194519     0.320803  19.71  0.003782358    2.327    0.570
         3  -9.1042    224.1199    247.6445   1.0399365992e+02  -1.0558720083e+00    0.4011355    0.1972111  18.58  0.002313342    2.649    0.622
         4  -9.7581    225.9962    240.7954   1.0283784348e+02  -7.5020801422e-01    0.4489193    0.1742097  36.57  0.002592466    1.899    0.473
         5  -9.4738    215.4972    237.2634   1.0395464707e+02   1.1098174309e+00    0.5284175     0.303495  14.30  0.003331575    2.160    0.537
         6  -8.9850    191.6788    248.7675   1.0896646268e+02   3.5519995456e+00    0.2947571    0.1633331  22.83  0.001858121    2.187    0.543
         7 -10.2335    199.0236    243.9653   1.0729286242e+02   2.9316530982e+00    0.6699917    0.3714937   2.32  0.003499876    3.929    0.745
         8  -9.1804    184.5809    250.3955   1.1022024114e+02   4.4290446272e+00    0.3465348    0.1098871  41.80  0.001577876    2.228    0.551
         9  -9.9247    190.4729    244.0251   1.0860217718e+02   4.1916261231e+00    0.6547862    0.2570473  29.89  0.003043981    3.482    0.713
        10 -10.0196    236.0179    247.6775   1.0226017991e+02  -2.7499872247e+00    0.7026013    0.3123299  18.58  0.003677754    3.229    0.690
        11 -10.2393    231.3246    246.0084   1.0272845896e+02  -1.9517369861e+00    0.8555942    0.3464915  20.50  0.003576396    4.954    0.798
        12 -10.2645    203.8943    247.8779   1.0702577257e+02   1.8512220839e+00    0.7559943    0.4295171   1.57  0.004431917    3.191    0.687
        13  -9.9090    210.8578    246.5051   1.0581816938e+02   9.5975678045e-01    0.5138927    0.2573085  22.25  0.003018217    2.440    0.590
        14  -9.4012    248.4533    250.1328   1.0079416947e+02  -4.6633904284e+00    0.3555579    0.1188931  36.75  0.002043292    2.078    0.519
        15 -11.6477    245.1288    242.8315   1.0030191666e+02  -3.6566077620e+00    0.9279115    0.5533489  -2.97  0.006707545    1.898    0.473
        16 -10.0585    177.9004    243.7883   1.1050386612e+02   6.0784476677e+00    0.4717635    0.2166009  30.52  0.002437118    2.455    0.593
        17  -9.8402    167.6300    250.0102   1.1274742434e+02   6.9304461241e+00    0.3302639    0.1794745  37.62  0.001722835    1.441    0.306
        18  -8.2466    171.0106    246.5018   1.1186043578e+02   6.8081560973e+00    0.1646537   0.07478807  42.27 0.0007609386    1.569    0.363
        19  -9.4210    151.8337    249.3419   1.1508901979e+02   9.2768169897e+00    0.2288742    0.1144301  38.04  0.000905387    1.642    0.391
        20  -9.6672    144.2988    249.5380   1.1625918828e+02   1.0326216058e+01    0.3201626    0.1329648  38.10  0.001652313    2.069    0.517
        21  -8.8158     66.1461    249.1284   1.2799383779e+02   2.0526890898e+01    0.2694923   0.09517089  62.28  0.001549263    2.757    0.637
        22  -9.0387     51.2318    249.6405   1.3018214503e+02   2.2130700939e+01    0.2780483   0.08659984  49.66   0.00177648    2.069    0.517
        23 -10.5988     37.1978    239.6540   1.3174233521e+02   2.5011253392e+01    0.8805295    0.4549568  62.36  0.007011507    1.364    0.267
        24 -11.1628      6.7741    207.6335   1.3500025616e+02   3.2780909868e+01    0.8214136    0.1970876  55.69  0.004662585    2.785    0.641
        25 -12.0283     20.7630    223.4447   1.3347850152e+02   2.9034786778e+01     1.238182    0.5354547  68.11  0.008803547    1.797    0.444
        26 -11.0341     26.1642    249.4381   1.3371067218e+02   2.4752895628e+01    0.8250046    0.4275901  47.88  0.006892461    1.447    0.309
        27 -10.4484     11.0760    226.6719   1.3503822238e+02   2.9449000315e+01    0.7362154    0.1449427  61.22  0.003557434    4.127    0.758
        28 -11.6530      3.5696    222.7424   1.3600534725e+02   3.0707190142e+01     1.037175    0.3253909 -88.99  0.006404813    2.899    0.655
        29 -12.4641      8.7557    241.6519   1.3585774416e+02   2.7479124573e+01     1.284715    0.6000717  50.96   0.01061072    1.465    0.318
        30 -11.2011      3.7027    244.9736   1.3664594607e+02   2.7463924563e+01    0.5636642    0.2069079  84.39  0.004040353    2.374    0.579
        31  -9.0248    128.3442    249.2609   1.1867047261e+02   1.2587514565e+01    0.1896661   0.09465824  38.34    0.0012352    1.746    0.427
        32  -7.8337     88.6638    249.6794   1.2469965770e+02   1.7752220336e+01   0.08373565   0.06899314  32.11 0.0007049919    1.707    0.414
        33 -10.0449    157.4444    245.3721   1.1383039201e+02   8.9114671482e+00    0.2868782    0.1882526  23.70  0.001855092    1.916    0.478
        34  -9.4578    139.6660    245.8395   1.1662321318e+02   1.1411980070e+01    0.2720728    0.1107849  40.92  0.001604465    1.897    0.473
        35  -9.5092    133.2806    245.3262   1.1756227850e+02   1.2374079902e+01    0.1716038    0.1278671  39.99  0.001059702    1.255    0.203
        36  -9.2283     45.1819    244.7363   1.3081771557e+02   2.3457133228e+01    0.2850658    0.1120241  53.45  0.002001063    1.715    0.417
        37  -8.9482    163.7604    244.3926   1.1275235371e+02   8.0979367908e+00    0.1843006    0.1442093  30.10 0.0009344374    1.300    0.231
        38  -9.1511    147.5554    244.9147   1.1531419213e+02   1.0393523156e+01    0.2317336    0.1093208  39.50 0.0008584773    1.688    0.408
        39  -9.2824    152.5746    244.2720   1.1447242090e+02   9.7426985523e+00    0.1918921    0.1091905  29.36 0.0006932765    2.044    0.511
        40  -8.4109    124.5065    245.5058   1.1893295404e+02   1.3573117985e+01    0.1025904   0.07333814  50.22 0.0008104424    1.030    0.030
        41  -9.1262    144.0435    241.9205   1.1556654029e+02   1.1250235161e+01    0.2376729    0.1152553  36.59  0.001032762    1.878    0.468
        42  -8.7572     54.7082    240.5490   1.2920852373e+02   2.3005135992e+01    0.2681279    0.1127947  77.64  0.001641813    2.741    0.635
        43  -9.0466    170.3693    240.3363   1.1128644937e+02   7.5656112124e+00     0.294742     0.144732  31.43   0.00164854    2.152    0.535
        44  -9.3916    126.1831    240.9171   1.1826610297e+02   1.3911284790e+01    0.1902362    0.1174273  28.55  0.001246132    2.126    0.530
        45  -8.3628    220.6129    237.7486   1.0324473483e+02   3.0612074922e-01    0.2179336    0.0974277  32.44 0.0008635485    1.839    0.456
        46  -8.2447    225.0212    236.1727   1.0237296829e+02  -2.0704786798e-01    0.2471933     0.100814  29.24 0.0009710644    2.448    0.591
        47  -8.9882    248.8066    223.7716   9.7073154654e+01  -2.6634091157e+00    0.2747578    0.1383132  21.17  0.001243901    1.922    0.480
        48  -8.9948    245.8871    229.1914   9.8294729078e+01  -2.6828055969e+00    0.2269349     0.163844  11.12   0.00108786    1.243    0.195
        49  -9.2494    241.4239    227.9401   9.8776866593e+01  -1.9240582903e+00    0.3556652    0.2254401 -20.55  0.002569839    1.839    0.456
        50  -9.4002    230.8670    234.3893   1.0125568615e+02  -9.1556287626e-01    0.3012086    0.1691053  32.15  0.001544175    1.314    0.239
        51  -9.1261    237.2326    234.0186   1.0025621208e+02  -1.8187290655e+00    0.2855228    0.1307166  41.55  0.001324287    1.640    0.390
        52  -9.4877    235.6108    227.1490   9.9534151247e+01  -9.9286046507e-01    0.3809147    0.1974756  10.05  0.002126862    2.636    0.621
        53  -9.3464    184.4311    236.6660   1.0866787956e+02   5.8472788061e+00    0.2956321    0.1775346  32.01  0.001656534    1.455    0.313
        54  -8.7613    176.4946    237.4980   1.1000742671e+02   6.9567994985e+00    0.2339639    0.1315365  30.95  0.001500711    1.717    0.418
        55  -9.1329    149.5685    237.9730   1.1430059936e+02   1.0915675362e+01    0.2283631     0.105209  33.16  0.001247357    2.423    0.587
        56  -8.9922     45.2059    237.1969   1.3044748972e+02   2.4520202262e+01     0.265788   0.08877976  62.98   0.00152942    2.719    0.632
        57  -9.1157    196.2712    236.3382   1.0678552888e+02   4.0887779771e+00    0.3633556    0.1416808  35.98  0.001954315    2.151    0.535
        58  -7.9048    134.4761    237.4797   1.1663975715e+02   1.3167193133e+01    0.1056191   0.07710976  48.88  0.000118897    1.024    0.024
        59  -9.7040    207.1533    234.8742   1.0492028768e+02   2.5863626029e+00    0.2689574    0.1879308  31.91  0.001564388    1.090    0.083
        60  -8.7123    207.9711    230.0521   1.0416449843e+02   2.9301810991e+00    0.2666019    0.1291079  31.66  0.001178786    1.814    0.449
        61  -9.8815    162.1447    234.8916   1.1197718450e+02   9.4087888051e+00    0.3478726    0.1620535  34.84  0.001990001    2.042    0.510
        62  -8.6328    190.5008    234.5606   1.0746426175e+02   5.1458819630e+00    0.2302897    0.1297682  20.38  0.001346102    2.370    0.578
        63  -8.5281    129.5992    235.1711   1.1719367101e+02   1.4156803926e+01      0.11356   0.09989469 -40.45 0.0007393366    1.660    0.398
        64 -11.6729     11.0636    202.1503   1.3410660822e+02   3.3291250635e+01    0.9569281    0.2706653  66.20  0.004944331    3.310    0.698
        65  -9.0153    229.8964    226.2298   1.0026805250e+02  -5.2308490339e-02    0.2324485     0.143899 -10.33  0.001576311    1.929    0.482
        66  -8.7394    222.1764    233.2255   1.0240740486e+02   4.7865841215e-01    0.2389598    0.1177033  26.90   0.00109094    1.936    0.484
        67  -8.7427    225.9600    230.0097   1.0139477482e+02   2.0089736326e-01    0.2700877    0.1050269  35.74  0.001077728    2.000    0.500
        68  -9.3254    140.2229    234.2562   1.1540689866e+02   1.2737678360e+01    0.2483886    0.1152881  41.00  0.001251878    1.698    0.411
        69  -8.8214    153.3685    233.1038   1.1318162328e+02   1.0935418581e+01    0.1937284    0.1130695  38.99 0.0008230614    1.391    0.281
        70  -8.4939     63.9823    231.9872   1.2730745613e+02   2.3172886061e+01    0.1686997    0.0808919  64.12  0.001138082    1.768    0.434
        71  -9.4288    216.7824    229.6749   1.0275186763e+02   1.6206440699e+00    0.3778896    0.1726847  25.89  0.002003886    2.500    0.600
        72  -7.9538    202.0459    231.4714   1.0527205670e+02   3.6971662589e+00    0.1653934   0.07983573  41.15 0.0006740575    1.516    0.340
        73  -8.7044     48.5487    230.3504   1.2958827323e+02   2.5155093931e+01    0.2185825   0.09487023  66.23  0.001352958    1.997    0.499
        74  -8.6905    195.6446    230.1239   1.0610101134e+02   4.8178630495e+00    0.2257843    0.1199556  35.93  0.001423001    1.474    0.322
        75  -8.3877    188.3307    229.9730   1.0723651631e+02   5.9618274940e+00    0.2288819    0.1044568  28.47  0.001150361    2.727    0.633
        76  -8.5730     32.0569    229.5722   1.3204681438e+02   2.7004110931e+01    0.1787864   0.09035258  73.24  0.001346008    1.598    0.374
        77  -8.6231    181.0318    229.0042   1.0827728082e+02   7.1949159307e+00    0.1685712    0.1100955  23.65 0.0007943208    1.671    0.401
        78  -8.5108    171.2785    232.8252   1.1028976198e+02   8.2636180472e+00    0.2075273    0.1121642  28.86  0.001224259    2.073    0.518
        79  -8.2104     40.1785    229.1884   1.3080348053e+02   2.6224019946e+01     0.140648   0.07390306  62.40   0.00070745    1.380    0.276
        80  -8.3374    175.4315    227.3453   1.0897240595e+02   8.2485849873e+00    0.2175586   0.07240272  35.90 0.0009438987    3.138    0.681
        81  -8.9322    223.4913    225.1994   1.0110210225e+02   1.0166290155e+00    0.2376358     0.131955  22.81  0.001472511    1.772    0.436
        82  -8.6690    212.3477    225.4775   1.0286706033e+02   2.7054942543e+00    0.2088008    0.1321078  17.77  0.001231773    1.664    0.399
        83  -8.1769    158.5691    229.2476   1.1191826592e+02   1.0615771262e+01    0.1197424    0.1029826 -13.87 0.0009384482    1.611    0.379
        84  -8.4997    199.7705    225.1609   1.0480218493e+02   4.6937792818e+00    0.2138221    0.1082617  28.63  0.001212925    2.009    0.502
        85  -8.1537    191.3985    225.3786   1.0616285025e+02   5.9793757592e+00    0.2197427   0.07114727  35.71 0.0009481777    3.098    0.677
        86  -8.6762    206.4981    223.1434   1.0346574868e+02   3.8500111980e+00     0.226206    0.1350429  25.40  0.001443055    1.608    0.378
        87  -9.0992    217.8582    220.2910   1.0128115231e+02   2.3581364971e+00    0.3423803    0.1758839  26.12  0.001975187    1.945    0.486
        88  -8.0092     54.6716    222.3423   1.2817632618e+02   2.5675165164e+01    0.1076151   0.05158193  64.57 0.0007051223    1.743    0.426
        89 -10.2464     13.5878    217.2477   1.3431714361e+02   3.0656965476e+01    0.3567118    0.1444422  58.97  0.001908216    1.739    0.425
        90  -9.8151     24.3874    217.2698   1.3266054000e+02   2.9636347708e+01    0.2099263    0.0988749  70.83   0.00129689    1.690    0.408
        91  -9.7435    240.7996    218.2784   9.7453377188e+01  -9.9459509615e-01    0.3954196    0.2065297   6.92  0.002184321    2.574    0.611
        92  -8.1781    180.7894    221.3953   1.0736005861e+02   8.0925372730e+00    0.1657871   0.08081061  37.02 0.0009436787    1.699    0.411
        93  -9.7799    248.0594    215.6875   9.5966706753e+01  -1.8663696763e+00    0.4210556    0.2508405   5.56  0.002737251    1.762    0.433
        94  -8.8334    250.2079    210.7586   9.4878672549e+01  -1.7618644471e+00     0.307145    0.1455378  41.06  0.001788697    1.685    0.406
        95  -8.7311    232.5992    219.2960   9.8853635244e+01   1.6661903911e-01    0.2495482    0.1504506  26.21  0.001160059    1.364    0.267
        96  -8.3411    236.4994    216.9708   9.7911224755e+01  -2.1985561239e-01     0.243716    0.1243973  18.90  0.001358375    2.212    0.548
        97  -8.2675    238.7066    213.6254   9.7067221101e+01  -2.5412145686e-01    0.2016612    0.1256196   4.13 0.0006900742    1.730    0.422
        98  -8.8285    226.2175    219.3639   9.9846493681e+01   1.1456816682e+00    0.2346213     0.155789  16.78  0.001544879    1.427    0.299
        99  -8.2227    228.3171    215.3248   9.8925781823e+01   1.2032848068e+00    0.1765985    0.1123306  10.04 0.0008854337    1.681    0.405
       100  -7.9420    186.5131    219.9488   1.0624031293e+02   7.3505023972e+00    0.1400556   0.09003282  -0.12 0.0008089071    2.523    0.604
       101  -7.8139    174.7011    220.6936   1.0826575369e+02   9.1365027985e+00    0.1078668   0.07395611  23.94 0.0003931873    1.592    0.372
       102  -8.0649    202.5832    219.1624   1.0354049164e+02   4.8816889330e+00    0.1377815   0.09795032  -4.35 0.0009348808    1.748    0.428
       103  -9.3506    157.3443    217.6653   1.1076676093e+02   1.2243155848e+01    0.2182471    0.1439015  39.89  0.001052077    1.234    0.189
       104  -8.8154     34.0153    217.0291   1.3114598503e+02   2.8715578854e+01    0.2182699    0.1078155  83.89  0.001541632    1.826    0.452
       105  -9.5655     28.3878    213.6110   1.3186430957e+02   2.9818388681e+01    0.4117885   0.07464362  57.35   0.00170827    4.895    0.796
       106  -8.3177    211.1508    216.3735   1.0177985079e+02   3.8111675465e+00    0.1769672    0.1367136   6.66 0.0008587517    1.364    0.267
       107  -8.4726    194.0166    216.0418   1.0449277212e+02   6.5905718741e+00    0.1834144    0.1146448  22.48  0.001131633    1.737    0.424
       108 -10.2251      3.9282    197.1378   1.3505371343e+02   3.4733820368e+01    0.4192342     0.169238  83.28  0.002500067    2.065    0.516
       109  -9.1558    233.2155    212.3535   9.7717978336e+01   7.1913826879e-01    0.2643848     0.172816   5.85   0.00175863    1.608    0.378
       110  -7.7954    171.3207    213.3220   1.0787991707e+02   1.0569457086e+01    0.1123432   0.07730823  22.40            0    1.673    0.402
       111  -9.3517     22.1575    211.2043   1.3273543254e+02   3.0806284322e+01    0.2446027    0.1000144  55.96  0.001326965    1.762    0.433
       112  -7.6050    200.6693    209.6403   1.0250134495e+02   6.2276725789e+00    0.1201207   0.07479722  19.91  0.000704148    1.797    0.444
       113  -7.7204    187.4809    209.4319   1.0465063794e+02   8.4133761712e+00    0.1169248   0.08928648  37.18 0.0001645582    1.023    0.022
       114  -8.4553     35.8447    208.4852   1.3040335327e+02   2.9883931846e+01    0.1983763   0.07787253  66.47  0.001169047    2.316    0.568
       115  -9.1392    217.1298    207.4837   9.9511458688e+01   3.7743730523e+00    0.2857262    0.1546279  22.99  0.001589083    2.005    0.501
       116  -9.0915    240.8173    205.5934   9.5489642043e+01   1.6322678655e-01     0.280986    0.1792115  -2.20  0.001827593    1.674    0.403
       117  -8.4609    222.2709    213.0225   9.9528250110e+01   2.3818065187e+00    0.2438848    0.1020948  28.31  0.001155342    2.695    0.629
       118  -9.0365    247.6832    205.4737   9.4419943716e+01  -9.0057419961e-01     0.272413    0.1568667  22.28 0.0009955949    1.522    0.343
       119  -8.9452    249.9458    199.8473   9.3159216735e+01  -7.3737468375e-01    0.2591842    0.1430959  -7.28  0.001518701    2.057    0.514
       120  -8.7416    229.3867    205.2055   9.7209760397e+01   2.0229956950e+00    0.2598263    0.1468285  31.36  0.001587436    1.435    0.303
       121  -8.0648    207.0351    206.4544   1.0099044460e+02   5.5370733101e+00    0.1682108   0.07645015  29.26 0.0008071872    2.419    0.587
       122  -8.6189    235.6258    202.0956   9.5735740768e+01   1.3267286526e+00    0.2159119    0.1403482  17.63  0.001394877    1.411    0.291
       123  -8.1354    197.5324    202.4765   1.0196435596e+02   7.5677203072e+00    0.2205468    0.1011403 -17.91 0.0008078902    5.652    0.823
       124 -10.1606      3.8475    188.8856   1.3473970989e+02   3.6125878732e+01    0.4528847    0.1603651  67.43  0.002726092    2.332    0.571
       125  -9.1706    244.5393    198.7741   9.3809972391e+01   2.1994360956e-01    0.4249721    0.1917643  18.73  0.001912368    3.171    0.685
       126  -8.8266    224.0258    199.7791   9.7202453770e+01   3.4531407414e+00    0.1664734    0.1101495   7.04  0.001032483    1.649    0.394
       127  -8.3140    230.8829    197.8977   9.5803381253e+01   2.5192126036e+00    0.1869022    0.1275348  19.56 0.0009616235    1.301    0.231
       128  -9.3991    238.0808    196.0413   9.4361678459e+01   1.5288269761e+00    0.3980014    0.1650521  23.33  0.001624358    3.629    0.724
       129  -8.3831     14.2047    196.8554   1.3336689516e+02   3.3885794672e+01    0.1574678   0.08926526  68.29 0.0008405252    1.287    0.223
       130  -8.5642     19.6814    195.3401   1.3238641906e+02   3.3638967099e+01    0.1749842   0.07642511  58.86  0.001166972    1.744    0.426
       131  -9.5372     17.3211    191.6291   1.3260051513e+02   3.4485023807e+01    0.2227331    0.1030164  79.27  0.001094959    1.832    0.454
       132  -9.4032    247.2346    191.1534   9.2112124985e+01   5.2181416460e-01    0.3530996    0.1870604  15.88  0.001717748    2.124    0.529
       133  -8.7660    231.5613    192.2908   9.4767854737e+01   2.9880468612e+00    0.2583643    0.1504879  14.91  0.001444013    1.915    0.478
       134  -9.3532     11.5851    191.4866   1.3355892779e+02   3.5022777544e+01    0.1780027    0.1120302  80.90  0.001273519    1.193    0.162
       135  -9.1549    243.4128    186.8008   9.1954179651e+01   1.5812696873e+00    0.2352425    0.1332939  -5.00  0.001300593    2.068    0.516
       136  -8.4866    224.4932    190.3682   9.5584839102e+01   4.3837612855e+00    0.2420399    0.1401914  11.15  0.001283124    2.179    0.541
       137  -7.9534    215.3903    189.7582   9.6978231713e+01   6.0081793459e+00    0.1544374    0.1066705  -9.52 0.0009456663    1.661    0.398
       138  -8.0102     23.6797    188.2928   1.3133847158e+02   3.4466608634e+01    0.1058745    0.0523253  64.85 0.0003827827    1.608    0.378
       139  -8.7705      9.4013    187.2822   1.3373666504e+02   3.5930805019e+01    0.1661563   0.07552763  57.35 0.0007555825    1.664    0.399
       140  -9.8209    237.3881    185.7347   9.2718424184e+01   2.6979494855e+00    0.2769746    0.1515261  45.95  0.001559766    1.689    0.408
       141  -8.4327    230.2437    185.7491   9.3865707464e+01   3.9078400685e+00    0.1716118    0.1156501  20.15   0.00099485    1.350    0.259
       142  -8.8624    249.7561    184.0956   9.0493234356e+01   8.0434060174e-01     0.216865    0.1385494   2.53  0.001158895    1.565    0.361
       143  -8.1181     28.3236    185.6445   1.3037473963e+02   3.4481201394e+01    0.1121171   0.05332985  66.66 0.0007046029    1.765    0.434
       144  -8.5876    224.1517    182.8319   9.4352532872e+01   5.2803488052e+00     0.175713    0.1202493  21.28  0.000980588    1.340    0.254
       145  -9.7000      5.2088    183.2121   1.3426998541e+02   3.6987777944e+01    0.1731486   0.08713935  56.05  0.001264607    1.524    0.344
       146  -9.5660    243.5464    180.3517   9.0793380764e+01   2.2207862654e+00    0.3646845    0.1484544  31.82  0.001686719    2.402    0.584
       147  -8.4293     16.9496    180.9602   1.3211953692e+02   3.6369008135e+01    0.1716628   0.08180574  66.59   0.00113792    1.694    0.410
       148  -9.0812    235.8190    179.3870   9.1848119716e+01   3.6417502938e+00    0.2861344    0.1456068  -9.06  0.001360429    2.730    0.634
       149  -8.9167     23.1757    179.7529   1.3094376494e+02   3.6012540667e+01    0.1808047   0.06271172  63.72 0.0009417386    2.731    0.634
       150  -9.8086      1.8781    177.1821   1.3458288381e+02   3.8313358545e+01    0.2923141    0.1219388 -89.63  0.001213924    1.947    0.486
       151  -9.9797      4.9851    174.4596   1.3391377691e+02   3.8545538346e+01    0.2250652    0.1260756  65.59  0.001204503    1.351    0.260
       152  -9.5202     12.6635    177.3326   1.3268982556e+02   3.7389655487e+01    0.1563146   0.07261242  44.76  0.001056934    1.855    0.461
       153 -10.0701    248.2196    174.8059   8.9053515886e+01   2.0055508955e+00    0.4044158    0.2164614  13.60  0.002040603    2.230    0.552
       154  -8.8145     17.5127    175.5112   1.3172183555e+02   3.7289013118e+01    0.1027624   0.07237556  74.18 0.0008102824    1.029    0.028
       155  -8.1401    233.2986    173.3501   9.1159786388e+01   4.7473698639e+00    0.1301911   0.08063199  15.99 0.0004327651    1.688    0.407
       156  -9.6126     10.4403    172.8293   1.3285666494e+02   3.8385882340e+01    0.2206454   0.08611877  41.33  0.001391253    2.233    0.552
       157  -7.7121    223.5240    171.5216   9.2432486066e+01   6.7016373318e+00    0.1278864    0.1021278  23.67  0.000135862    1.039    0.038
       158  -9.8680      6.2854    169.8197   1.3345725747e+02   3.9273300309e+01    0.1952841   0.09584021  70.90 0.0008572598    1.621    0.383
       159 -10.2823      2.5783    167.4560   1.3401684782e+02   3.9997626337e+01    0.3253273    0.1546279 -51.30  0.001899876    3.429    0.708
       160 -10.2943    246.0231    166.4974   8.7840153662e+01   3.2669366348e+00    0.2685764    0.1672458 -15.27  0.001331129    1.630    0.387
       161  -7.8991     20.4665    164.4822   1.3051348589e+02   3.9043145737e+01    0.1053061   0.07577021  76.44 0.0001301639    1.032    0.031
       162  -8.9156    241.1900    162.8584   8.7907814109e+01   4.5248630631e+00    0.1806256    0.1255711  13.31  0.000628695    1.350    0.260
       163  -9.3844    248.3580    161.4356   8.6497664770e+01   3.4072230009e+00    0.2906899    0.1562252  22.34   0.00124144    1.965    0.491
       164  -9.7714     11.1143    161.4209   1.3211157022e+02   4.0420287853e+01    0.1742954   0.09516023  89.61  0.001020154    1.453    0.312
       165  -9.5282    237.9925    157.4950   8.7372729866e+01   5.7179495467e+00    0.2447852    0.1610189  -1.76  0.001118276    1.607    0.378
       166 -10.0629    246.1760    156.4584   8.5860424367e+01   4.3481245375e+00    0.4060553    0.2185719  15.18  0.001488379    2.294    0.564
       167  -9.6237    250.3740    156.0452   8.5120860427e+01   3.6405763581e+00    0.3719816    0.1694002 -32.54  0.001815972    2.308    0.567
       168  -9.8197    249.6138    150.2173   8.4064637094e+01   4.4273467202e+00    0.3780074    0.2068725 -27.50  0.001996576    1.832    0.454
       169  -9.1922      9.9687    154.9564   1.3195513772e+02   4.1729148771e+01    0.1744352   0.08704717  67.92   0.00113362    1.684    0.406
       170 -10.4724      3.7651    153.6050   1.3308845843e+02   4.2471409056e+01    0.2580469    0.1222417 -87.89  0.001273074    1.671    0.402
       171  -7.6633    219.6382    151.6987   8.9270585076e+01   9.8849616066e+00     0.141171   0.08903047  20.31 0.0004366847    1.723    0.420
       172 -10.1326    243.7940    147.5753   8.4438062756e+01   5.8024802429e+00    0.2784732    0.1932463  -9.75  0.001257284    1.407    0.289
       173  -8.7095    233.1007    152.1267   8.7096478421e+01   7.2643715336e+00    0.2090474    0.1538783  15.31 0.0009330338    1.267    0.211
       174  -7.6622    215.3075    147.3497   8.9133375319e+01   1.1299973319e+01    0.1408627   0.09314173  15.26 0.0004528082    1.708    0.415
       175  -9.7007    234.5911    144.7653   8.5338707724e+01   7.8799748469e+00    0.3225144    0.1925191  12.15  0.001501304    2.016    0.504
       176  -9.8081      8.3240    145.3173   1.3169244397e+02   4.3707940055e+01    0.2127511   0.08656647  78.83  0.001110729    2.341    0.573
       177  -9.9680      2.3446    143.7089   1.3281343123e+02   4.4468545227e+01    0.2537304     0.090385 -71.85   0.00144801    2.241    0.554
       178  -9.9952    249.1952    141.0911   8.2235940234e+01   5.5484877985e+00    0.4782146    0.2434788   1.22  0.001974945    2.957    0.662
       179 -10.3668    243.4553    138.9163   8.2674983300e+01   6.8911318678e+00    0.3748544    0.2474841 -12.94  0.002057253    1.500    0.333
       180  -8.7473    229.8214    139.0624   8.4920457446e+01   9.5225714986e+00    0.2580155    0.1741332   0.83  0.001353461    1.620    0.383
       181  -9.6785      4.5708    136.3357   1.3189858356e+02   4.5746566839e+01    0.2079821   0.07958219 -84.96  0.001146077    2.154    0.536
       182  -8.9891    248.8164    134.4136   8.0867021078e+01   6.4020629385e+00    0.2877307    0.1799389 -21.15  0.001400123    1.540    0.351
       183  -9.5674    248.2210    127.9601   7.9545673431e+01   7.2863227630e+00    0.3923799    0.2647083   1.37  0.001974088    1.510    0.338
       184  -8.9284    248.9856    123.0011   7.8320466859e+01   7.7344737190e+00    0.2632284    0.1733214   3.26  0.001367205    1.598    0.374
       185  -8.1572    216.8012    135.4130   8.6348878489e+01   1.2615563286e+01    0.2001096    0.1128137  37.52 0.0009466851    1.669    0.401
       186  -9.2043    242.3003    132.5589   8.1484386204e+01   7.8842543858e+00    0.3127807    0.2092721  -0.24   0.00151839    1.558    0.358
       187  -9.7579     10.1691    132.6756   1.3044147589e+02   4.6058821087e+01    0.1592707    0.1066105  85.55  0.001157215    1.150    0.130
       188  -9.9327    232.5755    130.6138   8.2625496458e+01   1.0056533285e+01    0.4141511    0.2566645   0.07  0.001994741    1.929    0.482
       189  -8.2169    225.7500    132.4109   8.4158341738e+01   1.1200496541e+01    0.2003851    0.1116426  37.55 0.0009493346    1.692    0.409
       190  -9.5277      7.8115    124.8079   1.3037741487e+02   4.7819097359e+01    0.1542796     0.096253  74.75 0.0007369621    1.356    0.263
       191 -10.3491    239.1310    121.4686   7.9508468914e+01   9.8982049971e+00    0.4829192    0.3303223  -5.38  0.002543792    1.500    0.333
       192  -8.4838    227.3319    122.7399   8.1720222426e+01   1.2160550518e+01    0.3352152     0.126814 -19.85  0.001092715    3.894    0.743
       193 -10.0684    247.1928    116.8189   7.7186502129e+01   8.8465468241e+00    0.4050598    0.2769105  -1.59  0.001616451    1.487    0.327
       194  -9.2755    231.1887    112.1851   7.8621232088e+01   1.2756241210e+01    0.2960052    0.1846525 -11.09  0.001145336    1.749    0.428
       195  -9.4011      5.4986    110.4951   1.2976657590e+02   5.0916288590e+01    0.2061082   0.08014155 -89.65  0.001036193    2.424    0.587
       196  -9.6381    241.0784    107.6607   7.5977459374e+01   1.1254711261e+01    0.3749526     0.227172  -0.78  0.001517435    1.970    0.492
       197 -10.5424    247.7612    104.9314   7.4313581121e+01   1.0202596869e+01    0.4956443    0.1783886 -33.30  0.001939393    2.592    0.614
       198  -7.7923    177.3150     86.2660   8.1705349949e+01   2.8903603707e+01    0.1517958    0.1126754  21.85 0.0002303706    1.547    0.354
       199  -9.1627    233.1430     76.7898   6.9422449148e+01   1.7017478315e+01    0.2543133    0.1957894 -13.36 0.0003547423    1.256    0.204
       200  -8.7909    237.9038     72.8310   6.7693266280e+01   1.6429675569e+01    0.2264749    0.1798729  16.99 0.0006285903    1.297    0.229
