#   1 NUMBER                 Running object number                                     
#   2 MAG_AUTO               Kron-like elliptical aperture magnitude                    [mag]
#   3 X_IMAGE                Object position along x                                    [pixel]
#   4 Y_IMAGE                Object position along y                                    [pixel]
#   5 X_WORLD                Barycenter position along world x axis                     [deg]
#   6 Y_WORLD                Barycenter position along world y axis                     [deg]
#   7 A_WORLD                Profile RMS along major axis (world units)                 [deg]
#   8 B_WORLD                Profile RMS along minor axis (world units)                 [deg]
#   9 THETA_WORLD            Position angle (CCW/world-x)                               [deg]
#  10 FWHM_WORLD             FWHM assuming a gaussian core                              [deg]
#  11 ELONGATION             A_IMAGE/B_IMAGE                                           
#  12 ELLIPTICITY            1 - B_IMAGE/A_IMAGE                                       
         1 -16.0132     48.0036     61.0289   7.4781222398e+01   6.0546439243e+01     1.801271     1.480527  86.60  0.008469933    1.826    0.452
         2 -15.9478    197.2537     48.9958   3.3242075490e+01   3.0663730587e+01     2.031335     1.189566 -64.54   0.01034395    1.813    0.448
         3 -15.6319    168.6086     29.9656   3.1818575412e+01   3.9470199713e+01     2.223159    0.9103537  78.27  0.008873086    2.903    0.656
         4 -14.8031     74.0711     42.8835   5.7154664710e+01   5.9388393545e+01     1.038283    0.8790069 -88.27  0.005731022    1.664    0.399
         5 -15.1679     15.8006     49.4833   8.6844743576e+01   6.6680607664e+01     1.157452    0.7536969 -36.78  0.006517391    1.325    0.245
         6 -14.6622    115.4042      5.6304   3.1852051970e+01   5.4504642648e+01     1.374096    0.6107243  82.22  0.005715527    2.732    0.634
         7 -13.5174    131.7984    216.9260   8.3195508509e+01   1.0774598595e+01    0.7548075    0.2534952 -50.91  0.002906717    3.104    0.678
         8 -14.0811    233.1870    248.9080   6.8098840195e+01  -6.9740900220e+00     0.422445     0.264013  18.10  0.002928778    1.420    0.296
         9 -16.4862     94.7335    244.8206   9.5037752399e+01   1.0382924212e+01     2.283812    0.8936325  34.06   0.01051674    2.091    0.522
        10 -15.7196    112.5605    233.3719   8.9783332196e+01   1.0242231015e+01     1.908849     1.191755 -82.68  0.009223575    2.656    0.623
        11 -15.6814     71.2859    245.8302   1.0024088375e+02   1.3060491232e+01     1.025897    0.8153095 -28.44  0.005877296    1.639    0.390
        12 -18.2568     30.8922    236.0171   1.0824752089e+02   1.9495534750e+01     2.975172     1.642583  55.85   0.01324902    1.584    0.369
        13 -17.2931      6.9361    240.3175   1.1346619470e+02   2.0884825162e+01     1.675311    0.7782925  80.34  0.009145976    2.081    0.519
        14 -16.2706      7.4490    214.6969   1.1217855628e+02   2.6269138592e+01     1.181712    0.6784731 -77.96   0.00597872    1.637    0.389
        15 -16.0173     91.8740    175.9324   8.6724422572e+01   2.5766653470e+01     2.409116    0.9526123  29.08  0.008606132    2.669    0.625
        16 -14.9752    102.8039    161.6208   8.1221936243e+01   2.7560214603e+01     1.152901    0.8955657  60.67  0.004779305    1.479    0.324
        17 -15.2465     49.8757    182.2189   9.9071261915e+01   2.9789661474e+01     1.504699    0.7386234 -72.01   0.00527647    2.020    0.505
        18 -15.5830     62.8471    184.8027   9.5877086098e+01   2.7585553274e+01     1.621948    0.8810507 -61.16  0.007452281    1.793    0.442
        19 -15.0716     77.7241    185.3958   9.1966217440e+01   2.5486945486e+01     1.239106    0.6611078  40.58  0.005519025    1.788    0.441
        20 -13.3620      6.9359    191.8438   1.1104030501e+02   3.1584959785e+01    0.7217055    0.2960919  46.20  0.003406645    2.154    0.536
        21 -15.1215      4.9178    183.3997   1.1102819403e+02   3.3780583202e+01    0.6432115    0.5312397 -87.83  0.002455636    1.084    0.077
        22 -14.8790      2.5634    178.2960   1.1131268567e+02   3.5205858982e+01     0.895654    0.3003591 -72.34  0.002838688    2.500    0.600
        23 -12.2462     14.0446    185.1579   1.0882382803e+02   3.2620958485e+01    0.2827881    0.1659646 -66.20  0.001117472    1.608    0.378
        24 -14.6894    218.5060    177.1879   5.8394944492e+01   5.4188358239e+00     1.085726    0.5575406 -42.77  0.005442748    1.797    0.443
        25 -15.5808    195.7215    163.6675   5.9868459846e+01   1.1247556364e+01     1.760251    0.9033793 -42.53  0.008142794    1.772    0.436
        26 -14.2558    117.7378    161.0925   7.7084397186e+01   2.5191244610e+01    0.9822958    0.5518877 -66.43  0.003814685    2.360    0.576
        27 -14.7967    171.4467    166.7602   6.5394362604e+01   1.4662827236e+01     1.197959    0.6651379 -44.88  0.005446775    1.719    0.418
        28 -14.6495     72.7477    154.4831   8.8589302045e+01   3.3969441441e+01     1.031406    0.7016747 -54.69   0.00328833    1.414    0.293
        29 -14.9941     19.8125    124.7015   1.0110343441e+02   4.7815792293e+01      1.96506    0.8491806 -88.65  0.007112015    3.020    0.669
        30 -14.2663     19.7725    140.8804   1.0314891024e+02   4.3522454823e+01     0.737491    0.6062456 -19.46  0.003232266    1.439    0.305
        31 -13.8096      8.5735    156.8598   1.0813084823e+02   4.0186166981e+01    0.5520791    0.4188514  33.32  0.002130606    1.422    0.297
        32 -13.4189     16.7786    152.9233   1.0536150266e+02   4.0589162779e+01     1.148947    0.6592246  42.39   0.00563788    1.769    0.435
        33 -12.9068     59.5761    152.5011   9.2250008618e+01   3.6262709965e+01    0.4212735    0.3030419 -79.09  0.001244579    1.435    0.303
        34 -14.9601    180.3114    156.5779   6.1435566538e+01   1.5171515351e+01    0.8985136    0.5203562 -51.59  0.004061497    1.871    0.466
        35 -14.9077     94.7959    144.5691   8.0147897397e+01   3.3115251820e+01     1.276161     1.165567  80.19  0.005251247    1.185    0.156
        36 -15.6117     62.9337    127.4393   8.6674129758e+01   4.2416026049e+01     3.173969     2.116051  14.06   0.01431484    1.813    0.449
        37 -14.7052     47.0103    122.2358   9.1138257911e+01   4.5820207738e+01     1.058255    0.8122064  41.46  0.004503188    1.396    0.284
        38 -14.9552     47.6669    111.6434   8.8793829081e+01   4.8520808246e+01     1.479823    0.7689596  45.40  0.006106776    2.228    0.551
        39 -15.5094     77.2270    133.2187   8.3178860136e+01   3.8825230481e+01     1.904512    0.7234041 -51.54  0.006526272    2.430    0.588
        40 -15.9992     87.2597    131.5083   7.9649685322e+01   3.7663609159e+01     2.516108     1.507549 -32.72   0.01008785    2.072    0.517
        41 -12.9805     34.8556    125.9875   9.6054909899e+01   4.6138598490e+01    0.4863695    0.3258185 -78.01  0.001975462    1.475    0.322
        42 -13.7938      4.5779    118.0438   1.0560582449e+02   5.0599809144e+01    0.6001212    0.4036145 -16.48  0.003210726    1.787    0.440
        43 -13.9587     30.8272    109.8924   9.4749074681e+01   5.0784766033e+01    0.7392034    0.5368428 -89.79  0.002771144    1.531    0.347
        44 -15.3056     87.2200    103.3260   7.2768234972e+01   4.4629808079e+01     1.649411     1.140773  72.90  0.006809032    2.249    0.555
        45 -14.9707     77.6400    101.0045   7.5388323111e+01   4.6854282679e+01      1.38791    0.7374484 -54.31  0.005638835    1.857    0.461
        46 -13.8716     22.8080     97.7539   9.5620502759e+01   5.4641747004e+01    0.6533505    0.4393642 -47.62  0.002638156    1.327    0.246
        47 -15.7948     13.8771     91.2874   9.8098082643e+01   5.6960839272e+01     2.120655      1.20582 -74.11   0.01022957    1.699    0.412
        48 -15.0590     52.6861     98.4930   8.3897770107e+01   5.1244832361e+01     1.091366    0.8065376 -79.52  0.004325814    1.628    0.386
        49 -15.1245    103.7532     96.8582   6.5718721244e+01   4.2972056827e+01    0.7417019     0.577835  50.94  0.003512992    1.366    0.268
        50 -14.2890    114.4596     93.2694   6.1554452396e+01   4.1553347667e+01    0.8155385    0.5552568  88.81  0.003154178    2.639    0.621
        51 -15.1996     34.5762     89.1026   8.8900210965e+01   5.5734126697e+01    0.8879662    0.8288472 -64.57  0.003753425    1.117    0.104
        52 -13.0430     69.4192     84.8240   7.3751639159e+01   5.2025780566e+01    0.4561778    0.3762181 -50.94  0.001697453    1.203    0.169
        53 -14.7432    226.2917     72.0769   3.5220991203e+01   2.1540717023e+01     1.165302    0.6355726 -67.02  0.005621978    2.348    0.574
        54 -14.5541     31.8711     42.0739   7.5432428926e+01   6.6492418480e+01    0.6514731    0.4693219 -32.39   0.00375687    1.261    0.207
        55 -14.4663    211.9414    243.9084   7.1026566471e+01  -4.0735057126e+00    0.5866354    0.3295011 -42.84  0.003481721    2.052    0.513
        56 -15.0336     65.0409     57.3563   6.6238731311e+01   5.8549656994e+01     1.035974     0.921481  35.10  0.005492611    1.164    0.141
        57 -13.8486      3.9096     67.6542   9.7940528867e+01   6.3367459028e+01    0.5344489    0.4357583 -76.94  0.002535547    1.294    0.227
        58 -14.7073    224.8768    240.6064   6.8240900939e+01  -5.0302584231e+00    0.3917297    0.2616583  43.46  0.002390888    2.474    0.596
        59 -15.1211    195.4415    223.7495   7.0908218881e+01   8.5995381578e-01     1.479026    0.7121924 -46.33  0.007353178    2.342    0.573
        60 -14.7528     82.2027     51.1344   5.7555904292e+01   5.6399423357e+01     1.109674    0.7537944   1.59  0.005078255    2.070    0.517
        61 -12.3215    138.4909    233.0155   8.4017786580e+01   6.8205688599e+00    0.2694292    0.1774896  28.10  0.001176965    1.337    0.252
        62 -13.4356     87.3060    229.9623   9.5107839325e+01   1.4231329102e+01    0.5458007    0.2690301  32.45   0.00251935    1.774    0.436
