#   1 NUMBER                 Running object number                                     
#   2 MAG_AUTO               Kron-like elliptical aperture magnitude                    [mag]
#   3 X_IMAGE                Object position along x                                    [pixel]
#   4 Y_IMAGE                Object position along y                                    [pixel]
#   5 X_WORLD                Barycenter position along world x axis                     [deg]
#   6 Y_WORLD                Barycenter position along world y axis                     [deg]
#   7 A_WORLD                Profile RMS along major axis (world units)                 [deg]
#   8 B_WORLD                Profile RMS along minor axis (world units)                 [deg]
#   9 THETA_WORLD            Position angle (CCW/world-x)                               [deg]
#  10 FWHM_WORLD             FWHM assuming a gaussian core                              [deg]
#  11 ELONGATION             A_IMAGE/B_IMAGE                                           
#  12 ELLIPTICITY            1 - B_IMAGE/A_IMAGE                                       
         1 -14.6461    146.6978     61.2621   9.1872310061e+01   4.0358090146e+01     1.533269     1.216681  31.88  0.004032216    1.387    0.279
         2 -14.6735    157.3937     46.0093   8.4495891671e+01   3.9914821585e+01     1.270998     1.087271 -26.79   0.00374751    1.216    0.178
         3 -14.6168    168.6806     14.8364   7.1963143962e+01   4.0683771713e+01     1.062992    0.9983976  71.96  0.003717151    1.058    0.055
         4 -13.4582    186.7872     12.1964   6.9044521564e+01   3.6000886116e+01     1.194666    0.4646281 -65.30  0.003702512    3.929    0.745
         5 -12.6032    187.8733    174.7506   1.1080411177e+02   1.2176070300e+01     0.330151    0.2081304 -52.58  0.001693811    2.401    0.583
         6 -20.0082     94.4291    226.8869   1.3666057672e+02   1.8939788195e+01     8.105263     5.482472  47.11   0.05338342    1.101    0.092
         7 -12.0142    165.2948    171.7963   1.1479113395e+02   1.6609810037e+01    0.2729118    0.1893999  56.96  0.001429773    1.714    0.417
         8 -10.1464     19.1623    216.3534   1.5109577201e+02   2.9422018631e+01   0.08517236   0.06625094 -80.48  0.000187993    1.536    0.349
         9 -12.6722    230.4816    167.6792   1.0195193977e+02   5.9207103789e+00    0.3557029    0.1964897 -41.47  0.001875267    2.364    0.577
        10 -13.0461     11.4757    205.9582   1.5231115737e+02   3.1972525292e+01    0.4013335    0.2419672  23.60  0.002116075    1.920    0.479
        11 -12.9718    153.7215    152.4386   1.1374897954e+02   2.1996948909e+01    0.3593364    0.2783524  85.11  0.001832065    1.919    0.479
        12 -13.7257    144.8614    189.8675   1.2196963197e+02   1.7259440466e+01    0.6333143    0.4842882  28.00  0.002173831    1.193    0.162
        13 -13.8302    163.8033    157.3124   1.1247764218e+02   1.9238812957e+01    0.4488464    0.3991982  18.83  0.001298726    1.080    0.074
        14 -11.6859    192.4415    157.9952   1.0681884975e+02   1.3771878905e+01    0.3411972    0.2283158   7.57  0.001470674    1.774    0.436
        15 -11.6629     28.2586    235.8195   1.5001143539e+02   2.5279682427e+01    0.1762946    0.1181933  85.37  0.001374945    1.530    0.346
        16 -13.5436    139.8234    200.2178   1.2446969614e+02   1.6446049437e+01    0.7353564     0.314427  37.99 0.0009430245    1.859    0.462
        17 -12.9406    135.5882    196.2019   1.2481588184e+02   1.7759182082e+01    0.3918713    0.3003728  -7.19  0.002299371    1.786    0.440
        18 -10.7396     24.8040    202.8759   1.4945491329e+02   3.1295249286e+01     0.145014    0.1169329  61.90 0.0002660177    1.138    0.122
        19 -11.1468    192.4187    153.2294   1.0588617662e+02   1.4477388510e+01    0.2579254    0.1274057 -39.56  0.001181172    2.227    0.551
        20 -10.5313     18.4683    153.5365   1.4859125751e+02   4.1831499676e+01    0.2169065    0.1446008 -65.32 0.0008425386    1.632    0.387
        21 -10.5301     17.7215    150.6454   1.4862686641e+02   4.2528115930e+01    0.2098986     0.151238 -59.00  0.001181848    1.630    0.387
        22 -13.1115    173.9283    149.1127   1.0874394697e+02   1.8650043646e+01    0.4089042    0.3503582 -35.36  0.001445945    1.293    0.227
        23 -10.8215      7.9700    149.4644   1.5112739961e+02   4.3560850117e+01    0.1834369    0.1288927  85.35 0.0007844953    1.215    0.177
        24 -12.5467     27.8895    145.1196   1.4552707321e+02   4.2856094040e+01    0.3684555    0.3184992  85.72  0.001565475    1.131    0.116
        25 -12.2646    174.3631    140.9036   1.0696175204e+02   1.9914723513e+01    0.2383805    0.1844957  49.90 0.0005402183    1.304    0.233
        26 -10.3004     20.8573    195.1387   1.4997939648e+02   3.3119483856e+01    0.1502123    0.1090383  59.65 0.0004463024    1.014    0.014
        27 -12.1053    148.0843    133.8253   1.1126465953e+02   2.6512475243e+01    0.2195251     0.191572  64.14 0.0004207783    1.239    0.193
        28 -11.4712     21.6943    233.8537   1.5116321221e+02   2.6240918219e+01    0.1332882   0.09752657  65.37 0.0007564194    1.177    0.150
        29 -13.4296    160.5754    128.1519   1.0715283232e+02   2.4959920871e+01    0.4551646    0.4031818 -49.35  0.001768338    1.258    0.205
        30 -12.4281    142.1253    121.5497   1.0996099555e+02   3.0112205196e+01    0.4931072    0.2867278  67.96  0.001799599    2.890    0.654
        31 -10.9225      4.9667    232.5741   1.5419243109e+02   2.7985837646e+01    0.1252541   0.07538591  37.44 0.0004796655    1.406    0.289
        32 -11.0247    167.6654    112.6802   1.0194062674e+02   2.6181524007e+01    0.2937478    0.2197888 -84.19  0.001215429    2.052    0.513
        33 -11.3367      3.5623    112.5265   1.5059127470e+02   5.2240183771e+01    0.2940937    0.1972994  -0.93  0.001764583    2.020    0.505
        34 -10.9133    205.4348    110.1690   9.4012040194e+01   1.8309777989e+01    0.3033458    0.1892956  40.14   0.00102975    1.596    0.373
        35 -11.4858     13.3675    239.9505   1.5284154790e+02   2.6052292848e+01    0.1275397   0.09625127  63.11 0.0005516392    1.195    0.163
        36 -11.7205     32.2371    104.3203   1.4021396712e+02   5.2088008152e+01    0.2962816    0.2120325 -12.60 0.0009297903    1.962    0.490
        37 -11.6484     96.6809     96.4084   1.1651502244e+02   4.4808020941e+01    0.2961323    0.1365948  45.77 0.0008961181    2.127    0.530
        38 -19.1081     78.4688     88.4250   1.2058014081e+02   4.9953967889e+01     19.01481    0.8850492 -55.34   0.02493606   19.731    0.949
        39 -11.4486    218.5552    220.9232   1.1275251048e+02   1.8241295296e+00    0.2572129    0.1230364 -35.79  0.001514971    2.602    0.616
        40 -11.4057     42.0424     92.3283   1.3485771501e+02   5.4058270573e+01    0.3001482    0.1918881 -89.40  0.001222242    1.646    0.393
        41 -12.7616     52.9347     91.5788   1.3062165360e+02   5.2970066180e+01    0.4478666    0.2763729  29.24  0.001283242    1.744    0.427
        42 -10.3914     22.8461     83.4137   1.4094919405e+02   5.8021418601e+01    0.1647966    0.1228424  -8.94 0.0009401815    1.711    0.416
        43 -10.0132    106.2294     82.4236   1.0964500046e+02   4.5981209492e+01    0.2022394    0.1440539  55.99  0.000270314    1.455    0.313
        44 -11.0930    142.0934     81.0262   9.9224866462e+01   3.7989666658e+01    0.2389287    0.2341283  40.07 0.0005537194    1.023    0.022
        45 -11.2772    155.8881    247.3490   1.2700863813e+02   7.6693689311e+00    0.1602158    0.1304545  23.78 0.0003346784    1.204    0.170
        46 -11.3838    162.5313    245.3731   1.2560959746e+02   6.9841568074e+00    0.2518617    0.1385866  34.60 0.0006189384    1.281    0.220
        47 -13.2251    161.2440     37.0037   8.0713481387e+01   4.0122143220e+01    0.4749101    0.4423554  59.88 0.0008077522    1.059    0.056
        48 -11.5169    152.1690    237.6112   1.2662058485e+02   9.3633328829e+00    0.2862453    0.1492895  27.98  0.000979943    1.692    0.409
        49 -11.1511     13.3984     59.8721   1.4154674337e+02   6.4414985926e+01    0.1904918    0.1654892  53.38 0.0004489604    1.258    0.205
        50 -10.6781     24.3430    216.0796   1.5006149942e+02   2.8972006651e+01    0.1327235   0.09715986  60.92 0.0003212759    1.078    0.073
