#   1 NUMBER                 Running object number                                     
#   2 MAG_AUTO               Kron-like elliptical aperture magnitude                    [mag]
#   3 X_IMAGE                Object position along x                                    [pixel]
#   4 Y_IMAGE                Object position along y                                    [pixel]
#   5 X_WORLD                Barycenter position along world x axis                     [deg]
#   6 Y_WORLD                Barycenter position along world y axis                     [deg]
#   7 A_WORLD                Profile RMS along major axis (world units)                 [deg]
#   8 B_WORLD                Profile RMS along minor axis (world units)                 [deg]
#   9 THETA_WORLD            Position angle (CCW/world-x)                               [deg]
#  10 FWHM_WORLD             FWHM assuming a gaussian core                              [deg]
#  11 ELONGATION             A_IMAGE/B_IMAGE                                           
#  12 ELLIPTICITY            1 - B_IMAGE/A_IMAGE                                       
         1  -9.0750     12.8628     30.3504   1.0380043232e+02   6.8421004402e+01    0.2974125    0.1539996 -62.93  0.001342909    2.128    0.530
         2  -8.4394     30.0174     16.0109   8.9722812427e+01   6.9425000941e+01    0.1602804    0.1427947 -57.11 0.0007188745    1.697    0.411
         3  -8.6170     55.5432     10.0252   7.5474235887e+01   6.6899944404e+01    0.1895832    0.1742075  40.46 0.0007919291    1.474    0.321
         4  -7.8426     47.4521     10.2115   7.8924223726e+01   6.8086588706e+01    0.1610932    0.1027091 -37.81 0.0008368349    1.653    0.395
         5  -8.8096    136.1491      8.8915   5.2496942148e+01   5.0099198667e+01    0.1975618    0.1809273 -83.60  0.000392095    1.196    0.164
         6  -8.4231     90.8173      9.0293   6.2985636430e+01   6.0548442862e+01    0.2050076    0.1395627 -49.18   0.00106121    2.018    0.504
         7  -7.5923    101.5837      8.2477   5.9739184375e+01   5.8321766865e+01    0.1268466    0.1028855 -81.33 0.0004318842    1.728    0.421
         8  -8.5604     33.2135      5.0864   8.2754659911e+01   7.0660194544e+01    0.2445162     0.136562 -50.08  0.001221061    3.018    0.669
         9  -8.3800     79.3627      4.1437   6.4121203375e+01   6.3353272848e+01    0.2253357     0.134968 -34.31  0.001021114    1.842    0.457
        10  -7.9734     44.4199      3.1963   7.6596007402e+01   6.9412754035e+01    0.1571067   0.09876619 -34.21 0.0009376024    1.634    0.388
        11  -7.9604     15.7749      3.0036   9.0628557263e+01   7.2824147182e+01    0.1456234    0.0736221 -38.50 0.0004188643    1.619    0.382
        12  -8.4894     62.3326      1.6106   6.8587045084e+01   6.6750970226e+01    0.1825704    0.1439047  51.15 0.0005180943    1.550    0.355
        13  -9.1854    193.0263    244.8214   9.9637328342e+01  -2.5299642921e+00    0.2718545    0.1800261   7.71  0.001090382    1.903    0.475
        14  -8.5187    249.1566    249.0245   9.0716581336e+01  -1.1326412370e+01    0.2302402    0.1311917 -12.92  0.001464437    1.852    0.460
        15  -9.2762    248.5610    242.5337   8.9799087930e+01  -1.0586290086e+01    0.2585395    0.1937394 -34.36  0.001292644    1.805    0.446
        16  -9.1915    233.1413    247.0358   9.3054362490e+01  -8.8727834337e+00    0.4343942    0.2181074 -24.43  0.002532581    2.283    0.562
        17  -7.7088    201.6912    250.3366   9.8898798105e+01  -4.5526011464e+00     0.105649   0.08386441  58.09 0.0007043051    1.679    0.405
        18  -8.5568     93.9589    249.5178   1.1774232437e+02   1.2197333898e+01    0.2063315    0.1304919  75.85 0.0009571274    1.607    0.378
        19  -8.8944    194.0586    239.7228   9.8725493223e+01  -2.0431461040e+00    0.1692276    0.1608313  44.58 0.0005239277    1.318    0.241
        20  -8.2740     50.1811    244.1919   1.2473925742e+02   1.8923936600e+01    0.2744128   0.09797552  85.19  0.001087458    4.826    0.793
        21  -8.7221      9.5660    243.7959   1.3116488893e+02   2.3515795109e+01    0.2270261    0.0699028  88.25  0.001133817    3.291    0.696
        22  -8.7390    201.9976    243.1304   9.7816174272e+01  -3.7296125622e+00    0.2524644    0.1671046 -35.48  0.001542227    1.837    0.456
        23  -8.6516    169.0842    243.1767   1.0368268430e+02   1.5172298592e+00    0.2058386    0.1708394 -60.85  0.000780194    1.608    0.378
        24  -8.9121     78.0008    243.4809   1.1998807517e+02   1.5433659165e+01    0.2595908     0.121793  67.68  0.001371826    2.285    0.562
        25  -8.5006     88.2067    242.0017   1.1808590988e+02   1.4258724286e+01    0.2103423    0.1318415  88.17 0.0006833332    1.719    0.418
        26  -9.1291    183.2426    239.4963   1.0063085975e+02  -2.7127557028e-01    0.4011812    0.3280486 -49.12  0.001894203    1.601    0.376
        27  -9.3201    160.1868    240.4017   1.0492976151e+02   3.3525636245e+00    0.2837111    0.2020264 -78.70  0.001269059    2.212    0.548
        28  -8.7646    132.3864    248.1173   1.1086272659e+02   6.6500458103e+00     0.280185    0.1681467  64.01  0.001082719    1.845    0.458
        29  -8.4419    146.7512    240.0744   1.0733731718e+02   5.5813508476e+00    0.2535446    0.1542831  89.13  0.001010809    3.442    0.709
        30  -8.4643    240.6048    240.2162   9.0748308094e+01  -9.2156677486e+00    0.1487035   0.09470139 -12.01 0.0009539805    1.613    0.380
        31  -9.2583    135.3311    238.9289   1.0928707821e+02   7.5954946500e+00    0.2164589    0.1364069  58.64 0.0009021628    1.526    0.345
        32  -8.3319    129.4194    238.7424   1.1034700485e+02   8.5672410716e+00     0.187963    0.1166808 -66.72  0.001042944    2.042    0.510
        33  -9.1854    230.9310    236.4987   9.1790848166e+01  -7.3837856778e+00    0.3199726    0.2261383 -22.03   0.00177014    1.518    0.341
        34  -8.0787    208.8606    238.3717   9.5904866544e+01  -4.2194114231e+00    0.1512408    0.1341374  17.41 0.0005135871    1.183    0.154
        35  -8.3313     25.6062    236.7861   1.2832498076e+02   2.3060593681e+01     0.233517   0.08370656  74.87  0.001150426    2.965    0.663
        36  -8.9699    216.6865    235.3848   9.4074979228e+01  -5.0774408561e+00    0.2667374    0.1946803  63.16  0.001431011    2.330    0.571
        37  -9.3775    213.8341    231.7919   9.4013221513e+01  -4.1872236101e+00    0.3115087    0.2532547 -70.65  0.001549416    2.275    0.560
        38  -8.8125    203.0784    234.9185   9.6404789771e+01  -2.8694259548e+00     0.228025    0.1960285 -66.20  0.001343181    1.820    0.451
        39  -8.3208     67.4939    245.0527   1.2190511958e+02   1.6577790635e+01    0.1509358   0.09625608 -81.97 0.0008887439    1.582    0.368
        40  -9.6011    175.7329    233.4310   1.0113812469e+02   1.7994579960e+00    0.4009784    0.2195884 -57.24  0.002042039    2.825    0.646
        41  -7.8696     57.9993    237.0000   1.2293734129e+02   1.9202406475e+01    0.1750712   0.05183445  39.90 0.0007852205    2.927    0.658
        42  -9.2226    247.8448    234.7138   8.8659792751e+01  -9.6589501004e+00    0.2162035    0.1525177   9.09  0.000800224    1.177    0.150
        43  -9.5343    108.9532    234.4749   1.1363061329e+02   1.2466378253e+01    0.4148715    0.1979425  56.27  0.001870266    1.944    0.486
        44  -8.3976     99.8449    234.6812   1.1531822944e+02   1.3809300784e+01    0.2249049    0.1280382  75.60  0.001192354    2.110    0.526
        45  -9.1487     78.8161    234.5492   1.1910008145e+02   1.6865395286e+01    0.2600879     0.135127  68.61   0.00107594    1.946    0.486
        46  -8.4502    145.0121    233.4850   1.0683434252e+02   6.8785973572e+00    0.2801538    0.1522838  65.97  0.001283187    2.843    0.648
        47  -8.6208    140.1143    230.2353   1.0733817654e+02   8.2014481817e+00    0.2363238    0.1375582  54.88 0.0009145977    1.614    0.380
        48  -8.2765    122.9718    234.0877   1.1100208811e+02   1.0344534053e+01    0.1965312    0.1230336  66.69 0.0008374749    1.732    0.423
        49  -9.3068     68.5324    232.7556   1.2077841696e+02   1.8585314594e+01     0.389854    0.1652365  67.48  0.001860612    2.730    0.634
        50  -8.0494    194.5238    232.7396   9.7610780861e+01  -1.2003747830e+00    0.1363955    0.1196341 -56.24 0.0006063606    1.581    0.367
        51  -8.1341    132.7579    232.9847   1.0905466648e+02   8.9573039479e+00    0.1935702    0.1253972  75.44  0.001064105    2.030    0.507
        52  -8.5683     92.5256    232.4003   1.1643009651e+02   1.5287600002e+01    0.2756891     0.134858  67.21  0.001364086    2.391    0.582
        53  -9.2689    186.5868    230.9083   9.8780522452e+01   3.5529292934e-01    0.2831939    0.2219581  85.47  0.001374384    2.135    0.532
        54  -7.8915    157.8417    232.0148   1.0425268357e+02   4.9833416294e+00    0.1803056    0.1336789  81.59 0.0005783812    1.913    0.477
        55  -8.7497    236.1452    230.8783   8.9996714646e+01  -7.5196812266e+00    0.1914972    0.1675445   8.64 0.0007472716    1.241    0.194
        56  -8.6461      1.7406    230.8650   1.3184784478e+02   2.6538618821e+01    0.1957515   0.09043813  74.99 0.0008727332    1.631    0.387
        57  -9.6770    246.6615    228.5643   8.7840909125e+01  -8.8113226533e+00    0.3976958    0.1976429 -23.50  0.002219463    2.127    0.530
        58  -7.9934    229.8328    229.0757   9.0783288938e+01  -6.3513244271e+00    0.1532448    0.1394472 -69.76  0.000886227    1.910    0.477
        59  -8.9002    162.3387    228.1308   1.0287786805e+02   4.8229428575e+00    0.3086627     0.208858  67.93  0.001349343    1.998    0.500
        60  -8.9142    127.7717    227.0482   1.0927245411e+02   1.0750010533e+01    0.2881751    0.1860643  67.91  0.001006306    1.737    0.424
        61  -7.9879    120.1319    227.9430   1.1082468538e+02   1.1829503342e+01    0.1969622     0.124158  79.33 0.0007969168    2.063    0.515
        62  -8.2951     49.7640    227.4311   1.2368288497e+02   2.1960544699e+01    0.2686664    0.1198555  81.17  0.001377298    2.503    0.601
        63  -8.6781    206.0971    226.4594   9.4548758747e+01  -2.2563727874e+00    0.1946881    0.1731921 -58.77 0.0007384631    1.634    0.388
        64  -7.6036     59.4792    227.4878   1.2197033978e+02   2.0729033741e+01      0.11445   0.08719769  68.54 0.0001427922    1.036    0.034
        65  -8.9599    216.4495    224.1503   9.2321604449e+01  -3.6355896356e+00    0.3031574     0.205029 -42.73  0.001273043    1.895    0.472
        66  -8.1374    200.3406    226.2876   9.5563337351e+01  -1.2875526055e+00    0.1477827    0.1146074 -47.15 0.0004309931    1.692    0.409
        67  -9.0377     94.4518    224.4370   1.1528208193e+02   1.6423961096e+01    0.4239158    0.1768295  61.52  0.001822204    2.929    0.659
        68  -8.7560    104.7596    223.7956   1.1326574712e+02   1.4974327838e+01    0.3066813    0.1761338  72.98  0.001594982    2.103    0.525
        69  -8.2087     38.4372    224.9431   1.2548850947e+02   2.3771830705e+01    0.1578269   0.06743833  76.41  0.000805701    2.418    0.586
        70  -8.0546     12.3727    224.7780   1.2987736338e+02   2.6608129440e+01    0.1389801   0.07677171 -75.95 0.0009511605    1.683    0.406
        71  -9.4112    225.3214    221.9537   9.0388924035e+01  -4.7749936354e+00    0.2545299    0.1927158 -15.95 0.0005292092    1.351    0.260
        72  -8.6346    180.2674    224.1107   9.8929180341e+01   2.3884330497e+00    0.2133772    0.1594964  49.66 0.0004606459    1.303    0.232
        73  -8.6253    172.9361    223.2663   1.0017934878e+02   3.7644290619e+00    0.2003408    0.1684481  74.38 0.0006137033    1.513    0.339
        74  -8.1644    113.6410    224.1946   1.1162087656e+02   1.3513500612e+01    0.1468626    0.1134345 -55.26 0.0004845569    1.573    0.364
        75  -8.2335     59.9538    224.0286   1.2161393170e+02   2.1308774991e+01    0.1973197    0.1016435  66.68 0.0006960029    1.763    0.433
        76  -8.7959    239.1631    221.6203   8.7934774228e+01  -6.8888751148e+00    0.2497196     0.197255 -47.37 0.0009925717    1.950    0.487
        77  -9.3381    192.5282    221.4960   9.6240485841e+01   6.8559280044e-01    0.2662241    0.2287056  79.67  0.001011763    1.685    0.407
        78  -9.2474    160.0046    221.0915   1.0231876278e+02   6.3205884341e+00    0.4741538    0.2280213  58.49  0.001969352    2.982    0.665
        79  -8.5776    140.4073    222.7381   1.0631032607e+02   9.3856031091e+00    0.1994595    0.1231541 -62.89 0.0007643176    2.036    0.509
        80  -8.4677    202.6396    220.4984   9.4217498452e+01  -8.7825296696e-01    0.2034925    0.1519494 -35.63 0.0006686482    1.554    0.356
        81  -9.1941    120.5904    219.4570   1.0971890184e+02   1.3236384915e+01    0.4515581    0.2206756  64.81   0.00191328    2.959    0.662
        82  -8.6505     82.8085    220.7487   1.1710511654e+02   1.8807048750e+01    0.2308141    0.1265052  75.54  0.001214861    2.055    0.513
        83  -8.1705     72.9715    220.7705   1.1894976768e+02   2.0184375842e+01     0.206703   0.09892046  62.97  0.001061895    2.030    0.507
        84  -8.3334     27.5438    220.8344   1.2711577466e+02   2.5762327105e+01    0.1951957    0.0854774 -73.98  0.001144437    2.076    0.518
        85  -9.9826    149.7570    226.3215   1.0500450414e+02   7.2261965784e+00    0.5707195    0.3420181 -87.17  0.002414526    3.880    0.742
        86  -8.3779    209.9295    219.1710   9.2671339579e+01  -1.9121949952e+00    0.1754183    0.1567873  40.93 0.0005232565    1.288    0.223
        87  -8.8175    142.9303    216.4169   1.0496126620e+02   1.0028228090e+01    0.3384492    0.2068918 -77.45  0.001569074    2.668    0.625
        88  -9.3723    132.8858    216.2088   1.0690133227e+02   1.1772369187e+01    0.4519903    0.2657515  78.48  0.002010345    2.941    0.660
        89  -8.6299     51.5789    217.7026   1.2263836189e+02   2.3565312061e+01     0.229603    0.1253105  72.26 0.0007788949    1.650    0.394
        90  -9.0305    169.3164    216.3826   9.9829553691e+01   5.4568033083e+00    0.2579768    0.2153658 -86.52  0.000967892    1.611    0.379
        91  -7.8637    111.7152    217.1261   1.1116242161e+02   1.5089140596e+01    0.2140551    0.1123721  70.45 0.0009413089    2.750    0.636
        92  -8.3780     61.7327    216.8462   1.2069794371e+02   2.2437271060e+01    0.2357937    0.1124443  81.11  0.001156452    2.483    0.597
        93  -8.2004     18.4427    215.7672   1.2839250427e+02   2.7680914377e+01    0.2042153   0.08406697 -85.48  0.001146187    2.120    0.528
        94  -8.2979    232.4530    214.8137   8.7919242695e+01  -5.0056308819e+00    0.1999968     0.167824 -49.05 0.0008180449    1.772    0.436
        95  -8.0992    195.2283    214.9943   9.4687475598e+01   1.1624360930e+00    0.1726745    0.1463315  23.80 0.0003607504    1.037    0.035
        96  -8.4686    185.4243    214.5704   9.6464954794e+01   2.9250457604e+00      0.19834    0.1793841  87.46 0.0006633665    1.473    0.321
        97  -8.3312    154.2182    215.1555   1.0257357462e+02   8.2911234132e+00    0.1758177    0.1398263  66.97 0.0006092893    1.383    0.277
        98  -9.4779    213.9970    212.2969   9.0770152224e+01  -1.6528040864e+00    0.3588795     0.256354  57.06  0.001487394    1.896    0.472
        99  -9.1461     92.8114    213.8834   1.1448008570e+02   1.8631805199e+01    0.2709436    0.1524678  66.45  0.001016535    1.842    0.457
       100  -9.5858     73.4264    211.9228   1.1803784732e+02   2.1815781604e+01    0.7014003    0.2749487  64.61  0.002773456    3.532    0.717
       101  -8.7066    161.7656    212.5129   1.0070258726e+02   7.4081956571e+00    0.2206676    0.1686715 -76.99 0.0007054593    1.809    0.447
       102  -8.0153    106.6055    213.2220   1.1169873429e+02   1.6624953147e+01    0.2020819    0.1242413  71.06  0.001067044    1.810    0.448
       103  -7.7441    224.7921    212.0991   8.8794607045e+01  -3.4176851584e+00    0.1496729     0.095608 -32.32 0.0008533675    1.688    0.407
       104  -8.9503    204.2092    210.9395   9.2334387528e+01   2.0326362370e-01    0.2302024    0.2026748 -57.98 0.0005792441    1.565    0.361
       105  -9.5242    175.6924    210.4020   9.7658728960e+01   5.2860894003e+00    0.4255056     0.276344  69.66  0.001537081    2.565    0.610
       106  -8.8853    148.1771    210.6984   1.0310783679e+02   1.0105198440e+01    0.2916351    0.2007563  82.07  0.001337488    2.140    0.533
       107  -9.0896      8.6267    212.3045   1.2989202733e+02   2.9311356782e+01    0.2139779   0.08130846  66.66  0.001167236    2.230    0.552
       108  -8.1987    192.2883    210.4379   9.4484008994e+01   2.3489917004e+00    0.1908691    0.1577982 -68.71 0.0006444545    1.755    0.430
       109  -9.0718    116.3553    210.3524   1.0940852044e+02   1.5589256840e+01    0.3215853    0.2071099  75.01  0.001167638    1.849    0.459
       110  -8.2439     32.5182    210.5619   1.2558850876e+02   2.7188054070e+01    0.2390852   0.09414076  73.64  0.001098911    2.793    0.642
       111  -9.3112    236.2923    208.7634   8.6181179409e+01  -4.8447729448e+00    0.3320369    0.2915686  -2.71  0.001362886    1.189    0.159
       112  -8.4458     85.7838    209.6907   1.1540398933e+02   2.0485734092e+01    0.2446663    0.1360958  79.60  0.001223687    2.165    0.538
       113  -8.1795     46.5901    209.4947   1.2292222639e+02   2.5771808334e+01    0.2249921    0.1039245  75.32  0.001134299    2.289    0.563
       114  -8.2513    126.7925    208.7398   1.0710355444e+02   1.4147352282e+01    0.2379334    0.1563513  82.75  0.001210803    2.048    0.512
       115  -9.4063    246.4122    207.3981   8.4197189503e+01  -6.2676877516e+00    0.2434571    0.1954993 -17.41 0.0006563592    1.253    0.202
       116  -7.9993    156.4313    208.2078   1.0109380667e+02   9.0775434578e+00    0.1632842    0.1265547 -70.89 0.0007436027    1.639    0.390
       117  -8.4890    139.2313    208.1405   1.0452026995e+02   1.2119370692e+01    0.2494776     0.148475  62.81 0.0009312583    1.990    0.497
       118  -9.3159     99.3529    206.2359   1.1230997912e+02   1.9102428342e+01    0.3690598    0.2162496  83.29  0.001390302    2.198    0.545
       119  -8.7913     56.2901    205.2054   1.2072400162e+02   2.5425966914e+01    0.2835188    0.1383335  80.99  0.001154355    2.300    0.565
       120  -8.3956     11.9711    206.7732   1.2902495688e+02   3.0058166633e+01    0.1264771   0.07712654  44.28 0.0006626523    1.621    0.383
       121  -9.3040    194.9165    203.5616   9.2809753624e+01   2.9315840564e+00    0.3137804    0.2533838 -43.52  0.001021361    1.458    0.314
       122  -9.1695    192.3792    197.3927   9.2208827484e+01   4.3575270281e+00    0.3127141    0.2490883 -65.19 0.0009893309    1.772    0.436
       123  -8.9370    183.8763    204.1972   9.5044330787e+01   4.8132668919e+00     0.306586     0.186802  57.71  0.001007044    2.056    0.514
       124  -8.7196    131.3628    204.0343   1.0552098693e+02   1.4236635264e+01    0.3108463    0.2023178  84.67  0.001062116    2.219    0.549
       125  -8.0387    109.3870    205.3349   1.1017026009e+02   1.7679667730e+01    0.1666089    0.1155211 -81.29 0.0006210954    1.605    0.377
       126  -9.4894    250.0769    201.8251   8.2556791523e+01  -6.1387405680e+00    0.4032605    0.1653608 -31.64  0.001530495    2.414    0.586
       127  -9.6367    163.7835    203.1261   9.8825734611e+01   8.6286247711e+00    0.3767394    0.2460059  60.07  0.001145364    1.780    0.438
       128  -8.8047    140.6187    201.3614   1.0323653668e+02   1.3109021954e+01    0.3495702     0.228496  84.22  0.001229197    2.386    0.581
       129  -7.9285     66.4405    203.2074   1.1855685075e+02   2.4500882391e+01    0.1663252   0.09961765  89.67  0.000918929    1.643    0.391
       130  -9.1970    242.9444    200.6199   8.3545886520e+01  -4.8560072001e+00    0.2963649    0.1694386 -35.35 0.0009876222    1.854    0.461
       131  -8.1367    222.0045    201.7574   8.7448089486e+01  -1.5420435112e+00    0.1845453    0.1464535  64.59 0.0008183873    1.923    0.480
       132  -8.2659    211.0197    202.0340   8.9509507769e+01   3.1396959051e-01    0.1822124    0.1609555  77.67 0.0005633456    1.672    0.402
       133  -8.3805     79.9583    201.3044   1.1565968011e+02   2.3001434658e+01    0.2384238    0.1430211  75.62  0.001277875    1.744    0.427
       134  -8.2464     48.3954    202.2064   1.2199022473e+02   2.7012106849e+01    0.1687355   0.09130788  88.95 0.0009402861    1.749    0.428
       135  -9.3432    236.8659    198.4314   8.4191215393e+01  -3.5773863697e+00    0.3142373    0.2035335 -39.68  0.001168401    1.795    0.443
       136  -9.4785    149.6741    198.7879   1.0098295341e+02   1.1955562158e+01    0.4030278    0.2693544  82.19  0.001186297    2.380    0.580
       137  -8.9973    123.8435    199.3093   1.0639001793e+02   1.6429058580e+01     0.317131    0.2065632  77.49  0.001576116    1.983    0.496
       138  -9.2728    112.9871    198.5930   1.0854300193e+02   1.8404123589e+01    0.4268031    0.2428104  69.71  0.001705948    2.284    0.562
       139  -9.0212     88.7316    198.6275   1.1356723502e+02   2.2249540751e+01    0.3404985     0.196414  81.44  0.001677962    2.109    0.526
       140  -8.4150    176.9490    198.8799   9.5494623748e+01   6.9438695170e+00    0.2269848    0.1746915 -83.62 0.0007404796    1.993    0.498
       141  -8.2874    202.5026    198.1383   9.0402969413e+01   2.4064418368e+00    0.1993932    0.1747597  55.83 0.0006651221    1.365    0.267
       142  -9.3087     61.6336    197.1363   1.1892322705e+02   2.6380294548e+01     0.405999    0.1988866  70.07  0.001609387    2.252    0.556
       143  -8.5033     12.7108    197.7031   1.2838062873e+02   3.1782501368e+01    0.2391308   0.09137027  77.57  0.001172074    2.593    0.614
       144  -7.9259     29.3304    197.6552   1.2528459509e+02   3.0114191041e+01    0.1265982   0.06346601  68.33 0.0007050441    1.755    0.430
       145  -9.8210    245.7805    193.7271   8.1764279045e+01  -4.4064280131e+00    0.3191977    0.2536305 -57.84  0.001319132    2.120    0.528
       146  -8.8607    224.3837    194.3021   8.5635926065e+01  -8.9193449649e-01    0.2681221    0.2120164 -47.52  0.001138894    1.652    0.395
       147  -7.5785    209.3073    195.6814   8.8670766739e+01   1.5609407827e+00    0.1204052    0.1063878  78.46  0.000483098    1.635    0.388
       148  -8.8675    185.1568    194.9116   9.3176239441e+01   6.0897730694e+00    0.2225384    0.2106991  78.57 0.0007009723    1.277    0.217
       149  -9.2384    161.1670    194.5133   9.7928339103e+01   1.0618948252e+01    0.2827408     0.209549  72.86 0.0009550312    1.751    0.429
       150  -8.9820     43.7158    193.2171   1.2214483131e+02   2.9419399175e+01    0.3971646     0.173905  76.91  0.001809977    2.716    0.632
       151  -9.0320     77.0592    193.8655   1.1542854284e+02   2.4945626400e+01     0.249632    0.1702209  79.98 0.0007149664    1.397    0.284
       152  -8.6993    231.2414    194.9559   8.4529745672e+01  -2.1603296931e+00    0.2652892    0.1956035 -50.37  0.001150046    1.926    0.481
       153  -8.2920    198.9627    191.5753   8.9876003191e+01   4.0786432254e+00    0.2280304     0.186818 -56.83 0.0007082266    1.588    0.370
       154  -8.1764    178.9969    191.9164   9.3863998253e+01   7.7425854179e+00    0.2034315    0.1656605  80.39 0.0006445726    1.673    0.402
       155  -8.4045    172.3482    191.8109   9.5184391440e+01   9.0090989347e+00    0.2424576    0.2011655  86.89 0.0009913554    1.590    0.371
       156  -9.1865    139.5002    190.7861   1.0181738509e+02   1.5304553142e+01    0.3368493    0.2379014  81.36  0.001012647    1.878    0.468
       157  -7.4473    205.2560    191.6834   8.8691805197e+01   2.9069655991e+00    0.1178205    0.1072543 -88.36 0.0002459764    1.534    0.348
       158 -10.4916     92.2621    188.8058   1.1161260911e+02   2.3738166516e+01    0.9276839    0.2851978  51.45  0.003283042    3.470    0.712
       159  -8.5200    148.5158    189.3002   9.9673617265e+01   1.3930996817e+01    0.2322696    0.1893052 -85.62 0.0008243974    1.467    0.318
       160  -8.9807    129.3586    188.7422   1.0364696641e+02   1.7533648732e+01    0.3113391    0.2089672  77.54  0.001062397    1.941    0.485
       161  -8.7213    215.8954    195.7055   8.7449958852e+01   3.8763211270e-01    0.2599849    0.1732704 -53.13 0.0009032892    2.190    0.543
       162  -8.4248    237.3717    188.4967   8.2212930842e+01  -2.2967788213e+00    0.2310076    0.1456314 -32.38 0.0006444029    1.594    0.373
       163  -9.3471    156.0970    187.6261   9.7797804932e+01   1.2827961166e+01    0.3598936    0.2333053 -63.41  0.001045932    1.979    0.495
       164  -9.8665    120.9664    186.8893   1.0516250458e+02   1.9389171621e+01    0.5295656    0.2852835 -75.50  0.002174777    2.836    0.647
       165  -8.7954     34.3120    188.2485   1.2360107332e+02   3.1525498542e+01    0.2987089    0.1278691  71.14  0.001025097    2.542    0.607
       166  -8.5276    133.0106    196.0105   1.0399717440e+02   1.5464800016e+01    0.2143858    0.1508249  73.12  0.000596909    1.680    0.405
       167  -8.9011    216.3018    187.7626   8.5871775508e+01   1.5053478198e+00    0.2422545    0.2085159 -24.63 0.0007203221    1.216    0.177
       168  -8.9459    191.5315    187.2464   9.0515479635e+01   6.1724237086e+00    0.3341745    0.2489601 -81.43   0.00126972    2.353    0.575
       169  -8.9521     54.8973    187.1126   1.1931102634e+02   2.9351684873e+01    0.3978617    0.1699746  64.11   0.00173132    2.688    0.628
       170  -8.1438    230.4948    187.0844   8.3154931486e+01  -9.1312093263e-01    0.1876785    0.1220634 -32.11 0.0006792946    1.553    0.356
       171  -9.0496    164.7849    186.4780   9.5786144602e+01   1.1394404336e+01    0.3349194    0.2455605 -67.10  0.001513933    1.774    0.436
       172  -9.4008    109.4304    185.9233   1.0751500480e+02   2.1565840741e+01    0.4081508    0.2629062 -89.78   0.00141492    1.954    0.488
       173  -8.6631    249.3979    185.5686   7.9574291781e+01  -3.9013429899e+00    0.2370373     0.201214 -40.21 0.0009171642    1.508    0.337
       174  -9.0389    210.3201    183.9668   8.6257677885e+01   3.1877352850e+00    0.3201996    0.1977374 -34.54  0.001057623    1.685    0.407
       175  -8.6943    202.7848    184.7661   8.7850785371e+01   4.4635513459e+00    0.2409987    0.1863806 -48.10 0.0006684195    1.538    0.350
       176  -8.6730    182.9228    185.1215   9.1831244770e+01   8.1698629616e+00    0.2022565    0.1856694  71.23 0.0005843432    1.278    0.217
       177  -9.1230    174.2688    183.4296   9.3274334395e+01   1.0130130805e+01    0.3642589    0.2486886 -63.79  0.001197423    2.023    0.506
       178  -9.1488     66.5582    184.4992   1.1658405452e+02   2.8392626163e+01    0.3518487    0.1936539  70.89  0.001204676    1.944    0.486
       179  -9.0893    223.5565    183.6757   8.3741150974e+01   8.1716487870e-01    0.2434171    0.2143903  32.96  0.001038669    1.186    0.157
       180  -9.0282    241.0075    181.8235   8.0270581006e+01  -1.9750799792e+00    0.3361402    0.1955235 -51.79  0.001522069    2.849    0.649
       181  -7.9890    196.9848    183.3471   8.8703125054e+01   5.7899561422e+00    0.1918615    0.1679522  29.55 0.0005213803    1.045    0.043
       182  -9.0023     44.5344    182.4936   1.2101768669e+02   3.1598250253e+01    0.3407371    0.1760256  69.35  0.001124417    1.924    0.480
       183  -8.1959      1.7485    183.6067   1.2960348461e+02   3.5634175353e+01    0.1454441    0.0781888  52.36 0.0009408696    1.642    0.391
       184  -9.3698    147.4840    180.5455   9.8387427513e+01   1.5813809951e+01    0.3439579    0.2543345  87.88  0.001049365    1.814    0.449
       185  -9.6217     25.9995    179.5597   1.2457827097e+02   3.4246233108e+01    0.5901511    0.2109985  77.29  0.002189724    4.221    0.763
       186 -10.6393    190.6649    179.5795   8.9221828867e+01   7.6387058939e+00    0.3434545    0.2967635   0.81 0.0005945219    1.193    0.162
       187  -8.6876    137.5398    179.3383   1.0033345761e+02   1.7925409340e+01    0.2914655    0.2038757  81.02  0.001004057    1.917    0.478
       188  -8.1125    169.2791    178.4707   9.3379228271e+01   1.2003997781e+01    0.2196025    0.1712918 -74.73 0.0005509069    1.709    0.415
       189  -9.2064     35.9360    176.7675   1.2228861651e+02   3.3807968620e+01    0.5337762    0.2044176  79.19  0.001948753    4.159    0.760
       190  -9.6167    248.4512    176.9486   7.8021982113e+01  -2.5529502902e+00    0.3989177    0.2660512 -46.38  0.001850454    1.943    0.485
       191  -8.5697    250.5187    172.8807   7.6850125813e+01  -2.3294269331e+00    0.1856477    0.1638773 -13.85 0.0004919897    1.156    0.135
       192  -8.5593    231.2228    177.0029   8.1026526652e+01   4.4306682141e-01    0.2467964    0.1702006 -42.64 0.0007071842    1.656    0.396
       193  -8.3171    217.5185    177.2696   8.3580345358e+01   2.9077910399e+00    0.2195323    0.1860801 -48.15 0.0007139411    1.441    0.306
       194  -8.5573    205.0248    177.5925   8.6012795021e+01   5.2119493873e+00    0.2518581    0.1892145 -51.19 0.0007893612    1.631    0.387
       195  -8.6949    129.1626    177.5412   1.0186849054e+02   1.9840537687e+01    0.2925852    0.2064221  87.86  0.001016843    1.827    0.453
       196  -8.4467     79.0948    158.4893   1.1037293651e+02   3.2432478255e+01    0.2799557    0.1383563  30.95  0.001201168    2.532    0.605
       197  -9.4434     81.7131    155.0114   1.0920906234e+02   3.2845476754e+01    0.4713815    0.2659813  75.37  0.001414426    2.460    0.593
       198 -10.6822     76.0495    171.1843   1.1287311039e+02   2.9993994050e+01     1.066377    0.4154274 -78.64  0.003432625    4.499    0.778
       199  -8.8949     74.3323    160.3179   1.1177500958e+02   3.2703315348e+01    0.2490395    0.1968358 -36.54 0.0007957926    1.713    0.416
       200  -8.2443    211.6046    176.7914   8.4594893563e+01   4.0930177158e+00    0.1858827    0.1270774 -45.73 0.0007080525    1.686    0.407
       201  -9.2542    183.1022    175.9816   9.0044381805e+01   9.7462189107e+00    0.3164686    0.2289802 -53.85 0.0009626591    1.638    0.389
       202  -9.4661    104.4514    174.9383   1.0697488802e+02   2.4734342937e+01    0.5300788     0.290354  69.79  0.001987731    2.598    0.615
       203  -8.0583     97.7224    177.4582   1.0886202060e+02   2.5294980356e+01    0.1704721    0.1285079  32.91 0.0005468099    1.528    0.346
       204  -8.7310     89.0775    176.6755   1.1068365376e+02   2.6832625938e+01     0.284365    0.1803667  79.73  0.000900374    1.798    0.444
       205  -9.2773     59.0074    176.0074   1.1726235357e+02   3.1241276232e+01    0.3892199    0.1783733  67.47  0.001662411    2.742    0.635
       206  -9.4669     55.9895    171.2698   1.1739265062e+02   3.2676805591e+01    0.4433074    0.2186612  84.56  0.001585841    2.524    0.604
       207  -9.0209     12.8072    176.5959   1.2701845608e+02   3.6139538687e+01    0.2922187    0.1424643  75.32  0.001646576    1.828    0.453
       208  -9.2835    159.0300    175.1967   9.4931817718e+01   1.4630212045e+01    0.4259611    0.2861804  73.84  0.001790151    2.230    0.551
       209  -8.5091    224.3501    174.4442   8.1748533028e+01   2.0835519370e+00    0.2071471     0.159595 -50.98 0.0005771706    1.668    0.400
       210  -9.8256    175.8908    171.7451   9.0696976513e+01   1.1948215909e+01    0.4830611    0.2781516 -33.49  0.001830319    2.011    0.503
       211  -8.5669    143.0981    172.7216   9.7940173560e+01   1.8214850841e+01    0.2355886    0.1948272 -74.47  0.000645002    1.348    0.258
       212  -8.7732    134.8128    171.5151   9.9564095111e+01   2.0040559567e+01    0.3132667    0.1990319 -61.61  0.001243271    1.757    0.431
       213  -9.6097    121.3768    170.3866   1.0239837375e+02   2.2765109079e+01    0.4497303    0.2820567 -78.35  0.001169816    2.124    0.529
       214  -9.0277     45.0615    171.0666   1.1978138440e+02   3.4039735453e+01    0.3486264      0.17348  86.54  0.001236304    2.174    0.540
       215  -8.5772    198.7259    170.2620   8.5759310473e+01   7.6716986667e+00    0.2989219    0.1835317 -53.70 0.0009990496    2.131    0.531
       216  -8.2207    237.2731    169.6763   7.8458050250e+01   4.5539431745e-01    0.2223704    0.1751903 -18.83  0.000663575    1.177    0.150
       217  -8.9402    230.4963    169.4180   7.9603534259e+01   1.7282177748e+00    0.3604016    0.2118091 -46.26  0.001713556    2.050    0.512
       218  -8.3643    205.7261    169.9949   8.4336797024e+01   6.3433101949e+00    0.2573561    0.1710697 -41.28  0.001078272    1.591    0.372
       219  -9.2836    167.2344    168.7906   9.1938766784e+01   1.4240787186e+01    0.3795377    0.2740099  69.67  0.001107934    1.807    0.447
       220  -8.7207    149.7010    169.6196   9.5906309121e+01   1.7562205551e+01    0.2743301    0.2144549 -78.37 0.0008162877    1.566    0.361
       221  -8.2274    244.6463    169.3957   7.7126748267e+01  -8.1363852159e-01    0.1769408    0.1622051 -72.96 0.0006265584    1.619    0.383
       222  -8.5371     88.6102    168.8854   1.0967872035e+02   2.8628805784e+01    0.2577249    0.1553407 -81.43 0.0007887714    1.871    0.465
       223  -8.2454    218.8201    168.2396   8.1488536305e+01   4.1037697426e+00    0.1916327    0.1851597 -21.16 0.0004928199    1.193    0.162
       224  -8.7510    111.5550    167.2661   1.0412098359e+02   2.5191998887e+01    0.3254823    0.2110978 -89.70 0.0009982457    2.040    0.510
       225  -8.9905    191.9454    166.5648   8.6349660613e+01   9.6726170748e+00    0.2903747    0.2026094 -44.23 0.0006370749    1.532    0.347
       226  -8.6223    185.0602    166.5786   8.7754008500e+01   1.1058976519e+01    0.2612391    0.2011191 -60.34 0.0007544267    1.611    0.379
       227  -9.9572    136.8348    164.5217   9.7823243698e+01   2.1121053258e+01     0.670229    0.3127054  58.35  0.002220348    2.972    0.663
       228 -10.0822     95.0569    162.8982   1.0725993706e+02   2.8951372348e+01    0.8629675    0.4553017  79.92  0.003017016    3.689    0.729
       229  -9.0204     20.6807    166.4177   1.2462168128e+02   3.7618173075e+01    0.3453777    0.1358779  61.90  0.001197831    2.680    0.627
       230  -8.8227     12.8219    167.2234   1.2634220345e+02   3.8153380160e+01    0.2090688   0.07934263  65.87 0.0009525903    2.831    0.647
       231  -8.0355    233.8883    165.1266   7.8103518661e+01   1.7649831938e+00    0.1931551    0.1759161 -37.69 0.0004771833    1.282    0.220
       232  -8.7248    159.5583    164.4196   9.2727713080e+01   1.6643803399e+01    0.2921897    0.2199138  88.81 0.0007308763    1.856    0.461
       233  -9.5425     33.4004    163.4056   1.2158152973e+02   3.7032142257e+01    0.4949419    0.1892377  60.18  0.002114486    3.029    0.670
       234  -8.3344    240.0464    164.0830   7.6808062568e+01   7.9780275536e-01    0.1944628    0.1673659 -63.75 0.0006315542    1.674    0.403
       235  -9.1700    211.8574    163.6619   8.1835623538e+01   6.2074909958e+00    0.3204069    0.2487502  42.33  0.001100161    1.285    0.222
       236  -8.6955    246.0717    162.8757   7.5524895490e+01  -1.0409787057e-01    0.2484196    0.1752787 -22.91 0.0005511417    1.304    0.233
       237  -8.9393    243.1606    159.5124   7.5305870062e+01   9.2459492533e-01    0.4002433    0.2077081  27.42  0.001741612    2.359    0.576
       238  -8.3815    204.8056    162.8955   8.3030028141e+01   7.7368038432e+00    0.2461025    0.1912797 -55.55  0.000632951    1.593    0.372
       239  -9.3570      3.3427    162.3434   1.2796807922e+02   3.9998846109e+01    0.3500502    0.1433592  61.58  0.001767292    2.336    0.572
       240  -9.2352    177.4855    160.7050   8.8109372504e+01   1.3704291775e+01    0.3510239    0.2475935 -62.32 0.0009409972    1.832    0.454
       241  -9.0371    151.5608    161.2656   9.3865760042e+01   1.8894920217e+01    0.3183253    0.2547407 -78.28  0.001024488    1.503    0.335
       242  -8.7789     60.5657    160.4563   1.1503957861e+02   3.4543136165e+01    0.2922366    0.1547051  71.63  0.001046644    2.299    0.565
       243  -8.7177    227.4877    159.2417   7.7993714734e+01   3.8955289407e+00    0.2995856    0.2119254 -56.55   0.00112703    1.987    0.497
       244  -9.6111    105.9288    158.1448   1.0388326467e+02   2.8203217571e+01    0.5008541    0.3158991  78.50  0.001252236    2.159    0.537
       245  -9.6856    250.1966    157.8301   7.3767220082e+01  -8.9001359340e-02    0.3157958    0.1704228 -32.68 0.0007730523    1.705    0.413
       246  -8.4567    237.0090    159.0005   7.6255173310e+01   2.1348960768e+00    0.1990654    0.1690853 -64.33 0.0006637169    1.668    0.400
       247  -8.3241    128.0269    159.0191   9.8813158372e+01   2.3989106531e+01    0.2335489     0.170481  79.38 0.0005323702    1.680    0.405
       248  -8.4987    196.6776    158.1054   8.3607941270e+01   1.0228822115e+01     0.238796    0.1988205  57.52 0.0007643286    1.344    0.256
       249  -8.3567    188.2677    157.8004   8.5246573739e+01   1.2020027381e+01    0.2507635    0.1783642 -43.52 0.0006931293    1.468    0.319
       250  -9.0857    167.4716    157.3963   8.9557725487e+01   1.6420607632e+01    0.3274742    0.2595628 -82.25  0.001216274    1.666    0.400
       251  -8.4096    217.9895    156.5346   7.9148348643e+01   6.1917361069e+00    0.2668001    0.1841919 -49.16 0.0007719161    1.700    0.412
       252  -9.0779    157.8873    156.0933   9.1394392843e+01   1.8666240246e+01    0.3833984    0.2089972 -53.83  0.001227708    2.066    0.516
       253  -9.4406    119.5749    155.2241   1.0009049607e+02   2.6412506941e+01    0.4609794    0.2926498 -78.09  0.001692668    2.101    0.524
       254  -9.2007     49.4378    155.3075   1.1701275102e+02   3.7101976238e+01    0.3467842    0.1949731  76.08  0.001722148    1.962    0.490
       255  -8.3676    242.5551    155.0314   7.4447537092e+01   1.7197537415e+00    0.1951191    0.1597514 -20.79 0.0004483851    1.111    0.100
       256  -9.8813    238.7812    151.1730   7.4252590837e+01   3.0257350682e+00    0.4349829    0.2998962 -48.24  0.002221335    1.716    0.417
       257  -8.1915    204.6896    155.1646   8.1384864624e+01   9.1090734522e+00    0.2216591    0.1742357 -49.76 0.0007481992    1.437    0.304
       258  -8.5810    144.5886    154.8831   9.4155165855e+01   2.1632213485e+01     0.340996    0.2320701  66.27  0.001228308    1.797    0.443
       259  -9.8056    132.7295    152.9238   9.6519832210e+01   2.4412130172e+01    0.4940737    0.3446953  82.74  0.001271227    1.980    0.495
       260  -9.1639    133.7435    148.2574   9.5328292052e+01   2.5234719191e+01    0.3723451    0.2014855 -46.18   0.00155443    1.910    0.476
       261  -9.1640     68.1372    153.9967   1.1235397209e+02   3.5030013085e+01    0.4379335    0.2267168  69.11  0.001260275    2.590    0.614
       262  -7.8162    232.6272    153.8233   7.5902825499e+01   3.7783896636e+00    0.1877076    0.1217546 -41.24 0.0004705172    1.592    0.372
       263  -8.2094    151.6088    152.7840   9.2114267761e+01   2.0644031708e+01    0.2095897    0.1413925 -59.13 0.0009453102    1.670    0.401
       264  -9.5408     20.1457    152.5712   1.2352650136e+02   4.0752945342e+01    0.2395898    0.1459241  75.05    0.0010427    1.493    0.330
       265  -8.7555     98.3967    150.8956   1.0443534946e+02   3.1142957031e+01    0.3176726    0.2177002  85.64  0.000994148    1.753    0.429
       266  -9.7670     29.4271    150.7766   1.2120895802e+02   4.0294602760e+01    0.4296645     0.190974  70.99  0.001826477    2.805    0.643
       267  -8.2252    250.3241    141.0063   7.0086474015e+01   2.4372610963e+00    0.1949832    0.1606898 -23.11 0.0005228118    1.080    0.074
       268  -9.6443    248.8397    149.4109   7.2177275800e+01   1.4231583005e+00    0.3560538    0.1965315 -31.98  0.000791428    1.654    0.395
       269  -9.1782    247.0365    144.0154   7.1288567132e+01   2.5873983399e+00     0.292653     0.178141 -31.10 0.0005058722    1.496    0.332
       270  -9.0381    243.2214    150.1272   7.3268714347e+01   2.3535799892e+00     0.321375    0.1687681 -41.87  0.001065003    1.959    0.490
       271  -9.4284    240.3658    145.2106   7.2666374954e+01   3.6652081695e+00    0.2669791    0.1766132 -39.34  0.000629584    1.489    0.328
       272  -9.3003    242.6672    143.3324   7.1861065163e+01   3.5216556993e+00    0.2139102    0.1742262  68.06 0.0006526819    1.683    0.406
       273  -8.9310    189.4390    150.3296   8.3369692874e+01   1.3167821198e+01    0.3067115    0.2500795 -59.95 0.0007440523    1.449    0.310
       274  -7.9125    182.4675    151.5069   8.5078678554e+01   1.4421280881e+01    0.1461453    0.1432193  59.57 0.0001553277    1.087    0.080
       275  -8.6151    162.3693    150.8239   8.9274563225e+01   1.8808497455e+01    0.2257954    0.1845449 -66.12 0.0006047814    1.397    0.284
       276  -8.2500    213.0025    149.9651   7.8636067822e+01   8.3146574474e+00    0.2099737      0.17769 -70.79 0.0004568706    1.579    0.367
       277 -10.0562     89.2561    146.4965   1.0593372429e+02   3.3660838603e+01    0.6795119    0.3667992  87.68  0.002393371    3.490    0.713
       278  -9.7599     39.7528    147.9261   1.1843549495e+02   3.9898095723e+01    0.5350582      0.23806  66.34  0.001905631    2.987    0.665
       279  -8.3151    198.7941    149.0859   8.1198690178e+01   1.1422095515e+01    0.2136521    0.1987624 -67.17  0.000530592    1.254    0.203
       280  -8.8243    233.2900    147.5745   7.4409321439e+01   4.6548936882e+00    0.2638979    0.1761123 -31.45 0.0007141841    1.409    0.290
       281 -10.4190    106.7612    144.0492   1.0108384203e+02   3.1279825817e+01    0.8123823    0.5175447 -79.92  0.002132974    2.025    0.506
       282  -8.7557     78.0267    147.2785   1.0888488172e+02   3.5198432681e+01    0.2544811    0.1729134  86.66 0.0006863081    1.616    0.381
       283 -10.3745     54.5572    144.2130   1.1430868641e+02   3.9076941079e+01    0.9115413    0.4467529  86.56   0.00315981    2.984    0.665
       284  -8.8428     57.5080    135.4809   1.1226046229e+02   4.0781835976e+01    0.2761244    0.1745102  22.75  0.001395767    2.145    0.534
       285  -8.3071    223.3139    146.9545   7.6048600409e+01   6.7339443503e+00    0.2001389    0.1696423 -25.25 0.0003519352    1.120    0.107
       286 -10.2518    148.9902    145.1290   9.1073385955e+01   2.2803695016e+01    0.5481335    0.3810809 -88.94  0.001695012    2.228    0.551
       287 -10.2099    139.1549    145.1167   9.3379442376e+01   2.4834646754e+01    0.7145013     0.341089 -62.97  0.002389224    3.195    0.687
       288  -9.3824     13.1608    145.8407   1.2451223534e+02   4.2868469512e+01    0.3699563    0.1640921  69.34  0.001248586    2.488    0.598
       289  -8.0670    206.7954    146.5449   7.9054586392e+01   1.0199660605e+01    0.1934639    0.1416809  59.25 0.0005468488    1.616    0.381
       290  -8.1817    175.6198    146.3701   8.5388993739e+01   1.6881704786e+01    0.2204827    0.1807047 -88.85 0.0006826235    1.584    0.369
       291  -9.8852    125.1801    142.8926   9.6279884618e+01   2.8111701736e+01    0.5573733    0.3622963  86.88  0.001642132    2.460    0.594
       292 -10.9111     69.1417    140.2382   1.0999707314e+02   3.8127326882e+01    0.9584594     0.372069 -61.93  0.003538267    2.303    0.566
       293  -7.7389    194.3763    144.2083   8.0979772724e+01   1.3259761608e+01    0.2051877    0.1370547 -48.39 0.0005036068    1.618    0.382
       294  -8.6671    165.4934    144.1676   8.7108017588e+01   1.9502178002e+01    0.2678073    0.2103132  50.05 0.0006100683    1.265    0.210
       295  -9.7033      2.6059    141.3333   1.2656041283e+02   4.4682606313e+01    0.4524139     0.174835  85.65  0.002073568    2.664    0.625
       296  -7.7099    230.3183    142.6635   7.3828785258e+01   6.0432333032e+00    0.1387794     0.112335 -66.49 0.0007049015    1.702    0.413
       297  -8.3917    181.9897    141.9824   8.3030173494e+01   1.6363611387e+01    0.2254709    0.2202706 -83.13 0.0005033047    1.105    0.095
       298  -9.8717     23.3500    138.1188   1.2131114625e+02   4.3771680984e+01    0.5239268    0.2352328  72.16  0.001785996    2.852    0.649
       299  -8.1374    218.6585    138.4887   7.4969371954e+01   9.1307118227e+00    0.2482292    0.1305938 -35.55 0.0007282651    1.828    0.453
       300  -8.6666    172.4395    138.4753   8.4269722027e+01   1.9146807929e+01    0.3194272    0.2270201 -84.58 0.0007504252    2.262    0.558
       301  -9.0056    241.3729    137.6121   7.0791912339e+01   4.6803827960e+00    0.2757911    0.1237114 -25.40  0.001056967    2.518    0.603
       302  -7.6831    229.5232    138.5379   7.3029396396e+01   6.8866816515e+00    0.1425818    0.1306979 -12.70 7.040513e-05    1.019    0.019
       303  -8.2782    207.6422    138.1190   7.6952971721e+01   1.1527198287e+01    0.2318051    0.1767962 -53.13 0.0007991085    1.496    0.332
       304  -8.6944    197.5533    137.6242   7.8813493967e+01   1.3798551797e+01    0.2836236    0.2352803 -58.80 0.0008594216    1.391    0.281
       305  -8.8534    151.0607    136.2256   8.8587734681e+01   2.4267213199e+01    0.4965425    0.3010997  16.88  0.001693153    3.263    0.694
       306 -10.4864     83.3089    133.0881   1.0503286129e+02   3.7760081714e+01    0.6491669    0.3543386 -64.02  0.001744022    1.762    0.433
       307  -8.7087     84.0102    123.1992   1.0289559169e+02   4.0005579164e+01    0.2772721     0.172467 -35.63 0.0009804792    2.076    0.518
       308  -8.5972    162.4667    136.4188   8.6007230897e+01   2.1753733360e+01    0.2620216    0.1440087 -54.74 0.0007569873    2.124    0.529
       309  -9.1572     39.3138    136.2943   1.1708583577e+02   4.2664210150e+01     0.295448    0.1737477  70.14 0.0008285701    1.876    0.467
       310  -8.9062    248.6317    135.3192   6.9086653988e+01   3.6410265573e+00    0.2893839     0.198213 -39.24 0.0007374744    1.403    0.287
       311  -9.1355    250.7121    130.1232   6.7580584756e+01   4.0557953267e+00      0.53463    0.1262904 -34.33   0.00164944    3.807    0.737
       312  -8.7901    246.9675    130.4549   6.8250212055e+01   4.7285965211e+00      0.32989       0.2105 -55.26  0.001126377    2.101    0.524
       313  -7.3670    192.3428    136.6835   7.9643133614e+01   1.5115421692e+01    0.1524586    0.1221116 -83.15  0.000704852    1.713    0.416
       314  -8.1749    124.8278    136.3941   9.4977164344e+01   2.9647298357e+01    0.2135563    0.1434093  31.35 0.0005464261    1.743    0.426
       315  -7.5706    187.7393    135.6868   8.0353314258e+01   1.6320431516e+01    0.1495925    0.1178864   0.31 0.0002894544    1.535    0.349
       316  -8.3292    237.4446    133.7382   7.0565938819e+01   6.0823046161e+00    0.2624158    0.1249591 -38.45 0.0008569584    1.958    0.489
       317  -8.4069    179.4447    133.8538   8.1663000725e+01   1.8519370239e+01    0.2876382    0.2054549 -61.59  0.000770792    1.729    0.422
       318  -9.0515    112.9644    133.4468   9.7341418822e+01   3.2600421729e+01    0.3560454    0.2392679  71.88 0.0009448139    1.949    0.487
       319  -9.1979    143.2382    131.8909   8.9437019414e+01   2.6875149164e+01    0.3522074     0.262142 -77.33 0.0007593619    1.719    0.418
       320 -10.3965    132.6781    131.7242   9.1978504542e+01   2.9119170354e+01    0.5765072    0.3837547  70.55  0.001157434    2.039    0.510
       321 -10.4157     98.2587    130.2456   1.0050178171e+02   3.5991393054e+01    0.7035048    0.3315115 -58.67  0.001634508    2.093    0.522
       322  -8.8714     99.2156    120.6318   9.8166684103e+01   3.8087015047e+01    0.6687813    0.3733348  14.65   0.00203402    4.794    0.791
       323  -9.9135     73.1345    129.3685   1.0706522484e+02   4.0158611090e+01    0.4529814    0.2744586 -90.00  0.001217394    2.180    0.541
       324 -10.0379     12.9552    129.5819   1.2298029956e+02   4.6592817387e+01    0.4521214    0.2217299  76.27  0.001865047    2.250    0.556
       325  -7.9936    204.7255    130.5638   7.5725865387e+01   1.3529240089e+01    0.1960338    0.1470083  61.53 0.0006494523    1.553    0.356
       326  -8.0819    192.9318    130.3432   7.8007783842e+01   1.6187150518e+01    0.2077784    0.1910464  40.02 0.0003921517    1.096    0.087
       327  -9.2315    168.3185    129.5353   8.3050656177e+01   2.1876488146e+01    0.3157507    0.2544556 -77.96 0.0007644562    1.552    0.356
       328  -8.5642    161.9928    129.9753   8.4582525479e+01   2.3198029092e+01    0.2505957    0.1950323 -87.68  0.001131216    1.706    0.414
       329  -9.4850    152.8626    128.3802   8.6309736755e+01   2.5552746759e+01    0.6161678    0.2739983 -49.14  0.002207051    2.343    0.573
       330  -8.2636    211.7489    129.0113   7.4017601499e+01   1.2271607355e+01    0.2361701    0.1611586 -59.94 0.0006250128    1.945    0.486
       331 -10.4389     59.9815    125.0413   1.0987762443e+02   4.2964766455e+01    0.7641513    0.4149005  82.59  0.002666128    2.935    0.659
       332  -8.6826     59.2882    115.2433   1.0829223924e+02   4.5397004191e+01    0.3614457    0.2099359 -33.94  0.001618516    2.409    0.585
       333 -10.7417     44.7796    123.3913   1.1378315905e+02   4.5142049813e+01     1.092134    0.5246116  80.06  0.003970056    3.834    0.739
       334  -9.9436    117.9890    125.3224   9.4231378241e+01   3.3512782538e+01    0.5386664     0.372207  84.94  0.001479156    2.094    0.522
       335  -7.8662    228.3548    125.7293   7.0245854529e+01   9.2801487202e+00    0.1400495    0.1148127 -75.23 0.0005069183    1.637    0.389
       336  -8.9101    179.1612    124.8324   7.9525059833e+01   2.0370237440e+01    0.2752745    0.2403327 -63.64 0.0005740595    1.261    0.207
       337 -10.2281     28.3597    122.4067   1.1810949848e+02   4.6994420809e+01    0.6426536    0.2996686  79.26  0.002578771    3.174    0.685
       338  -7.9712    188.5561    124.0748   7.7365112002e+01   1.8374289914e+01    0.2105896    0.1294052 -61.05 0.0005770614    2.300    0.565
       339 -10.4000    131.1189    118.6865   8.9254862290e+01   3.2357341367e+01    0.6440845     0.420705 -80.71   0.00205108    2.520    0.603
       340 -10.0310    133.6379    109.9863   8.6387154172e+01   3.3747364665e+01    0.6681622    0.3338776 -52.53  0.002070816    2.129    0.530
       341  -9.2524    158.7007    121.6078   8.3275468789e+01   2.5685683687e+01    0.4081559    0.2972358 -74.87  0.001105783    1.868    0.465
       342  -8.1749    203.0006    122.0333   7.3979866039e+01   1.5478283150e+01    0.2392212    0.1846295 -69.47 0.0005913391    1.690    0.408
       343  -8.0510    194.9773    121.9795   7.5541554066e+01   1.7309156021e+01    0.2408113    0.1860118 -70.00 0.0005033141    1.675    0.403
       344  -8.8653    171.9318    121.7062   8.0311590920e+01   2.2650716480e+01    0.2868986    0.2241397 -50.10 0.0004590365    1.314    0.239
       345  -9.5786     71.3596    120.1266   1.0580065995e+02   4.2621082873e+01    0.3239651    0.2248001  87.60 0.0008574301    1.707    0.414
       346 -10.1882    141.4592    117.9897   8.6485901597e+01   3.0296460771e+01    0.6591921    0.3349751 -52.54  0.002163704    2.107    0.525
       347  -9.6635      2.9340    117.4679   1.2429008287e+02   5.0059380559e+01    0.4349498    0.1940735  76.51   0.00207101    2.657    0.624
       348  -7.5585    231.6647    117.3645   6.7684493244e+01   9.9897177758e+00    0.1516555    0.1104362 -64.32 0.0001348587    1.825    0.452
       349 -10.0008    109.4790    114.2893   9.3878228841e+01   3.7689530912e+01    0.5556009    0.3518111 -76.38  0.001376791    2.315    0.568
       350  -8.8057    109.2696    107.8587   9.2332057966e+01   3.9205296653e+01     0.357453    0.2206327  20.92  0.001393055    2.532    0.605
       351  -8.4299    193.0204    115.4287   7.4280757587e+01   1.8998462520e+01    0.2894295    0.2031709 -52.48 0.0005987526    1.550    0.355
       352  -8.0398    185.9903    116.0657   7.5873760485e+01   2.0512743839e+01    0.2413475     0.189039 -74.51 0.0005227142    1.641    0.391
       353  -9.1542    250.1808    115.1356   6.4211600600e+01   6.5233825862e+00    0.2160753    0.1952371 -25.04 0.0006927113    1.027    0.026
       354 -10.8966    248.8979    104.0530   6.1794086701e+01   8.5432574604e+00    0.5107793    0.3345951 -37.27  0.002578053    1.354    0.262
       355  -8.6537     78.7193    105.2204   1.0047460996e+02   4.5085805377e+01    0.3140648    0.2195544  17.10 0.0009332111    1.936    0.483
       356  -7.8760    167.4606    114.5029   7.9459121853e+01   2.5146088786e+01    0.1557187    0.1534931 -52.65 0.0001391844    1.015    0.015
       357 -10.1453     92.7689    112.6649   9.8136056834e+01   4.1072027501e+01    0.5411339    0.3518641 -76.24  0.001251249    1.955    0.488
       358  -8.9329     93.0595    104.9684   9.6201366152e+01   4.2819625464e+01    0.5083693     0.312383   6.62  0.001789655    3.632    0.725
       359  -8.7378     27.6950    113.7905   1.1708635321e+02   4.9079785826e+01    0.2565293    0.1584612  14.40  0.001413518    2.288    0.563
       360 -10.0249    121.9300    112.3047   9.0036568495e+01   3.5690918290e+01    0.4464438    0.3343502 -83.64  0.001161679    1.742    0.426
       361  -9.6195    119.2431    105.9045   8.9095747965e+01   3.7675987876e+01    0.3574461    0.2683322 -24.57  0.001189256    1.613    0.380
       362  -8.5722    174.8470    112.0856   7.7200213701e+01   2.3904531499e+01    0.2445639    0.2094797 -70.20 0.0006256392    1.321    0.243
       363  -8.4919    159.1419    111.7407   8.0630175008e+01   2.7644129475e+01    0.2717115    0.2119692 -56.17 0.0006165717    1.359    0.264
       364 -10.2370     66.2580    110.1837   1.0525742870e+02   4.5698056047e+01    0.5231497    0.3091277 -70.18  0.001820268    1.724    0.420
       365  -9.6996     14.0309    111.2686   1.2057615616e+02   5.0745836606e+01    0.3151789    0.1828574  76.13  0.001208926    1.897    0.473
       366  -7.8835    153.2740    115.6289   8.3021916412e+01   2.8173541654e+01    0.1619397    0.1235033 -75.98 0.0003174281    1.681    0.405
       367  -9.2743    211.6854    109.3573   6.9178490037e+01   1.5798403115e+01    0.2613732    0.2549584 -35.28 0.0004928183    1.042    0.040
       368  -8.4947     42.8925    109.5234   1.1201763719e+02   4.8642066012e+01    0.2555013    0.1382992  16.82  0.001199452    2.713    0.631
       369  -8.0905    189.2982    108.0295   7.3112619557e+01   2.1275479671e+01    0.2269512    0.1923895 -42.35 0.0004626726    1.157    0.136
       370  -9.4612    139.8714    104.4316   8.3318802716e+01   3.3581374863e+01    0.4468472     0.313149 -58.13 0.0009164291    1.570    0.363
       371 -10.4916     45.6057    102.3918   1.0988755843e+02   5.0044437471e+01     0.756889     0.412966  74.03   0.00309286    3.193    0.687
       372  -9.0054     45.4955     92.9406   1.0800372740e+02   5.2273483325e+01    0.3930955    0.2346222 -10.87  0.001769724    2.911    0.657
       373 -10.6539     22.8966    102.6276   1.1679920201e+02   5.2092323256e+01    0.7236775    0.3643275  76.17  0.002671655    2.994    0.666
       374  -7.6574    182.7390    109.3954   7.4816137899e+01   2.2568798657e+01    0.1631057    0.1197279 -65.94 0.0006970214    1.709    0.415
       375  -9.5464    150.5694    103.1692   8.0344286185e+01   3.1411716113e+01    0.4751472    0.2970516 -63.06  0.001189357    2.149    0.535
       376 -10.0690      6.7440    102.5625   1.2153149457e+02   5.3234472406e+01    0.4473049    0.2028867 -84.01  0.002224947    2.096    0.523
       377 -10.2123    128.5701    102.2021   8.5613370334e+01   3.6542198351e+01    0.4243937    0.3115602 -64.15  0.001135525    1.560    0.359
       378 -10.6615    109.4644     99.1900   8.9996764652e+01   4.1128835456e+01    0.8803918    0.4885513  65.54  0.002471864    3.217    0.689
       379  -9.0517    107.6715     92.8157   8.8742147453e+01   4.2893863194e+01    0.6708044    0.3597535  27.56  0.002474489    2.732    0.634
       380  -7.7540    175.4328    102.2263   7.4440047710e+01   2.5708626161e+01    0.2221305    0.1455464 -49.55  0.000521667    1.590    0.371
       381  -8.4072    159.8253    101.1098   7.7598379816e+01   2.9664580992e+01    0.2438974    0.2095067 -68.84 0.0005007189    1.287    0.223
       382  -9.2667     82.0318     99.8755   9.8198690623e+01   4.5821397161e+01    0.3947026     0.248586 -71.20 0.0009965169    1.918    0.479
       383 -10.0991     63.8607     95.9124   1.0283445623e+02   4.9384736313e+01    0.6676179    0.3798355 -75.56  0.002023943    2.332    0.571
       384  -9.0491     65.9323     87.3149   1.0006307961e+02   5.1089094235e+01    0.5581852    0.3027315   7.27  0.001946002    4.283    0.766
       385  -9.2783     94.9588     97.1710   9.3643393206e+01   4.4280769331e+01    0.3321309    0.2413287 -60.92   0.00059346    1.397    0.284
       386  -8.5741    166.6885    103.9755   7.6828318572e+01   2.7456157482e+01    0.2926514    0.2049279 -54.79   0.00063023    1.560    0.359
       387  -8.3675    164.8847     94.1696   7.4506955107e+01   2.9834555077e+01    0.2455605    0.2103582 -69.43  0.000446507    1.297    0.229
       388 -10.0655     78.7987    112.4238   1.0207947795e+02   4.3371401745e+01    0.6090789    0.3608309 -80.17  0.001868987    2.374    0.579
       389  -9.3197    138.9207     92.3325   8.0153605403e+01   3.6345525919e+01    0.3587015    0.2866489 -78.43 0.0008895782    1.560    0.359
       390 -10.3020    123.8350     91.4572   8.3844895847e+01   3.9875059072e+01    0.6020823    0.4656957  30.46  0.001498944    1.441    0.306
       391  -9.4168      4.8628     92.0895   1.2069366972e+02   5.5734746844e+01      0.31014     0.168365  64.15  0.001240174    2.355    0.575
       392  -8.4620    157.6379     91.0273   7.5250960459e+01   3.2204923160e+01    0.4398178    0.1484424 -37.82  0.001339009    2.994    0.666
       393  -8.7994    157.7704     84.7100   7.3372749076e+01   3.3403478610e+01    0.3736904    0.2147117 -35.58  0.001098335    1.755    0.430
       394  -9.1991     22.7271     90.3261   1.1480982487e+02   5.4958332578e+01    0.2578923     0.184757 -42.75  0.000853449    1.388    0.280
       395  -7.9554    151.0350     89.2258   7.6273324487e+01   3.4145279885e+01    0.2370289    0.1639275 -57.91 0.0005416999    1.664    0.399
       396  -7.4266    174.2672     88.6421   7.0902013057e+01   2.8598133587e+01    0.1630325    0.1206419 -65.74 0.0003327244    1.637    0.389
       397 -10.0232     86.4353     85.9753   9.3163160265e+01   4.8266441376e+01    0.6027013    0.3696464 -61.57  0.001766245    1.825    0.452
       398  -8.0895    176.1900     93.2099   7.1789268362e+01   2.7261664640e+01      0.22122    0.1823749 -66.05 0.0005102535    1.359    0.264
       399  -7.8702    164.1435     87.1731   7.2662826768e+01   3.1371112575e+01    0.2183557    0.1854004 -70.40 0.0004675783    1.321    0.243
       400  -9.7938     48.3740     84.3280   1.0512049121e+02   5.3947603228e+01    0.4583037    0.2920462  81.29  0.001892486    2.554    0.608
       401  -9.7977    104.7368     83.2196   8.6799756753e+01   4.5546174801e+01    0.4705712    0.3214601 -67.06  0.001028733    1.920    0.479
       402  -8.8065    105.0274     77.4612   8.4949623025e+01   4.6699978209e+01    0.3300339    0.2301434  12.26  0.001155572    2.028    0.507
       403  -9.0263    140.9138     83.1706   7.6933886536e+01   3.7741099738e+01    0.3357882    0.2129113 -55.20  0.000800857    1.816    0.449
       404  -9.9702      9.8560     81.8405   1.1753189303e+02   5.7767052477e+01    0.3937767    0.2705154 -75.17  0.001623962    1.241    0.194
       405  -8.0811     35.3329     82.3242   1.0906263804e+02   5.5732016542e+01    0.1353604   0.08157843 -37.78 0.0002870982    1.708    0.414
       406  -9.8231     24.4928     80.4144   1.1234811145e+02   5.7088043774e+01     0.479045    0.2643419 -85.20  0.001757239    2.335    0.572
       407  -8.3724    150.3101     80.6724   7.3894945045e+01   3.5991446744e+01    0.2921099    0.1797056 -48.41 0.0007650632    1.698    0.411
       408  -8.9672    119.3053     80.4920   8.1798238503e+01   4.3136438303e+01    0.3411671    0.2472917 -63.33 0.0009066578    1.678    0.404
       409  -9.0784     74.4867     80.0627   9.5303031946e+01   5.1483204834e+01    0.4306187    0.2168834 -60.16  0.001381906    2.244    0.554
       410  -8.2235    166.7590     79.6945   6.9894046315e+01   3.2128635047e+01    0.2610266    0.1911625 -34.65 0.0006090043    1.364    0.267
       411  -7.5597    174.7296     78.3651   6.7833120770e+01   3.0373766459e+01    0.1639644    0.1187234 -64.30 0.0004444533    1.659    0.397
       412  -9.9822     63.5146     74.0973   9.7275591353e+01   5.4369140570e+01    0.6528686    0.3010304 -64.09  0.002435896    3.049    0.672
       413  -8.9961     64.0350     64.1734   9.4094764387e+01   5.6411400361e+01    0.5057899    0.2605303 -22.63   0.00185696    3.456    0.711
       414  -9.4216    128.1546     75.0527   7.7692161802e+01   4.2276647640e+01    0.5047868    0.2613838 -45.25 0.0007867902    1.942    0.485
       415  -9.5971     34.8828     89.9449   1.1081212357e+02   5.4023310106e+01    0.4434446    0.2436797 -86.18  0.001698197    2.501    0.600
       416  -8.7784    140.3479     75.6485   7.4755783022e+01   3.9338085778e+01    0.2671323    0.2337087 -71.25 0.0005944427    1.288    0.223
       417  -8.2505    163.4623     73.4075   6.8713597914e+01   3.4096588270e+01    0.3091541    0.1514994 -37.09 0.0008151218    2.007    0.502
       418  -8.2397    151.5397     73.2573   7.1327921979e+01   3.7085061885e+01    0.2172242     0.153211 -23.42 0.0008624413    1.583    0.368
       419  -8.4236    115.6886     73.3070   8.0543291768e+01   4.5356124178e+01    0.2390117    0.2047507 -51.38 0.0006328754    1.201    0.168
       420  -9.1285    114.9916     69.6603   7.9553990374e+01   4.6220148864e+01    0.2862615    0.2401395 -36.48 0.0004427635    1.152    0.132
       421  -8.4285     42.8269     72.5574   1.0411724772e+02   5.7190866043e+01    0.2562147    0.1599159 -73.17  0.001013053    1.894    0.472
       422  -7.9777    175.4917     72.5287   6.5956813522e+01   3.1214743388e+01    0.1534683     0.152925 -40.98 6.841888e-05    1.022    0.022
       423  -9.2538    105.8513     71.6619   8.2858537511e+01   4.7718178859e+01    0.2955497    0.2044797 -50.27  0.000711063    1.484    0.326
       424  -9.3781     94.9973     70.9987   8.5945996376e+01   4.9950454603e+01    0.3855756    0.2306421 -57.56 0.0008843393    2.019    0.505
       425  -9.5052     51.4570     69.6711   1.0024519311e+02   5.6864400233e+01    0.4147379    0.2419048 -71.28  0.001330187    2.342    0.573
       426  -8.9739     28.5643     70.9377   1.0884875246e+02   5.8884829784e+01    0.2749516     0.156848 -17.11  0.001377542    2.474    0.596
       427  -9.0548     16.6533     70.1570   1.1298044378e+02   5.9950263365e+01    0.2499434    0.1738436  89.12 0.0009858686    1.717    0.417
       428  -8.8430    146.9918     67.8131   7.0669813437e+01   3.9188709515e+01    0.4592793     0.217034 -37.63   0.00166625    2.084    0.520
       429  -8.9975    138.6059     66.2998   7.2196469337e+01   4.1490068865e+01    0.3361971    0.2156528 -54.24 0.0009710991    1.834    0.455
       430  -8.9681    121.6487     66.1420   7.6538784822e+01   4.5439609475e+01    0.3253935    0.2370599 -60.55 0.0007430366    1.689    0.408
       431  -9.9298     82.3726     72.2040   9.0366395859e+01   5.1923658050e+01    0.6199262    0.2945676 -54.16  0.001857499    2.257    0.557
       432  -9.0736    110.1316     63.8732   7.9012528916e+01   4.8355944675e+01    0.3171253    0.2301221 -57.61 0.0007589996    1.641    0.391
       433  -8.6454     37.2558     64.3258   1.0396590850e+02   5.9547271379e+01    0.2793598    0.1983069  85.34 0.0009648551    2.161    0.537
       434  -7.7653    157.2217     70.0213   6.9034351991e+01   3.6264083207e+01    0.2052044    0.1276763 -34.98 0.0004094134    1.607    0.378
       435  -7.3069    187.4737     63.4981   6.1033366671e+01   2.9675122393e+01    0.1526442    0.1471934 -67.05 5.905805e-05    1.010    0.010
       436  -8.3931    158.2931     62.0095   6.6282457428e+01   3.7385126780e+01     0.217812    0.1950924 -43.20 0.0003719845    1.122    0.108
       437  -8.0584     51.3732     62.2954   9.8109441401e+01   5.8449039792e+01    0.1379234   0.09057111 -22.76 0.0007026428    1.737    0.424
       438  -8.1367    211.4191     60.7769   5.6353150589e+01   2.4044166037e+01    0.2085527    0.1432553 -19.10 0.0009490608    1.684    0.406
       439  -9.5010     97.7347     60.1596   8.1454843285e+01   5.1561521632e+01    0.5056389    0.3075723 -22.60  0.002185498    1.992    0.498
       440  -9.6670     73.3626     59.5921   8.9300079007e+01   5.5958556548e+01    0.3865526    0.2342089 -54.33  0.001043779    1.791    0.442
       441  -7.9011     88.8934     59.8077   8.4140487313e+01   5.3288839697e+01    0.1855967    0.1687538 -65.43 0.0006052784    1.300    0.231
       442  -9.8671     23.4498     56.5037   1.0716405813e+02   6.2418283670e+01    0.4235638    0.2617431 -87.37  0.002118066    2.651    0.623
       443  -8.4489    130.7289     57.8777   7.1354829076e+01   4.4845689762e+01    0.2782695    0.1965226 -50.69 0.0006406264    1.567    0.362
       444  -9.5889      7.5619     57.0236   1.1353894373e+02   6.3352324717e+01    0.2928215    0.1861703  89.15  0.001054477    2.071    0.517
       445  -8.7959    140.1231     56.1786   6.8472807500e+01   4.2883314979e+01    0.3499679    0.1542618 -43.73 0.0009219543    2.396    0.583
       446  -9.2146    119.0485     55.5300   7.3611975786e+01   4.7933624737e+01    0.4584302    0.2175106 -44.56  0.001564218    2.231    0.552
       447  -9.4887     54.2688     55.6044   9.4897215234e+01   5.9467991909e+01    0.3572297    0.2136482 -59.30  0.001180873    1.892    0.472
       448  -8.9704     44.2670     55.7962   9.8786791543e+01   6.0616358213e+01    0.2732752    0.1882783 -70.71 0.0007949019    1.898    0.473
       449  -8.4884    105.8883     53.4167   7.6590119483e+01   5.1148582978e+01    0.2691114    0.1946588 -52.12 0.0007403339    1.588    0.370
       450  -9.4127     92.3996     50.8048   7.9779793258e+01   5.4302516451e+01    0.3782873    0.2379164 -50.09  0.001178607    1.807    0.447
       451  -8.3287    129.8835     49.1499   6.8537440041e+01   4.6496559301e+01    0.2234972    0.2051051 -71.38 0.0004494055    1.239    0.193
       452  -8.7352    120.8953     47.4523   7.0232515596e+01   4.8864227604e+01    0.2666622    0.2078667 -18.30 0.0004681767    1.330    0.248
       453  -8.4865    112.1813     46.9812   7.2427744326e+01   5.0892548769e+01     0.218799    0.1915165 -59.56   0.00063744    1.349    0.259
       454  -9.1030     81.9466     46.2639   8.1521796733e+01   5.7024447922e+01    0.3499911    0.1831138 -42.78 0.0009712782    1.861    0.463
       455  -8.4021     45.0699     44.7379   9.4761447683e+01   6.2721617660e+01    0.2103652    0.1545435 -51.80 0.0004865876    1.364    0.267
       456  -9.1778     16.6116     44.6445   1.0665632773e+02   6.5370052189e+01    0.2189767    0.1737188 -60.13 0.0007604617    1.243    0.196
       457  -8.8526    132.9455     43.4510   6.5772176460e+01   4.6647587319e+01    0.2748651     0.197275 -48.13  0.000644339    1.541    0.351
       458  -8.5822     92.7190     43.1884   7.6796852736e+01   5.5546589159e+01    0.2778156    0.1847304 -15.11  0.001332322    1.696    0.410
       459  -8.9596     58.2268     42.6552   8.8769098144e+01   6.1428166990e+01    0.3108864    0.1924948 -58.41  0.001064538    2.208    0.547
       460  -8.2512     32.6035     44.3097   9.9762866289e+01   6.4122442116e+01    0.2092878    0.1335912 -11.31  0.001176605    1.833    0.454
       461  -9.5321      5.2290     42.2170   1.1087563896e+02   6.6555188636e+01    0.3172302    0.1797204 -76.61  0.001464928    2.154    0.536
       462  -9.2820     69.6747     41.7121   8.4091051086e+01   5.9884213663e+01    0.3498039     0.255734 -61.89  0.001082358    1.994    0.498
       463  -8.7424    105.9471     40.9532   7.1929387490e+01   5.3201684780e+01    0.3381872    0.1866304 -38.04  0.001094044    1.810    0.448
       464  -8.1217    140.3571     41.2554   6.3290080679e+01   4.5156517189e+01    0.2033871    0.1337634 -39.35 0.0005156471    1.564    0.361
       465  -8.3312     36.7109     40.9761   9.6879561389e+01   6.4359186685e+01    0.1792611    0.1333458 -40.09 0.0004349364    1.109    0.099
       466  -7.7944    160.5212     40.4605   5.8866445399e+01   4.0151981590e+01    0.1482435    0.1428638  56.42 6.532965e-05    1.014    0.014
       467  -8.7522     95.5236     38.0525   7.3906630466e+01   5.5814551183e+01    0.2854325    0.1786439 -47.49 0.0007495231    1.882    0.469
       468  -8.3392     80.9046     36.9219   7.8201653571e+01   5.8780350626e+01     0.196415    0.1662379 -63.63 0.0005652007    1.637    0.389
       469  -7.6626    133.4776     36.4561   6.3139133835e+01   4.7531791954e+01     0.144717    0.1394951  35.90  0.000129914    1.025    0.024
       470  -8.2409    125.9659     35.5549   6.4580127745e+01   4.9466817432e+01    0.2185427    0.1881245 -21.01 0.0003131549    1.176    0.150
       471  -9.4483     26.1877     35.1692   9.9375715054e+01   6.6469688141e+01    0.3078311    0.1788222 -56.56  0.001027049    1.726    0.420
       472  -8.5307    111.8824     34.8220   6.7906165100e+01   5.2819469690e+01    0.2538753    0.1728883 -54.47   0.00053537    1.928    0.481
       473  -8.9402     48.4723     33.4902   8.9074696556e+01   6.4363277993e+01    0.2316391    0.2020037 -45.81 0.0007096897    1.347    0.258
       474  -8.4725    119.0568     32.9252   6.5301112978e+01   5.1452748792e+01    0.2577822    0.1712675 -43.03 0.0006851665    1.655    0.396
       475  -8.5710     60.6275     32.5519   8.3795285104e+01   6.2834646397e+01     0.225445    0.1785925 -33.64 0.0005444725    1.200    0.166
       476  -7.9958    139.3715     32.1509   6.0288229049e+01   4.6660966505e+01    0.2114814    0.1275459 -39.81 0.0009446694    1.741    0.425
       477  -8.9492     71.9926     31.2900   7.8996395546e+01   6.1225724167e+01    0.2724104    0.1747152 -47.59 0.0007387325    1.865    0.464
       478  -9.1347    211.2366    246.9564   9.6766142022e+01  -5.6139395933e+00    0.2534941    0.1921535 -64.83   0.00120884    2.590    0.614
       479  -8.8606     81.4401     27.3498   7.4019764442e+01   6.0136445734e+01    0.2880556    0.1977373 -47.02 0.0007761231    1.793    0.442
       480  -9.1677      3.4978     27.5671   1.0734118399e+02   6.9519239589e+01    0.2423257    0.1647517 -75.79  0.001072621    1.953    0.488
       481  -8.8072     91.8181     26.3333   7.0252145208e+01   5.8267420696e+01    0.2817769    0.1736992 -42.38 0.0009107073    1.840    0.456
       482  -8.1781    104.1949     22.8356   6.5202108158e+01   5.6121173894e+01     0.195506    0.1483826  19.79 0.0004488225    1.319    0.242
       483  -8.0262     34.7910     23.5560   9.0868647385e+01   6.7682493816e+01    0.1470228    0.1108536  36.69  0.000939449    1.699    0.411
       484  -8.9692     63.6536     21.0655   7.7587864275e+01   6.4127435884e+01    0.2788569    0.1868865 -49.62 0.0008974297    2.054    0.513
       485  -8.8651     48.3885     21.6675   8.4018300551e+01   6.6311855227e+01    0.2284992    0.1831515 -39.57 0.0006686011    1.390    0.281
       486  -7.9546    120.6394     20.8805   6.0267155905e+01   5.2610198358e+01    0.1984518    0.1200121 -37.81 0.0008473893    1.777    0.437
       487  -7.8285     19.4317     21.2716   9.7197160206e+01   6.9566719676e+01    0.1514723   0.09687697 -51.75 0.0009352366    1.567    0.362
       488  -8.1037    138.8569     20.6529   5.6262861092e+01   4.8197042793e+01    0.1998073    0.1305534  74.40  0.000170756    1.692    0.409
       489  -9.1198     73.9808     19.5803   7.3137574880e+01   6.2569655131e+01     0.240165    0.1733684 -33.95 0.0006809175    1.431    0.301
       490  -8.0944     42.1519     30.1674   9.0391078813e+01   6.5718527964e+01    0.1579253    0.1352246 -43.19 0.0003548098    1.324    0.245
       491  -8.1077     87.7699     17.7875   6.7803202714e+01   6.0181694183e+01    0.1682791    0.1528836 -39.86 0.0004475685    1.334    0.250
       492  -8.1413     38.7409     18.5853   8.6841106702e+01   6.8026495524e+01    0.1414591    0.1108189  30.76 0.0005367317    1.503    0.335
       493  -8.0825    112.9666     16.9926   6.0551951716e+01   5.4841283289e+01    0.1646915     0.149489  21.29 0.0003682571    1.026    0.026
       494  -9.5325    175.9202    246.1924   1.0285826781e+02   1.0000428912e-02    0.4084232    0.2744755 -31.83   0.00246628    1.925    0.480
       495  -8.2333    101.4557     29.3246   6.8627490429e+01   5.5862975886e+01     0.214878    0.1769058  82.73 0.0007264965    1.685    0.407
       496  -7.8904     17.3542     14.2128   9.5205570542e+01   7.0935712347e+01    0.1518815   0.09144824 -48.84 0.0003716116    1.629    0.386
       497  -7.5922     83.6878     11.3317   6.6152212631e+01   6.1745944677e+01    0.1216467    0.1023869 -57.34 0.0007044034    1.676    0.403
       498  -7.7719      1.5072     11.5044   1.0247123291e+02   7.2534570285e+01    0.1113628   0.08007558 -34.47 0.0008106257    1.008    0.008
       499  -8.9585    156.3291    248.2445   1.0661180219e+02   2.8544909520e+00    0.2375645    0.1776734  70.11 0.0008698687    1.644    0.392
       500  -8.3177    113.1609    248.7139   1.1432501153e+02   9.5054865834e+00    0.1869777    0.1372989  86.15 0.0009537839    1.512    0.339
       501  -9.3820    103.7744    246.7361   1.1578274722e+02   1.1219197586e+01    0.3906953    0.2031463 -84.71  0.001854851    2.899    0.655
       502  -8.8337    242.8203    246.5141   9.1366212964e+01  -1.0195095159e+01    0.2914361    0.1245054 -23.02  0.001533798    2.789    0.641
       503  -8.3146     96.9148     15.1324   6.3958597839e+01   5.8605470646e+01     0.195345    0.1782523 -38.69  0.000638144    1.295    0.228
       504  -8.2446    218.6760    248.2085   9.5674194849e+01  -6.8781432679e+00    0.1476502    0.1402706  15.52 0.0007176439    1.419    0.296
       505  -7.7232     40.6710    248.3322   1.2653241972e+02   1.9356986482e+01    0.1158009    0.0539171  65.05 0.0007051817    1.718    0.418
       506  -9.9481    223.9398    244.0472   9.4154606035e+01  -7.1952713002e+00    0.3861507    0.2204886 -43.53   0.00227156    2.497    0.599
       507  -8.8266    147.0108    246.1958   1.0803065291e+02   4.6307196178e+00    0.2479744    0.1665556  76.27  0.001195084    2.121    0.529
       508  -8.9618    120.0728    245.5091   1.1277593652e+02   8.9575502065e+00    0.2812199    0.1700268  85.56  0.001557024    2.398    0.583
