#   1 NUMBER                 Running object number                                     
#   2 MAG_AUTO               Kron-like elliptical aperture magnitude                    [mag]
#   3 X_IMAGE                Object position along x                                    [pixel]
#   4 Y_IMAGE                Object position along y                                    [pixel]
#   5 X_WORLD                Barycenter position along world x axis                     [deg]
#   6 Y_WORLD                Barycenter position along world y axis                     [deg]
#   7 A_WORLD                Profile RMS along major axis (world units)                 [deg]
#   8 B_WORLD                Profile RMS along minor axis (world units)                 [deg]
#   9 THETA_WORLD            Position angle (CCW/world-x)                               [deg]
#  10 FWHM_WORLD             FWHM assuming a gaussian core                              [deg]
#  11 ELONGATION             A_IMAGE/B_IMAGE                                           
#  12 ELLIPTICITY            1 - B_IMAGE/A_IMAGE                                       
         1 -16.1647    194.4568    106.3680   3.6651559335e+01   2.0840346577e+01     5.331161     2.836351 -65.18   0.01445172    5.776    0.827
         2 -16.5170    158.7363     49.5513   2.6464915573e+01   3.9026375519e+01     4.345933     1.913452 -56.55   0.01304752    3.799    0.737
         3 -16.0214    173.4603     70.3823   3.0407588908e+01   3.1958245431e+01     2.795117     1.267053 -48.77  0.009891612    2.490    0.598
         4 -17.2163    238.0912     22.1432   8.6007108597e+00   2.3143654962e+01     4.322549     2.242991 -43.63   0.02191759    1.586    0.370
         5 -13.8430      2.8378     50.3695   8.2637072156e+01   6.6763873757e+01     0.749173    0.2169201 -60.47  0.003229899    2.291    0.564
         6 -15.8866    134.2172      9.7149   1.6128690657e+01   5.0459317788e+01     2.629132     1.665364 -23.80    0.0126584    1.614    0.380
         7 -12.9424      5.7323     12.8723   6.8576990781e+01   7.4866945594e+01    0.4549074    0.2490313   3.88  0.002537388    2.145    0.534
         8 -12.5015     15.1784      7.9260   5.9151070025e+01   7.4994442623e+01    0.2522679    0.1627831  12.44  0.001441986    1.671    0.401
         9 -12.9750     24.2860      4.6161   5.0888481741e+01   7.4511235521e+01    0.3551509    0.2176436  23.80  0.002047855    1.716    0.417
        10 -11.9902     99.0445      3.0390   1.9895890835e+01   6.0035309726e+01    0.2247969    0.1614194 -58.53  0.001097523    1.741    0.426
        11 -12.6141     10.1975      1.9281   5.9001140703e+01   7.6528242523e+01     0.414719    0.1709533  23.07   0.00204132    2.756    0.637
        12 -13.5342      4.9528    228.6457   9.6665059400e+01   2.6182391145e+01     0.546019    0.2164961  76.56  0.003179728    2.173    0.540
        13 -11.4347     37.3568    249.4995   9.1840765238e+01   1.9432837353e+01     0.227909   0.07775035  54.43  0.001275779    2.173    0.540
        14 -15.8524      4.0213    197.8855   9.5773648742e+01   3.2072876102e+01     2.122064    0.4423936 -83.74  0.008208048    4.486    0.777
        15 -13.0676      1.9190    221.6012   9.6985882945e+01   2.7720428644e+01    0.3544651    0.1823836  89.39  0.001948931    1.689    0.408
        16 -13.3759      6.2257    236.4196   9.6682948293e+01   2.4707576433e+01    0.5185588    0.2106618  62.62  0.003271966    1.815    0.449
        17 -13.9590      3.7043    245.5247   9.7366337191e+01   2.3400412548e+01     0.726204    0.3485382  79.70   0.00507917    1.758    0.431
        18 -12.5773     12.0189    249.0005   9.6095065943e+01   2.2058889780e+01    0.3621681    0.1562084  54.76  0.001760572    1.566    0.361
        19 -13.1009     19.5131    249.2830   9.4858238678e+01   2.1290804368e+01    0.4188516     0.126042  46.66  0.002446038    2.070    0.517
        20 -14.0014     16.1527    240.9449   9.5131592775e+01   2.3002970230e+01    0.5713509    0.2021691  56.41  0.003387792    2.004    0.501
        21 -14.2493    244.5614    126.4800   3.3305120580e+01   7.7637473323e+00    0.9781907    0.6827383  51.49  0.004850249    1.765    0.434
        22 -14.1659    227.2333    125.4338   3.5716811532e+01   1.1060872363e+01     1.563998    0.7532838 -23.66  0.006643624    2.160    0.537
        23 -12.6858      4.4210    137.2609   9.2579741274e+01   4.5397648098e+01    0.2420762   0.09229359 -75.55  0.001139719    2.087    0.521
        24 -16.0233    114.2631    227.5267   7.5954153762e+01   1.3479997027e+01     1.961103     1.262794 -71.31   0.01203038    2.020    0.505
        25 -11.3286     14.0357     75.9936   8.2615467874e+01   5.9913028771e+01    0.2184875    0.1233635 -44.92  0.001135327    1.706    0.414
        26 -12.0030    140.5012     74.3477   3.8647933578e+01   3.9350434904e+01     0.325714    0.2066686 -62.76  0.001157262    2.151    0.535
        27 -11.6368    128.4756     72.0360   4.0884950433e+01   4.2662967448e+01    0.2515095    0.1504478 -39.95  0.001034925    1.608    0.378
        28 -11.7701     29.3374    240.4739   9.2826177509e+01   2.1768481086e+01    0.2502568   0.08691038  62.86  0.001320559    2.554    0.609
        29 -13.1764    216.9328    234.1006   5.8058545863e+01  -2.0090631867e+00    0.4551951    0.3103623 -44.49  0.003010086    2.262    0.558
        30 -11.4641      8.8378     69.2239   8.3568894502e+01   6.1902523570e+01    0.1882113    0.1214733 -49.94  0.001023332    1.374    0.272
        31 -11.9808    139.8056     67.6808   3.6613721469e+01   4.0764357985e+01    0.3221674    0.1924634 -57.64  0.001237591    2.144    0.534
        32 -12.5994    146.7926     66.1756   3.4505263338e+01   3.9313908591e+01    0.3887632    0.2280653 -54.21  0.001522376    2.024    0.506
        33 -12.0810     18.2667     66.1387   7.8905658797e+01   6.2053343978e+01    0.3877602    0.1789637 -40.51  0.001775979    2.213    0.548
        34 -12.9302     14.4207    232.4485   9.5127232706e+01   2.4633179396e+01    0.3066095    0.1327059  67.15  0.001428969    1.865    0.464
        35 -11.0431    124.0064     63.7893   3.9221059845e+01   4.5299352209e+01    0.2545803    0.1854944 -87.84  0.001071428    2.005    0.501
        36 -12.0843      6.7989     63.1924   8.3354108912e+01   6.3488930079e+01    0.1871437    0.1187768 -50.46 0.0009162841    1.355    0.262
        37 -11.3291    103.3301     62.6610   4.4708981194e+01   5.0229437516e+01    0.1576975    0.1222003 -76.48 0.0007051826    1.739    0.425
        38 -12.8489      3.0296    127.7338   9.2289570342e+01   4.7775914912e+01    0.2902883    0.1391804  89.21  0.001476734    1.763    0.433
        39 -12.4429     10.8328     57.4113   8.0337065333e+01   6.4659580142e+01    0.3456412    0.2124385 -37.95   0.00154356    1.600    0.375
        40 -12.8806    141.1948     54.8971   3.1894798540e+01   4.2657771553e+01    0.4050511    0.2200143 -53.96   0.00150984    2.303    0.566
        41 -14.3993    226.3528    227.6340   5.5526870934e+01  -2.5427818487e+00    0.9691886    0.4817691 -19.89  0.005587111    2.189    0.543
        42 -13.9237      8.1847     42.7972   7.8051853960e+01   6.8257999126e+01    0.5777994    0.2203285 -65.59   0.00261217    2.133    0.531
        43 -14.5973    235.0884    224.0973   5.3554904570e+01  -3.3023314866e+00      1.03017    0.4903343 -27.38  0.006088548    2.104    0.525
        44 -11.4938    119.0699     54.9258   3.7315195808e+01   4.8097589655e+01    0.3343331    0.2269353 -71.59  0.001350887    2.236    0.553
        45 -13.0083    104.6863     52.6269   4.0513013888e+01   5.1851994271e+01    0.3704582    0.2920999 -76.16  0.001748833    1.694    0.410
        46 -11.4639     29.1107     49.5506   6.9420049850e+01   6.5087923097e+01    0.3014701    0.1312955 -45.07  0.001341572    1.974    0.493
        47 -11.8770     15.7750     49.0492   7.5863144460e+01   6.6320527001e+01    0.2917943    0.1644738 -49.82  0.001425098    1.428    0.300
        48 -11.6542    123.4698     46.6434   3.3035062831e+01   4.8444634935e+01    0.3440715    0.2298513 -61.63  0.001455446    1.957    0.489
        49 -11.7811    112.8654     47.0821   3.5984047125e+01   5.0937878211e+01    0.2418442    0.2086121 -63.46  0.001173898    1.316    0.240
        50 -10.9988    160.8658    100.7268   4.1884310097e+01   2.9435303579e+01    0.3088218    0.1976548 -61.78  0.001231683    2.117    0.528
        51 -11.5506    106.0265     40.0458   3.5035979037e+01   5.3713352577e+01    0.2404511    0.1836295 -66.52  0.001027791    1.697    0.411
        52 -13.3032     12.3053     36.4397   7.3883064620e+01   6.9442233001e+01    0.3337145     0.274489 -60.02   0.00171717    1.142    0.124
        53 -12.0232      7.1212     86.7574   8.6932425974e+01   5.7652253133e+01    0.2730412    0.1087402 -53.06  0.001250425    2.164    0.538
        54 -12.4404      1.5125     25.4608   7.6612625409e+01   7.2499587033e+01    0.3915029   0.09640444 -64.12  0.001491055    3.255    0.693
        55 -13.1232      7.5917     27.4253   7.3513319551e+01   7.1730030243e+01    0.6235712    0.2778654 -20.65    0.0027996    2.972    0.664
        56 -12.3039    117.4819     33.1451   2.9130629073e+01   5.1990028770e+01    0.3622103    0.2193022 -51.56  0.001472576    1.970    0.492
        57 -10.7032    127.3250     83.6426   4.4945013577e+01   4.0592269502e+01    0.1654492    0.1246411 -76.48 0.0007044746    1.774    0.436
        58 -12.1029      1.6444     94.9820   8.9855151696e+01   5.5903861036e+01     0.302251   0.09530123 -76.72  0.001240963    2.477    0.596
        59 -12.0138     19.5982     28.2123   6.6586894691e+01   7.0646188675e+01    0.1900935   0.09233984 -45.72 0.0009485628    1.644    0.392
        60 -11.5983    142.9266     82.1625   4.0549487408e+01   3.7262628706e+01    0.2509096    0.2160197 -71.37 0.0008782181    1.311    0.237
        61 -10.9124    140.8178     92.5839   4.4216527916e+01   3.5667178423e+01    0.2198958     0.152887  63.25 0.0007943999    1.702    0.412
        62 -12.3022     13.2373     19.2571   6.6523246002e+01   7.3024051544e+01    0.2519141    0.1563134 -58.69  0.001432028    1.588    0.370
        63 -11.1538      2.5285     81.9713   8.8025622971e+01   5.9086354044e+01    0.1959741   0.05917733 -55.67 0.0008097912    2.544    0.607
        64 -11.1830     18.8039     15.4022   6.0963187665e+01   7.3264934396e+01    0.1676527    0.1088369   3.72 0.0009568701    1.725    0.420
        65 -12.8712     11.1451    226.1247   9.5481008308e+01   2.6065892597e+01    0.2489875    0.1238745  73.68  0.001307796    1.639    0.390
        66 -13.2500      2.2892    213.2493   9.6653110936e+01   2.9237330486e+01    0.4338732    0.1760902  82.95   0.00249195    2.131    0.531
        67 -11.8953    151.1349     79.3025   3.7753036255e+01   3.5845931460e+01     0.319308    0.1944343 -59.22  0.001230699    2.144    0.534
        68 -12.7069    189.8269    220.0751   6.0667295789e+01   3.4677645435e+00    0.3101841    0.1658697  24.50   0.00168756    1.798    0.444
        69 -11.8310      4.5295     73.9617   8.6127221256e+01   6.0966637629e+01    0.1960906   0.09003339 -63.13 0.0006630455    1.645    0.392
        70 -10.9241    150.4762    103.9584   4.5137433908e+01   3.1151197140e+01    0.2233774    0.1309256 -61.42 0.0008088783    2.459    0.593
        71 -11.9194      5.3982    109.8078   9.0098175769e+01   5.2014346523e+01    0.1919022   0.08895336 -67.58 0.0009560138    1.716    0.417
        72 -13.5803     11.9648    217.2893   9.5000837858e+01   2.7609447717e+01    0.3324079    0.1450319  69.06  0.001650395    1.891    0.471
