#   1 NUMBER                 Running object number                                     
#   2 MAG_AUTO               Kron-like elliptical aperture magnitude                    [mag]
#   3 X_IMAGE                Object position along x                                    [pixel]
#   4 Y_IMAGE                Object position along y                                    [pixel]
#   5 X_WORLD                Barycenter position along world x axis                     [deg]
#   6 Y_WORLD                Barycenter position along world y axis                     [deg]
#   7 A_WORLD                Profile RMS along major axis (world units)                 [deg]
#   8 B_WORLD                Profile RMS along minor axis (world units)                 [deg]
#   9 THETA_WORLD            Position angle (CCW/world-x)                               [deg]
#  10 FWHM_WORLD             FWHM assuming a gaussian core                              [deg]
#  11 ELONGATION             A_IMAGE/B_IMAGE                                           
#  12 ELLIPTICITY            1 - B_IMAGE/A_IMAGE                                       
         1 -14.0464    223.9260      4.3059   3.7907740797e+01   2.8502259675e+01     2.178429     1.083803  54.79  0.007223934    2.200    0.546
         2 -14.0427    181.4778     48.3649   5.5017269848e+01   3.3655096525e+01     1.911243      1.29129  24.24 0.0008837805    2.050    0.512
         3 -14.0621    192.8556     38.9423   5.0496119872e+01   3.2068802709e+01     1.318677     1.107604 -39.92  0.003275377    1.191    0.160
         4 -14.5168    200.9183     29.7821   4.6841742500e+01   3.1217802792e+01     1.563695     1.261302  28.90  0.001322739    1.543    0.352
         5 -10.9683     74.5514     13.0770   6.7271596034e+01   6.3212578154e+01    0.3930569    0.1908103  57.72  0.001730645    2.757    0.637
         6 -10.8297     46.4049     11.8000   7.7525878807e+01   6.8020075497e+01    0.1777569   0.09815095 -20.91 0.0009565438    1.703    0.413
         7 -11.3254     35.8813    229.5926   1.2477205387e+02   2.2686826296e+01    0.2382053    0.1234388  59.98 0.0007490599    1.524    0.344
         8 -19.3094     14.1245    156.3936   1.2371572300e+02   4.0265538155e+01     18.52124     5.483792 -80.32   0.07364739    3.172    0.685
         9 -11.1229     57.0891    210.0766   1.1937102311e+02   2.3949497410e+01    0.5764319    0.2558329 -63.04  0.002979983    2.259    0.557
        10 -13.6654     53.6718    200.9787   1.1923111040e+02   2.6254994900e+01    0.5814292    0.4201995  49.06  0.001423693    1.310    0.237
        11 -13.4515    112.6408    197.4287   1.0640940158e+02   1.8383412955e+01    0.6159626    0.5366673  41.57  0.003769811    1.176    0.149
        12 -11.3676    106.1018    212.0530   1.0971926543e+02   1.6531107596e+01     0.575431    0.3596596  29.88  0.003006225    1.882    0.469
        13 -12.5596    113.7935    208.2381   1.0764460038e+02   1.6038154114e+01    0.6410507    0.3566824  70.54  0.002674174    2.598    0.615
        14 -12.6223    107.5935    203.8963   1.0836758158e+02   1.7901720871e+01    0.5435832     0.506718 -76.39  0.002116728    1.192    0.161
        15 -10.8023    174.5572    212.6839   9.5889569010e+01   4.7965259960e+00    0.2493645    0.1067007  41.04  0.001088649    2.036    0.509
        16  -9.8576    152.3774    211.1842   1.0011115047e+02   8.9311204980e+00    0.1648909    0.1265783 -67.43 0.0003597427    1.626    0.385
        17 -12.7528    126.0819    209.1685   1.0522132510e+02   1.3821948324e+01    0.4994663    0.3604492   5.32  0.001866037    2.317    0.568
        18 -12.3951    196.8181    198.0787   8.8959410163e+01   3.2409204728e+00     1.244966     1.003543  71.07  0.006880703    1.828    0.453
        19  -9.7995     96.2663    201.6348   1.1046595253e+02   2.0151378662e+01    0.2283572    0.1493642 -82.64 0.0009239314    1.693    0.409
        20 -10.0989     93.5861    249.7698   1.1610321020e+02   1.1615181700e+01    0.2247292    0.1760804  22.50  0.001306503    1.800    0.445
        21 -10.4931     28.7872    209.8306   1.2476416427e+02   2.7314815308e+01    0.1511298    0.1136462  73.07 0.0003227188    1.033    0.032
        22 -10.2012     38.4052    199.0653   1.2212361871e+02   2.8467819071e+01    0.1621868    0.1237359  71.58 0.0001206992    1.054    0.051
        23 -10.9504    151.8577    196.6346   9.7889016701e+01   1.1674812917e+01    0.2796742    0.2621798  39.35  0.001118495    1.043    0.041
        24  -9.6254     43.0907    210.4748   1.2211379636e+02   2.5579140146e+01    0.4100517    0.2122749  89.85   0.00164906    1.845    0.458
        25 -12.5448     26.6853    195.8908   1.2419096919e+02   3.0402641221e+01    0.2152988    0.1636665  75.33 0.0005419147    1.037    0.035
        26 -10.1152     82.0448    195.2787   1.1271300426e+02   2.3622065861e+01    0.2244441    0.2009112 -76.57 0.0008554868    1.206    0.171
        27 -10.9432    207.5188    193.9518   8.6114643837e+01   1.9964631653e+00    0.2110812    0.1694504  29.19 0.0007411598    1.132    0.116
        28  -9.2639     50.6491    220.2833   1.2145001085e+02   2.2723750477e+01    0.1637024   0.09664574  82.02  0.000535618    1.554    0.356
        29  -9.3544     48.2827    217.5797   1.2168240279e+02   2.3542231162e+01    0.3592726     0.197087  40.22  0.001554742    1.757    0.431
        30 -13.6190     63.1232    188.3030   1.1598443768e+02   2.7759321750e+01     0.770546    0.6736165 -49.56  0.004403545    1.479    0.324
        31  -9.7954     56.9703    225.0081   1.2064818591e+02   2.1022571350e+01    0.1282538   0.09740772  80.67 -0.005334738    1.120    0.107
        32  -9.4843     49.4888    224.5676   1.2199094605e+02   2.2037329114e+01    0.1615824   0.09301833 -63.76 0.0009800917    1.900    0.474
        33 -10.2899     36.5808    223.9998   1.2428695462e+02   2.3668113098e+01    0.1714889    0.1215834  61.60 0.0004803243    1.122    0.109
        34 -10.2371     43.4401    188.8962   1.2022626329e+02   3.0062666975e+01    0.2503633    0.1527024  45.53  0.001479268    1.563    0.360
        35  -9.7654    153.6078    184.7407   9.5453236726e+01   1.3632149307e+01    0.1864589    0.1362956 -61.58 0.0005502815    1.606    0.377
        36 -10.2288     95.4437    189.4082   1.0904762420e+02   2.2845384051e+01    0.3054101    0.2309339  14.28  0.001021521    1.964    0.491
        37 -11.6115    141.4785    174.8894   9.6347071795e+01   1.7914522515e+01    0.4619858    0.3023703  64.75  0.001344675    1.917    0.478
        38 -11.5990    146.2525    182.7355   9.6702286929e+01   1.5410958495e+01    0.3454479    0.2757193  49.51 0.0009806548    1.183    0.155
        39 -11.0200     99.4673    180.7737   1.0692003286e+02   2.4079199744e+01    0.2469151    0.2215664  58.81 0.0005809377    1.083    0.077
        40 -10.4652    204.4832    176.2556   8.3231303031e+01   5.4706787592e+00    0.3520298    0.2476115 -47.86  0.001182293    1.645    0.392
        41  -9.7993    197.2425    176.8984   8.4797037974e+01   6.7352677738e+00    0.2797374    0.1957335  32.77  0.001241649    1.372    0.271
        42  -9.8049    188.7024    175.2422   8.6193744058e+01   8.6748151219e+00    0.2428715    0.1737932 -42.51 0.0008796728    1.476    0.323
        43 -10.9831     45.8756    172.8742   1.1812015801e+02   3.3340552078e+01    0.3643496    0.2675435  46.50  0.001355308    1.392    0.282
        44 -10.5930     55.8177    174.7140   1.1608027181e+02   3.1727158710e+01     0.332925    0.1811559  54.39  0.001353514    1.772    0.436
        45 -10.3819    230.1839    166.7754   7.6412333391e+01   2.2614852472e+00    0.2131518    0.1564319 -75.75 0.0009547155    2.828    0.646
        46  -9.0840     62.0794    220.6047   1.1932657096e+02   2.1215830128e+01      0.17007    0.1228213  63.47  0.001124203    1.105    0.095
        47  -9.6767    160.4763    164.0384   8.9955607899e+01   1.6436780619e+01     0.223498    0.1467402 -47.00 0.0007055711    1.587    0.370
        48 -12.2692     93.3222    153.6617   1.0403540388e+02   3.1267059304e+01    0.6485932    0.4603888 -28.02  0.002327254    2.059    0.514
        49 -11.5326    133.8536    145.0684   9.2189174170e+01   2.5881253424e+01     1.253419    0.3243318 -54.70  0.003031122    5.529    0.819
        50  -9.0048    112.5573    150.5033   9.8607883944e+01   2.8701958210e+01    0.1480516    0.1373474  87.16 6.906801e-05    1.038    0.037
        51 -10.8361    174.4050    148.6384   8.3546306466e+01   1.6684326970e+01    0.3522807    0.2948693 -77.83  0.001261157    1.505    0.335
        52  -9.4485    109.0574    147.2761   9.8859134268e+01   3.0083133242e+01    0.2000908    0.1789884  65.61 0.0002073097    1.105    0.095
        53  -9.2107     88.4112    146.5353   1.0402752290e+02   3.3744783905e+01    0.2246601    0.1890338 -44.27 0.0005505796    1.308    0.236
        54  -9.2716     87.2997    143.6472   1.0379386915e+02   3.4611153207e+01     0.250636    0.1677058  63.78 0.0006943917    1.699    0.411
        55 -10.3649    143.9928    145.9952   8.9932197133e+01   2.3620777681e+01    0.2481831    0.1912965  87.66   0.00113711    1.701    0.412
        56 -11.0844    105.9657    138.9500   9.7977736180e+01   3.2593577610e+01     0.532319    0.3391007 -31.41  0.002248381    2.172    0.540
        57 -12.3780     93.5588    139.1361   1.0128962264e+02   3.4682030670e+01    0.2819961    0.2476427 -50.80  0.000415172    1.164    0.141
        58 -10.8563    105.9270    130.7706   9.6246982784e+01   3.4536473443e+01    0.3705234    0.3121516 -69.15  0.001298434    1.177    0.151
        59 -11.2644    135.8362    128.2707   8.7856254857e+01   2.9257870970e+01    0.7065516    0.2042548 -49.28  0.002030246    3.554    0.719
        60 -11.1098    114.2890    129.8721   9.3813633113e+01   3.3198110035e+01    0.5924783    0.3202359  33.74  0.001365983    2.135    0.532
        61 -11.3157    119.9212    123.2660   9.0772865028e+01   3.3643369932e+01    0.6055254     0.365619 -21.25  0.002119741    3.063    0.674
        62 -10.3486    161.0065    128.3298   8.1773473741e+01   2.3799768007e+01    0.3752569    0.2356386 -43.15  0.001599008    1.581    0.367
        63 -11.1072    101.2568    125.8224   9.6420910801e+01   3.6546954188e+01    0.3001966    0.2432599 -28.26 0.0006541644    1.449    0.310
        64 -15.8459     71.2568    148.1588   1.0873793415e+02   3.5910639916e+01     9.330449     4.397602  79.25   0.01748184    7.025    0.858
        65 -10.0499    109.2856    118.9971   9.2623811571e+01   3.6691520848e+01    0.2290653    0.2135214  47.38 0.0003185647    1.117    0.105
        66  -9.9719    167.5615    112.3594   7.6186306005e+01   2.5638868996e+01     0.343535    0.2448947 -72.62  0.001388896    1.974    0.493
        67 -10.6599    134.6119    105.5685   8.2336572562e+01   3.4565136125e+01    0.7144369    0.1524833 -44.44  0.001768257    4.575    0.781
        68 -11.8574    118.2640    110.3369   8.7979386805e+01   3.6942327461e+01    0.6442804    0.4529176  65.01  0.002598533    1.792    0.442
        69 -10.2322    205.4886    110.1524   6.7810842603e+01   1.7263784591e+01    0.3171558    0.2190031  41.00 0.0009521244    1.552    0.356
        70 -10.6135     66.5251    104.5901   1.0178634022e+02   4.7096289225e+01    0.2936922    0.2316864  -1.74  0.001566856    1.634    0.388
        71  -9.5965     63.9951     99.7393   1.0146761819e+02   4.8588602472e+01    0.1917832    0.1785972 -56.42 0.0007983252    1.055    0.053
        72  -9.0662     44.9906    220.6983   1.2252984025e+02   2.3326974259e+01    0.1773418      0.13567  77.34  0.001153696    1.060    0.056
        73 -11.3345     52.1127     90.3116   1.0312617184e+02   5.2282174870e+01    0.2981647    0.2419055  54.44  0.001218694    1.473    0.321
        74  -9.8199    156.1285     81.1700   6.9989020365e+01   3.4552050744e+01    0.2391958    0.2146622  13.37 0.0005421634    1.216    0.178
        75  -9.3420    184.4891     77.0344   6.2844262146e+01   2.8281540875e+01    0.2316336    0.1508403 -33.47 0.0006130554    1.527    0.345
        76  -9.7814     64.9540     70.1157   9.3184686838e+01   5.5159087297e+01    0.2032849    0.1813207 -29.22 0.0003302923    1.035    0.034
        77  -9.8763    169.1821    236.4792   1.0054153548e+02   1.9868178221e+00    0.1772878    0.1689315 -17.34 0.0004034605    1.250    0.200
        78  -9.9592     43.4521    236.6973   1.2391081910e+02   2.0493022906e+01    0.1246029   0.09194577 -79.84 0.0008656364    1.392    0.282
        79 -11.3660     60.8855    233.5301   1.2060409835e+02   1.8921981232e+01    0.1970362    0.1388439  75.22 0.0003582829    1.185    0.156
        80 -10.1314     36.0301    234.2314   1.2503493032e+02   2.1807468648e+01    0.1601535     0.101608  63.15 0.0004588023    1.183    0.154
        81 -11.3649    155.5509     58.0697   6.2946810201e+01   3.8767138403e+01    0.4088176    0.3011781 -83.45  0.001072412    1.796    0.443
        82 -10.8824    158.3572     52.3686   6.0538678382e+01   3.8963219063e+01    0.2807177    0.2455825 -72.56 0.0003427738    1.248    0.199
        83 -10.1703     68.0087    204.6906   1.1668041202e+02   2.3621428346e+01     1.105048    0.6905893 -39.15  0.004160289    2.809    0.644
        84 -10.4393    189.6559     14.9380   4.4105939875e+01   3.5790895323e+01    0.2613597     0.190773  85.90 0.0006532761    1.315    0.239
        85  -9.2275     72.1767    231.3091   1.1835828962e+02   1.7842414765e+01     0.094755   0.07974496 -67.27 0.0002486559    1.455    0.313
