#   1 NUMBER                 Running object number                                     
#   2 MAG_AUTO               Kron-like elliptical aperture magnitude                    [mag]
#   3 X_IMAGE                Object position along x                                    [pixel]
#   4 Y_IMAGE                Object position along y                                    [pixel]
#   5 X_WORLD                Barycenter position along world x axis                     [deg]
#   6 Y_WORLD                Barycenter position along world y axis                     [deg]
#   7 A_WORLD                Profile RMS along major axis (world units)                 [deg]
#   8 B_WORLD                Profile RMS along minor axis (world units)                 [deg]
#   9 THETA_WORLD            Position angle (CCW/world-x)                               [deg]
#  10 FWHM_WORLD             FWHM assuming a gaussian core                              [deg]
#  11 ELONGATION             A_IMAGE/B_IMAGE                                           
#  12 ELLIPTICITY            1 - B_IMAGE/A_IMAGE                                       
         1 -14.2500    135.5459    123.9489   1.1007598427e+02   3.0867124795e+01     3.085172     0.383651 -48.81  0.005541872    9.778    0.898
         2 -14.8987    161.9968     43.2754   8.0393450410e+01   3.9638349029e+01     1.397395     1.116102 -11.39  0.003687646    1.424    0.298
         3 -14.6984    175.0286     10.4271   6.7763474791e+01   4.0162178024e+01     1.323981     1.060367  63.55  0.004381118    1.149    0.130
         4 -12.1985    190.1028     14.3010   6.7008481974e+01   3.5796457928e+01     0.507492    0.2556797 -17.43  0.002035209    2.444    0.591
         5 -13.4037    195.0104      5.7090   6.3976542470e+01   3.5392813551e+01    0.8548746    0.4070507 -69.88  0.003346264    2.713    0.631
         6 -13.3858    125.1185    241.8707   1.3168102016e+02   9.9842701225e+00    0.4437631    0.1691082 -54.37  0.002185672    3.263    0.694
         7 -20.1093     77.1687    176.3277   1.3359890582e+02   2.9643125879e+01     16.44307     6.586299 -67.21   0.07177413    2.513    0.602
         8  99.0000     12.8287    242.7828   1.5072978948e+02   2.4612738771e+01    0.2466539   0.09591309 -62.60  0.001426815    3.326    0.699
         9 -11.8538    145.8822    189.5743   1.2068057440e+02   1.5353065431e+01    0.2559451     0.208183  -5.52 0.0008443169    1.727    0.421
        10 -10.4550    151.0985    242.0863   1.2704585558e+02   5.7865742636e+00    0.1688677    0.1354222  28.46 0.0006723383    1.327    0.246
        11 -10.6800     24.9479    185.5710   1.4547666834e+02   3.4080702020e+01    0.1703267    0.1237195 -80.79 0.0004072199    1.244    0.196
        12 -10.3422     28.7295    240.4427   1.4812456661e+02   2.3325102779e+01    0.1160261   0.08009842  54.06 0.0003798796    1.269    0.212
        13 -11.3275     21.7426    239.1664   1.4917664031e+02   2.4300699700e+01    0.1286752   0.09411369 -87.30  0.000683109    1.366    0.268
        14 -10.9101     30.9025    182.7222   1.4407340657e+02   3.4053471575e+01    0.2403585    0.1671217  19.23  0.001490258    2.278    0.561
        15 -11.2796     27.5291    179.8003   1.4452824385e+02   3.5013418165e+01    0.2800404    0.2084356 -35.44  0.001780585    2.298    0.565
        16 -12.0906    199.5073    179.0630   1.0796457936e+02   6.8570708837e+00    0.3598554    0.2658392 -72.92  0.001362607    2.251    0.556
        17 -13.5408    195.6824    169.5754   1.0683712592e+02   9.1826499246e+00    0.5417421    0.4742745 -50.72 0.0009425162    1.317    0.241
        18 -11.0954    131.2312    236.3859   1.2996821071e+02   9.8652992606e+00    0.2100873    0.1478865 -57.73 0.0006550342    1.761    0.432
        19 -12.8438    126.2912    171.8747   1.2196544640e+02   2.2458286581e+01    0.4413134    0.3487758 -32.02  0.002362979    1.657    0.397
        20 -12.8507    122.4696    165.8298   1.2179069980e+02   2.4420911678e+01    0.7991427    0.3159317  57.39  0.001914449    3.806    0.737
        21 -14.9542    138.5895    171.3443   1.1914648340e+02   2.0252563643e+01      1.17025    0.8422164  48.12   0.00611524    1.272    0.214
        22 -12.8678    149.1698    173.8864   1.1729531062e+02   1.7704893933e+01     0.335418    0.2949897  81.52  0.000925572    1.215    0.177
        23 -13.8646    143.8923    168.5017   1.1746438549e+02   1.9795256692e+01    0.6306955     0.462514  81.11  0.002266023    1.738    0.425
        24 -13.3431    171.1311    176.3955   1.1312103576e+02   1.2904664743e+01    0.5728848    0.3350651  24.21  0.002396817    2.408    0.585
        25 -13.8382    177.5302    171.1387   1.1079635291e+02   1.2569940804e+01    0.6333809     0.505442 -54.81  0.003328722    1.442    0.307
        26 -12.4962    193.6028    164.7672   1.0626985562e+02   1.0426316873e+01    0.3648683     0.338807  23.81  0.001222333    1.012    0.012
        27 -12.1524    165.2694    171.6801   1.1345160055e+02   1.4938397319e+01    0.2975823    0.2276209  75.25  0.001504483    1.651    0.394
        28 -11.6628     26.2423    173.2993   1.4427869234e+02   3.6512945743e+01    0.2586246    0.1880715  81.75  0.000850568    1.063    0.059
        29 -10.5778      7.6758    236.7938   1.5128255107e+02   2.6146774678e+01   0.07824419   0.06705412  63.78 0.0003865257    1.489    0.328
        30 -12.0568    230.0667    166.6963   9.9823097853e+01   2.9097086612e+00    0.3038626    0.1862546 -47.02  0.001477226    2.011    0.503
        31 -10.4533     13.6980    232.9746   1.5017291036e+02   2.6207784245e+01    0.1170067   0.07109056 -75.17 0.0007964247    1.683    0.406
        32 -14.1316    162.5022    154.6712   1.1065715706e+02   1.8764405989e+01    0.7197059    0.5044516 -68.40  0.002975391    1.881    0.468
        33 -11.4400     17.6593    156.6009   1.4475041917e+02   4.0915340898e+01    0.4610174    0.1980616 -69.66  0.002485206    1.898    0.473
        34 -11.0730    192.8907    157.8298   1.0496349641e+02   1.1785424387e+01    0.2282714    0.1904974  15.54 0.0007310894    1.263    0.209
        35 -14.8429    143.9320    143.8421   1.1255680115e+02   2.4854107435e+01     1.170215    0.6860862 -64.52  0.004553851    2.256    0.557
        36 -10.7269    133.5154    248.9843   1.3095569586e+02   7.5949222675e+00    0.1295773    0.1134109 -79.33 -1.81986e-05    1.400    0.286
        37 -11.6545    138.9625    250.2688   1.3013972595e+02   6.5532598780e+00     0.242705    0.1662733  39.51  0.001608439    1.253    0.202
        38 -12.8160    173.8065    148.5895   1.0691687256e+02   1.7541791470e+01    0.4100317    0.3485193  50.21  0.001441477    1.140    0.123
        39 -11.7773    139.0232    242.9818   1.2931458647e+02   7.6064869368e+00    0.3289273    0.2126408 -52.64  0.001524938    1.981    0.495
        40 -11.3256     27.3939    145.6957   1.4149828711e+02   4.2436541884e+01    0.2375366    0.1905532 -76.18 0.0007808799    1.143    0.125
        41 -14.8475    134.1526    145.8163   1.1526905061e+02   2.6434132468e+01     1.893178    0.5984591 -57.30  0.005160369    4.861    0.794
        42 -10.9720     16.8942    225.3080   1.4929598076e+02   2.7241988640e+01    0.1200668   0.08480233 -83.96 0.0005661275    1.370    0.270
        43 -11.8769    173.1487    139.6268   1.0505705711e+02   1.9417445674e+01    0.2567411    0.2111898 -56.72 0.0008543842    1.328    0.247
        44 -12.7095     22.7356    220.4141   1.4806296511e+02   2.7525824982e+01    0.2450176    0.1568234 -70.94  0.001761574    1.677    0.404
        45 -13.1460    160.7570    127.9622   1.0506624494e+02   2.4501197154e+01    0.4854099    0.3912749 -65.89  0.001876895    1.405    0.288
        46  -9.7356     19.3852    125.2314   1.4126565981e+02   4.7763040557e+01    0.1094342   0.08120822 -42.77 0.0003487983    1.629    0.386
        47 -11.9886    140.6574    120.6623   1.0802674305e+02   3.0476224643e+01    0.4402517     0.261943  68.28  0.001277535    2.495    0.599
        48 -10.1860     23.5934    215.3320   1.4763281165e+02   2.8377528959e+01    0.1206608   0.08325169 -83.49   0.00035131    1.334    0.250
        49 -11.2398    167.3896    112.5545   9.9728747706e+01   2.6070036846e+01    0.3441931    0.2514679 -89.16  0.001414275    1.953    0.488
        50 -11.2813    130.4022    212.7468   1.2721909889e+02   1.3923134718e+01     0.255399    0.1820502  88.10 0.0009066988    1.733    0.423
        51 -10.2450     15.8037    209.6344   1.4867811985e+02   3.0246784430e+01   0.09458912    0.0646609 -72.38 0.0002310005    1.554    0.357
        52 -10.8041    205.3396    110.2335   9.1405191364e+01   1.7518341162e+01    0.3163144    0.2077591  45.79 0.0009948679    1.547    0.354
        53 -10.4917    180.8027    106.7613   9.5330637401e+01   2.3995360180e+01    0.2164039     0.184048 -80.57 0.0007272273    1.369    0.270
        54 -13.1171     11.3840    206.0686   1.4926496359e+02   3.1355780476e+01    0.3709877    0.2384044  36.73  0.002131576    1.818    0.450
        55 -10.3958     22.9688    156.0685   1.4352134318e+02   4.0549847491e+01    0.1749882    0.1365167  87.27 0.0004069784    1.018    0.018
        56 -10.2253     22.7888    204.9916   1.4716866457e+02   3.0428467265e+01    0.1961957    0.1230225 -49.88  0.001214414    2.550    0.608
        57 -11.6859    139.6776    200.4644   1.2364703136e+02   1.4490927806e+01    0.3410755    0.2422776  46.39 0.0007445441    1.211    0.174
        58 -10.6425    143.6933     80.8961   9.6381750160e+01   3.7932772267e+01    0.2236391    0.1986538 -43.37 0.0004862891    1.127    0.113
        59 -14.3798    150.5390     57.7651   8.7489637167e+01   4.0367546024e+01     1.236482     1.013467  -8.32 0.0009269736    1.392    0.281
        60 -10.7682     16.1480    249.5702   1.5050369115e+02   2.3141023834e+01   0.09693961   0.04617043  77.70 0.0006465489    1.664    0.399
        61 -13.1072    165.6151     34.8572   7.6995467013e+01   3.9838937241e+01    0.4277577    0.4118593  32.40 0.0008761128    1.087    0.080
        62 -10.9325     13.5081     59.9685   1.3267513580e+02   6.2747092340e+01    0.1793976    0.1566701  59.53 0.0004100155    1.449    0.310
        63 -10.2857    144.9993     34.0278   8.0654148936e+01   4.5293710782e+01     0.221848    0.1730947 -74.90 0.0003508054    1.555    0.357
        64 -10.1475    135.8185    196.3046   1.2381529483e+02   1.5942024469e+01    0.2168503    0.1452896  57.66  0.001153853    1.421    0.296
        65 -11.7719    134.0025    244.6960   1.3040287125e+02   8.1517249103e+00    0.1756013    0.1635776 -38.17 0.0002923115    1.477    0.323
