#   1 NUMBER                 Running object number                                     
#   2 MAG_AUTO               Kron-like elliptical aperture magnitude                    [mag]
#   3 X_IMAGE                Object position along x                                    [pixel]
#   4 Y_IMAGE                Object position along y                                    [pixel]
#   5 X_WORLD                Barycenter position along world x axis                     [deg]
#   6 Y_WORLD                Barycenter position along world y axis                     [deg]
#   7 A_WORLD                Profile RMS along major axis (world units)                 [deg]
#   8 B_WORLD                Profile RMS along minor axis (world units)                 [deg]
#   9 THETA_WORLD            Position angle (CCW/world-x)                               [deg]
#  10 FWHM_WORLD             FWHM assuming a gaussian core                              [deg]
#  11 ELONGATION             A_IMAGE/B_IMAGE                                           
#  12 ELLIPTICITY            1 - B_IMAGE/A_IMAGE                                       
         1  -8.9071     25.7643     36.3021   5.6047766736e+01   6.9458162970e+01      0.21432    0.2036211  56.93  0.001170544    1.304    0.233
         2  -8.7956    119.4761     33.0509   1.6335244029e+01   5.1325411531e+01    0.2074099    0.1439477 -35.78 0.0005169116    1.559    0.359
         3 -10.3158     40.9993     13.7863   3.5856701987e+01   7.1382548495e+01    0.2428222    0.1886789  24.77 0.0002224406    1.156    0.135
         4  -9.3997     97.8654     11.8770   1.3092170886e+01   5.9353649943e+01    0.2870497    0.1983458  -2.62 0.0008261657    1.900    0.474
         5  -9.3157      3.2325     12.3521   6.2486281955e+01   7.6106619133e+01    0.1660189    0.1251197 -35.48  0.001103228    1.123    0.109
         6  -7.9903     62.2860      9.6741   2.3236455685e+01   6.7850853030e+01    0.1218886    0.1027366 -75.63 0.0004503321    1.606    0.377
         7  -8.2932     65.1522      4.8229   1.9503113314e+01   6.7769395953e+01    0.1768024    0.1309544  33.21   0.00101806    1.275    0.216
         8  -8.0185     52.0293      3.0255   2.3866727162e+01   7.0718528025e+01    0.1512413    0.1270046  34.43            0    1.017    0.017
         9  -9.2818      2.8620      3.1350   5.8221183643e+01   7.7825015700e+01    0.2038837    0.1346045   1.99  0.000956412    1.390    0.281
        10  -9.3905     67.5111      1.3635   1.6788697734e+01   6.7590885327e+01    0.2279827    0.1075755  57.79 4.461972e-05    1.824    0.452
        11  -9.1904     12.5307    244.6376   8.6616678301e+01   2.0515680056e+01    0.2152543    0.1514945  30.40  0.001067431    1.422    0.297
        12 -10.3322    247.1357    248.3068   3.9832969073e+01  -8.5051487237e+00    0.2655524    0.1792015   4.60 0.0008200817    1.099    0.090
        13  -9.1230    214.4328    250.2308   4.5533082811e+01  -5.3161451442e+00     0.207854    0.1221381  22.03  0.001377812    1.382    0.276
        14  -9.7857    204.7565    249.8091   4.7187460214e+01  -4.1695934529e+00    0.2969553    0.1184252  32.45  0.001589105    2.142    0.533
        15 -10.2729    161.4434    248.7337   5.5277737824e+01   1.3090876568e+00    0.4941195    0.2704851 -60.63  0.002522725    3.245    0.692
        16 -10.7166    167.1801    248.2453   5.4074521384e+01   6.3821287242e-01    0.5033958    0.2537819  35.54  0.002077515    1.674    0.403
        17 -11.3311    173.5699    244.9793   5.2388255566e+01   2.8560218615e-01    0.6369702     0.445702 -42.91  0.004158601    1.740    0.425
        18 -11.2256    167.2024    242.2001   5.3278623748e+01   1.5186091083e+00    0.6040587    0.3083439  27.21   0.00184035    1.635    0.388
        19 -12.2223    163.1571    228.3661   5.2206517767e+01   4.2010727345e+00    0.9843451    0.8085459  60.03  0.004367103    1.705    0.414
        20 -11.1836     19.4024    247.8819   8.5322116516e+01   1.9220004060e+01    0.5635021    0.2519992  53.60  0.003215423    1.654    0.395
        21 -10.0247     12.8649    249.9644   8.6721125506e+01   1.9474580688e+01    0.2949447    0.1339026  44.59  0.001739411    1.517    0.341
        22  -9.7016      4.1443    249.2987   8.8442230558e+01   2.0426704501e+01    0.2638515    0.1297672  56.10 0.0007075162    1.465    0.318
        23  -8.3994    241.3497    247.6809   4.0663002610e+01  -7.8631371021e+00   0.08821139    0.0778694  20.84 0.0007048214    1.737    0.424
        24  -9.3180    101.0120    247.0152   6.7775470090e+01   9.6548700833e+00    0.1782165    0.1372516   4.08 0.0003654326    1.581    0.368
        25  -8.7229     36.4951    247.4870   8.1749804558e+01   1.7499429963e+01    0.1197498   0.09026305  49.68 -0.0001033907    1.029    0.028
        26 -10.7667     73.6281    244.5658   7.3548936619e+01   1.3658528417e+01    0.2761436    0.2233312  32.53 0.0005591551    1.172    0.147
        27 -10.1790    169.8063    224.9887   5.0356434710e+01   3.8108039688e+00    0.4310192    0.2358793  46.52  0.001609344    2.186    0.542
        28  -9.5529    235.3039    240.3304   4.0580786233e+01  -6.3900939011e+00    0.2628808     0.142218 -38.57  0.001678026    2.058    0.514
        29 -10.7734    238.4429    239.4919   3.9945634173e+01  -6.6211977037e+00    0.4260026    0.2275921 -32.31  0.002141502    1.776    0.437
        30 -10.9423     98.2035    241.5493   6.7861495417e+01   1.1001067356e+01     0.474012    0.2540169  28.31  0.001126927    1.630    0.387
        31 -10.2641      7.7837    241.4300   8.7488725513e+01   2.1586028535e+01    0.3206435    0.2200635 -83.47  0.002201099    1.567    0.362
        32  -8.6737      2.4825    243.3517   8.8620068416e+01   2.1705818857e+01     0.246785   0.09235033  25.45  0.001220813    2.640    0.621
        33  -9.4966    250.4554    241.6779   3.8356606008e+01  -8.0919266150e+00    0.1856345    0.1322187 -26.48   0.00058892    1.450    0.310
        34  -9.9745    248.5295    237.5034   3.8044030299e+01  -7.4255711009e+00    0.2374836    0.1467301 -22.19  0.001527834    1.358    0.264
        35  -9.0900    221.2025    239.9638   4.2896653287e+01  -4.8075398624e+00    0.1847236    0.1310948  14.17 0.0006348428    1.144    0.126
        36  -7.9585    133.6723    239.7222   5.9917789038e+01   6.4545724592e+00     0.123293   0.08708068   5.98 0.0003146672    1.594    0.373
        37  -7.9673     16.5092    237.5066   8.5538246315e+01   2.1514518005e+01    0.1200501   0.08805119  54.42 1.844284e-05    1.000    0.000
        38 -10.2758    231.1756    234.5456   4.0408329506e+01  -5.2447693876e+00    0.2679746    0.1989785 -11.61 0.0007949947    1.131    0.116
        39 -11.3433    239.0593    229.9803   3.8425693339e+01  -5.5439024098e+00     0.489165    0.2705801   6.44  0.002325421    1.811    0.448
        40 -10.4318    131.1433    227.8207   5.8997487747e+01   8.8608223600e+00    0.5474315    0.3331582 -14.68  0.002468548    2.723    0.633
        41 -11.8675    125.9986    221.4857   5.9338594336e+01   1.0761713704e+01    0.6038107    0.5502234 -39.00 0.0009244086    1.283    0.221
        42 -10.0329    117.9721    227.8197   6.1945082697e+01   1.0758150862e+01    0.4061542    0.2215938  46.00    0.0013816    1.707    0.414
        43  -9.1311    144.8786    227.4935   5.5949701563e+01   6.9391133647e+00    0.2188431    0.1783201 -25.20 0.0005684394    1.375    0.273
        44  -9.5127    242.5576    223.9743   3.6942873578e+01  -5.1838498500e+00    0.2235729    0.1420914 -24.94 0.0007792015    1.354    0.261
        45  -7.9425    195.6984    227.7150   4.5677370558e+01  -8.9559751820e-02    0.1200943   0.07807294   0.56            0    1.555    0.357
        46  -8.4194    191.6686    227.0669   4.6344552532e+01   5.2857201343e-01    0.1626052    0.1315503   0.12 0.0003350036    1.070    0.065
        47 -10.2389    182.6705    226.3993   4.7987544292e+01   1.8244426835e+00    0.4717701    0.2047934  37.21    0.0023105    2.109    0.526
        48  -8.0156    178.3068    222.6604   4.8295307728e+01   2.9949466840e+00    0.1136331   0.09573421  56.03 0.0007042205    1.682    0.405
        49  -7.9177     73.4674    224.4702   7.1898507701e+01   1.7593620960e+01    0.1309895    0.1082232  44.66 0.0003472208    1.035    0.034
        50  -9.6585     66.7465    223.6633   7.3409094684e+01   1.8631951704e+01    0.2237246    0.1861925  62.25 0.0005350716    1.120    0.107
        51  -9.4385     25.9543    222.7132   8.2823837596e+01   2.3579096436e+01    0.2426957    0.0685313  59.78 0.0008953185    3.557    0.719
        52  -8.0232    174.3455    222.3120   4.9039764967e+01   3.6009495072e+00    0.1308748   0.08601329   0.80 0.0007046261    1.709    0.415
        53  -9.4596    157.5031    221.5293   5.2415542012e+01   6.1291843552e+00    0.2498336    0.1924365  10.60 0.0007532916    1.229    0.186
        54  -8.9248    213.6313    220.8346   4.1336240696e+01  -1.3946621442e+00    0.2664854    0.1323934  43.53    0.0012605    2.656    0.623
        55  -9.8373    132.8584    220.8359   5.7704531798e+01   9.8683729236e+00    0.2052982     0.197898 -49.20 0.0007276463    1.244    0.196
        56 -10.3992    131.0832    215.0623   5.7325251813e+01   1.1203737091e+01    0.4156716    0.3040328 -71.97  0.001483033    1.853    0.460
        57  -9.1588    127.9294    211.8191   5.7604300929e+01   1.2299815460e+01    0.2109854    0.1592122  46.65 0.0003883534    1.281    0.220
        58  -9.6853    114.8924    220.6457   6.1778513770e+01   1.2553551386e+01    0.2385589    0.1992615  57.02 0.0006423998    1.253    0.202
        59  -9.4604    219.2848    219.1260   4.0072179810e+01  -1.8580865533e+00    0.2919882    0.1907434  -8.09  0.001845565    1.440    0.306
        60  -8.5834    149.3747    219.7740   5.3908761179e+01   7.6173438019e+00    0.2489752     0.191485 -24.65 0.0007579832    1.450    0.310
        61  -9.3364    151.4974    216.0305   5.2908065013e+01   7.9583555811e+00    0.2880331    0.1677477  18.31  0.001077886    1.864    0.464
        62  -9.7540     75.1888    219.3319   7.1017095937e+01   1.8424516382e+01    0.2820953    0.1825882  45.17 0.0009156108    1.272    0.214
        63  -9.9879    190.2795    216.2288   4.4953075591e+01   2.3390548206e+00    0.4470977    0.2733925 -30.43  0.002556989    1.667    0.400
        64 -10.5854     84.5825    214.2988   6.8248326656e+01   1.8193557378e+01    0.6307892    0.2675968 -56.40   0.00276783    2.657    0.624
        65  -9.6786     63.9184    213.4646   7.3203955178e+01   2.1149823729e+01     0.442831    0.1720008  41.15  0.001933851    2.013    0.503
        66  -9.3201    176.0582    216.2367   4.7773692458e+01   4.3312173153e+00    0.2705237    0.1747055 -38.10  0.001360453    1.652    0.395
        67 -10.8415     54.0016    248.8408   7.8105858254e+01   1.5257479361e+01    0.5013195    0.3244766   8.59  0.002249524    2.265    0.558
        68 -10.2380    170.7827    215.1624   4.8688160222e+01   5.2660452054e+00    0.2807123    0.2240857  13.51 0.0007316031    1.097    0.088
        69  -9.5383     22.7117    216.5451   8.3262461310e+01   2.5224684397e+01    0.3633704    0.1135816  25.26  0.001456541    3.196    0.687
        70 -11.7650     95.6043    217.9401   6.5993043566e+01   1.5884295960e+01    0.6708518    0.3506639  41.67  0.002181724    1.588    0.370
        71  -9.7279    113.1948    212.7450   6.1183101073e+01   1.4350765568e+01    0.6241567    0.3678704   5.00  0.002558337    2.956    0.662
        72  -8.7990    228.3537    214.2309   3.7739557101e+01  -2.2949775528e+00    0.1839301    0.1420567  10.72 0.0007891827    1.140    0.123
        73 -10.3110     77.9633    211.4113   6.9565111749e+01   1.9723263553e+01    0.3835472    0.2577002  21.62  0.001841669    1.595    0.373
        74  -9.6108    212.0496    203.4868   3.8819726686e+01   1.3056188146e+00    0.4173766    0.1657327  34.84  0.001973454    2.444    0.591
        75  -9.4634     61.0205    218.5279   7.4338111160e+01   2.0434870798e+01    0.3406664    0.1375867 -56.76  0.001488824    2.890    0.654
        76  -9.7553    237.7018    210.1687   3.5540137748e+01  -2.8633886712e+00    0.1844474    0.1435826  27.12  0.001321057    1.437    0.304
        77  -9.5227    202.6228    211.2564   4.1818437392e+01   1.4131659232e+00    0.3708928    0.1858586 -37.53  0.001961456    1.989    0.497
        78  -8.3370    135.7694    208.7957   5.5369088826e+01   1.1674567146e+01    0.1762014    0.1429992  51.65 0.0002451111    1.312    0.238
        79 -10.4288      1.5457    162.5147   8.6010020229e+01   3.9697937713e+01    0.7982134    0.4579502 -52.27  0.003379422    2.025    0.506
        80 -10.8351     12.1858    205.7577   8.5230385877e+01   2.8605539066e+01    0.4593932    0.2539327 -80.02  0.002483306    1.774    0.436
        81 -11.3622     15.6993    196.2919   8.3937311079e+01   3.0426385091e+01    0.6458471    0.3136534 -45.12  0.002371928    3.241    0.691
        82  -9.9168     11.1469    187.3997   8.4643727738e+01   3.2910399975e+01    0.2705802    0.2564762  28.53 0.0005004708    1.300    0.231
        83 -12.0505     12.0468    180.5741   8.4063476135e+01   3.4459237963e+01     0.867369    0.6631396 -56.72  0.004652795    1.540    0.351
        84 -11.7774      5.6108    176.2703   8.5551909484e+01   3.6028106815e+01     1.315694     0.340817 -69.91  0.004980589    3.378    0.704
        85 -11.0297      3.1088    170.3422   8.5946471826e+01   3.7659808902e+01    0.5835701    0.2840604 -64.14  0.002866847    2.079    0.519
        86 -10.6328    211.9608    208.0652   3.9592291309e+01   6.4092009412e-01    0.4704417    0.3766584  -5.57   0.00320617    1.043    0.041
        87  -8.8049    124.1449    205.8357   5.7655743294e+01   1.4055487385e+01    0.1921593    0.1644024  44.65   0.00112838    1.114    0.102
        88  -8.4172    224.3430    205.6150   3.7018860993e+01  -6.0837862950e-01    0.1443718    0.1393446 -41.36  0.000470222    1.586    0.369
        89  -9.7792    166.7883    199.2052   4.6992674613e+01   8.6104526357e+00    0.3900617    0.3090259  13.83 0.0008134654    1.188    0.158
        90 -11.2374    175.9984    184.9928   4.2611953406e+01   9.7014592691e+00    0.7342066     0.529452 -60.61  0.002804079    1.878    0.468
        91  -9.3185    171.3676    201.2244   4.6356600752e+01   7.5464931545e+00    0.2608362    0.1972557 -63.00 0.0009867649    1.875    0.467
        92 -11.3774    178.9297    196.4698   4.3997383948e+01   7.2103951533e+00    0.8235433    0.4983013 -18.60  0.002817116    2.085    0.520
        93 -11.3893    172.8767    195.5901   4.5102566219e+01   8.3021291637e+00    0.7104421    0.3555205 -40.80  0.001681717    2.084    0.520
        94  -9.1462    129.7213    201.1187   5.5652820286e+01   1.4121237622e+01    0.2765428    0.2131032  43.62  0.001441321    1.214    0.176
        95 -11.3407     20.2932    181.1027   8.1902817284e+01   3.3589686286e+01    0.8360503    0.4507447 -67.59  0.004221825    1.861    0.463
        96  -8.1745    250.4065    200.5116   3.1961124804e+01  -3.0663767086e+00    0.1126755   0.08453346 -12.65 8.139437e-05    1.023    0.022
        97  -9.4757     58.1642    196.3967   7.3090382166e+01   2.5713536805e+01    0.3581056    0.1429974 -65.18  0.001136938    2.575    0.612
        98  -8.9223    212.8437    198.9393   3.7912983750e+01   1.8798828962e+00    0.1906009    0.1385405  -5.22 0.0004410559    1.286    0.223
        99  -8.7615    112.7846    198.0700   5.9309652629e+01   1.7431314951e+01    0.3569985    0.1729448  57.99  0.001305486    3.100    0.677
       100  -8.6947    113.0673    194.3060   5.8702548049e+01   1.8188793318e+01    0.2013481    0.1771483  19.01  0.000313967    1.163    0.140
       101  -9.3940    105.3756    197.5255   6.1078645124e+01   1.8706240257e+01     0.247244    0.2278716  -8.40 0.0008228528    1.246    0.198
       102  -9.7032    126.7728    196.6168   5.5683217958e+01   1.5504608075e+01    0.3265177    0.2276557  18.75  0.001308716    1.538    0.350
       103  -9.3511    124.6087    193.1890   5.5687316734e+01   1.6564653907e+01    0.2984059    0.2000601 -48.99  0.001501936    1.650    0.394
       104  -8.9460    248.4999    195.4875   3.1416141391e+01  -2.1772373698e+00    0.1156684   0.08683553 -11.14 0.0008099395    1.056    0.053
       105  -9.4404    131.6703    194.9625   5.4255856598e+01   1.5049965858e+01    0.1860025    0.1791364  43.33 0.0005930993    1.104    0.094
       106  -8.5760     40.3855    194.8656   7.7576071775e+01   2.8214743010e+01    0.1834412    0.1121063 -63.14 0.0009440332    1.776    0.437
       107  -8.2962     66.4528    194.9198   7.0780480333e+01   2.4971306722e+01    0.1953746     0.103137  73.31 0.0008063696    2.430    0.588
       108 -11.8352     98.0284    188.8853   6.1769179265e+01   2.1760566079e+01    0.6514954    0.4072775  62.16  0.001559934    1.867    0.464
       109 -10.0782    104.0361    189.4630   6.0295379894e+01   2.0685366105e+01    0.3345627    0.2376973  30.53  0.000917448    1.327    0.246
       110  -9.0796    185.3932    189.9134   4.1558571398e+01   7.3420723747e+00     0.266519    0.2122943  32.30  0.001592305    1.233    0.189
       111  -9.7797    183.3316    185.8145   4.1250544415e+01   8.3782772037e+00    0.2108338    0.2098115 -58.16 0.0009186077    1.272    0.214
       112  -8.6462     91.0154    190.2156   6.3779979149e+01   2.2538002380e+01    0.2025156    0.1753509  41.50 0.0006978963    1.048    0.046
       113  -9.5445    203.9875    187.9088   3.7616919318e+01   4.8593832840e+00    0.3050418    0.2411105  52.91  0.001627573    1.734    0.423
       114  -8.9187    199.0344    185.4729   3.8112469501e+01   5.9986250302e+00    0.2766353    0.1196601  37.09  0.000930966    2.290    0.563
       115 -10.5489     93.8803    181.5042   6.1828044673e+01   2.4106518498e+01    0.4568107    0.3606084 -38.37  0.001262553    1.517    0.341
       116  -8.7508    155.4438    187.3119   4.7478125221e+01   1.2649527050e+01    0.2490117     0.131425 -42.65 0.0007257986    2.016    0.504
       117  -8.9046     50.5420    197.6686   7.5179874883e+01   2.6368228615e+01    0.2481865    0.1119582  30.69  0.001094389    2.007    0.502
       118  -8.3788    165.7599    186.8176   4.5112855169e+01   1.1037721107e+01    0.1812655    0.1588461  57.08 0.0006889643    1.373    0.272
       119 -10.6122     46.5102    182.0123   7.4853014626e+01   3.0579320091e+01     0.865421    0.2018452 -66.29  0.002880077    3.802    0.737
       120  -8.7052    250.0401    186.0112   2.9573862261e+01  -1.0764213189e+00    0.1592919    0.1370433 -50.52  0.001132791    1.702    0.412
       121  -9.7532    228.2935    183.9911   3.2654317429e+01   2.0181429807e+00    0.3120852    0.2871153  81.53  0.002124572    1.782    0.439
       122 -10.5046    210.3284    184.4229   3.5837790356e+01   4.4874460421e+00    0.4179125    0.2514465  -2.14  0.002047186    2.253    0.556
       123  -9.5687    108.4358    185.2354   5.8541919262e+01   2.0922924144e+01    0.3900447    0.2609924  67.50  0.001634968    1.883    0.469
       124  -8.9832    111.5161    184.4451   5.7628297888e+01   2.0595958095e+01    0.2295161    0.2163761   9.98 0.0007149289    1.139    0.122
       125  -8.8873    235.3087    182.3291   3.1217272470e+01   1.3207914248e+00    0.1237195   0.07953891  -7.46 0.0003231699    1.662    0.398
       126  -9.3168    138.8336    180.0479   5.0092466237e+01   1.6928222174e+01    0.3422252     0.231409  61.98  0.001573284    1.951    0.487
       127  -9.9944    182.1860    180.2845   4.0487332502e+01   9.5436778237e+00    0.2165531    0.2009003 -18.06  0.001347768    1.106    0.096
       128 -10.6342    179.0766    177.6223   4.0637791972e+01   1.0536503017e+01    0.4071605    0.2270873 -36.09  0.001930678    1.840    0.457
       129  -9.5789    104.3095    179.5182   5.8753827413e+01   2.2893260705e+01    0.4598694    0.2228884 -57.26  0.001899854    2.214    0.548
       130  -8.3204    100.9980    177.7588   5.9366976282e+01   2.3841042082e+01     0.298637    0.1623896  25.45  0.001223991    2.035    0.509
       131  -8.9834    219.1976    178.4084   3.3191761635e+01   4.1478981960e+00     0.228715    0.1511757 -49.50 0.0007957377    1.830    0.454
       132  -9.6589    158.0320    177.1944   4.5107160023e+01   1.4188404879e+01    0.3635817    0.2617125 -39.09  0.001491394    1.445    0.308
       133  -9.3494    111.7159    179.4482   5.6797825346e+01   2.1683968160e+01    0.4860831      0.18275  27.88  0.001566401    3.264    0.694
       134  -8.9282    240.3311    177.8504   2.9631644643e+01   1.3079801428e+00    0.1768522      0.15951  15.11 0.0008090052    1.288    0.224
       135 -11.2684    149.8231    164.3220   4.4594315091e+01   1.8267927199e+01     1.138782     0.410913 -47.12  0.004039185    2.855    0.650
       136 -10.6199    152.0159    174.4975   4.5990076722e+01   1.5776086515e+01    0.4361884    0.3302563 -20.35  0.001381205    1.528    0.346
       137  -9.9789    148.5210    174.5108   4.6806823983e+01   1.6387616922e+01    0.3048056    0.2738673 -21.13  0.001009221    1.157    0.135
       138 -10.6867    204.0896    175.5007   3.5352544997e+01   6.8832796563e+00    0.4374291    0.3168345  20.70  0.002403997    1.398    0.284
       139 -11.3855    208.0574    168.6085   3.3339132891e+01   7.4154774625e+00    0.5630725    0.4521364 -32.60  0.003452327    1.168    0.144
       140  -8.9932     89.0472    177.0684   6.2505714126e+01   2.5909580895e+01    0.2509111    0.1596473  62.20  0.001128577    1.757    0.431
       141  -8.1808    118.0142    176.0351   5.4608684841e+01   2.1387384739e+01    0.1739786    0.1633339 -62.26 0.0006202613    1.153    0.132
       142  -8.5199     77.4224    175.9041   6.5564325995e+01   2.7953872298e+01    0.2991234    0.1292053  58.17 0.0009694726    3.150    0.683
       143  -9.9325     20.0722    168.1729   8.1112543807e+01   3.6796010339e+01    0.4242163    0.1803496  79.19  0.001726847    2.528    0.604
       144 -10.0962     24.2933    174.5936   8.0380300616e+01   3.4802532484e+01     0.457141    0.1977539  66.74  0.001326979    2.405    0.584
       145 -10.7763     29.7732    171.0966   7.8578810096e+01   3.5130432986e+01    0.6766365    0.4864263 -63.73  0.003734769    1.462    0.316
       146  -8.8436    105.4951    174.9973   5.7733062036e+01   2.3742135544e+01    0.3565238     0.184529  67.29  0.001135976    3.827    0.739
       147  -8.6150     87.9707    173.2083   6.2245344702e+01   2.7004288334e+01    0.2211367    0.2168165   3.41 0.0009550433    1.155    0.134
       148  -9.1837     91.9989    172.4357   6.1012133775e+01   2.6553360881e+01    0.3599951    0.2140423  38.33 0.0009329531    1.526    0.345
       149  -8.3698    223.7982    172.3327   3.1300624848e+01   4.4314030680e+00    0.1677847    0.1066178  25.70 0.0003101294    1.683    0.406
       150  -8.8058    193.3384    172.4570   3.6818032044e+01   9.1141163036e+00    0.2223147     0.124037  32.05 0.0005677051    1.844    0.458
       151  -8.5365    179.6805    169.6928   3.9026721770e+01   1.1895562634e+01    0.1410925    0.1027142  -2.51 0.0003363337    1.637    0.389
       152  -9.0920    176.9975    167.7092   3.9204127302e+01   1.2729283412e+01    0.2629326    0.2426758 -56.47 0.0005524799    1.251    0.201
       153  -8.8598    135.2210    171.4183   4.9450712116e+01   1.9395731133e+01    0.2157095    0.1285035  46.34 0.0009495185    1.663    0.399
       154  -8.8802    121.3382    169.7909   5.2680893964e+01   2.2217293697e+01    0.2804916    0.2169027  78.21 0.0009661481    1.618    0.382
       155  -8.4614     55.2141    169.7650   7.1133378088e+01   3.2545647211e+01    0.2531977    0.1134971  60.08 0.0006962898    2.648    0.622
       156  -9.8201    199.6047    167.4885   3.4680377079e+01   8.9589340844e+00    0.3584159    0.2281084  -8.41 0.0009562469    2.118    0.528
       157  -9.0295    160.3384    166.7572   4.2637583797e+01   1.5860869713e+01    0.4161968    0.2318857 -66.42  0.001521192    3.322    0.699
       158  -8.9026    138.9550    165.1047   4.7364838312e+01   2.0089484971e+01    0.3606674    0.2312912 -88.56  0.001178968    3.183    0.686
       159  -9.2348     97.9407    165.0958   5.8200214324e+01   2.7352315723e+01    0.4351839    0.2458268  66.89  0.001625984    2.623    0.619
       160  -8.2933     80.7991    165.1959   6.3101024889e+01   3.0083445613e+01    0.2617339    0.1343169  64.26 0.0009358608    2.747    0.636
       161  -8.9659     37.8610    164.7646   7.5682024928e+01   3.5878436969e+01    0.2857599    0.1491666  68.59 0.0009338327    2.054    0.513
       162  -7.7243     66.3374    164.2667   6.7199008738e+01   3.2444757273e+01    0.1395893    0.1143866 -18.96  0.000387046    1.593    0.372
       163 -10.6670    248.1125    160.5849   2.5345113689e+01   2.7831001337e+00    0.3884428    0.2703577 -13.02  0.002455109    1.419    0.295
       164 -10.7118    248.8767    153.0561   2.3846467344e+01   3.7851648940e+00    0.4603348    0.3503965 -48.87   0.00301911    1.479    0.324
       165  -9.7576    230.2131    160.9273   2.8127910634e+01   5.2729783446e+00    0.3652512    0.2410474  17.13   0.00206543    1.798    0.444
       166  -9.9542     99.9614    159.0367   5.6606941303e+01   2.8481349312e+01    0.3843848     0.311308 -68.86 0.0009586682    1.306    0.234
       167  -8.9121     99.9561    154.0175   5.5721136587e+01   2.9710910268e+01    0.2278765    0.2151053  55.45 0.0003206072    1.010    0.010
       168 -10.8309     24.3729    159.8141   7.9235084215e+01   3.8515004299e+01    0.8154792    0.3774456   7.70  0.003146787    3.351    0.702
       169  -8.4943     92.6119    160.2287   5.8909629638e+01   2.9428731521e+01    0.2463714    0.1635357  68.53  0.001068199    1.822    0.451
       170  -9.0690    220.2614    159.4126   2.9464368314e+01   7.0231501740e+00    0.1600768    0.1223334  49.61 0.0009453529    1.617    0.382
       171 -10.9740    218.0636    165.5398   3.1003215060e+01   6.3678275068e+00    0.4837867    0.3459723  27.11  0.002165156    1.465    0.318
       172 -10.4641    142.9010    158.4641   4.5116632610e+01   2.0798298643e+01    0.7116191    0.2567908  45.44   0.00240389    2.830    0.647
       173  -9.1607    105.1466    157.5690   5.4884356259e+01   2.7936412146e+01    0.3077929    0.2225727  77.89 0.0008782652    1.735    0.423
       174  -9.5526    224.8580    157.1691   2.8275229571e+01   6.6749778838e+00    0.1875487    0.1666116 -43.03  0.001148644    1.250    0.200
       175  -9.6200    206.9658    142.0466   2.8285360212e+01   1.2148554845e+01     0.301581    0.2158601 -17.42 0.0008676518    1.556    0.357
       176 -10.0268    208.0943    156.5220   3.1000852369e+01   9.4539980705e+00    0.4288463    0.2882843  25.74  0.002303638    1.656    0.396
       177 -11.8819    205.7199    149.9437   3.0113950856e+01   1.0987437269e+01    0.8191712     0.640252  89.21  0.004333006    2.082    0.520
       178  -8.6450    127.3565    156.9152   4.8741042733e+01   2.4053197176e+01    0.2115837    0.1871853 -48.72    0.0005362    1.185    0.156
       179  -8.9298     50.0014    155.4812   7.1008913363e+01   3.6860590503e+01    0.4215645    0.1583162  53.19  0.001438968    3.024    0.669
       180 -10.0969    134.5991    153.6954   4.6241281658e+01   2.3417401186e+01     0.581898    0.3567026  62.74  0.001678835    2.282    0.562
       181  -8.5535    119.7044    155.1140   5.0421814532e+01   2.5890225141e+01    0.2598841    0.1607774  74.29  0.000944923    2.778    0.640
       182  -9.3273     81.9203    154.4911   6.1108541404e+01   3.2600545568e+01    0.2826428    0.2044419  84.07 0.0006371651    1.582    0.368
       183  -9.7080     68.7103    154.1943   6.5070940143e+01   3.4683406147e+01    0.3945625    0.2637491  59.43  0.001300814    1.533    0.348
       184  -8.9390    233.6974    154.0154   2.6271410231e+01   5.8334291984e+00    0.1829677    0.1434506 -29.10 0.0006687423    1.082    0.076
       185  -8.4112    195.2884    154.3339   3.2916850547e+01   1.2009912144e+01    0.1387079    0.1011608  -7.55  0.000701795    1.628    0.386
       186  -9.8579      5.1422    151.8823   8.4411183373e+01   4.2112348474e+01    0.4194387    0.1813015  61.19  0.001369453    2.196    0.545
       187 -10.8443    223.2381    148.4102   2.6835108867e+01   8.3463820387e+00    0.4430239    0.3594993  24.88  0.001882394    1.334    0.251
       188  -8.9926    189.8621    150.8645   3.3255605515e+01   1.3601986590e+01    0.2830723    0.1919412  46.21 0.0009142315    1.582    0.368
       189  -8.4491     88.0303    151.0011   5.8689923068e+01   3.2493141332e+01     0.190761    0.1754467  54.01  0.001010126    1.024    0.023
       190  -9.2825     28.1932    149.1119   7.7120937309e+01   4.0920549867e+01    0.5436533    0.2003323  67.98   0.00171426    3.983    0.749
       191  -8.5683     23.3070    151.6819   7.8878077267e+01   4.0707974019e+01    0.1488916   0.08702584  60.55  0.000542753    1.633    0.388
       192  -9.2562    121.3841    149.2853   4.8826836969e+01   2.6940194961e+01    0.3629229    0.2179306  17.96 0.0009381695    2.500    0.600
       193 -10.1628    116.6464    143.8779   4.9031864414e+01   2.9120005131e+01     1.914219     0.681848  55.68  0.003598625    9.233    0.892
       194  -8.7323     82.7881    149.2443   5.9971980548e+01   3.3797242326e+01    0.2021215    0.1802016 -22.66  0.000430656    1.334    0.250
       195  -9.6521     39.5059    147.0042   7.3301917112e+01   4.0307178640e+01    0.5865638    0.2402509  62.54  0.001992929    3.272    0.694
       196  -8.6486     77.7908    147.1414   6.1153254699e+01   3.5132568655e+01    0.2092128    0.1839654 -22.91  0.001074467    1.366    0.268
       197 -10.2662     57.3897    145.3802   6.7336417410e+01   3.8558830074e+01    0.7815775    0.2797459  35.29  0.002828602    2.503    0.601
       198 -10.2888    244.3408    142.6078   2.2516857297e+01   6.0048579950e+00    0.2887836    0.2494853 -19.32  0.002002702    1.080    0.074
       199 -10.7994    245.1369    137.0250   2.1331447695e+01   6.7356658445e+00    0.3722837    0.1852357 -44.40  0.001924928    1.825    0.452
       200  -9.4412    166.4500    157.1137   3.9379207934e+01   1.6679023004e+01    0.4223252    0.2689497  62.24  0.001813923    2.294    0.564
       201  -8.5099    158.7705    145.8485   3.8770707270e+01   2.0439129090e+01    0.2519772    0.1622729  -6.02 0.0009447724    2.850    0.649
       202  -9.7421    148.8531    144.8153   4.0874719256e+01   2.2606296627e+01    0.4879425    0.3231387  89.21  0.001833465    2.917    0.657
       203  -9.1837    142.7285    145.9626   4.2610968677e+01   2.3562921950e+01    0.2884941    0.2079095  22.89 0.0009341447    1.613    0.380
       204  -9.4695    107.0369    145.0494   5.1988401924e+01   3.0640558957e+01     0.519807    0.3096709  73.82  0.001826315    2.904    0.656
       205  -8.8803     13.3988    146.1677   8.1512855580e+01   4.2969691463e+01    0.1929532    0.1106083  82.42 0.0004379447    1.637    0.389
       206  -9.7792      3.4484    144.2863   8.4477619649e+01   4.4162234898e+01    0.4056768    0.1152599 -82.00  0.001456712    3.151    0.683
       207 -10.6610     70.3768    142.1869   6.2663711765e+01   3.7557673976e+01    0.5773384     0.396787  84.29  0.002611033    1.684    0.406
       208  -7.9458    165.6157    144.3026   3.6905323462e+01   1.9422143089e+01    0.1498732     0.116836  81.55 0.0007019924    1.786    0.440
       209  -9.3239    125.1060    142.7699   4.6486750857e+01   2.7747472837e+01    0.4629693    0.2888416 -84.85  0.001646162    2.960    0.662
       210  -8.8025     88.0715    143.8678   5.7403825313e+01   3.4295229766e+01    0.3433874    0.2035629  66.01  0.001317731    2.256    0.557
       211 -11.0049    197.4115    136.7265   2.8879325134e+01   1.4815556065e+01    0.5368313    0.3925112  -5.60  0.002722267    1.762    0.432
       212  -9.8689    202.6715    136.2957   2.7841997066e+01   1.3928529046e+01    0.2840658    0.2419968  62.49 0.0009036223    1.400    0.286
       213  -9.6690    192.4928    133.5690   2.9111749234e+01   1.6315897836e+01     0.351671    0.2402548  68.78  0.001653569    2.107    0.525
       214 -10.2759     41.3659    135.1068   7.1208617113e+01   4.3255148976e+01    0.4847113      0.34835 -51.30  0.001562606    1.464    0.317
       215 -10.9986     44.6185    130.9198   6.9509750167e+01   4.4000070347e+01     1.028647    0.5428278  79.72  0.003524853    2.493    0.599
       216  -9.3060     24.8573    126.8096   7.5901851776e+01   4.7118526838e+01    0.3721451    0.2400101 -83.14  0.001584887    1.456    0.313
       217  -9.4683     23.7176    138.4581   7.7527183050e+01   4.4131734085e+01    0.5280097    0.2228438  63.29  0.001991363    2.785    0.641
       218  -9.4281     20.9906    133.0151   7.7900813830e+01   4.5803257407e+01     0.407735    0.1719835 -48.82  0.001621535    2.624    0.619
       219  -9.5991    234.3112    136.7855   2.2829095924e+01   8.4492410566e+00    0.2909692      0.22885 -16.45   0.00112864    1.268    0.211
       220  -8.3234    162.1872    136.6384   3.6001262694e+01   2.1672233252e+01     0.216626    0.1370638  34.11 0.0009522014    1.723    0.420
       221  -8.4280     91.0204    135.8079   5.4952065769e+01   3.5838034911e+01    0.3015392    0.1870079  14.36  0.001144438    2.403    0.584
       222  -8.5667      4.0381    134.4611   8.3667951704e+01   4.6652872240e+01    0.1823873   0.09757665 -27.34 0.0008093917    2.629    0.620
       223 -10.0863    110.3227    131.5105   4.8214493725e+01   3.3322545048e+01    0.5816488    0.5791096  71.43  0.002410749    1.057    0.054
       224 -11.2432    107.4862    113.3745   4.4838868803e+01   3.8284470242e+01     1.352994     1.147007 -67.50  0.006647819    1.226    0.185
       225 -10.4430    117.1160    125.1908   4.4824446679e+01   3.3490734868e+01    0.7148364     0.475766  41.56  0.002249831    1.470    0.320
       226 -10.5222    118.4177    118.6418   4.2901257081e+01   3.4772989237e+01     1.076316    0.3755646 -42.13   0.00318917    3.451    0.710
       227  -9.3638    104.9708    123.5098   4.8016478663e+01   3.6323654125e+01    0.3260024    0.2656851  17.83   0.00103563    1.445    0.308
       228 -10.2995    109.0337    121.0010   4.6209531934e+01   3.6130353942e+01    0.4462551    0.3525711  85.95 0.0007556416    1.510    0.338
       229  -9.7619     83.7442    131.9105   5.6484729544e+01   3.8092926150e+01    0.4763173    0.3041397  65.75   0.00138115    1.945    0.486
       230  -9.5171    209.4973    131.8233   2.5720153036e+01   1.3479528565e+01    0.2553571    0.2401843  41.77  0.001034147    1.182    0.154
       231  -9.5805    131.9423    130.8524   4.2055602734e+01   2.9129735303e+01    0.4551055    0.2494601 -61.88  0.001270935    2.306    0.566
       232  -8.1970    143.2815    131.6476   3.9336388345e+01   2.6607769932e+01    0.1558906    0.1217894 -88.33 0.0006996478    1.654    0.396
       233  -9.7061     12.9366    129.2054   8.0287999279e+01   4.7431196272e+01    0.6235113    0.2460175  68.49  0.002288516    3.078    0.675
       234 -10.9417    247.4482    128.9829   1.9457258438e+01   7.6072451911e+00    0.4010686    0.3099945 -79.47  0.002457213    1.943    0.485
       235  -9.7964     99.4792    128.2208   5.0749254569e+01   3.6211399706e+01    0.5606394     0.350179  82.12  0.002025918    2.683    0.627
       236  -9.3315     73.4530    129.6194   5.9420207007e+01   4.0374509026e+01    0.3457434    0.2258434  72.99  0.001160646    1.929    0.482
       237  -7.9356    168.6648    129.3659   3.2952177636e+01   2.1841436313e+01    0.1547362    0.1173033 -83.40   0.00011885    1.829    0.453
       238  -8.5875    153.4082    129.6870   3.6445756228e+01   2.4928430508e+01    0.3153841    0.2087704 -80.39  0.001215359    2.583    0.613
       239 -10.3865    233.2236    127.5457   2.1138846121e+01   1.0094543497e+01    0.3277242    0.1828972  53.61  0.001581451    2.218    0.549
       240 -10.3858    228.0820    125.3488   2.1440144557e+01   1.1309897342e+01    0.4001826    0.2858177 -75.28  0.001597351    2.144    0.534
       241 -10.1891     59.7732    124.0661   6.3087143224e+01   4.3880792920e+01    0.7130847     0.353777  69.75  0.002263228    3.613    0.723
       242 -10.3475     44.4379    123.1690   6.8408364265e+01   4.6093130435e+01     0.750175    0.3545384  66.89  0.002174346    3.209    0.688
       243 -10.1258     28.9845    122.8562   7.3951852459e+01   4.7799053387e+01    0.5821339    0.3026678  60.84  0.002461072    2.173    0.540
       244  -9.8536     28.5124    117.4916   7.3425193352e+01   4.9273410332e+01    0.6119471    0.1931185 -44.71  0.001888388    4.121    0.757
       245  -9.3175    134.8063    124.1214   3.9743249281e+01   3.0060759491e+01    0.3040836    0.2104893  16.76  0.001240337    2.101    0.524
       246  -8.6545     84.0323    121.9699   5.4338182978e+01   4.0600307922e+01    0.2478008    0.1940321 -16.58  0.001127164    1.688    0.408
       247  -7.8809    158.5244    121.4943   3.3357573816e+01   2.5573657673e+01    0.1516143     0.144262 -80.75 0.0002376925    1.075    0.070
       248 -10.6322     22.7902     92.5996   7.2033167484e+01   5.6332967147e+01    0.5147275    0.4175508 -60.47  0.002233979    1.129    0.115
       249 -10.7543     15.4009    114.1253   7.7919471809e+01   5.1231853154e+01    0.8227209    0.3947024 -73.90   0.00360899    1.847    0.459
       250 -10.1963     22.5742    110.2371   7.4715635159e+01   5.1715873620e+01    0.5320538    0.2533015 -77.11  0.002272978    1.993    0.498
       251 -11.0710     17.0576    104.2502   7.6107372888e+01   5.3717306440e+01     0.585165    0.3550756 -54.23  0.001385968    1.544    0.352
       252 -10.8504     23.8400    102.6115   7.3150830473e+01   5.3627568909e+01     1.196479    0.4507969  61.45  0.003533674    4.844    0.794
       253  -9.5562     35.2952    102.7993   6.8536474852e+01   5.2517971431e+01    0.3219729    0.2178593  89.73  0.001126227    1.606    0.377
       254 -10.0638     29.6231    100.6108   7.0476516880e+01   5.3648268432e+01    0.4618476     0.222143  42.69  0.001082926    2.174    0.540
       255  -9.2080    142.0839    119.4192   3.6762369538e+01   2.9550782859e+01    0.3897667    0.2486439 -70.44  0.001527047    2.246    0.555
       256  -9.0552     71.1909    119.9440   5.8287292225e+01   4.3263493356e+01    0.2565393    0.1698147  79.04   0.00106175    1.972    0.493
       257  -8.9963    182.0189    118.9990   2.7850797778e+01   2.1131163625e+01    0.2296648    0.1792589  -1.38 0.0006511754    1.700    0.412
       258  -8.8564    131.2134    118.6493   3.9374412863e+01   3.2062452173e+01    0.3710327     0.225138  84.87  0.001132683    3.865    0.741
       259 -10.7819    248.1279    117.0911   1.7032991221e+01   9.3048509274e+00     0.345602    0.3134131 -76.05  0.002436748    1.322    0.244
       260  -9.7833      2.3282    114.6475   8.2806027612e+01   5.1894887068e+01    0.8030241    0.2513146  88.84  0.002742708    3.520    0.716
       261 -10.0879    184.8570    113.5546   2.6046004874e+01   2.1574182150e+01    0.4623896    0.3427909 -75.22  0.001696722    1.735    0.424
       262  -9.6818     92.9471    112.6945   4.9275683138e+01   4.1321034308e+01    0.4614635    0.3139565  86.31  0.001570084    2.112    0.527
       263  -9.8321     79.2682    112.4418   5.3846024156e+01   4.3868534254e+01    0.5192195    0.3298388  77.91  0.001869968    2.364    0.577
       264  -9.9178     66.9027    110.7123   5.7877784187e+01   4.6342842855e+01    0.5202032    0.2678463  62.85     0.001744    3.115    0.679
       265  -8.9926     59.4007    109.2286   6.0345416064e+01   4.7849946816e+01    0.2142718    0.1426144 -78.28 0.0009455276    1.665    0.399
       266  -9.8994     61.6396    105.8772   5.8784351073e+01   4.8397741342e+01    0.2756838    0.2310752  19.92 0.0006786661    1.295    0.228
       267  -9.1630    133.6750    109.3470   3.6400309162e+01   3.3608422976e+01    0.3208495    0.2075354 -71.51  0.001022696    2.175    0.540
       268  -8.6835    133.6763    106.6535   3.5705458887e+01   3.4201215166e+01    0.2731017    0.1927752 -41.06  0.001016036    1.480    0.324
       269 -11.1356    249.8670    102.2647   1.3867846322e+01   1.1253919832e+01    0.8522609    0.2279988 -32.83  0.002846518    4.282    0.766
       270  -9.6411      8.5737    108.4166   7.9907850131e+01   5.3174884803e+01    0.2040831    0.1814664 -29.15   0.00075907    1.258    0.205
       271  -8.8738     78.0984    105.8414   5.2710577438e+01   4.5750406960e+01     0.356097    0.2020484   7.31  0.001070385    4.069    0.754
       272  -8.5062    139.9548    104.8011   3.3620310953e+01   3.3192437455e+01      0.26005    0.1796518  78.44  0.000872307    1.995    0.499
       273 -10.4453     45.7200    102.1344   6.4212229512e+01   5.1524786822e+01    0.8292233    0.3694282  60.74  0.002558782    4.053    0.753
       274  -8.3782    150.3622    104.1108   3.0933371580e+01   3.0981910103e+01    0.2267594    0.1371532 -55.69 0.0006898651    1.803    0.445
       275  -9.0279     93.2611    103.8371   4.6967475340e+01   4.3442754786e+01    0.3015033    0.2149203   7.90   0.00123411    2.094    0.522
       276 -10.7695    131.7813    101.6706   3.4890722807e+01   3.5716275407e+01     0.822313    0.4328104  32.61  0.002570387    2.635    0.620
       277  -9.4123      6.8995    103.0874   8.0015235423e+01   5.4660674124e+01     0.208325    0.1645171  67.06 0.0005359041    1.268    0.212
       278 -10.2975    108.7391     98.4613   4.0575250062e+01   4.1538073407e+01    0.6550575    0.4614152  77.42  0.002299482    1.933    0.483
       279  -8.6122     82.4337    100.1415   4.9745304407e+01   4.6401947213e+01    0.3043856    0.1954361  70.51  0.001181317    2.261    0.558
       280 -10.1093     64.2361     96.4068   5.5591001566e+01   5.0433666506e+01      0.60979     0.379458  89.85  0.002140706    2.458    0.593
       281  -8.8374     95.0948     96.8857   4.4512039687e+01   4.4751903984e+01    0.2496868    0.2084613  79.97 0.0006111336    1.350    0.259
       282  -8.2389    129.4747     96.5376   3.4112384695e+01   3.7352581334e+01    0.1574704    0.1506442  80.47 0.0001629922    1.008    0.008
       283  -8.9906    107.8340     91.8257   3.8999716104e+01   4.3245801902e+01     0.334941     0.216287  33.16  0.001050524    1.760    0.432
       284  -9.5351     44.9222     91.6714   6.2345935476e+01   5.4337602932e+01    0.4776588    0.2287173  17.66   0.00183593    2.585    0.613
       285  -9.6139      5.4616     91.9646   7.9390024124e+01   5.7614087269e+01    0.2255569    0.1347926  63.22 0.0007118664    1.841    0.457
       286  -8.9330    124.5980     90.8031   3.3827128188e+01   3.9702746506e+01    0.3065509    0.2302865 -79.79 0.0007318383    1.660    0.398
       287  -8.8813     57.5385     91.5680   5.7072696024e+01   5.2669780736e+01    0.1455567     0.142905 -85.64  6.57163e-05    1.016    0.016
       288  -9.8187     34.8776     89.4045   6.6186431825e+01   5.6053529082e+01    0.5286785    0.2866033  89.47  0.002002951    2.587    0.613
       289  -9.5496     36.9020     81.2307   6.3508147871e+01   5.7917982235e+01    0.5268179    0.2926698 -16.29  0.002089494    2.732    0.634
       290  -9.6255     86.8337     86.6800   4.4485604288e+01   4.8802753074e+01       0.4655      0.30342  69.74  0.001527156    2.220    0.549
       291  -9.2805     65.2597     86.7234   5.2688957231e+01   5.2684239060e+01    0.3901351    0.2051081  15.67  0.001334318    3.139    0.681
       292  -9.5128     48.2566     83.9410   5.9092071639e+01   5.5873661119e+01    0.4577367     0.281702  60.95  0.001449691    2.172    0.540
       293  -9.7585      7.7740     84.4076   7.7433135827e+01   5.9431705786e+01    0.3097469    0.1931944 -34.82  0.001274278    1.671    0.402
       294  -9.4353      8.7613     80.9870   7.6502811549e+01   6.0248746944e+01    0.2524202    0.1709823  37.74 0.0008824024    1.614    0.380
       295  -9.4810    104.6821     83.0001   3.7391476368e+01   4.5894764731e+01     0.417609     0.283484  89.82  0.001377998    2.344    0.573
       296  -8.9411    116.8188     82.9541   3.3721004242e+01   4.3162837407e+01     0.225923    0.2113209   0.07 0.0002949562    1.232    0.188
       297  -9.7647    187.0189     81.3718   1.7857536486e+01   2.6917866706e+01     0.412641    0.2473302  43.38  0.001866715    2.027    0.507
       298  -8.3988     74.8602     80.6948   4.7172723332e+01   5.2473045336e+01    0.2899315     0.201199 -85.85  0.001022692    2.131    0.531
       299  -9.3466     89.3109     79.5613   4.1471531662e+01   4.9930871832e+01    0.7895455    0.2810784  30.77  0.001725259    6.854    0.854
       300  -9.6748     24.6582     80.6876   6.9048203051e+01   5.9237450316e+01    0.4148568     0.237826  67.23  0.001418192    2.381    0.580
       301  -8.7612    176.0081     76.6856   1.8515190916e+01   3.0253313162e+01    0.3352234    0.2000216 -64.25  0.001367656    2.032    0.508
       302  -8.9206     49.7802     76.6511   5.6506807195e+01   5.7464040313e+01    0.3147178    0.2272252   8.10   0.00101745    1.623    0.384
       303  -8.6319    128.6968     76.0829   2.8412665494e+01   4.1757269347e+01    0.2718324    0.1679128 -80.60 0.0009513163    2.867    0.651
       304  -8.3228     13.6927     74.2882   7.3078300050e+01   6.1650448394e+01     0.187744    0.1349219 -39.48  0.000268447    1.341    0.255
       305  -9.7323     10.0252     74.1105   7.4837258838e+01   6.1909936107e+01     0.231764    0.2089243 -74.72 0.0003442716    1.076    0.070
       306  -9.4620     82.6741     72.7322   4.1718107721e+01   5.2784798343e+01    0.3837695    0.2847249  89.04  0.001201709    1.911    0.477
       307  -9.9205     27.3313     71.4045   6.5769198126e+01   6.1320308450e+01    0.6162421    0.2649638 -23.48  0.001987534    4.293    0.767
       308  -8.9141     95.3127     71.2971   3.6764589967e+01   5.0452941287e+01    0.3060047    0.1815453 -65.83  0.001152021    2.473    0.596
       309  -8.4287     42.4318     72.2289   5.8672889069e+01   5.9493348050e+01    0.1969067    0.1363556 -74.32 0.0008038633    1.649    0.394
       310  -8.1670    105.7965     71.6170   3.3480547500e+01   4.8046353206e+01    0.2193231    0.1420612  59.08 0.0006649321    1.628    0.386
       311  -9.5747     51.5435     69.2645   5.3573042262e+01   5.8973715288e+01    0.4885067     0.259334 -73.70  0.001794498    3.029    0.670
       312  -8.2535    129.3284     69.3249   2.6179627232e+01   4.2901195369e+01    0.1550741    0.1229658  18.90 0.0007049919    1.698    0.411
       313  -8.9856      1.4652     68.9584   7.8271203188e+01   6.3584411896e+01    0.1995173    0.1111277 -71.67 0.0007508177    1.566    0.362
       314  -8.1983    121.5267     65.9831   2.7136175922e+01   4.5429591921e+01    0.2200101    0.1259406 -63.24 0.0006379774    2.474    0.596
       315  -9.4003     83.7959     64.4448   3.8526420662e+01   5.4322642421e+01    0.4259121    0.2739306  -3.65    0.0015232    3.195    0.687
       316  -8.8432     16.3556     69.4696   7.0842133882e+01   6.2672134044e+01    0.3832698    0.1813175 -88.81  0.001500809    2.975    0.664
       317  -8.5068    110.4628     63.9362   2.9547328334e+01   4.8472422980e+01    0.2142604    0.1284304 -65.07 0.0008070769    2.411    0.585
       318  -8.8346     37.8236     64.3089   5.8681827722e+01   6.1934322148e+01    0.2163927    0.1695817  46.45  0.001168091    1.419    0.295
       319  -8.5384     95.7857     63.4166   3.3954519432e+01   5.1953579786e+01    0.2272419    0.1375918  36.98 0.0009489078    1.780    0.438
       320  -9.5203     18.0794     61.6436   6.8247795244e+01   6.4452253787e+01    0.3048763    0.1863626 -51.46  0.000913524    1.442    0.306
       321 -10.3927      5.7505     69.5895   7.6217467440e+01   6.3248512165e+01    0.5035182    0.1501259 -60.12  0.002018866    2.499    0.600
       322  -9.0097    100.5275     60.0373   3.1238652792e+01   5.1534486916e+01    0.2144287    0.1287546 -65.20 0.0008093763    2.497    0.600
       323  -9.4042     73.3701     59.2436   4.0725744430e+01   5.7479696830e+01    0.3619776    0.2457475 -67.95  0.001116284    2.022    0.506
       324  -8.4125    110.8830     58.3738   2.7541092859e+01   4.9406908532e+01    0.2212042    0.1321485  43.25 0.0004937968    1.713    0.416
       325  -9.3234     38.9645     57.6597   5.6076149350e+01   6.3330085631e+01    0.2521325    0.1773471 -40.52  0.001314831    1.374    0.272
       326  -9.1682     25.9478     54.8451   6.2176979102e+01   6.5391728417e+01    0.3176738    0.1725433 -28.16  0.001438022    2.127    0.530
       327  -9.8318      7.2317     57.1482   7.3196454566e+01   6.6194715958e+01    0.2907339    0.1689762  65.41  0.001138657    2.344    0.573
       328  -9.9987      2.2735     56.1516   7.5770939369e+01   6.6652203983e+01    0.3264109    0.1997208 -66.32  0.001252854    1.425    0.298
       329  -9.1307     62.8735     54.5636   4.3462052271e+01   6.0387204243e+01    0.2750572    0.1933047 -68.05 0.0007216283    1.908    0.476
       330  -8.2271    100.5271     54.4906   2.9271802965e+01   5.2563569148e+01     0.150384    0.1416001  45.60 2.243445e-05    1.049    0.047
       331  -8.6326     54.2190     53.6421   4.7100802167e+01   6.2040132079e+01    0.2776644     0.171728 -84.70 0.0009494848    4.096    0.756
       332  -9.5207     74.3617     51.5301   3.7457857171e+01   5.8820161621e+01    0.5785664    0.3409591   3.24   0.00171686    4.997    0.800
       333  -9.0673     92.7175     50.8077   3.0442797645e+01   5.5023503283e+01    0.2796165    0.2005185 -60.87 0.0009262862    1.692    0.409
       334 -11.2681     45.5414     48.9550   4.9661582091e+01   6.4347335016e+01    0.3140784    0.2526143 -33.79 0.0002908469    1.217    0.178
       335  -8.8018     31.0168     51.0735   5.8201917786e+01   6.5730976150e+01    0.2052928    0.1609966  67.50 0.0009700492    1.704    0.413
       336  -8.6693     82.0981     46.6825   3.2587489974e+01   5.8110850082e+01    0.2421409    0.1942386 -51.04 0.0006541332    1.367    0.269
       337  -8.7704     64.3327     46.9652   3.9888090169e+01   6.1632178417e+01    0.3045694    0.1770022  16.74  0.001172352    2.789    0.642
       338  -9.1977     23.0887     46.3120   6.1209166135e+01   6.7582876619e+01    0.2959743    0.1711822  15.48  0.001065238    1.806    0.446
       339  -8.7021      1.6932     45.8922   7.4087750074e+01   6.9071888650e+01    0.1919354     0.136277 -44.46 0.0006142217    1.205    0.170
       340  -7.7823    130.4867     45.5461   1.8219886630e+01   4.6691066667e+01    0.1487661    0.1363724  70.68 0.0001340732    1.042    0.041
       341  -8.6108     54.6763     45.6899   4.3835013034e+01   6.3585360136e+01     0.143462    0.1055935  -5.31 0.0004941975    1.653    0.395
       342  -8.5678    150.3331     44.1181   1.3822101551e+01   4.1843970509e+01    0.2104574    0.1203516 -46.73 0.0007101774    1.744    0.427
       343  -9.3143     16.4217     44.2701   6.4595899483e+01   6.8595947669e+01    0.1753623    0.1211374 -76.65 0.0009501431    1.696    0.410
       344  -8.4776     58.4902     42.9724   4.0916441270e+01   6.3452704515e+01    0.1930751    0.1259114 -70.36 0.0008102932    2.655    0.623
       345 -10.1463      4.8392     40.6900   7.0892150217e+01   7.0114974411e+01    0.4802155    0.2327472  89.89  0.002015624    3.274    0.695
       346  -8.9376    114.0076     41.1967   2.0611557050e+01   5.1519646207e+01    0.2195611    0.1841253  41.74  0.000328056    1.242    0.195
       347  -8.4314     69.1631     41.1706   3.5432775467e+01   6.1773361948e+01    0.1884291    0.1684519  78.62 0.0004489393    1.346    0.257
       348  -8.7057     37.0083     40.9425   5.1184023429e+01   6.7176799999e+01    0.2001929    0.1612616  61.21 0.0006680506    1.662    0.398
       349  -8.9616    123.6389     39.9648   1.7847971119e+01   4.9277302626e+01    0.2409532    0.1847692  52.97 0.0003739636    1.254    0.203
       350  -8.5477     83.9139     39.6787   2.9110777835e+01   5.8915893019e+01    0.2398783    0.1663205  33.85  0.001158825    1.521    0.343
       351  -8.4031     95.7007     38.3203   2.4657866726e+01   5.6425140887e+01    0.1447487    0.1124113 -79.76 0.0003250839    1.622    0.383
       352 -10.0634    196.1225    248.5609   4.8585725814e+01  -2.9983671771e+00    0.2592853    0.1759587  27.14 0.0009844957    1.283    0.220
       353 -10.0074      6.3821     33.5017   6.7860206368e+01   7.1615693503e+01    0.2473165    0.1912415 -11.45  0.001099216    1.237    0.191
       354  -9.3864    154.1366    249.1352   5.6798904012e+01   2.2039402809e+00    0.1885964    0.1405897  10.82  0.001233778    1.233    0.189
       355  -8.0410     60.4769     32.5477   3.5456901404e+01   6.4949156173e+01    0.1358882     0.126415  28.58 0.0002458173    1.055    0.053
       356  -8.9881     12.9607     30.9716   6.2472670541e+01   7.1723180622e+01    0.1829877    0.1481325  60.63 0.0005806819    1.678    0.404
       357  -9.3721    147.9920     28.0335   9.2094664933e+00   4.4650829712e+01    0.2288249    0.1644434  38.41  0.001144848    1.746    0.427
       358  -8.0302    101.3194     28.6653   1.9167302550e+01   5.6475100961e+01    0.1466921    0.1076902 -75.48 0.0003497708    1.700    0.412
       359  -8.2955    106.6201     36.7226   2.0884569556e+01   5.4026703232e+01    0.1533491     0.104781  34.17 0.0007004609    1.709    0.415
       360  -8.8870      1.7250     27.5331   6.9344268486e+01   7.3126193071e+01    0.2400495    0.1016442 -36.79 0.0005749058    2.083    0.520
       361  -7.8961     81.6342     27.3290   2.4634765847e+01   6.1322867997e+01    0.1432674    0.1091157 -83.19 0.0007036434    1.810    0.448
       362  -9.7156     44.3743     25.1864   4.0010250165e+01   6.9030397472e+01    0.2224892    0.1836253  29.08 0.0003679576    1.138    0.121
       363  -8.7699    222.5084     32.4735   1.7841492562e+00   2.6361763629e+01    0.1282392    0.1006255 -63.23 0.0001534656    1.015    0.014
       364  -8.3909    110.4863     24.1499   1.5072153931e+01   5.4777283443e+01    0.1883926    0.1433798 -30.25 0.0004807627    1.475    0.322
       365  -8.5773     66.6052     23.5175   2.8536071504e+01   6.5137183253e+01    0.1332237    0.1231811  30.77 -7.045156e-05    1.035    0.034
       366  -8.2449    137.5445     22.5200   9.1207998543e+00   4.8024878792e+01    0.1423235    0.1244046  85.33 3.648571e-05    1.006    0.006
       367  -8.1550     58.6322     22.1426   3.1316971271e+01   6.6945358884e+01    0.1716807    0.1224623 -17.09 9.182464e-05    1.586    0.370
       368 -10.0352     13.0556     21.0368   5.8451761318e+01   7.3714575416e+01    0.2659612    0.2013846  -1.62 0.0006538538    1.229    0.186
       369  -9.7683    188.9192     20.2491   1.8817959600e+00   3.5409978087e+01    0.2100957    0.1981575 -62.92  0.001373136    1.236    0.191
       370  -8.4090     85.0058     21.0941   2.0733169346e+01   6.1387328086e+01    0.2046737     0.161742 -77.83 0.0004887964    1.599    0.374
       371  -8.8872     41.0247     21.0455   3.9784837752e+01   7.0255277311e+01    0.1971323    0.1656039   5.14 0.0002992527    1.101    0.092
       372  -8.1255     63.3334     20.6662   2.8506163571e+01   6.6217475964e+01    0.1308003    0.1074879 -85.53 0.0007052235    1.733    0.423
       373  -9.1067      1.5913     19.7818   6.6849933948e+01   7.4737434026e+01    0.1530147    0.1101229 -72.64 0.0009427717    1.609    0.378
       374  -8.0640     73.6441     19.3377   2.3783224031e+01   6.4199759444e+01    0.1371358    0.1063287 -81.02  0.000704143    1.806    0.446
       375  -9.6731     30.0963     19.0277   4.5426410754e+01   7.2205880072e+01    0.2454788    0.1597078  39.84  0.001170493    1.645    0.392
       376  -8.7903     50.6996     15.0523   3.1386522964e+01   6.9478048279e+01    0.2398117    0.1573227  24.87 0.0007354637    1.586    0.370
       377  -8.8431    148.3115    248.9253   5.7960216039e+01   3.0035728039e+00    0.2207459    0.1369377  37.21  0.001319798    1.376    0.273
       378 -11.8806    106.5115    223.8709   6.4103618500e+01   1.3148694616e+01     1.173741    0.7150718 -26.52  0.005484338    2.680    0.627
       379  -8.1270     80.4654     12.4433   1.8161990079e+01   6.3485066728e+01     0.134362    0.1205954  60.98 4.289542e-05    1.081    0.075
       380 -10.0799    107.3456    246.7791   6.6379065290e+01   8.8502948662e+00    0.4030467    0.2645367 -82.27  0.002305264    2.225    0.551
       381  -8.3971     31.9621     11.5046   4.0041128213e+01   7.3158512309e+01    0.1861349    0.1118492  33.79 0.0004601282    1.543    0.352
       382 -10.6672    107.7838    238.0207   6.5379375441e+01   1.0333279755e+01    0.7938375    0.3638435  48.41  0.003565437    2.136    0.532
       383 -11.8630     89.7913    230.6128   6.8683970972e+01   1.4184696288e+01     1.230044    0.5246962 -67.62  0.005565468    2.945    0.660
       384  -8.9823     27.4947     13.4573   4.4142215189e+01   7.3485795173e+01    0.1264759    0.1049898   0.14 0.0001124952    1.049    0.047
       385 -10.3626    100.0000    217.4741   6.4894079885e+01   1.5347034795e+01    0.3350577    0.2058729  49.25 0.0006471854    1.508    0.337
       386 -11.4907     98.6126    225.4084   6.6107820405e+01   1.3973562032e+01    0.4904244    0.4373165  58.23  0.001593254    1.151    0.131
