#   1 NUMBER                 Running object number                                     
#   2 MAG_AUTO               Kron-like elliptical aperture magnitude                    [mag]
#   3 X_IMAGE                Object position along x                                    [pixel]
#   4 Y_IMAGE                Object position along y                                    [pixel]
#   5 X_WORLD                Barycenter position along world x axis                     [deg]
#   6 Y_WORLD                Barycenter position along world y axis                     [deg]
#   7 A_WORLD                Profile RMS along major axis (world units)                 [deg]
#   8 B_WORLD                Profile RMS along minor axis (world units)                 [deg]
#   9 THETA_WORLD            Position angle (CCW/world-x)                               [deg]
#  10 FWHM_WORLD             FWHM assuming a gaussian core                              [deg]
#  11 ELONGATION             A_IMAGE/B_IMAGE                                           
#  12 ELLIPTICITY            1 - B_IMAGE/A_IMAGE                                       
         1 -12.7133    182.4826     79.9597   6.6159160226e+01   2.8283088662e+01     2.022728     1.346955 -34.37   0.00900916    1.498    0.332
         2 -14.3165    217.1086     74.1192   5.8495933803e+01   2.0735501404e+01      11.7847     3.038498 -48.66  0.005943487    6.805    0.853
         3 -14.0161    188.5830     43.5508   5.4500652884e+01   3.2527314412e+01     10.64325     2.380023 -32.64   0.03096292    4.015    0.751
         4 -12.3287    239.9843     44.2494   4.7871907591e+01   1.9758868198e+01     1.367566    0.5595158 -50.56  0.005451601    2.472    0.595
         5 -12.3447    249.7052     43.8571   4.6734717800e+01   1.7612105127e+01      1.55589    0.3859377 -35.19  0.001061817    3.208    0.688
         6 -12.1842    228.8835     18.0726   4.2615551142e+01   2.5681701077e+01    0.8002529    0.5796545  85.14  0.001996585    1.315    0.239
         7 -13.3687    221.2088     36.5157   4.8086366182e+01   2.5252959267e+01     4.497166     1.027245 -48.56   0.01150936    5.808    0.828
         8 -13.0567    218.5770     59.3531   5.4395950003e+01   2.2675579295e+01     1.696065     1.097286 -79.89  0.007563263    1.996    0.499
         9 -12.5181    248.5163      3.5794   3.7610761465e+01   2.2766822072e+01    0.9794796    0.5537293 -15.86  0.004873977    2.481    0.597
        10 -14.6688    241.2033     23.5969   4.2790622062e+01   2.2137340990e+01     13.29608          nan  61.05   0.03106805    8.567    0.883
        11 -13.9505    238.1896     73.6191   5.5308871212e+01   1.5902322569e+01      2.89898     1.889362 -27.12    0.0141595    1.550    0.355
        12  -8.9132    115.7452     12.4450   5.7784909178e+01   5.4692801881e+01    0.2604515    0.2108796  33.03 0.0006460217    1.138    0.122
        13 -10.8825    120.2324      8.9766   5.5416072945e+01   5.3981232364e+01    0.4580915    0.4104913 -28.26  0.001402271    1.232    0.188
        14  -9.7841    135.8700      9.8734   5.2611716646e+01   5.0095188356e+01    0.3111694    0.1824563 -25.44  0.001213686    1.824    0.452
        15  -9.2530    195.4821      9.9226   4.3945181803e+01   3.4847342870e+01    0.4052756    0.2123211 -53.77  0.001829916    2.014    0.503
        16  -9.1513    141.6495      9.4584   5.1411140849e+01   4.8692429365e+01    0.2301677    0.2138264 -28.44 0.0006290078    1.179    0.152
        17  -9.4524    225.0185      8.3512   4.0588082980e+01   2.7694397126e+01    0.3996684    0.2498835  59.42  0.002125856    1.647    0.393
        18  -9.7130    151.0945      6.8055   4.8914881626e+01   4.6552816664e+01    0.3535878    0.1852274 -25.98 0.0008786627    2.045    0.511
        19  -9.2768    207.3245      4.7983   4.1328514079e+01   3.2391164263e+01    0.2621055     0.206559 -66.75  0.001530999    1.178    0.151
        20  -9.8922    212.3444      1.3042   3.9960235944e+01   3.1499569920e+01    0.4374351    0.1594393  69.87  0.001812497    2.422    0.587
        21 -10.8704    215.9621      5.5016   4.0695050057e+01   3.0188684860e+01    0.2573936    0.2183888 -34.21 0.0004953729    1.277    0.217
        22 -10.0496    215.9583      1.4013   3.9664832543e+01   3.0606018787e+01    0.2189657    0.1570836  77.25 6.408881e-05    1.274    0.215
        23  -9.1274     90.2340      7.2526   6.2154029316e+01   6.0849641806e+01    0.1601029    0.1537006 -41.87 0.0006596249    1.313    0.239
        24  -9.4630    172.2335      3.2686   4.4786593467e+01   4.1456851929e+01     0.474658    0.1866159 -47.61  0.001830215    2.899    0.655
        25  -9.9912    182.9974      3.1194   4.3441114964e+01   3.8707939500e+01    0.5631213    0.3122659 -89.78  0.002575731    1.942    0.485
        26 -10.7645    234.9738      4.3714   3.8804958024e+01   2.5767199892e+01    0.4859395     0.418101  39.62  0.002496501    1.504    0.335
        27 -11.9056    199.3399     70.2888   6.0349476402e+01   2.5710779124e+01     1.174517    0.4730883  40.44  0.003634863    3.662    0.727
        28 -10.1670    121.7947    242.2543   1.1159006083e+02   9.2855456442e+00    0.2025054    0.1636063  56.44  0.000238874    1.056    0.053
        29 -12.8644    177.7612     68.3807   6.3727015937e+01   3.1472206233e+01     1.919046     1.216696 -81.43   0.00727701    2.550    0.608
        30  -9.1179    136.2123    241.9911   1.0891299284e+02   7.0675341223e+00    0.2672715    0.1149094  55.87  0.001195497    2.674    0.626
        31  -9.0300    232.8100    240.3912   9.1291787192e+01  -7.9435814505e+00    0.1689849   0.08486917  29.29 0.0009450781    1.667    0.400
        32  -8.9081    245.1889    229.1895   8.7376738958e+01  -8.4803509802e+00    0.1505513    0.1261387  30.35  0.001072356    1.369    0.270
        33  -8.5718    233.2805    217.0739   8.7369391884e+01  -5.2296531050e+00    0.1622878     0.134291   5.27 0.0003843592    1.088    0.081
        34  -9.2407    231.4267    199.5837   8.4568601346e+01  -2.6184615234e+00    0.2279714    0.2092492  54.60  0.000557044    1.518    0.341
        35 -12.8971    232.4132     51.3624   5.0514048347e+01   2.0532150593e+01    0.8460903    0.6815886  86.23   0.00204108    1.279    0.218
        36  -9.7946    192.1966    193.5833   9.0826315594e+01   5.1853784218e+00    0.5457938    0.2940003 -65.25  0.001577886    6.845    0.854
        37  -9.3437    134.0000    144.9863   9.3980013037e+01   2.6055160941e+01    0.5522745    0.2165985 -55.58  0.001854613    2.966    0.663
        38  -8.4728    155.5457    147.0584   8.9336530401e+01   2.1191684543e+01    0.2037694    0.1330394 -72.31  0.000805337    2.338    0.572
        39 -10.3368     69.4167    145.2084   1.1031388650e+02   3.7008845394e+01    0.4258107    0.2941972  89.68  0.001509693    1.507    0.337
        40 -10.1582     66.4955    144.4861   1.1094873020e+02   3.7574310535e+01    0.4573703    0.2728678 -84.59  0.001658135    1.855    0.461
        41  -8.3076    222.7472    145.5258   7.5086279820e+01   7.3314959190e+00    0.1820224    0.1398292  58.24 0.0005803617    1.564    0.361
        42 -11.4634    178.2625    142.3819   8.3223074487e+01   1.7286942477e+01    0.5904195    0.4804651  62.10  0.002953733    1.369    0.269
        43  -8.5276    192.2315    144.2043   8.0701693822e+01   1.3927126573e+01    0.1948365    0.1757093 -72.70 0.0003500198    1.319    0.242
        44  -8.0423    199.2966    144.3677   7.9308143958e+01   1.2391569956e+01    0.1552798    0.1136534   2.06 0.0005273491    1.726    0.421
        45  -8.6754    228.0311    140.5132   7.3004239342e+01   7.1102563373e+00    0.2289982     0.182396 -28.90 0.0008646481    1.181    0.153
        46  -9.7379    212.1313    136.8738   7.5083938622e+01   1.1019831355e+01    0.3074185    0.2521701 -38.80  0.001618277    1.214    0.177
        47  -8.9720    159.3985    143.2112   8.7601387613e+01   2.1178837929e+01    0.2159697     0.144381 -55.45  0.000951977    1.658    0.397
        48  -9.5413    160.8727    129.0257   8.3955858145e+01   2.3813081356e+01      0.38512    0.2189268 -54.56  0.001517399    2.031    0.508
        49  -9.0592    127.7971    113.0662   8.8120802963e+01   3.4434349793e+01    0.3056107    0.2058237 -58.37  0.001008018    1.601    0.375
        50 -10.0258    136.4755    126.5958   8.9234988974e+01   2.9616156502e+01     0.627108    0.3601648 -66.00  0.002322309    2.517    0.603
        51 -10.2762    132.2967    120.0704   8.8710938454e+01   3.1937804893e+01    0.7361103    0.4673741 -75.73  0.002547139    2.561    0.609
        52  -8.8120      3.5119    130.5030   1.2521552773e+02   4.7065786528e+01     0.118162   0.08914008 -83.88  3.09576e-05    1.005    0.005
        53  -8.9012    174.5396    128.5385   8.0763301630e+01   2.0860650533e+01    0.1515689    0.1507617  88.78 0.0002094893    1.041    0.039
        54  -9.2117    153.1884    127.8183   8.5459683332e+01   2.5760932420e+01    0.2201739    0.1890715  -1.43  0.000625255    1.377    0.274
        55 -11.3291    199.3196    123.0477   7.4253863037e+01   1.6330703960e+01      1.12345    0.6822133 -82.41  0.003160188    5.346    0.813
        56 -10.1913    226.6057    122.0506   6.8964223722e+01   1.0522906322e+01    0.3418025    0.2345192 -43.07  0.001666397    1.437    0.304
        57  -8.7811    140.9919    121.4989   8.6872372774e+01   2.9775637294e+01    0.2229063     0.135379  68.41 0.0008102607    2.520    0.603
        58 -10.1455    215.9724    114.7990   6.9084383759e+01   1.4090312540e+01    0.5651846    0.2783857 -35.92  0.002280535    1.931    0.482
        59 -10.4236    167.1558    114.7569   7.8947451686e+01   2.5328764335e+01    0.5323076     0.391495 -18.10   0.00155822    1.672    0.402
        60 -10.2731    158.8826    115.4643   8.1029377345e+01   2.7085194091e+01    0.4458781    0.3290583 -73.70 0.0007467067    1.811    0.448
        61  -8.9386    154.3051    114.0250   8.1735758775e+01   2.8427633351e+01    0.2258926    0.2086838  -1.97 0.0002001081    1.173    0.148
        62  -8.9276    174.6993    115.3540   7.7427031973e+01   2.3460170522e+01    0.2508622    0.1924124 -82.89  0.001104865    1.782    0.439
        63  -9.7560    205.5869    122.1286   7.2811593116e+01   1.5094934326e+01    0.3250575    0.2465272 -71.07 0.0008952758    1.795    0.443
        64  -9.9618    134.6937    111.3624   8.5892828796e+01   3.3347455444e+01    0.6314785    0.1710956 -44.12  0.001774978    3.679    0.728
        65  -9.3390    142.3604    104.7972   8.2203646031e+01   3.3073909793e+01    0.3148974    0.2064651  21.74  0.001232038    2.215    0.548
        66 -10.0698    215.0801    106.1441   6.7089754202e+01   1.5809146206e+01    0.4360623    0.3079267  67.61  0.002031443    1.713    0.416
        67 -11.3603    200.7621    101.0553   6.8395233844e+01   2.0039057024e+01    0.6922997    0.4827853  65.46  0.001364436    1.653    0.395
        68  -9.2427    124.3139    102.2733   8.6207496022e+01   3.7543786122e+01    0.4152657    0.2448016  20.24  0.001438603    3.046    0.672
        69 -12.0517      3.1200    190.6053   1.2951117846e+02   3.4098440172e+01    0.7402169    0.2692526 -80.28  0.003972504    2.210    0.547
        70  -9.8212    149.3778    100.0906   7.9180636415e+01   3.2457432377e+01    0.4701349    0.3169722  63.30  0.001260055    1.751    0.429
        71  -8.9859    219.2888    193.9195   8.5716041766e+01   2.5936210278e-01    0.2054418    0.1614503  39.27 0.0002306377    1.270    0.212
        72 -10.6093    222.0053     93.6345   6.2750614191e+01   1.6371562297e+01     0.514572    0.3107232 -68.65  0.001389861    2.697    0.629
        73  -9.3298    135.6154     96.3807   8.1590118586e+01   3.6360087132e+01    0.3107489     0.256608  88.36 0.0009125984    1.490    0.329
        74 -11.1792      2.5513     90.1958   1.2099314606e+02   5.6275492107e+01    0.4894249    0.1451443 -74.55  0.002036977    2.873    0.652
        75  -9.1198    194.0812     89.1755   6.6488860767e+01   2.3779488739e+01    0.4264879    0.2210691 -29.13  0.001625665    2.111    0.526
        76  -9.8763    143.8562     89.5588   7.7539932426e+01   3.5884374499e+01    0.3212083    0.2682385 -47.81 0.0005933114    1.203    0.169
        77  -7.8059     99.0081     90.9894   9.0280778264e+01   4.5021346860e+01    0.1698813    0.1539223 -45.30            0    1.043    0.042
        78  -8.6262    157.1878     88.9916   7.4176246846e+01   3.2837374619e+01     0.270074    0.1811374 -65.53  0.001084046    2.020    0.505
        79 -11.2965    159.8164     83.3713   7.1934380417e+01   3.3277637056e+01    0.4094518    0.3940532 -41.00 0.0006593552    1.035    0.034
        80 -10.5814    161.2766     93.5290   7.4534571099e+01   3.0967257102e+01    0.7460665     0.349205  40.05  0.002608979    2.458    0.593
        81  -9.0060    208.1374     84.7078   6.2757012587e+01   2.1144862844e+01    0.4694491    0.2460386 -62.02  0.001582553    3.185    0.686
        82  -8.9884    202.7797     80.4630   6.2544242231e+01   2.3166187470e+01    0.3622067    0.2166176 -61.55  0.001070418    2.224    0.550
        83  -8.5945    126.2370     76.4414   7.8128795587e+01   4.2514018211e+01    0.2184113    0.1495533  59.79 0.0009582311    1.675    0.403
        84 -10.2206    250.3482    191.6587   7.9784208002e+01  -4.6268666229e+00     0.211589     0.153449 -20.26  0.001295156    1.275    0.216
        85  -8.7266    131.7217     74.8592   7.6175496455e+01   4.1582840687e+01    0.2716951    0.1732982   8.01 0.0009667934    2.876    0.652
        86  -9.1678    151.8055     72.4387   7.0470093703e+01   3.7265008404e+01    0.3288659    0.1930144 -51.83  0.001309088    1.958    0.489
        87  -9.3193    144.2896     69.3945   7.1291259805e+01   3.9644269498e+01    0.2721629    0.1814245 -55.12 0.0005409558    1.757    0.431
        88  -9.9805    114.0990     69.9584   7.9430209963e+01   4.6414609845e+01    0.2223453    0.2115204  30.98            0    1.069    0.065
        89  -7.9800    125.6842     67.7127   7.5480441428e+01   4.4306430521e+01    0.1535341    0.1180213  12.12 0.0002266002    1.588    0.370
        90 -10.1247    118.1222     63.4877   7.6147754708e+01   4.6768932962e+01    0.3331243    0.2104654 -46.30  0.001415912    1.652    0.395
        91  -9.1462    154.1097     63.6391   6.7194162550e+01   3.8245306545e+01    0.2627508    0.1843103 -27.95  0.001172492    1.501    0.334
        92  -8.2454    155.8335    153.8294   9.0723963396e+01   1.9725563584e+01    0.1992943    0.1719611  77.53 0.0003424755    1.310    0.237
        93  -8.1419     72.9859     58.4713   8.8713317038e+01   5.6267231352e+01    0.1828314    0.1348497  33.66  0.000347616    1.455    0.313
        94 -10.9038    126.2983     55.4916   7.1211635069e+01   4.6339589317e+01     0.392677    0.2990201  88.23   0.00145908    1.862    0.463
        95 -10.7497    126.6819     51.7068   6.9800098354e+01   4.6880843632e+01    0.5264013    0.2216857  54.04  0.001933593    2.416    0.586
        96  -8.4069     83.0163     51.4888   8.2764990382e+01   5.5924210199e+01    0.2254315    0.1627932 -36.74  0.000635341    1.298    0.230
        97  -8.5302    103.5803     46.7762   7.4442239619e+01   5.2792110315e+01    0.1910804    0.1321876 -42.69 0.0004618634    1.513    0.339
        98  -9.4789    220.2948    189.4039   8.4674052712e+01   7.5483961514e-01    0.2272722    0.2075914  18.44 0.0004737254    1.140    0.123
        99  -9.3536    192.2364    153.3643   8.2749755146e+01   1.2219319133e+01    0.2030875     0.184067  -3.72 0.0007085291    1.102    0.093
       100  -8.4884    204.0082    152.5491   8.0207330923e+01   9.9303950203e+00    0.2193816    0.1393312  45.20 0.0006133742    1.567    0.362
       101 -10.9446    122.6656     36.8330   6.5479486960e+01   5.0092370159e+01    0.4232502    0.3271881 -87.00  0.002077485    1.798    0.444
       102 -10.7602    108.1626     36.8825   6.9365179516e+01   5.3360875618e+01    0.4451644    0.2370243  51.39  0.001415996    1.866    0.464
       103  -9.3962    220.9444    184.2910   8.3565054308e+01   1.4124965530e+00    0.2123243    0.1811834 -14.38 0.0004046385    1.139    0.122
       104  -9.1962    189.2840     25.1264   4.9029313871e+01   3.4740596371e+01    0.2449454     0.212723 -54.25 0.0006481858    1.146    0.127
       105  -9.4896    209.5972    187.4072   8.6298832062e+01   2.9837245083e+00    0.2778112    0.2178366  73.04  0.001461919    2.023    0.506
       106 -12.6134     17.9900    176.0029   1.2567646784e+02   3.5821982829e+01      1.27233    0.6921519 -73.84   0.00773205    1.544    0.352
       107 -12.8539     34.4159    170.2332   1.2171317961e+02   3.5459375276e+01    0.7191558    0.5961543 -84.53  0.001478975    1.134    0.119
       108 -12.8718     45.5485    163.0913   1.1848955720e+02   3.5842983048e+01    0.9676144    0.8579736 -74.32  0.003083968    1.218    0.179
       109 -10.1051    188.6747    180.9664   8.9163695270e+01   7.9725371202e+00     0.247501    0.2246115  17.60 0.0003592564    1.034    0.033
       110  -8.0564    141.3716    181.7350   9.9296019448e+01   1.6880142478e+01    0.1708794    0.1324311 -40.22 0.0002421845    1.476    0.322
       111  -8.6180     74.1435    178.8509   1.1386172288e+02   2.8665963500e+01    0.1843852    0.1468535  75.92 0.0002549853    1.102    0.093
       112 -10.2638    236.3900    174.7594   7.8870394857e+01   9.9033501610e-02    0.4204665    0.2763213  63.87  0.001955505    2.703    0.630
       113  -9.5323    229.2070    176.3842   8.0482383931e+01   1.1336321839e+00    0.1868655    0.1229058  50.64 0.0007424324    1.777    0.437
       114 -10.8287    230.4098    167.6173   7.8469673882e+01   2.2653045862e+00    0.4184626    0.2291427 -31.20   0.00197414    1.789    0.441
       115  -9.4445    209.0033    164.9297   8.1899125700e+01   6.7753099819e+00    0.3290593    0.2179174  58.73  0.001186755    1.950    0.487
       116  -8.0824     74.3753    163.2315   1.1175517053e+02   3.2131079149e+01    0.1702925    0.1157828 -78.81 0.0004861607    1.411    0.292
       117 -11.9688    235.0282    155.2671   7.5031052768e+01   3.3469983646e+00    0.8826687     0.496213 -27.46  0.004161283    1.757    0.431
       118  -9.0985    159.4733    158.2882   9.0834955313e+01   1.8066500622e+01    0.2742011    0.2355661 -76.81 0.0007454707    1.354    0.262
