#   1 NUMBER                 Running object number                                     
#   2 MAG_AUTO               Kron-like elliptical aperture magnitude                    [mag]
#   3 X_IMAGE                Object position along x                                    [pixel]
#   4 Y_IMAGE                Object position along y                                    [pixel]
#   5 X_WORLD                Barycenter position along world x axis                     [deg]
#   6 Y_WORLD                Barycenter position along world y axis                     [deg]
#   7 A_WORLD                Profile RMS along major axis (world units)                 [deg]
#   8 B_WORLD                Profile RMS along minor axis (world units)                 [deg]
#   9 THETA_WORLD            Position angle (CCW/world-x)                               [deg]
#  10 FWHM_WORLD             FWHM assuming a gaussian core                              [deg]
#  11 ELONGATION             A_IMAGE/B_IMAGE                                           
#  12 ELLIPTICITY            1 - B_IMAGE/A_IMAGE                                       
         1 -11.9550    201.5821     68.9744   6.3943918849e+01   2.5213408984e+01     4.811879     1.563286 -44.87   0.01473901    3.767    0.735
         2 -15.2019    128.4383     95.9039   8.6991767577e+01   3.7817427404e+01      8.59368     5.302768 -25.77   0.03492923    2.239    0.553
         3 -14.8161    243.3034     16.1326   4.4768692823e+01   2.1681929809e+01    0.7033423    0.5966837 -21.82  0.002231502    1.140    0.123
         4 -15.0727    247.3579      7.4888   4.2296779828e+01   2.1600461233e+01     1.416905    0.6833497 -62.22  0.006644128    2.243    0.554
         5 -13.6289    203.3003     36.6292   5.4311287861e+01   2.9025214508e+01     2.054243    0.9664747 -40.69  0.003149258    2.000    0.500
         6 -16.7354    219.2744    108.7711   7.1372668884e+01   1.5739059623e+01     5.136296     2.257992  59.51   0.01992219    3.129    0.680
         7 -12.7177    208.1185      2.8865   4.3759218582e+01   3.1333684411e+01     1.381415    0.4763848  76.36  0.001901437    2.960    0.662
         8 -13.0103    218.9253     76.6839   6.3420579235e+01   2.0162990285e+01     1.588802    0.4462142 -42.87   0.00476523    4.236    0.764
         9 -14.6400    231.8679     28.6897   4.9006527098e+01   2.3001523072e+01     1.188817    0.7231798 -46.44  0.001774462    1.546    0.353
        10 -13.7885    205.8464     20.3657   4.9162254138e+01   3.0209005509e+01     2.006958    0.7674031 -36.37  0.007373094    2.266    0.559
        11 -14.9877    215.5140     22.5693   4.8845328601e+01   2.7554828899e+01     2.445283     1.414792  14.33   0.00915089    2.553    0.608
        12 -17.0178    244.9040     38.4706   5.0375656663e+01   1.9037413008e+01     3.581609     2.384917 -20.32    0.0194974    1.384    0.277
        13 -11.6379    159.0946     24.6054   5.6646822904e+01   4.2224535467e+01    0.5370604    0.4299445  45.58 0.0008562365    1.269    0.212
        14 -10.4580    188.9581     23.4741   5.2017970836e+01   3.4263930548e+01    0.5914783    0.3265881 -50.32  0.002064194    1.895    0.472
        15 -11.0737    171.2083     24.4817   5.4729131329e+01   3.8925119313e+01    0.5278038    0.2649828 -26.74  0.001425263    1.947    0.486
        16 -10.3523    164.9455     19.5062   5.3896300443e+01   4.1212495903e+01    0.4370534    0.1965266 -28.33  0.001680164    2.131    0.531
        17  -9.9097    154.0110     14.5872   5.3731621435e+01   4.4779570949e+01    0.4669155    0.2208011  35.63  0.001646432    2.759    0.638
        18 -10.3342    115.9840     12.5070   6.0068634479e+01   5.5396517953e+01    0.3416021    0.2463996  63.72  0.001229912    1.369    0.270
        19 -12.0566    120.2849      8.8874   5.7451371664e+01   5.4661598419e+01    0.6024717    0.4989413 -31.21  0.001771075    1.240    0.194
        20  -9.9203    193.5253      5.9412   4.5939568103e+01   3.4843432247e+01    0.3964465    0.1903236 -26.99  0.001026494    1.947    0.486
        21  -8.5135    196.6771      4.6847   4.5258549143e+01   3.4128375181e+01    0.2877273    0.1867096  43.44 0.0006741685    1.734    0.423
        22 -10.6572    142.0461      8.0717   5.3065895545e+01   4.8785213973e+01    0.4391196     0.135199  55.68  0.001451326    2.775    0.640
        23 -11.0547    181.5879      4.4676   4.6627051340e+01   3.8179486058e+01    0.5669274    0.4732363  74.42  0.002384965    1.172    0.147
        24  -9.4118     79.6572      7.6785   6.8023480339e+01   6.4954723533e+01    0.1527197    0.1014353  21.65 0.0007050228    1.726    0.421
        25 -10.6115    136.6084      5.7811   5.3013100052e+01   5.0521012163e+01    0.2681682    0.2272998 -42.08 0.0007773477    1.221    0.181
        26 -10.2149    137.6962      1.7259   5.1131686136e+01   5.0600687083e+01    0.3673643    0.2268209  55.27  0.001153545    1.513    0.339
        27  -9.8835    172.0221      2.6102   4.7000787170e+01   4.0963728343e+01    0.3110635    0.2005502 -33.48 0.0006385364    1.512    0.339
        28  -9.8589    158.6821      3.1114   4.8743889901e+01   4.4619080282e+01    0.3419004     0.252128  16.11  0.001004405    1.570    0.363
        29  -9.4977    148.3673      1.8360   4.9612304489e+01   4.7614502596e+01    0.2632377    0.1987878  88.69  0.000820567    1.352    0.260
        30  -8.9277    222.8238    145.4584   7.8847564325e+01   1.0225112049e+01    0.1747951    0.1151428  40.55  0.000807214    1.457    0.314
        31 -10.7003    179.1103    143.1364   8.6359046077e+01   1.8674983427e+01     0.393075    0.2657794 -57.52    0.0015594    2.168    0.539
        32  -9.3459    192.1919    144.0377   8.3996543181e+01   1.6037993209e+01    0.1816859    0.1771048  48.72 0.0004527753    1.273    0.215
        33 -10.2321    159.1264    142.8978   9.0467484785e+01   2.2572239868e+01    0.2102062    0.1893039  65.14  0.001232433    1.267    0.211
        34 -10.8783    189.4837    138.7300   8.3410627163e+01   1.7349078211e+01    0.4775646    0.2638899  40.01  0.001869396    1.669    0.401
        35 -13.0062    234.8234    238.6395   9.2374005553e+01  -1.2996662661e+00     2.037313    0.3085983  34.85  0.007326951    5.444    0.816
        36 -10.1142    133.2715    234.6067   1.0889677503e+02   1.2798912831e+01    0.1832839    0.1408853  34.42 0.0003684571    1.109    0.098
        37 -13.1441    232.5181     40.5104   5.2111172549e+01   2.1558713702e+01    0.3286406    0.2421151 -25.75  0.000530884    1.227    0.185
        38  -9.7718    248.8803    222.8699   8.8066612761e+01  -1.7524018416e+00    0.1757983    0.1038762  15.32  0.001263249    1.301    0.231
        39  -9.8500    238.3853    223.2984   8.9708108310e+01  -4.5046284488e-01    0.1931168   0.09039372  28.11 0.0004929063    1.632    0.387
        40 -11.2899     35.7892    215.7299   1.2583345630e+02   2.7680310233e+01    0.3086625    0.2493692  -8.96  0.002281052    2.219    0.549
        41 -10.0076    160.3863    128.3602   8.7147361759e+01   2.4855792501e+01    0.2866111    0.2783242 -80.83  0.001696512    1.180    0.153
        42 -11.3205    214.4236    167.8006   8.4588533181e+01   8.8738364004e+00    0.5972618    0.3393489  60.91  0.002503101    3.897    0.743
        43 -10.8087    160.7467    117.8259   8.4675244051e+01   2.6651275375e+01    0.6073412     0.422659 -78.68  0.002112026    2.564    0.610
        44 -10.4079    168.0820    114.1180   8.2202009835e+01   2.5736082440e+01    0.4864953    0.3547687   4.55  0.001997818    1.751    0.429
        45 -14.3171    214.5989    190.8055   8.8545230134e+01   6.1326365452e+00     1.915312    0.9052165  35.35   0.01049895    1.736    0.424
        46 -10.7921    186.8189     81.2392   6.9878459969e+01   2.6915957500e+01    0.2989466    0.2591883  14.44  0.001583424    1.195    0.163
        47 -10.5839    191.7489     79.0152   6.8379386793e+01   2.6087456665e+01    0.4587446    0.2230098  39.70  0.001769749    2.333    0.571
        48  -9.1385    184.6661     77.6968   6.9277277165e+01   2.7979528242e+01    0.2789162    0.2178986  28.14 0.0007080254    1.375    0.273
        49 -11.7277    154.4876     88.6562   7.8584764639e+01   3.3336871209e+01    0.3403954    0.3258048 -33.12  0.001183255    1.064    0.060
        50 -10.2238    231.2279     79.9382   6.2534863370e+01   1.7074440406e+01      0.25689     0.181552  45.53 0.0007733144    1.489    0.329
        51 -12.4361    169.3628     76.7162   7.1941546289e+01   3.1849941347e+01    0.4806412    0.3580656  -9.13  0.001007355    1.573    0.364
        52  -9.2329    161.4755     79.5198   7.4411672059e+01   3.3294270587e+01    0.2667889    0.1342279  42.79  0.001015075    2.073    0.518
        53 -13.9970    199.4664    208.3818   9.3852619083e+01   6.4340046443e+00     3.416991    0.7020081  36.21   0.01197677    4.403    0.773
        54  -9.0105     60.6587     78.3111   1.0392666105e+02   5.4165448648e+01      0.14586     0.103066  71.94  0.000512763    1.696    0.411
        55  -9.2210    180.4567     76.4602   6.9704079360e+01   2.9189354195e+01    0.2626472       0.1282 -42.49  0.000550413    2.113    0.527
        56  -8.9202    246.9477     73.8379   5.9028596337e+01   1.4582292522e+01    0.1629626    0.1475454  17.19 0.0004356036    1.149    0.129
        57 -10.6692    120.0721     62.7874   7.9301317878e+01   4.6333877806e+01    0.2596613    0.2346031 -41.39 0.0002277305    1.107    0.097
        58 -11.6019     12.3062     60.0684   1.2022308637e+02   6.3345963149e+01     0.260076    0.2042228  -1.28  0.001623618    1.578    0.366
        59  -8.4990     72.7150     58.3205   9.3598355312e+01   5.6972356959e+01    0.1425288    0.1127892  89.31 0.0003823982    1.593    0.372
        60 -13.1340    219.3775     64.3992   6.0094560713e+01   2.1672921916e+01     1.198904    0.4483068  53.00  0.004631781    2.669    0.625
        61 -11.1558    177.9126     50.6300   6.2342949386e+01   3.3722660192e+01    0.6206165    0.5379289 -60.89  0.002820303    1.225    0.183
        62 -10.1195    119.5469     49.7096   7.4777013448e+01   4.8889792539e+01    0.3858328    0.1454467 -38.59  0.001297946    2.596    0.615
        63 -12.4236    193.0692    195.1923   9.2989267897e+01   8.9531465088e+00    0.8017985    0.4872369 -61.09  0.003566125    4.623    0.784
        64 -11.5737    248.6787    175.0357   8.0376056922e+01   2.6939160357e+00    0.3705066    0.3229564   6.40  0.002034175    1.324    0.245
        65 -10.0030    103.2708     43.1958   7.7057172866e+01   5.3916833488e+01    0.2676634    0.1811112 -33.36 0.0005381111    1.487    0.328
        66 -13.2989     15.2946    173.0838   1.2820353370e+02   3.7410976034e+01    0.7708586    0.5725896  61.67  0.003895539    1.027    0.026
        67 -12.5147    200.0874    173.0479   8.8057548475e+01   1.0608205123e+01    0.6019813    0.4544406  61.48  0.003506767    1.991    0.498
        68 -11.5775    162.8278     31.1273   5.8366657084e+01   4.0390044907e+01    0.7876755    0.3303766 -26.92  0.002424816    2.355    0.575
        69  -9.4593    150.9597    173.6523   9.7711312909e+01   1.8929477316e+01    0.1834647    0.1444907  38.04  0.001118997    1.069    0.064
        70 -10.6437    118.9560     33.3055   6.8466261538e+01   5.1777640406e+01    0.2222701     0.199845  48.27 0.0007015696    1.097    0.088
        71 -11.9706    146.4459     28.5012   6.0348515513e+01   4.5190795442e+01    0.5450623    0.3396692  51.58  0.002381376    1.562    0.360
        72  -8.7625    101.0046    175.9826   1.0892295181e+02   2.6622113470e+01    0.1413561     0.117081  50.68            0    1.001    0.001
        73 -11.3423    179.2043     23.9211   5.3418071462e+01   3.6822332730e+01    0.6864027    0.4556404  66.58  0.003112719    1.493    0.330
        74 -13.7115    231.4736    174.3591   8.2938788887e+01   5.3653189618e+00     1.659202     1.279762  25.23    0.0111179    1.148    0.129
        75 -11.9040      6.4480     23.2911   1.1596531563e+02   7.2380342360e+01    0.7738538    0.3425447   2.20  0.003733837    2.907    0.656
        76 -10.6516    144.3296     21.3942   5.8000126249e+01   4.6670601049e+01    0.5097001    0.1776094 -35.25   0.00121574    2.679    0.627
        77  -9.8291     92.1672     21.2110   7.0879289620e+01   6.0171135749e+01    0.2663955    0.1987665 -35.06 0.0004162942    1.332    0.249
        78  -9.5612     78.5574     21.1337   7.5695210717e+01   6.3205355763e+01    0.2404423    0.1973179 -37.38 0.0008353566    1.211    0.174
        79 -12.9166     68.6698    144.0071   1.1281088340e+02   3.7725665118e+01     1.108127    0.7954208  44.79    0.0045482    1.268    0.211
        80  -9.1389    148.5019     17.9170   5.5904351468e+01   4.5933454295e+01    0.2212502    0.1489642 -25.42 0.0005208041    1.507    0.336
        81  -9.2033    190.5981     15.1609   4.9166198366e+01   3.4719419107e+01    0.2478855    0.1898577 -84.23 0.0007267759    1.355    0.262
        82 -12.3966     58.6525    150.0968   1.1612721049e+02   3.7690069159e+01    0.6301786    0.3765102  84.06  0.001667604    1.770    0.435
        83 -12.1304     44.5616    158.2348   1.2044157582e+02   3.7592130217e+01    0.3842531    0.2949854   7.86  0.001157859    1.878    0.468
        84 -13.0131     52.1164    153.7418   1.1815984474e+02   3.7690940153e+01    0.7577879     0.625646  77.27  0.002936519    1.076    0.071
        85  -9.3743     90.7197     11.5998   6.6463801411e+01   6.1874561228e+01    0.1972408    0.1410102  68.81 0.0009183859    1.609    0.378
        86 -11.8181    151.1907    148.5757   9.3301121787e+01   2.3096447174e+01    0.9457061     0.573351 -82.34  0.002860659    6.192    0.838
        87  -9.3595    243.7390    156.4937   7.7697333393e+01   5.4148967281e+00    0.2432109    0.1680345  58.87   0.00104429    2.366    0.577
        88  -9.8215    236.0564    153.9229   7.8391497450e+01   6.9472021840e+00    0.1861404    0.1514326  10.72 0.0005856788    1.038    0.036
        89 -10.3945    192.0502    153.4583   8.5905641906e+01   1.4693129769e+01    0.2406579    0.1743409  -7.96 0.0007259159    1.505    0.336
        90  -9.4807    204.0271    152.9939   8.3608137463e+01   1.2587064687e+01    0.1994345    0.1710683  12.99 0.0004989397    1.032    0.031
        91 -10.9986    133.7469    144.9828   9.6583600198e+01   2.6993249497e+01    0.9956142    0.2932813 -55.60   0.00286763    5.539    0.819
        92  -9.0938    173.6341    149.7053   8.8775830955e+01   1.8681694600e+01    0.1421888   0.09709846  15.59 0.0007029618    1.717    0.418
        93 -10.7916    155.3806    146.8862   9.2062439182e+01   2.2600803232e+01    0.3249592    0.2335206  87.49  0.001488315    2.454    0.592
        94  -9.1568    233.9955    145.4772   7.7042081767e+01   8.2855107839e+00    0.1804425    0.1114688  39.13 0.0006746962    1.539    0.350
