#   1 NUMBER                 Running object number                                     
#   2 MAG_AUTO               Kron-like elliptical aperture magnitude                    [mag]
#   3 X_IMAGE                Object position along x                                    [pixel]
#   4 Y_IMAGE                Object position along y                                    [pixel]
#   5 X_WORLD                Barycenter position along world x axis                     [deg]
#   6 Y_WORLD                Barycenter position along world y axis                     [deg]
#   7 A_WORLD                Profile RMS along major axis (world units)                 [deg]
#   8 B_WORLD                Profile RMS along minor axis (world units)                 [deg]
#   9 THETA_WORLD            Position angle (CCW/world-x)                               [deg]
#  10 FWHM_WORLD             FWHM assuming a gaussian core                              [deg]
#  11 ELONGATION             A_IMAGE/B_IMAGE                                           
#  12 ELLIPTICITY            1 - B_IMAGE/A_IMAGE                                       
         1 -11.5253      1.9832     22.5806   9.9242400622e+01   7.1120280038e+01    0.4775977    0.1628729 -53.32  0.002165985    2.410    0.585
         2 -11.4344     39.0632     19.7969   7.8463978990e+01   6.8066137143e+01    0.5182467    0.4055379  61.64    0.0029979    2.534    0.605
         3  -9.4094     22.3566      9.7535   8.2188239189e+01   7.1497376845e+01    0.3694094    0.2544761 -17.52  0.002497223    1.181    0.153
         4 -10.3568     24.4757      3.7414   7.7946126890e+01   7.2061967901e+01    0.4589457    0.1901414  17.53  0.002002691    3.386    0.705
         5 -11.2421     19.1400      1.7296   7.9839048977e+01   7.2928153131e+01    0.3619326    0.1765658  34.50 0.0002025475    2.175    0.540
         6 -11.4972     34.7702     12.6323   7.7143709766e+01   6.9623419884e+01    0.3057964    0.2473219  19.40   0.00107952    1.257    0.204
         7 -12.4504     31.8908      7.6231   7.6077463014e+01   7.0651185964e+01    0.9856029    0.3354445  37.02  0.004586064    2.868    0.651
         8 -10.2784     20.6690     17.0564   8.6575213884e+01   7.0593881089e+01    0.2830893    0.1549744 -19.11  0.001602428    1.781    0.438
         9 -11.1341     13.8896     15.9921   8.9843935912e+01   7.1383271127e+01    0.2609929    0.2425224 -35.82  0.001303535    1.526    0.345
        10 -10.7112     15.5701      8.4427   8.5351079581e+01   7.2376481759e+01      0.35238    0.1669437 -10.05  0.001504431    2.873    0.652
        11  -9.5287     11.2925      7.6232   8.7448293299e+01   7.2888271109e+01    0.1958846   0.09795409 -45.41 0.0008082461    2.035    0.508
        12  -9.7570      8.4760      5.4697   8.8080313816e+01   7.3446016710e+01    0.1842558   0.09321114  25.38 0.0007748575    2.017    0.504
        13 -11.1814    234.7479     15.0679   3.4492996471e+01   2.5498727691e+01    0.2125424    0.1779721 -73.11 0.0003011473    1.063    0.059
        14 -11.5042     66.0032     13.5560   6.4164136931e+01   6.4613912756e+01    0.3523271    0.3110638  72.99  0.001335263    1.684    0.406
        15 -10.9684    208.0751     13.1340   3.6384316147e+01   3.1704359457e+01    0.2031841     0.169451 -54.62 0.0004086841    1.179    0.152
        16  -9.8083     45.5507     10.0040   7.0766474862e+01   6.8439429806e+01    0.2076313    0.1350406  24.00 0.0005636832    1.351    0.260
        17 -10.9675    135.0824     11.5083   4.5426619698e+01   4.9665685363e+01     0.228952     0.206903  36.67  0.000286062    1.153    0.133
        18 -10.0695     85.9490     11.8177   5.6819176809e+01   6.0900173287e+01    0.2138536    0.1722108  -4.93  0.001074907    1.277    0.217
        19 -10.7476    125.9961     11.0091   4.6932327925e+01   5.1912836547e+01    0.1987854     0.169965  54.00  0.001211812    1.021    0.021
        20  -9.4043    104.3621     10.1021   5.1236321700e+01   5.7055733556e+01     0.169399     0.114999 -36.75 0.0009249132    1.714    0.417
        21 -10.7187     57.4818      8.4582   6.4999973884e+01   6.6682652752e+01    0.2203373    0.1455315  22.59 0.0005660226    1.350    0.259
        22 -11.5131     57.5518      2.5890   6.2099312759e+01   6.7271653618e+01    0.5236704      0.29928  10.97 0.0008680141    1.935    0.483
        23  -9.9933    204.4701      6.9760   3.5270063376e+01   3.3194466642e+01     0.172519     0.118812 -36.96 0.0003790855    1.528    0.345
        24 -11.1244    188.4888      6.6889   3.6757920097e+01   3.7013461864e+01    0.2610299    0.1781356  38.78  0.000659405    1.894    0.472
        25 -11.1172    151.2301      6.4048   4.1234051889e+01   4.6166300317e+01    0.2136762    0.1857138 -29.86  0.000559352    1.328    0.247
        26  -9.8851     70.7862      6.6649   5.9308844167e+01   6.4440964465e+01    0.2420867    0.1625149 -30.18  0.001424183    1.675    0.403
        27  -9.8644      2.7919      6.6746   9.2159464901e+01   7.3704053874e+01    0.1827791     0.111698   4.63  0.000726137    1.515    0.340
        28 -10.3449     65.5250      6.5297   6.1066236226e+01   6.5445834648e+01    0.2606222    0.1062025  48.76  0.001215389    2.190    0.543
        29 -10.0174    155.6516      5.3058   4.0286587951e+01   4.5174472784e+01     0.137476   0.09020346 -71.89 0.0005076624    1.701    0.412
        30 -10.7528    136.8726      4.8449   4.2937335667e+01   4.9825133476e+01    0.2129299    0.1603561  48.07  0.001242038    1.241    0.194
        31  -9.8809    120.0738      4.4835   4.5779110192e+01   5.3899205642e+01    0.2071653     0.110568  61.36  0.001024183    1.574    0.365
        32 -10.7053    102.5374      2.4928   4.8696138417e+01   5.8125205208e+01    0.3781868    0.2724419  74.48   0.00156978    1.510    0.338
        33  -9.9964    176.0525      2.7207   3.7058485193e+01   4.0401145608e+01    0.1877579    0.1445731  75.16 0.0004736127    1.114    0.102
        34 -10.3655    130.0170      3.2854   4.3563253119e+01   5.1618474082e+01    0.1887512    0.1479302  64.08 0.0003793833    1.091    0.083
        35 -11.1716     80.4282      1.6547   5.4026622077e+01   6.2974049014e+01    0.3143694    0.1438463  52.60 0.0006450351    1.833    0.455
        36 -11.1090     11.6796      1.8318   8.4275641618e+01   7.3676235689e+01    0.1815901     0.136331  16.46  0.000565182    1.372    0.271
        37  -9.6746      1.5978      2.3335   9.0820908978e+01   7.4444762406e+01    0.1334674     0.125918 -17.92  0.001081772    1.617    0.382
        38  -9.1372     67.2509      1.3064   5.7992550756e+01   6.5613187816e+01    0.1229668   0.07724221  21.79 0.0003107892    1.507    0.337
        39 -10.2999      1.3781    191.0233   1.2478964483e+02   3.3543846262e+01    0.1738048   0.08987787 -84.58 0.0005927653    1.582    0.368
        40 -11.6703     17.7066    249.1995   1.2475440237e+02   2.0163671378e+01    0.2591862    0.2290074  39.43   0.00208107    1.520    0.342
        41 -10.1779      6.0104    250.0015   1.2679376951e+02   2.1198300677e+01    0.1393924    0.1224566 -64.27  0.001134188    1.674    0.402
        42 -10.9352      1.8055    248.4969   1.2744009912e+02   2.1880720697e+01    0.3397033    0.1186551 -78.65  0.001879162    2.575    0.612
        43  -9.7237     13.3877    180.6977   1.2150980253e+02   3.4843562502e+01    0.1984525    0.1204013  58.72 0.0008943039    1.503    0.335
        44  -9.5225     22.4794    180.0331   1.1938433478e+02   3.4166438347e+01    0.1803389    0.1042652 -77.80  0.000408934    1.486    0.327
        45 -10.4001      4.9811    167.2765   1.2244574340e+02   3.8620797351e+01    0.1677191    0.1381674  78.44  0.001014316    1.088    0.081
        46  -9.6394    226.4720    164.0096   6.8869319033e+01   3.8005882333e+00    0.2090998    0.1245144 -34.81 0.0007730841    1.551    0.355
        47  -9.3110    247.4943    155.4513   6.3474168172e+01   1.6369373445e+00    0.1328126     0.113379 -20.92 0.0001998017    1.006    0.006
        48 -10.6395      3.5482    153.5173   1.2172926971e+02   4.1939231028e+01    0.3324844    0.1174028  22.84  0.001510452    3.353    0.702
        49  -9.5394    228.1917    151.2145   6.5858937538e+01   5.7126795542e+00    0.1780739    0.1566709 -53.09 0.0003456382    1.302    0.232
        50 -10.2000     15.9814    150.4749   1.1829255703e+02   4.1732461491e+01    0.1632846    0.1254304  27.47 0.0006537141    1.555    0.357
        51  -9.4816    237.7299    149.6525   6.3880242873e+01   4.2722135896e+00    0.1384155   0.09786578  -8.99 0.0002845955    1.620    0.383
        52  -9.7184     23.5401    146.4986   1.1586689076e+02   4.2064041960e+01    0.1294679    0.1079426 -76.12 3.099028e-07    1.049    0.047
        53  -9.8502    248.3564    144.2914   6.1017172765e+01   3.3228967339e+00     0.134527   0.09678881   0.40 0.0007028583    1.686    0.407
        54 -10.1904    212.5042    133.9058   6.4872184405e+01   1.1844049393e+01     0.250683    0.2065464  72.01 0.0007981278    1.527    0.345
        55 -10.2576      2.8229    133.1075   1.2011548678e+02   4.6829419582e+01     0.296135    0.1465461  53.51  0.001518588    2.238    0.553
        56 -10.9030    248.5149    129.4893   5.7862260554e+01   5.7453401800e+00    0.2162223    0.1097183 -44.72 0.0009953342    1.824    0.452
        57  -9.0282     96.3047    133.7041   9.2808342264e+01   3.5850314208e+01    0.1525425    0.1173369  76.03 0.0003987156    1.582    0.368
        58 -10.3352     12.1090    129.8126   1.1716428366e+02   4.7013895852e+01    0.1953609    0.1487073  80.07 0.0008084159    1.272    0.214
        59  -9.5061     28.7614    128.2068   1.1207830735e+02   4.6095122303e+01    0.1741011    0.1342831 -49.66 0.0003551953    1.275    0.216
        60  -9.3292     48.4502    127.5865   1.0600676383e+02   4.4270688499e+01    0.1365688    0.1229531 -72.24 8.665778e-05    1.017    0.017
        61 -11.2924     24.0356    121.5369   1.1256664880e+02   4.8132120377e+01    0.3463428    0.2251374  68.35  0.001845295    1.784    0.439
        62  -9.4582     17.6628    121.7509   1.1454066442e+02   4.8572230180e+01    0.1246508   0.08429263 -41.24 0.0001234659    1.562    0.360
        63  -9.2047     75.7516    120.7008   9.6176047600e+01   4.2384098322e+01    0.1437232     0.107404 -32.53 0.0001586602    1.491    0.329
        64 -10.0784     69.1358    117.0819   9.7480046988e+01   4.4240528624e+01    0.2227847    0.1821808 -38.71 0.0003486304    1.236    0.191
        65 -11.1455      8.1164    121.1852   1.1733583046e+02   4.9357961658e+01    0.2284917    0.1707558  74.74 0.0007347671    1.373    0.272
        66  -9.2919    139.3592    112.1781   7.5570052507e+01   3.2281607819e+01    0.2121111    0.1467577 -54.21 0.0001211183    1.541    0.351
        67 -10.3297     65.4473    110.6885   9.7269348485e+01   4.6316455908e+01    0.2742602     0.213563  69.20 0.0006417014    1.571    0.364
        68 -10.5934      2.6325    109.1521   1.1757128429e+02   5.2546567858e+01     0.221753    0.1660779  23.11  0.001004534    1.638    0.390
        69 -11.7077      5.8038    106.0975   1.1617651191e+02   5.3098885090e+01    0.3764084    0.2044224  83.49  0.001886359    2.146    0.534
        70 -11.3771     57.5406    106.6710   9.9005089920e+01   4.8333550554e+01    0.4588699    0.2511345 -59.46   0.00141431    1.684    0.406
        71  -9.8931     28.6134    106.0702   1.0865404457e+02   5.1518680634e+01    0.2011399    0.1548251 -40.33            0    1.279    0.218
        72 -10.4522     17.1984    104.6547   1.1223854240e+02   5.2734255807e+01    0.1588758    0.1163207  -9.44 0.0003953366    1.672    0.402
        73  -9.9718    186.8906    103.0222   6.2319554447e+01   2.3234300515e+01    0.2276095    0.2176413 -60.23 0.0006300154    1.030    0.029
        74 -10.1183     56.0534     97.3315   9.7377030945e+01   5.0752408168e+01    0.2382742    0.1712239 -44.41 0.0005464882    1.275    0.216
        75 -10.6527     10.5133     96.4899   1.1322692610e+02   5.5100083527e+01    0.3008961    0.1516756 -31.04  0.001191857    2.297    0.565
        76 -11.1406     11.1397     92.2428   1.1232605877e+02   5.6058567834e+01    0.3088349    0.1456113 -82.10  0.001391119    2.443    0.591
        77 -11.1260     10.4291     85.7623   1.1147720190e+02   5.7603204790e+01    0.2591935    0.2120069  38.29  0.001689929    1.491    0.330
        78 -10.4180      3.2179     95.6497   1.1559833276e+02   5.5693936107e+01    0.2275539    0.1672407 -51.49 0.0006995089    1.180    0.153
        79 -10.2476     28.5723     92.2996   1.0608779867e+02   5.4805784322e+01    0.3180446    0.1976888  15.36  0.001251271    1.895    0.472
        80 -10.6027     19.3796     87.1046   1.0842538970e+02   5.6723538376e+01    0.3949094    0.1827774 -59.11  0.001762244    1.706    0.414
        81 -12.1971     20.7446     92.7663   1.0899716404e+02   5.5305499516e+01    0.3671629    0.2432296 -38.89 0.0004344907    1.443    0.307
        82 -11.1049     24.5001     88.0890   1.0672789092e+02   5.6117588738e+01    0.4159723    0.2223305 -56.85  0.001264979    1.515    0.340
        83 -11.9603    125.1931     93.3085   7.4155836610e+01   3.9448014411e+01    0.2749699    0.2661459  43.17 0.0002269263    1.037    0.035
        84 -10.0973     78.7180     93.9033   8.8675913113e+01   4.8295307446e+01    0.2321761    0.1944963  12.63 0.0002398868    1.290    0.225
        85 -11.7038     57.9340     91.6984   9.5329804906e+01   5.1829420624e+01    0.2988958    0.2555264  -7.14 0.0003848726    1.246    0.197
        86 -12.3259     55.4381     85.8098   9.4714306578e+01   5.3498074055e+01    0.2607398    0.2572205  65.73 0.0002663997    1.171    0.146
        87 -10.4869     44.1653     90.2936   9.9968161264e+01   5.3787441662e+01    0.4038343    0.2851436 -89.84  0.002036154    1.945    0.486
        88  -9.6878      6.9452     91.5735   1.1369799780e+02   5.6451019973e+01    0.2164356    0.1270473 -56.39 0.0005954104    1.342    0.255
        89  -9.0821     84.7420     88.2726   8.5071199512e+01   4.8549051099e+01    0.1344762    0.1165358  88.10            0    1.460    0.315
        90  -9.7479    124.0425     86.3009   7.2418972193e+01   4.1140862830e+01    0.2206654    0.1971907  38.42  0.000582469    1.109    0.098
        91  -9.3928    146.1140     83.1924   6.5788201159e+01   3.6664848986e+01    0.2031583    0.1791436 -79.99 0.0003882643    1.270    0.212
        92 -11.1340      2.9740     81.2425   1.1345730834e+02   5.9025658392e+01    0.3452527    0.1401808 -64.08  0.001703407    1.860    0.462
        93 -10.0027     89.0340     80.2282   8.1241592656e+01   4.9514112496e+01    0.3048502    0.2244878  85.51  0.001319022    2.309    0.567
        94 -10.4304     64.0904     80.7209   9.0136153743e+01   5.3468490525e+01     0.286081    0.1876307 -42.47 0.0009304894    1.405    0.288
        95  -9.2195    250.3291     80.7107   4.7077413536e+01   1.3293956796e+01     0.134388   0.08948004 -65.20 0.0004921262    1.620    0.383
        96  -9.3509    124.4760     79.1227   7.0128025892e+01   4.2461805224e+01    0.2165166    0.1508071 -39.72 0.0004478531    1.456    0.313
        97  -9.1568     48.2132     78.9901   9.5606622816e+01   5.5907817188e+01    0.1727629   0.09961504 -53.55 0.0003531567    1.568    0.362
        98 -11.4201     26.2003     77.5889   1.0381303715e+02   5.8386904296e+01    0.6244162    0.2774772   9.65 0.0009530024    3.014    0.668
        99 -10.0316     20.6687     72.0373   1.0473058403e+02   6.0049153480e+01    0.3537984   0.09978795 -61.25  0.001105243    2.941    0.660
       100 -12.0206     10.1681     69.3124   1.0838892638e+02   6.1326905989e+01    0.6879216      0.14858 -60.41  0.002636568    3.085    0.676
       101 -11.5446      5.7013     69.0546   1.1015183128e+02   6.1621163286e+01     0.337495    0.2231468  54.45  0.001177523    2.115    0.527
       102 -10.9517      1.3959     66.6428   1.1142472120e+02   6.2351303376e+01    0.2199632   0.09576249 -65.65  0.000530252    1.869    0.465
       103 -11.8620     15.4046     75.3700   1.0757399271e+02   5.9665740832e+01    0.5141294    0.3513232  -2.78  0.002790741    1.679    0.404
       104 -10.2545    176.8273     76.8247   5.7353730486e+01   3.0389972169e+01      0.22614    0.2105116  33.60 0.0008372933    1.170    0.145
       105 -10.3926     55.1203     75.8548   9.2090719095e+01   5.5748264057e+01    0.3297141    0.2576609   3.08  0.001356956    1.376    0.273
       106 -11.3521     35.6019     74.0078   9.9213387771e+01   5.8353671809e+01    0.4527859    0.3072088  44.46   0.00174654    1.858    0.462
       107  -9.8472     13.7091     71.3519   1.0739076968e+02   6.0667510701e+01    0.1702895    0.1509742  45.52 0.0007966351    1.420    0.296
       108  -9.4406    216.9876     72.0403   4.9462453287e+01   2.1705279450e+01    0.1687984    0.1425224 -48.68 0.0003364845    1.098    0.089
       109 -11.1447    106.7626     71.6021   7.2858603609e+01   4.7758877941e+01    0.3762223    0.3070697  66.41  0.001894397    1.479    0.324
       110 -10.2237     46.1903     69.4292   9.3714251093e+01   5.8222867687e+01    0.2581557    0.1551532  21.24  0.001154667    1.821    0.451
       111 -11.0480     15.0941     64.3065   1.0520835605e+02   6.2120033506e+01    0.4169894    0.2823326 -73.77  0.001930479    1.639    0.390
       112 -13.3143     20.3620     58.1061   1.0134490435e+02   6.3070459142e+01    0.4077739    0.2565949 -61.65   0.00102819    1.556    0.357
       113  -9.6596     97.0147     64.2106   7.3448041620e+01   5.1139982880e+01     0.199045    0.1796056  28.03            0    1.074    0.069
       114 -10.2808     62.7489     62.2846   8.4929193302e+01   5.7506850034e+01    0.2793568    0.1642264 -37.80  0.001015644    1.601    0.375
       115 -10.6160      1.4462     59.8617   1.1001278184e+02   6.3813826034e+01    0.2280841    0.1028467 -59.40 0.0003965866    1.682    0.405
       116 -11.2576      4.9271     57.5001   1.0797735748e+02   6.4153076042e+01    0.2021346     0.168662 -38.57  0.001118839    1.089    0.082
       117 -10.4610     40.3110     59.8389   9.3235112361e+01   6.0882008663e+01    0.4096838    0.2046129 -21.72  0.001584127    2.830    0.647
       118 -11.3576     84.0408     56.2555   7.5004727279e+01   5.5081302991e+01    0.4034325    0.3034486 -28.36  0.002145275    1.311    0.237
       119 -11.1153     88.3828     53.1863   7.2424247895e+01   5.4793478491e+01    0.5798874    0.3027716 -26.83  0.002429945    2.248    0.555
       120 -10.9373      9.9068     57.9361   1.0589689222e+02   6.3795128036e+01    0.2835247    0.2643607 -56.97  0.002066734    1.232    0.188
       121  -9.6874     48.1655     58.1956   8.9418446857e+01   6.0297204639e+01    0.1591727    0.1559216 -53.63 0.0003339379    1.287    0.223
       122 -10.8251     33.0031     55.7301   9.5096362126e+01   6.2471011346e+01    0.4513262    0.1758985 -35.43  0.001709572    2.694    0.629
       123  -9.7911     26.8311     56.8841   9.8153906932e+01   6.2803461664e+01    0.1993983    0.1389368 -29.07 0.0005005868    1.280    0.219
       124 -10.1472    104.5251     55.9636   6.8282989814e+01   5.1038015320e+01    0.2012818     0.185275 -12.23 0.0004389086    1.083    0.077
       125 -10.0207    105.6166     52.2564   6.6659890552e+01   5.1415457313e+01    0.3147195     0.140166 -26.61  0.001138921    2.888    0.654
       126  -9.9093     96.6559     55.7457   7.0637377319e+01   5.2714783124e+01    0.2401598    0.1721505 -29.59 0.0008537984    1.423    0.297
       127 -11.0446    114.4511     53.7161   6.4640517825e+01   4.9233001028e+01    0.2774861     0.273081  -9.93  0.000896466    1.084    0.077
       128 -12.4152     66.1858     52.6254   8.0235383533e+01   5.8807452763e+01    0.4608543     0.228148  36.70 0.0008728756    2.038    0.509
       129  -9.6388    149.7103     52.3793   5.5689042717e+01   4.1047983784e+01     0.213455    0.1269031  49.58 0.0009445097    1.605    0.377
       130  -9.9871    121.8072     51.3662   6.1866152311e+01   4.7923534974e+01    0.2297553    0.1919443 -43.04 0.0004583443    1.290    0.225
       131 -10.8258      4.4467     50.4993   1.0649789317e+02   6.5636378549e+01    0.2412398    0.1462877 -28.80 0.0008721189    1.490    0.329
       132 -11.4245     16.4449     43.6041   9.8882920241e+01   6.6285066741e+01    0.5167522    0.4255637  57.17   0.00339214    1.845    0.458
       133 -10.1764     13.9641     48.9895   1.0168088166e+02   6.5391229747e+01    0.1989197    0.1795326  18.41  0.000869637    1.357    0.263
       134 -11.6166      9.3629     47.0102   1.0327524649e+02   6.6077898810e+01    0.4490562    0.2468619 -43.45  0.002635989    1.409    0.290
       135 -11.4730     77.7267     46.8489   7.3783425697e+01   5.7850572338e+01    0.4971625    0.3261981   0.94   0.00167648    1.963    0.491
       136  -9.2181     82.4877     47.4111   7.2312736955e+01   5.6882045567e+01    0.1836035    0.1302225 -44.36 0.0004651642    1.568    0.362
       137 -10.1565     38.2030     48.7041   9.0491391599e+01   6.3309098665e+01    0.2754505    0.1551386  16.20  0.001416633    1.949    0.487
       138  -9.8136    101.7369     48.0784   6.6325803440e+01   5.2912425066e+01    0.1908536     0.175334   0.04 0.0003903672    1.067    0.063
       139  -9.5697     58.3381     48.2463   8.1738157622e+01   6.0795057955e+01    0.1776261    0.1171585 -47.83 0.0003447018    1.645    0.392
       140  -9.4842     53.5907     48.2450   8.3690400330e+01   6.1474817207e+01    0.1890246     0.110338 -33.30 0.0009509033    1.613    0.380
       141  -9.1290    154.5334     47.4880   5.3218266595e+01   4.0569850700e+01    0.3103349    0.2151915  47.92  0.001408244    1.412    0.292
       142  -9.9828    152.2357     44.6385   5.2797238726e+01   4.1544888828e+01      0.22667    0.1877282  80.80 0.0001848676    1.237    0.192
       143  -9.2977    135.5275     46.4868   5.6907194797e+01   4.5393538406e+01    0.1442814    0.1361035  62.86 0.0005374737    1.044    0.042
       144  -9.1681     69.3804     46.8207   7.6858842302e+01   5.9306284234e+01    0.2548673    0.0976942  41.97  0.001004691    2.658    0.624
       145 -10.2394     30.9021     45.8155   9.2800366141e+01   6.4621636762e+01    0.2072031    0.1632722 -77.64 0.0008090606    1.987    0.497
       146  -9.5994    143.5606     44.5058   5.4514540001e+01   4.3711777274e+01    0.2345591    0.1529365  28.95  0.001048134    1.937    0.484
       147 -10.5686    140.6876     41.2230   5.4069336170e+01   4.4872757406e+01    0.3447856    0.2400556 -75.22   0.00102904    1.939    0.484
       148 -10.6384     25.6237     43.9883   9.4637417366e+01   6.5465870874e+01      0.26103    0.2150141 -76.91  0.001202874    1.787    0.440
       149  -9.3946    108.4278     44.2448   6.2996839723e+01   5.2040939571e+01    0.2022312     0.129379 -45.54 0.0009490401    1.801    0.445
       150 -10.4527     69.1361     42.1257   7.5146587091e+01   6.0127457123e+01    0.2130183    0.1851737  26.87            0    1.163    0.140
       151 -10.6646     59.6004     41.6757   7.8721643101e+01   6.1741288935e+01    0.2245202    0.1982037  25.45 0.0006454805    1.221    0.181
       152 -11.3294     44.3342     27.3737   7.9395355696e+01   6.6236886398e+01    0.3905079    0.3131724  -4.28   0.00255258    1.030    0.029
       153 -10.4841     35.9124     41.0506   8.8787320344e+01   6.4983043590e+01    0.4031712    0.1743694 -44.88  0.001927431    2.048    0.512
       154 -12.2256     39.7180     32.4003   8.3642410621e+01   6.6035210249e+01    0.4111599    0.3029215 -23.70 0.0005137062    1.169    0.145
       155  -9.5578     35.2392     28.9858   8.4343499436e+01   6.7133416638e+01    0.1701745    0.1177741 -17.21  0.001033245    1.281    0.220
       156 -10.7639      4.1934     41.2624   1.0413251127e+02   6.7507495749e+01    0.3729047    0.1191234 -39.84   0.00173107    2.453    0.592
       157 -10.3665     43.1616     39.9941   8.5090005888e+01   6.4318062445e+01    0.2215657    0.1832512 -17.14  0.001133285    1.025    0.025
       158  -9.9803    152.3116     39.0626   5.1068607468e+01   4.2284464713e+01    0.1934615    0.1844094 -77.40 0.0005322111    1.082    0.076
       159 -10.1721    128.0746     38.6208   5.5997185713e+01   4.8286543711e+01    0.2075564    0.1921304 -55.61 0.0004127402    1.196    0.164
       160 -11.7672    121.3731     37.2391   5.7113608593e+01   5.0061968983e+01    0.3816793    0.3719286   8.10  0.001161114    1.087    0.080
       161  -9.5768     87.2340     39.1717   6.7562224939e+01   5.7251024023e+01    0.1860751     0.165807  -5.30 0.0002687952    1.088    0.081
       162 -10.2119     89.9294     35.8988   6.5416095745e+01   5.7182048668e+01    0.2127309    0.1798004  20.37 0.0004581058    1.083    0.077
       163 -10.0712     96.9053     37.8929   6.4014290231e+01   5.5454937115e+01    0.2049168    0.1671661  17.35            0    1.205    0.170
       164 -10.5781     22.0577     38.0285   9.4287852668e+01   6.6897620156e+01    0.1821693    0.1541944 -25.02 0.0006155921    1.105    0.095
       165  -9.5859     11.3983     36.7445   9.9153649620e+01   6.7951862296e+01     0.168363   0.08400878 -44.37 0.0004818619    1.556    0.357
       166 -11.0637      2.2076     34.7136   1.0318947739e+02   6.8878076087e+01    0.3028441    0.2361745 -75.76  0.001997372    1.696    0.410
       167 -10.9839      7.1450     33.8703   1.0037774269e+02   6.8762836482e+01    0.2613817    0.1754615  34.54  0.001307366    1.971    0.493
       168 -10.5427     27.1226     34.7294   9.0591250267e+01   6.7029451512e+01    0.3220872    0.1721529 -19.42   0.00138052    2.060    0.515
       169  -9.7111    133.9095     34.5996   5.3342998374e+01   4.7402976364e+01    0.2259115    0.1424983  41.86  0.001074961    1.577    0.366
       170 -10.6678     73.1172     33.0259   7.0011508069e+01   6.0824972976e+01    0.3025573    0.2451098 -25.93  0.001356179    1.253    0.202
       171  -9.6417     85.1053     32.7301   6.5729497027e+01   5.8591567835e+01    0.1837067    0.1501811  33.21 0.0003095776    1.112    0.101
       172 -10.8331     18.1227     32.3576   9.4203732998e+01   6.8260761865e+01    0.4310261     0.195189   0.62  0.001948836    3.096    0.677
       173 -10.7309    128.4189     31.3063   5.3427469844e+01   4.9143842555e+01    0.3672809    0.2855902 -83.09  0.001930602    1.596    0.373
       174  -9.5212    188.0000     31.0304   4.3114452045e+01   3.4434216052e+01    0.2062968   0.07675237 -30.64  0.000393172    2.853    0.649
       175 -11.7531      9.5860     29.3231   9.7539930933e+01   6.9444202543e+01    0.4760463    0.2685428  43.96  0.002533957    3.021    0.669
       176  -9.4232     12.3148    249.3006   1.2569111597e+02   2.0699286785e+01   0.08828346   0.07986911 -67.41 0.0002309992    1.613    0.380
       177 -10.3352      7.0611     20.7932   9.5708860669e+01   7.1114539796e+01    0.2247364    0.1548258 -32.90  0.001091078    1.118    0.105
       178 -11.6509     68.5935     26.4383   6.8921247123e+01   6.2555000207e+01    0.3002122    0.2594728  71.65  0.001806485    1.747    0.428
       179 -10.2531    113.9536     26.3653   5.5040591357e+01   5.3155229507e+01    0.2434847    0.1839474 -46.87  0.001029068    1.562    0.360
       180  -9.6100    106.9869     27.2476   5.7132529691e+01   5.4642005204e+01    0.1814893    0.1070626  54.01 0.0006525803    1.547    0.354
       181  -9.4970     76.9895     27.0475   6.6150549705e+01   6.0930267173e+01    0.1623943     0.134246 -12.18 0.0009785134    1.186    0.157
       182 -10.2515    100.8672     25.6027   5.8151483194e+01   5.6200458077e+01    0.2294123    0.1789994   0.75  0.001055942    1.375    0.273
       183 -10.6494     59.5755     24.7537   7.1694675878e+01   6.4327263655e+01    0.4324146    0.1531035 -38.47 0.0008670268    2.948    0.661
       184 -10.2179     58.7504     19.3316   6.9600404759e+01   6.5183614142e+01    0.2328307    0.1764098  43.70 0.0008003048    1.458    0.314
       185  -9.6974     19.1279     25.1835   9.0896326811e+01   6.9423989660e+01     0.309568   0.09846573 -35.22  0.001296903    3.031    0.670
       186 -10.9906     14.0987     21.8943   9.2250099331e+01   7.0403603327e+01    0.4331929    0.1942131  19.05  0.002341384    2.297    0.565
       187  -9.6899     53.3430     24.4818   7.4156594006e+01   6.5357242957e+01    0.2118519    0.1085552 -33.37 0.0009375776    1.902    0.474
       188 -10.6844     35.0182     23.0463   8.1886275619e+01   6.8096524084e+01    0.3028038    0.1701114 -35.22  0.001240621    1.618    0.382
       189 -10.3616     91.3613     22.6298   5.9696778281e+01   5.8596055148e+01    0.2135954    0.1968057  -0.42 0.0006548946    1.137    0.120
       190 -10.6576     75.1407     21.8949   6.4606210351e+01   6.1936022612e+01    0.2818497    0.1962482  10.30 0.0008881964    1.488    0.328
       191  -9.6961     74.6667     18.6839   6.3379198807e+01   6.2411621710e+01    0.2061593    0.1300325  17.99  0.001076374    1.695    0.410
       192 -10.5387     46.2487     21.3993   7.5872573722e+01   6.6848159349e+01    0.2106952    0.1800964  -5.38 0.0003856399    1.131    0.116
       193 -10.0927    229.6581    247.8952   8.3696797072e+01  -9.3289483664e+00    0.1878762    0.1276098  16.21 0.0004802365    1.182    0.154
       194 -10.3205    225.0514    247.5282   8.4471638748e+01  -8.6671584497e+00    0.2223374    0.1584658 -20.54  0.001483533    1.384    0.277
       195 -10.2437     31.5435     16.1860   8.0469063986e+01   6.9533460554e+01    0.1929158    0.1363598   1.81 0.0003656795    1.231    0.188
       196  -9.7529     57.9835    248.0346   1.1734108735e+02   1.5723889793e+01    0.1446252    0.1114019  62.38 0.0005091057    1.016    0.016
       197  -9.3610    116.4055    246.4977   1.0565745870e+02   7.7926855275e+00     0.124339    0.1029457  46.69 -0.0004962213    1.018    0.018
       198 -11.7318      9.7128    245.3316   1.2596154020e+02   2.1697585885e+01    0.2725236    0.2048693  33.51  0.002038269    1.642    0.391
       199  -9.4230     86.4313    245.2037   1.1155649545e+02   1.2431295628e+01     0.153219    0.1072426  85.37 0.0005991557    1.557    0.358
       200 -10.6647     30.1935     21.2470   8.3479621406e+01   6.8939243491e+01    0.2598433    0.1761385  18.44  0.001198445    1.397    0.284
       201 -10.0658    181.4806     20.9971   4.1295492919e+01   3.7215367239e+01    0.1873441    0.1326977 -31.31 0.0007012826    1.559    0.358
       202  -9.7771    164.9844     21.2954   4.3635893847e+01   4.1267462141e+01    0.1916929      0.16106  73.11 0.0004052695    1.057    0.054
       203  -9.4660     84.0349     21.4721   6.1472513122e+01   6.0242904333e+01    0.2011968    0.1169575  47.70  0.001021932    1.562    0.360
       204  -9.1644    131.6802     20.6925   4.9135524277e+01   4.9573219008e+01    0.1434382   0.09330492  35.76  0.000703238    1.638    0.390
       205  -9.8451    119.0691     19.3247   5.1298281950e+01   5.2741712704e+01    0.1888405    0.1577997  57.92 0.0004244201    1.093    0.085
       206 -11.3143    203.5775     17.4550   3.7860235299e+01   3.2281728312e+01    0.3518049    0.1534618 -63.76  0.001425437    2.838    0.648
       207  -9.6212    141.7425     18.6109   4.6565385585e+01   4.7328292168e+01    0.1893327    0.1204867  76.58 0.0002904878    1.598    0.374
       208 -10.0892    115.1732     17.4154   5.1478175984e+01   5.3855406732e+01    0.2371797    0.1715857  60.36  0.000631248    1.267    0.211
       209  -9.6781     70.8166     17.5773   6.4239136082e+01   6.3267310046e+01    0.2019337    0.1411281 -27.60  0.001172258    1.503    0.335
       210  -9.2255     74.2785    243.6760   1.1382893391e+02   1.4401152905e+01    0.1251204   0.07467137  64.24 0.0004052066    1.588    0.370
       211 -10.0738    125.1866     17.1926   4.9241927560e+01   5.1506203059e+01    0.1995417    0.1615141  43.48 0.0003412377    1.143    0.125
       212 -11.9031      4.8804    240.6121   1.2659235834e+02   2.3057884475e+01    0.4293827    0.1326689  44.19  0.002320214    2.321    0.569
       213  -9.3605    202.4510    240.4598   8.7576032802e+01  -4.5228810551e+00    0.1248917   0.09956387  15.41 0.0001096732    1.008    0.008
       214  -9.3938     61.0057    241.0000   1.1621399321e+02   1.6668579760e+01     0.191641   0.05793643  35.89 0.0007972564    2.907    0.656
       215 -10.0215     35.9606    240.4798   1.2097381117e+02   1.9818168236e+01    0.1670018   0.09376226  41.93 0.0007331691    1.550    0.355
       216 -10.0946    117.5021    239.4864   1.0461554844e+02   8.8725217074e+00     0.128781    0.1068434  45.67 0.0001308193    1.004    0.004
       217  -9.2895     91.3448     16.6871   5.7281040094e+01   5.9263491829e+01    0.1240329    0.1036428 -78.23 0.0007046778    1.709    0.415
       218 -10.1457     82.8954     16.0069   5.9526163616e+01   6.1091816707e+01    0.1938177    0.1646429  25.02 0.0003242148    1.015    0.015
       219 -10.5209    154.7197     15.1644   4.3362553152e+01   4.4467956925e+01    0.2457468    0.1676098  81.38  0.001187843    1.428    0.300
       220 -11.1708     14.1003    238.7034   1.2487820836e+02   2.2514650958e+01    0.1896109    0.1138072  76.12 0.0005378489    1.331    0.249
       221  -9.4246     45.4473     15.5163   7.3492009181e+01   6.7763726884e+01    0.1249589   0.09724151   3.33 0.0001318812    1.053    0.050
       222 -10.2437    222.1511     13.8321   3.5269057171e+01   2.8410223934e+01    0.1565554    0.1420719  66.12 0.0004488073    1.315    0.240
       223 -10.0019     91.0851    237.3268   1.0983218081e+02   1.3242174445e+01    0.1842174    0.1651687 -63.90 0.0005423319    1.340    0.253
       224 -11.2302     25.4499    235.9802   1.2266154672e+02   2.1859061512e+01    0.2379639    0.1566991  32.03  0.001197059    1.737    0.424
       225  -9.9960    249.4388    233.9595   7.7923442392e+01  -1.0156278331e+01    0.1728291    0.1266554  12.08  0.000448454    1.115    0.103
       226 -11.9507      3.9925    232.6024   1.2639756887e+02   2.4681128256e+01    0.2447803    0.1534487  64.43  0.001717853    1.191    0.160
       227 -12.4768      9.9934    227.1969   1.2505104792e+02   2.5175029692e+01    0.3841327    0.2472488 -77.20  0.001866132    1.480    0.324
       228  -9.0873    243.4932    230.4517   7.8363841453e+01  -8.9347305593e+00    0.1206511   0.09205154   3.02 0.0003421395    1.011    0.011
       229  -9.7075      3.7135     10.6072   9.3390490404e+01   7.3024538274e+01    0.1253858   0.09245148  12.37 0.0003605587    1.423    0.297
       230  -9.8286     47.7248    230.0009   1.1797313264e+02   2.0498227714e+01    0.1654669    0.1277024  73.64 0.0003766918    1.080    0.074
       231  -9.7897    249.3854    229.2836   7.7139116826e+01  -9.5554365393e+00    0.1512946   0.09996397 -34.15 0.0009489462    1.625    0.384
       232  -9.5053    209.5151    229.5191   8.4447271348e+01  -3.9993302879e+00     0.127393    0.1031736  11.61 3.417803e-05    1.004    0.004
       233 -10.3354    140.3919    228.4135   9.8360269030e+01   7.2354459517e+00    0.2573104    0.1731198 -62.59  0.001254964    1.879    0.468
       234 -10.2466    223.4572    226.4400   8.1297113815e+01  -5.6126888291e+00    0.2481165    0.1439397  -5.90 0.0007131603    2.102    0.524
       235 -10.6663      1.5153    225.1369   1.2650794158e+02   2.6380601839e+01     0.200493   0.08656269 -88.56  0.000776115    1.990    0.498
       236  -9.2238    126.6145    220.8287   1.0026531460e+02   1.0912072619e+01    0.1662085    0.1286317 -76.47 0.0005234217    1.570    0.363
       237  -8.9140      7.3487     14.2843   9.2846793604e+01   7.2176349005e+01    0.1195449   0.06510261 -20.00 0.0007018588    1.652    0.395
       238 -10.6239      2.6430    220.3230   1.2607681764e+02   2.7245127697e+01    0.2364111    0.1116356  64.98  0.001385484    1.727    0.421
       239 -10.2113      8.6757    217.9758   1.2482272789e+02   2.7167726893e+01    0.1754808    0.1489866  44.14  0.001021273    1.394    0.282
       240  -9.6731     15.4612    213.4642   1.2325196831e+02   2.7454918580e+01    0.1181624   0.08807977  73.02 2.470429e-05    1.027    0.026
       241  -9.8070    205.7159    212.4375   8.2243803169e+01  -8.0240704009e-01    0.1780872    0.1118079  24.47 0.0008046315    1.508    0.337
       242  -9.6829    249.4916    211.4753   7.3993079754e+01  -7.1928601215e+00    0.1242751   0.09637901  -2.98 5.832779e-05    1.027    0.027
       243  -9.7006     20.3875    209.7135   1.2203133681e+02   2.7761090068e+01    0.1899433   0.09821033  64.87 0.0005636009    1.700    0.412
       244  -9.2747     56.4472    210.5536   1.1450170234e+02   2.3479190137e+01     0.124354    0.1078079  72.05 3.870377e-05    1.072    0.067
       245  -9.9939     23.7182    196.5083   1.2041118951e+02   3.0304860467e+01    0.2353338    0.1752298 -41.38  0.001451288    1.899    0.474
       246 -10.6986     13.9083    192.5502   1.2223805133e+02   3.2124474719e+01    0.2187249    0.1348983  68.74 0.0004969655    1.394    0.283
       247 -10.5120      6.2265    191.7898   1.2382011798e+02   3.2971237161e+01    0.1510636    0.1237091 -70.76   0.00106508    1.325    0.245
