#   1 NUMBER                 Running object number                                     
#   2 MAG_AUTO               Kron-like elliptical aperture magnitude                    [mag]
#   3 X_IMAGE                Object position along x                                    [pixel]
#   4 Y_IMAGE                Object position along y                                    [pixel]
#   5 X_WORLD                Barycenter position along world x axis                     [deg]
#   6 Y_WORLD                Barycenter position along world y axis                     [deg]
#   7 A_WORLD                Profile RMS along major axis (world units)                 [deg]
#   8 B_WORLD                Profile RMS along minor axis (world units)                 [deg]
#   9 THETA_WORLD            Position angle (CCW/world-x)                               [deg]
#  10 FWHM_WORLD             FWHM assuming a gaussian core                              [deg]
#  11 ELONGATION             A_IMAGE/B_IMAGE                                           
#  12 ELLIPTICITY            1 - B_IMAGE/A_IMAGE                                       
         1 -14.8899    214.9209      6.1662   3.9932074763e+01   2.9148715522e+01     3.238223     1.977887  42.65    0.0115398    1.816    0.449
         2 -13.9662    175.5761     51.2952   5.9629195566e+01   3.4295964510e+01     1.844949     1.346111  29.72  0.004839119    1.521    0.343
         3 -14.3203    189.9981     37.6026   5.2842225903e+01   3.2361511526e+01     1.213779     1.101775  -7.34  0.004152032    1.079    0.073
         4 -12.0460     58.3330      3.4903   6.9876246640e+01   6.9075673524e+01      0.43185    0.1979613  36.14  0.001833956    2.652    0.623
         5 -13.7394    194.9502     31.5185   5.0171234145e+01   3.1788815663e+01    0.8805107    0.7466438   3.37  0.001129883    1.214    0.176
         6 -11.6167     97.3912    200.4909   1.0669608878e+02   2.3989188040e+01    0.3538292    0.2562792  32.10  0.001272897    1.524    0.344
         7 -16.6749     71.7405    146.3553   1.0624492810e+02   3.7005856969e+01     7.237717     3.670636  70.52   0.02098651    2.447    0.591
         8 -11.9564    152.2989    195.4079   9.6187694415e+01   1.6664264357e+01    0.3836482    0.2249785  23.37  0.002128999    2.231    0.552
         9 -11.6535     96.8391    192.0315   1.0598532168e+02   2.5382466570e+01    0.2866709    0.2417407 -18.86 0.0007657848    1.934    0.483
        10 -18.5290     38.0775    244.6528   1.1945066727e+02   2.4547330703e+01     5.956703     2.191825  33.68   0.03033745    2.753    0.637
        11 -11.3111    141.8548    188.8661   9.7218389957e+01   1.9195854192e+01    0.1831945    0.1636327 -80.69  0.001124656    1.373    0.271
        12 -11.4046    153.4216    185.2749   9.4623704391e+01   1.7861435929e+01    0.2902895     0.230273 -25.36  0.001987029    1.615    0.381
        13 -10.4179     87.4571    202.9738   1.0872905076e+02   2.4926266872e+01    0.1904421    0.1697337  55.82 0.0009289899    1.254    0.202
        14  -9.9357     59.9869    185.5804   1.1248525804e+02   3.1189416121e+01    0.2195185    0.1397419 -78.82  0.001524526    1.610    0.379
        15 -10.3534      1.1099    187.3664   1.2369513385e+02   3.6751740641e+01   0.08329552   0.04721121 -82.23 0.0001579216    1.675    0.403
        16  -9.6948    161.0440    199.6539   9.5210484729e+01   1.4757903155e+01    0.1583082    0.1124472  40.37  0.000441923    1.096    0.087
        17 -12.6048    145.8255    182.4074   9.5620372165e+01   1.9491123260e+01    0.4328236    0.3140652  67.38  0.001885119    1.639    0.390
        18  -9.9291     93.7717    205.4380   1.0780020835e+02   2.3723986527e+01    0.1930251    0.1600347  36.80  0.001124229    1.355    0.262
        19 -11.4491     99.4279    180.8034   1.0431407883e+02   2.6845145260e+01    0.2231463    0.1863822  51.41 0.0006209293    1.105    0.095
        20 -10.5022    188.5594    175.3587   8.6874353254e+01   1.3339783991e+01    0.3181278    0.2071168 -46.63  0.001661249    2.044    0.511
        21 -10.8055    204.4234    175.8479   8.4273939884e+01   1.0617000895e+01    0.2750373    0.2454856  43.33   0.00105319    1.316    0.240
        22 -12.2864    141.1913    174.0397   9.5313462698e+01   2.1486147455e+01    0.6031929     0.409381  66.27   0.00326542    1.770    0.435
        23 -10.5682    196.6028    175.5164   8.5526464148e+01   1.1964720994e+01     0.293495    0.1911751  48.42  0.001781399    1.495    0.331
        24 -10.3796     67.5154    172.4816   1.0989365724e+02   3.2586372239e+01    0.1935087    0.1476084 -84.04  0.001381284    1.305    0.233
        25 -10.2585     65.9508    175.5422   1.1048583500e+02   3.2230658771e+01    0.1854811    0.1578021  69.19 0.0006473751    1.135    0.119
        26 -10.8310    230.1097    166.6004   7.8549976954e+01   7.3553000020e+00    0.2642532     0.141884 -45.88  0.001295327    3.246    0.692
        27  -9.6925      2.3218    166.6950   1.2282991567e+02   4.0325997048e+01    0.2151731    0.0874818  60.67  0.001334713    1.812    0.448
        28  -9.7727    149.5364    156.2092   9.0905514915e+01   2.2837522882e+01    0.2410433    0.1564694  72.21 0.0008813502    2.370    0.578
        29 -11.7101    133.9223    145.9665   9.2349334510e+01   2.7309724826e+01     1.066362    0.2867971 -54.95  0.003170849    5.985    0.833
        30 -10.2486    113.3803    151.3694   9.7616138779e+01   2.9844745298e+01    0.2784322    0.1686212  74.33  0.001254218    2.339    0.572
        31 -10.4565    174.2909    148.6948   8.4776726420e+01   1.9478454273e+01    0.2795794    0.2390653 -81.74   0.00109915    1.612    0.380
        32 -11.3601    144.0948    146.6047   9.0341868518e+01   2.5377749945e+01    0.4859485     0.229726 -57.94  0.002054712    3.038    0.671
        33 -19.2943     14.8296    101.2397   1.1606681323e+02   5.2805362242e+01     16.70158     1.090176 -76.55   0.03136075   14.784    0.932
        34  -9.6314     37.2023    198.5173   1.1757887396e+02   3.1526342096e+01    0.1355956   0.06116012  52.90 0.0004303734    1.599    0.375
        35 -12.1223    107.9522    138.7391   9.6831310426e+01   3.3094226420e+01    0.5467061    0.3265767 -40.47  0.002733053    2.212    0.548
        36 -10.5218     82.3711    195.3914   1.0901670529e+02   2.6777801401e+01    0.3118097    0.1974965  62.64  0.002138627    1.362    0.266
        37 -12.4247     96.1367    138.1602   9.9462501076e+01   3.5105410216e+01    0.2664669    0.2278221  56.68  0.000366634    1.079    0.074
        38 -11.4650    135.7038    127.6817   8.8562914003e+01   3.0245261979e+01    0.9890788    0.1859699 -50.20  0.002469593    7.109    0.859
        39 -11.5173    105.9211    130.9468   9.5988121255e+01   3.4949010346e+01    0.3782729    0.2855415 -64.84  0.002106138    1.371    0.271
        40 -11.0433    115.0741    129.3206   9.3556613804e+01   3.3701014752e+01     0.295066    0.2583469  15.30 0.0008800775    1.423    0.297
        41 -10.4408    161.3767    128.4118   8.3269436937e+01   2.5121652198e+01     0.406425    0.2957881  70.48  0.002082792    1.787    0.440
        42 -11.2271    102.7266    125.2151   9.5738555208e+01   3.6627496013e+01    0.2639426    0.2344673 -10.14  0.001011266    1.517    0.341
        43 -10.7803    120.0742    123.2418   9.1233550722e+01   3.3986877882e+01    0.3734241    0.2651941 -11.65  0.001728507    2.508    0.601
        44  -9.4139    151.9500    119.4343   8.3295201272e+01   2.8534132730e+01     0.270102    0.1710875 -79.22   0.00102722    3.371    0.703
        45 -10.2563    110.2908    118.5310   9.2638530457e+01   3.6674896052e+01    0.2187499    0.2001025  70.40 0.0002314616    1.016    0.016
        46 -10.3964    167.6632    112.6514   7.8484063769e+01   2.6428802667e+01    0.3311072    0.2593153 -80.85  0.001673209    1.811    0.448
        47 -11.7510    118.7539    110.1709   8.8828027425e+01   3.6804308432e+01    0.5800006    0.4015945  68.39  0.002861692    1.713    0.416
        48 -10.2902    205.3980    110.1153   7.0868071223e+01   1.8798800269e+01    0.2940664    0.1919955  42.00 0.0009462042    1.463    0.316
        49 -10.2555    134.6340    105.9994   8.4082101588e+01   3.4502762987e+01    0.3114133    0.1346048 -44.69  0.001223405    2.379    0.580
        50  -9.4154     78.4587    193.4268   1.0958306764e+02   2.7598546125e+01    0.1698936    0.1134329  60.76 0.0001194556    1.217    0.178
        51  -9.5846    184.9442     84.6678   6.7965542426e+01   2.7026535590e+01    0.2099179    0.1899089  45.81  0.001117892    1.121    0.108
        52 -10.5299     70.2549     72.2339   9.3448977122e+01   5.3360797136e+01    0.2329329    0.2023283  86.32 0.0003560263    1.174    0.148
        53 -12.5196    162.5055     63.5386   6.6033262067e+01   3.5750486082e+01     1.030288    0.6659867  69.65 0.0009380259    1.865    0.464
        54 -11.1557    249.0221    248.5920   8.8052125688e+01  -2.1323546879e+00    0.1605614    0.1242535  -5.33   0.00150431    1.532    0.347
        55 -10.9272    158.0964    235.6826   9.9868909067e+01   1.1006385210e+01    0.1777477    0.1612215  20.03 0.0008035009    1.330    0.248
        56 -10.6245     71.8666    231.1214   1.1344910143e+02   2.2736308358e+01    0.2116002    0.1238367  78.03 0.0009395986    1.785    0.440
        57  -9.7636      1.6460    211.2274   1.2420663597e+02   3.2808586447e+01    0.1715543   0.05227133  60.03  0.001071056    2.155    0.536
