#   1 NUMBER                 Running object number                                     
#   2 MAG_AUTO               Kron-like elliptical aperture magnitude                    [mag]
#   3 X_IMAGE                Object position along x                                    [pixel]
#   4 Y_IMAGE                Object position along y                                    [pixel]
#   5 X_WORLD                Barycenter position along world x axis                     [deg]
#   6 Y_WORLD                Barycenter position along world y axis                     [deg]
#   7 A_WORLD                Profile RMS along major axis (world units)                 [deg]
#   8 B_WORLD                Profile RMS along minor axis (world units)                 [deg]
#   9 THETA_WORLD            Position angle (CCW/world-x)                               [deg]
#  10 FWHM_WORLD             FWHM assuming a gaussian core                              [deg]
#  11 ELONGATION             A_IMAGE/B_IMAGE                                           
#  12 ELLIPTICITY            1 - B_IMAGE/A_IMAGE                                       
         1 -14.9114      7.8437    150.5666   1.3836027096e+02   4.2992302143e+01     8.115703     1.444907 -74.52   0.02038065    7.055    0.858
         2 -12.7275    199.5960     33.8945   6.2283126762e+01   3.1866621041e+01    0.9866046    0.8652888  47.93  0.006308571    1.424    0.298
         3 -13.3724    216.1255     16.0920   5.6656904219e+01   3.0309789567e+01     1.073392    0.8245882  48.04  0.006863741    1.745    0.427
         4 -11.8487      2.4651     17.3077   1.1141988420e+02   7.0522244007e+01    0.4831262     0.184383 -44.43  0.002730108    2.302    0.566
         5 -10.9358      1.9099      6.9702   1.0745072771e+02   7.1954345892e+01    0.5649759    0.1333131 -40.05  0.002666116    3.472    0.712
         6 -10.1206     48.6009    237.3707   1.3791862261e+02   1.8490709684e+01    0.2967351    0.1762544  80.35  0.001227108    1.607    0.378
         7  -9.1431    163.6544    250.3085   1.1580405158e+02  -1.9597557793e+00    0.1309562   0.09630352  62.24 0.0007044154    1.700    0.412
         8 -10.8590    139.9993    249.4716   1.2056793706e+02   2.0871031363e+00    0.2901575    0.2350866 -88.61  0.001713795    1.516    0.340
         9 -11.0726     92.8959    249.6832   1.3028950689e+02   9.6220475678e+00    0.3689086    0.2576986  71.83  0.002121499    1.422    0.297
        10 -11.0253     94.9983    242.4725   1.2903632662e+02   1.0755470632e+01    0.4332965    0.1814383 -68.62  0.001805844    2.890    0.654
        11 -10.9809     28.2767    249.2843   1.4268025888e+02   1.8516595151e+01    0.3847543    0.2476045  46.77  0.002491382    1.446    0.309
        12 -11.5851     33.0754    244.1136   1.4143278043e+02   1.9007323520e+01    0.4349282    0.3630103  -8.50  0.002803547    2.223    0.550
        13 -11.7124     35.8255    247.8787   1.4120488129e+02   1.7900104062e+01    0.6244208    0.2669818  37.57  0.003200948    2.296    0.564
        14 -11.5617     18.1019    233.3934   1.4344148432e+02   2.2966394305e+01    0.3821415    0.2518487  60.11  0.002416368    1.273    0.214
        15 -13.0398     10.0075    207.4001   1.4312267667e+02   2.9490109693e+01    0.8622289    0.7901201 -50.41    0.0060632    1.513    0.339
        16 -12.0082      2.6874    244.5140   1.4687761387e+02   2.2272960355e+01     1.828164    0.2780288 -76.46  0.006136663    5.688    0.824
        17 -11.1635     21.3946    245.3404   1.4364992092e+02   2.0111289626e+01    0.4502326    0.2130881  53.85  0.001440823    1.739    0.425
        18 -12.7399     11.9521    238.5491   1.4490392564e+02   2.2540655730e+01     1.724838    0.5650415  88.66  0.006822681    3.791    0.736
        19 -10.3066     16.6260    249.7874   1.4477770975e+02   1.9740190600e+01    0.2602825    0.1980977  59.57  0.001141933    1.214    0.177
        20 -10.5155      9.4024    249.9681   1.4603572871e+02   2.0484186322e+01    0.3624114    0.2218988  32.98  0.001625449    2.033    0.508
        21 -14.4392     40.7494    202.4566   1.3620475154e+02   2.7325629376e+01      8.64662      1.76345  49.52    0.0164907    5.524    0.819
        22 -10.1925    110.3496    225.8833   1.2362370503e+02   1.1770368839e+01    0.2559908    0.1717254  51.54  0.001109775    1.373    0.271
        23 -11.3991     63.2801    185.7862   1.2896431253e+02   2.8450460425e+01    0.3062849    0.2543743 -48.43 0.0004323085    1.366    0.268
        24 -10.4920     74.0209    173.8372   1.2450253565e+02   2.9881527174e+01    0.2711156    0.2330176 -56.62 0.0003927512    1.182    0.154
        25 -12.8889     60.5264    171.3089   1.2757469236e+02   3.2414032625e+01    0.5696573    0.2890085 -45.26  0.001795389    2.293    0.564
        26 -11.4879     82.2302    165.1605   1.2090568774e+02   3.0806619402e+01    0.6447951    0.6046541  75.92  0.003659825    1.064    0.060
        27  -9.5837     95.5850    149.9092   1.1438916896e+02   3.2430746740e+01    0.2840909    0.2610374  37.00 0.0007382535    1.162    0.139
        28 -11.6208     83.9249    148.8190   1.1739469546e+02   3.4636743223e+01    0.3224032    0.2502637 -46.18 0.0004521334    1.290    0.225
        29 -12.0773     67.5105    143.9780   1.2108054124e+02   3.8306652062e+01    0.7451097    0.5260593  68.47  0.003125159    1.722    0.419
        30  -8.9430    108.1621    135.7377   1.0782533818e+02   3.3642444416e+01    0.2990685    0.1953012 -26.63  0.001206639    2.116    0.527
        31 -10.1726     95.1267    132.7448   1.1081372890e+02   3.6730925273e+01    0.2660904    0.2188488 -36.81 0.0003737801    1.263    0.208
        32  -8.5266     98.8208    146.1303   1.1271027514e+02   3.2803920004e+01    0.2040499    0.1746304 -32.05 0.0002847355    1.289    0.224
        33  -8.7586    105.8436    122.8246   1.0540786794e+02   3.7147747731e+01    0.1914842     0.172304  74.32 0.0002814528    1.217    0.178
        34 -14.1587     34.1697    218.0835   1.3910454616e+02   2.4506352503e+01     3.957628    0.4540253  37.50  0.002730349    5.156    0.806
        35  -9.6998    245.0184    249.5117   9.9850993213e+01  -1.3943253643e+01    0.1489635   0.09831528  51.01 0.0008105056    2.587    0.613
        36  -9.5173    167.5454    112.6091   8.7157374747e+01   2.6194897747e+01    0.2928239     0.250624 -78.45 0.0009023279    1.250    0.200
        37  -8.7002    203.5001    111.5181   7.9740497656e+01   1.8287528546e+01     0.146569    0.1387499 -55.35 0.0001300393    1.073    0.068
        38 -10.2628    241.7966    102.7871   7.1719370222e+01   1.1869608118e+01    0.2111932    0.1524224   3.76 0.0009550506    2.813    0.645
        39 -10.2409    242.8074     93.6088   6.9672271182e+01   1.3270383343e+01    0.1798742    0.1227288  78.30 0.0007710037    1.660    0.398
        40  -9.3287    227.9584    204.4079   9.4896045483e+01  -4.4148051488e+00    0.2883872    0.1798864 -53.83  0.001405819    2.042    0.510
        41 -12.3621     28.1799    225.5545   1.4093398054e+02   2.3538316554e+01    0.3216842    0.2876615 -72.75 0.0007652417    1.370    0.270
        42 -11.2608     56.7902    193.3473   1.3151026662e+02   2.7482239589e+01    0.3669937    0.2567796 -45.00  0.001165986    1.741    0.426
        43  -9.6837    207.5747    246.5081   1.0637384352e+02  -8.2711531657e+00    0.1258055    0.1074226   9.61 9.404367e-05    1.017    0.017
        44 -10.5534    107.4893    244.4469   1.2667699368e+02   8.3780280817e+00    0.2572288    0.1294595 -60.72  0.001218492    2.192    0.544
        45 -10.5077     20.6569     27.3014   1.0665467224e+02   6.7570544650e+01    0.1988067    0.1790576 -31.37 0.0007405751    1.513    0.339
        46 -10.6716     16.9995     25.4995   1.0763230335e+02   6.8171143795e+01    0.2223523    0.1745785  37.76  0.001569506    1.896    0.473
        47  -9.6121     56.2332    241.0178   1.3674477168e+02   1.6710293973e+01    0.1763257    0.1404582  78.34 0.0004375037    1.054    0.051
