#   1 NUMBER                 Running object number                                     
#   2 MAG_AUTO               Kron-like elliptical aperture magnitude                    [mag]
#   3 X_IMAGE                Object position along x                                    [pixel]
#   4 Y_IMAGE                Object position along y                                    [pixel]
#   5 X_WORLD                Barycenter position along world x axis                     [deg]
#   6 Y_WORLD                Barycenter position along world y axis                     [deg]
#   7 A_WORLD                Profile RMS along major axis (world units)                 [deg]
#   8 B_WORLD                Profile RMS along minor axis (world units)                 [deg]
#   9 THETA_WORLD            Position angle (CCW/world-x)                               [deg]
#  10 FWHM_WORLD             FWHM assuming a gaussian core                              [deg]
#  11 ELONGATION             A_IMAGE/B_IMAGE                                           
#  12 ELLIPTICITY            1 - B_IMAGE/A_IMAGE                                       
         1 -13.4008     57.1039    128.3707   7.8976901870e+01   4.2861068909e+01     4.365152     1.665331 -78.61   0.01063333    7.189    0.861
         2 -13.2100    215.6516     48.0551   1.9639294989e+01   2.5291729993e+01      1.66893     1.292346  11.09  0.007348887    1.889    0.471
         3 -12.8277    232.8311     34.8187   1.4387617738e+01   2.3039128277e+01    0.8383154    0.7623866 -62.36  0.002995782    1.110    0.099
         4 -11.1357      2.0231      7.6200   6.8359010774e+01   7.2873113530e+01     0.783366    0.1210063 -49.23  0.003012489    4.460    0.776
         5 -12.0366      2.5090     21.8483   7.3653768657e+01   7.0478306739e+01    0.6384459    0.2538728 -57.85  0.003324219    2.433    0.589
         6 -12.3492     10.6153     12.2026   6.5618672789e+01   7.1557245728e+01    0.5298864    0.2964272 -32.37  0.003437218    1.382    0.277
         7 -11.8191     98.8377    227.4662   8.2726220152e+01   1.4638230268e+01    0.8232709    0.4187494  60.32  0.004029384    2.042    0.510
         8  -8.5491    107.1853    250.6002   8.3560914771e+01   9.2268962818e+00    0.1716118   0.09852875  34.82 0.0009530802    1.738    0.425
         9 -10.2391     71.7207    248.5723   8.9855427691e+01   1.4689561328e+01    0.2584226    0.1623715 -80.01  0.001108598    1.657    0.397
        10 -10.5897     72.2271    244.4317   8.9427706523e+01   1.5360753672e+01    0.3105859    0.1972112  53.11  0.001721392    1.229    0.186
        11 -13.3121     29.3324    247.6976   9.7114927142e+01   2.0120109538e+01     1.701132    0.9152693  36.68  0.009555317    1.998    0.500
        12 -13.0934      2.0545    179.4869   9.8080552204e+01   3.6412448168e+01     1.797746    0.4384044 -73.24   0.00126504    3.048    0.672
        13 -12.6272     12.7211    217.8025   9.8322377183e+01   2.7521321542e+01    0.7337888    0.3342761  69.39  0.002440423    1.858    0.462
        14 -15.2881      7.9061    207.7195   9.8631714730e+01   2.9997832700e+01     7.920875     1.791165 -78.65   0.01154698    3.837    0.739
        15 -12.6180     24.2980    190.7119   9.4353739049e+01   3.1966443850e+01    0.4503025    0.3869781 -53.70  0.001265342    1.555    0.357
        16 -14.9167     34.5481    182.5902   9.1524713211e+01   3.2678671615e+01     3.747073     1.678845  75.20   0.01658026    2.644    0.622
        17 -11.3141    103.8494    202.1461   7.8598712060e+01   1.8886214474e+01    0.3691263    0.2690235  19.73  0.001929757    1.903    0.475
        18  -9.8501    193.9954    196.2601   5.8332523105e+01   3.7676835031e+00    0.3386073    0.2238551 -83.27  0.001193079    4.583    0.782
        19  -9.7203     82.9835    196.4649   8.2430991516e+01   2.3357059726e+01    0.2881005    0.1790106 -68.76 0.0008364408    1.610    0.379
        20  -9.5517    101.4473    194.3070   7.8057488077e+01   2.0937340524e+01    0.2434657    0.2008667  79.03 0.0005250351    1.158    0.136
        21 -14.1944     12.2879    239.3407   9.9496682025e+01   2.3465043054e+01    0.9811819    0.5105696 -82.77  0.002586185    1.667    0.400
        22  -9.8434     99.2584    180.7175   7.6587171209e+01   2.4281793344e+01    0.2668225    0.2596059 -13.37  0.000628847    1.278    0.218
        23  -9.1836    120.6829    179.9902   7.1458121758e+01   2.0744731384e+01    0.2002321    0.1804216 -87.72 0.0005294288    1.114    0.102
        24  -9.1531    180.6728    177.9620   5.7581159287e+01   9.6158620632e+00    0.2013114     0.189525 -40.25  0.001146618    1.143    0.125
        25 -12.7502     57.7450    150.1141   8.2254835646e+01   3.7534447391e+01    0.5017022    0.4184979 -55.12  0.001001423    1.256    0.204
        26 -11.9925     79.8167    148.9115   7.6305180186e+01   3.4787266207e+01    0.9617223    0.5443397 -44.39  0.002479027    2.031    0.508
        27 -11.1721     47.9695    246.5688   9.3891201275e+01   1.8127667858e+01    0.4537052    0.2424927  41.07  0.001100877    1.719    0.418
        28 -13.5908     68.5320    144.3388   7.8527034107e+01   3.7510417421e+01     3.234073     1.583435  70.99  0.002892694    4.115    0.757
        29 -11.3723     55.1580    167.4422   8.5220506099e+01   3.3752910083e+01    0.4156695    0.3050506 -25.08  0.002218965    2.181    0.541
        30 -11.6789     60.6379    162.7813   8.3293389440e+01   3.4151603393e+01    0.4242645    0.3242453  81.67 0.0008556726    1.226    0.185
        31  -8.9091    110.6829    167.3488   7.1676922686e+01   2.5363686617e+01    0.2487751    0.1703016 -71.86 0.0006753859    1.601    0.375
        32 -11.0016    240.3378    163.5173   4.2942081124e+01   7.6501206160e-01    0.2696763    0.2106701 -57.22  0.001466597    1.711    0.415
        33 -10.5649    229.9441    166.4588   4.5417610212e+01   2.1696783624e+00    0.3256091    0.1682611 -42.63  0.001164586    1.984    0.496
        34 -10.9645     32.7472    157.1046   8.9394184070e+01   3.8687998856e+01    0.3093771    0.2112411 -72.76  0.001854005    1.240    0.194
        35 -10.6590     39.1534    162.3882   8.8444040218e+01   3.6789533215e+01    0.3317828    0.2137204  79.79   0.00153273    1.492    0.330
        36  -9.8629    134.2447    147.1425   6.1894513992e+01   2.5514459483e+01    0.8523664     0.219223 -55.63  0.001923732    6.292    0.841
        37 -15.6062      8.3390    232.2198   9.9811593265e+01   2.5180702522e+01     5.259938     2.247307  22.55    0.0222446    5.939    0.832
        38  -8.7486    174.8647    148.7850   5.2672880720e+01   1.6601904682e+01    0.2909713    0.2021855 -70.18 0.0008745252    2.071    0.517
        39 -10.8322     82.6376    207.0592   8.3756675570e+01   2.1155955000e+01    0.5036244    0.2002397 -63.89  0.002229137    2.570    0.611
        40  -8.2145    231.2909    143.2872   4.0165880947e+01   5.8586095627e+00    0.1399508     0.105833   2.43 0.0002523814    1.540    0.350
        41 -11.7083     82.6804    135.4552   7.3094796451e+01   3.7598059918e+01    0.3883482    0.2854551 -58.94 0.0005920444    1.272    0.214
        42 -10.4913     96.1305    136.4522   6.9599345216e+01   3.5174482717e+01    0.5459905    0.3859789 -12.06  0.002361027    2.336    0.572
        43 -10.1187    106.5294    129.2519   6.5216514623e+01   3.5050516463e+01    0.4389674     0.336872 -25.92  0.001502547    1.625    0.385
        44 -10.3329     42.4775    128.2718   8.3097698280e+01   4.4546430283e+01    0.3434556    0.2094828  89.82  0.001534284    1.831    0.454
        45  -9.5500     95.0476    123.1088   6.7052964571e+01   3.8549534272e+01    0.2953653    0.2357196  17.17 0.0006635585    1.531    0.347
        46  -9.2888     40.9845    121.4706   8.2448410598e+01   4.6331643896e+01     0.171327    0.1300379  33.65 0.0004210479    1.518    0.341
        47 -10.4252    242.2923    120.5681   3.3198197072e+01   7.5703887827e+00     0.253271    0.1417723  57.14  0.001141605    2.123    0.529
        48  -9.3369    140.6668    228.3150   7.4431855651e+01   7.6868501078e+00    0.1331106   0.09041217  64.68 0.0001239727    1.686    0.407
        49  -9.4044    105.0025    117.2136   6.2851646650e+01   3.8163910027e+01     0.238664    0.2092713 -52.18 0.0003215125    1.101    0.092
        50  -9.4216    205.4435    110.1821   3.7086660468e+01   1.7361936538e+01    0.3192107    0.2166069  42.39 0.0009124911    1.572    0.364
        51  -8.2487    134.6947    107.3242   5.2176516649e+01   3.4364657417e+01    0.1595053    0.1256069 -86.35 0.0007033498    1.643    0.391
        52  -9.7116    246.0013    106.7464   2.9477884893e+01   9.1392156063e+00     0.174098    0.1217868  54.85 0.0008960605    1.598    0.374
        53  -9.1733    124.6302    101.7445   5.3357339025e+01   3.7755801272e+01    0.2830722    0.2234749 -78.17 0.0005002224    1.595    0.373
        54 -10.1120     53.9462     95.6358   7.3429856436e+01   5.1026494961e+01     0.241066    0.1693163 -47.33  0.001309492    1.269    0.212
        55 -12.0069     71.6650    154.9443   7.9399264161e+01   3.4525047723e+01    0.6662577    0.5011099 -84.77 0.0005253342    1.286    0.222
        56  -9.2745     74.2255     71.5243   6.0043979230e+01   5.3575848449e+01    0.2297227     0.208491  84.98  0.000561166    1.411    0.291
        57 -12.5652    206.8197     53.5637   2.2276071961e+01   2.6645494335e+01     1.015365    0.5880901  41.81  0.003605724    2.165    0.538
        58 -11.1966     77.5488    231.3606   8.7286612154e+01   1.7042683879e+01    0.6562285    0.1470449 -60.32  0.002490547    4.434    0.774
        59 -11.6062    225.3410     40.7010   1.6619094948e+01   2.4001161446e+01    0.4807139     0.374102  45.02  0.001094157    1.556    0.357
        60 -11.4709    127.2270    230.6225   7.7430932419e+01   9.5222392147e+00     0.306633    0.2550528  62.79  0.001967929    1.133    0.118
        61 -10.6793     13.3911     60.0366   7.9781292162e+01   6.2498839698e+01    0.2637382    0.1827268 -59.70 0.0004993828    1.233    0.189
        62 -11.0111      1.8102     51.3817   8.2447080336e+01   6.4899877376e+01    0.4978066    0.1182873 -67.37  0.001731697    4.645    0.785
        63  -9.2711     63.5488     44.9828   5.4928404678e+01   6.0239528862e+01     0.204146    0.1796096  43.26 0.0004030911    1.406    0.289
        64  -8.1499     45.2959     32.6606   5.7545342149e+01   6.4812308975e+01     0.108382   0.09947622 -67.70 0.0007031136    1.656    0.396
        65 -10.9833      8.9550     26.0694   7.1898706768e+01   6.9352511693e+01    0.2911431    0.1627626  32.62  0.001775156    2.322    0.569
        66 -10.7891     72.4852    226.2372   8.7786378334e+01   1.8738828941e+01    0.2820521    0.2044938 -83.36 0.0007685584    1.348    0.258
        67 -12.5801    107.4289    228.2250   8.1098796265e+01   1.3156451875e+01     1.100168    0.3883585  43.95  0.004754927    2.312    0.567
        68 -10.3399     20.9959     30.2943   6.7598994696e+01   6.7726106380e+01    0.1673521    0.1323336 -18.44  0.001180082    1.090    0.083
        69  -8.5418     60.4243     21.2448   4.6504797534e+01   6.4403017197e+01    0.1539481     0.110764 -33.93 0.0003194542    1.451    0.311
        70  -8.8552    189.6008     14.7944   1.4287959228e+01   3.5959104192e+01    0.1866316    0.1160523 -44.32 0.0007285908    1.627    0.385
