#   1 NUMBER                 Running object number                                     
#   2 MAG_AUTO               Kron-like elliptical aperture magnitude                    [mag]
#   3 X_IMAGE                Object position along x                                    [pixel]
#   4 Y_IMAGE                Object position along y                                    [pixel]
#   5 X_WORLD                Barycenter position along world x axis                     [deg]
#   6 Y_WORLD                Barycenter position along world y axis                     [deg]
#   7 A_WORLD                Profile RMS along major axis (world units)                 [deg]
#   8 B_WORLD                Profile RMS along minor axis (world units)                 [deg]
#   9 THETA_WORLD            Position angle (CCW/world-x)                               [deg]
#  10 FWHM_WORLD             FWHM assuming a gaussian core                              [deg]
#  11 ELONGATION             A_IMAGE/B_IMAGE                                           
#  12 ELLIPTICITY            1 - B_IMAGE/A_IMAGE                                       
         1 -12.2020    194.7204     35.6215   5.1790878080e+01   3.1819191871e+01     1.050515    0.9692342  -7.92  0.004819445    1.196    0.164
         2 -12.4837    204.8228     24.1527   4.7191112092e+01   3.0653024526e+01    0.9230918    0.7843291   7.66  0.002093247    1.432    0.302
         3  -9.5054     40.7530      8.7364   8.1053590184e+01   6.8938610750e+01    0.1837205   0.08465818 -41.79 0.0008966755    2.416    0.586
         4  -9.6733     50.1950      7.2047   7.6198446587e+01   6.7807511785e+01      0.17557    0.1460919 -59.24  0.001074693    2.163    0.538
         5  -9.9398    228.4829      1.7503   3.8992529862e+01   2.7262367035e+01    0.5357342    0.1750947  75.89  0.002071364    2.998    0.666
         6  -8.8709     53.2437    238.4215   1.2410300791e+02   1.9642586190e+01    0.1884139    0.1212904  82.60 0.0003311053    1.346    0.257
         7 -14.1797     94.6738    241.5843   1.1725365230e+02   1.3573428431e+01     6.090286     1.951527  34.97   0.02351324    4.166    0.760
         8  -7.7541     76.2785    233.3105   1.1975180300e+02   1.7558726302e+01   0.09114867   0.09062535 -24.54 0.0003396394    1.561    0.359
         9  -8.1532     95.8580    201.1534   1.1273960701e+02   2.0738359151e+01    0.1534336    0.1470487  49.76 0.0003825007    1.280    0.219
        10  -9.9892    164.5079    218.7111   1.0154689562e+02   6.1585518544e+00     0.386731    0.2561814  76.08  0.001598933    2.659    0.624
        11  -9.1300    193.2339    191.5665   9.1412144056e+01   5.3532404723e+00    0.3806031    0.2718158  -9.24  0.001513774    1.691    0.409
        12  -9.0727     53.7689    231.1999   1.2350583082e+02   2.0852448719e+01    0.2691357    0.1383702 -88.79  0.001182567    1.946    0.486
        13  -8.2283     99.6880    180.8901   1.0924862073e+02   2.4287388118e+01    0.1843698    0.1588792  84.92 0.0005974308    1.076    0.070
        14 -10.4400     73.0921    177.9164   1.1466464923e+02   2.8911319208e+01    0.4001056    0.2572762 -44.93  0.002115309    2.059    0.514
        15 -10.3699     77.0863    173.0945   1.1316615955e+02   2.9403302240e+01    0.3216203    0.2426292 -49.66 0.0008706336    1.557    0.358
        16 -13.3509     49.7164    139.4771   1.1503900024e+02   4.0632310446e+01     3.402253     1.240221 -57.34   0.01461132    2.350    0.574
        17 -11.6655     84.7539    163.3462   1.1004176921e+02   3.0449777049e+01     1.650342      0.51445  54.24 0.0005222546    5.334    0.813
        18 -12.1122     73.3475    158.9146   1.1206341734e+02   3.3111041173e+01    0.6374625    0.4606861 -60.49  0.001131522    1.340    0.254
        19 -11.7276     64.8650    141.8830   1.1157412491e+02   3.8208439186e+01    0.5762239    0.4419939 -44.70  0.001193305    1.487    0.327
        20 -11.7766     69.9162    145.0111   1.1079701351e+02   3.6799292234e+01    0.6247687    0.4709733 -73.56  0.001913171    1.192    0.161
        21  -8.1172    164.3367    170.2251   9.3235612100e+01   1.4692183223e+01    0.1950376    0.1333068 -55.51 0.0005151053    1.689    0.408
        22  -8.6710    193.7547    166.6850   8.6399370576e+01   9.4593072797e+00    0.2543417    0.2347044 -26.60  0.000853201    1.130    0.115
        23 -10.6607     91.4736    156.4036   1.0735990887e+02   3.0985188924e+01    0.5168059    0.3930102 -26.46  0.002663772    1.916    0.478
        24  -9.2182    134.2406    147.2249   9.5342755924e+01   2.5412028701e+01    0.7322751    0.1267359 -51.02  0.001632462    6.667    0.850
        25  -8.4449     86.5639    145.5420   1.0671934532e+02   3.4252016249e+01    0.2304162    0.1185438  50.16 0.0001530121    2.049    0.512
        26  -9.4324    104.5409    140.8398   1.0131984781e+02   3.2387551597e+01    0.4951188    0.3095168 -26.88  0.001998006    2.688    0.628
        27 -10.6274     92.1607    141.2266   1.0452937104e+02   3.4373541003e+01     0.273169    0.2534232 -52.54  0.000423703    1.157    0.136
        28  -9.9139    107.3347    172.5389   1.0628478682e+02   2.4815442269e+01    0.4183357    0.1231057  41.51  0.001453134    3.186    0.686
        29  -8.5374    105.9462    130.8283   9.8894824015e+01   3.4452585681e+01    0.2650746    0.2123343 -57.09 0.0009513263    1.193    0.162
        30  -9.2963    100.2553    127.3260   9.9636178558e+01   3.6266055384e+01    0.2783746    0.2199236 -23.88 0.0007221843    1.612    0.380
        31  -8.7506    135.3815    123.7653   8.9740974805e+01   3.0334008735e+01    0.2260885    0.1425374 -37.54 0.0009553956    1.687    0.407
        32  -9.3211    113.5325    130.7477   9.6914167782e+01   3.3087986492e+01    0.3091617    0.2456149  -8.82  0.001489875    1.741    0.426
        33  -8.2025    108.9464    119.7095   9.5601547081e+01   3.6475491158e+01    0.1981659    0.1892921  60.23 0.0003364426    1.085    0.078
        34  -8.4641    167.9929    112.9605   7.9228176219e+01   2.5378214491e+01    0.2605717    0.1999056 -80.94  0.001138626    1.795    0.443
        35  -8.2850    135.0000    111.9966   8.6858610359e+01   3.2992736411e+01    0.2648818   0.08714983 -44.84 0.0008064174    2.970    0.663
        36  -9.3146    119.7740    111.1705   9.0603580798e+01   3.6331367014e+01    0.3040274    0.2133851 -29.60   0.00135856    1.659    0.397
        37  -8.1224    205.7864    110.3599   7.0769149620e+01   1.7053183414e+01    0.2166325    0.1382103  40.83 0.0005781933    1.662    0.398
        38 -13.5228     54.5722    201.1157   1.2093416950e+02   2.6479150014e+01     2.057379     1.898919 -67.07   0.01519894    1.443    0.307
        39  -8.2832     88.0507    100.5266   9.6783681881e+01   4.4558278557e+01    0.2164846    0.1432639  43.39  0.001032515    1.648    0.393
        40  -9.4855     41.8058     91.8945   1.0905229084e+02   5.2683939579e+01    0.2013551    0.1510512 -44.98  0.000518275    1.240    0.194
        41 -10.2819     32.8530     87.0302   1.1092752999e+02   5.4650259128e+01    0.6025105    0.1394159 -64.72  0.001927271    4.109    0.757
        42  -9.1668     51.1338    225.9474   1.2357997614e+02   2.2126966369e+01     0.230146     0.139396  70.93 0.0007131349    1.367    0.269
        43  -9.1787    155.4575     58.0824   6.5792610848e+01   3.8672723551e+01    0.3384849    0.2542079 -87.37  0.001406429    1.766    0.434
        44  -8.3643     72.1085    230.1397   1.2021966650e+02   1.8682827856e+01    0.1820555    0.1021427  64.09 0.0008048282    1.563    0.360
        45 -17.0038      8.6290    166.8325   1.2726868270e+02   3.8465031202e+01     17.19256      1.79304 -75.99   0.04420618    8.584    0.884
        46  -9.9275     49.1324    233.0366   1.2442527115e+02   2.1089650017e+01    0.3956112      0.18402  82.29  0.002018888    2.291    0.563
        47  -7.8301    158.1980     52.2093   6.3297226405e+01   3.8912036645e+01    0.2039123     0.175992 -67.02 0.0003782413    1.296    0.229
        48 -11.5695    184.9507     43.4011   5.5594781243e+01   3.3301080661e+01    0.9697604    0.5654412  -7.81  0.003331133    2.508    0.601
        49  -9.1592     59.4940    228.7314   1.2232895986e+02   2.0580946663e+01    0.2115712    0.1415852  77.85 0.0005295056    1.267    0.211
        50  -9.0926    183.6315    216.2000   9.7518265389e+01   3.2366761408e+00    0.1822431    0.1469427  41.54  0.001136227    1.129    0.114
        51  -8.5246    108.0035    203.7019   1.1059994060e+02   1.8338781997e+01    0.1782906    0.1474671  58.38 0.0006528342    1.041    0.040
