#   1 NUMBER                 Running object number                                     
#   2 MAG_AUTO               Kron-like elliptical aperture magnitude                    [mag]
#   3 X_IMAGE                Object position along x                                    [pixel]
#   4 Y_IMAGE                Object position along y                                    [pixel]
#   5 X_WORLD                Barycenter position along world x axis                     [deg]
#   6 Y_WORLD                Barycenter position along world y axis                     [deg]
#   7 A_WORLD                Profile RMS along major axis (world units)                 [deg]
#   8 B_WORLD                Profile RMS along minor axis (world units)                 [deg]
#   9 THETA_WORLD            Position angle (CCW/world-x)                               [deg]
#  10 FWHM_WORLD             FWHM assuming a gaussian core                              [deg]
#  11 ELONGATION             A_IMAGE/B_IMAGE                                           
#  12 ELLIPTICITY            1 - B_IMAGE/A_IMAGE                                       
         1  -7.8804      9.0000      1.9650   1.0655530776e+02   7.1755068724e+01    0.1567885   0.04770816 -38.24 0.0007934792    2.881    0.653
         2  -8.3440    191.8313    248.7292   1.1567613149e+02  -5.4889237447e+00    0.2097067    0.1627387 -12.61 0.0008291882    1.478    0.324
         3  -9.6752    210.2288    247.2502   1.1195480789e+02  -8.2572449271e+00    0.5021592    0.3348953  -7.13  0.002831053    1.822    0.451
         4 -10.7694    215.3512    234.3128   1.0882877338e+02  -7.1873969976e+00     1.088839    0.6586434 -20.51  0.005688125    1.971    0.493
         5 -11.0644    236.4720    227.1761   1.0364716820e+02  -9.4898264278e+00      1.18839    0.6670516  -1.65  0.005382471    2.734    0.634
         6 -10.6466    225.1001    243.6468   1.0859386573e+02  -1.0075750857e+01     1.088352     0.436439 -27.39  0.004521044    3.438    0.709
         7 -11.7139    244.1222    198.5636   9.6909994318e+01  -6.3387247212e+00     2.542317    0.8313552 -27.25  0.006434008    7.296    0.863
         8 -10.5807    232.2010    245.2778   1.0756919793e+02  -1.1373431253e+01    0.9594571    0.4963013  -5.60  0.003977612    3.635    0.725
         9 -10.3174    240.4238    218.9965   1.0144394270e+02  -8.9014062419e+00    0.6756463    0.3461308 -18.72  0.003039848    2.583    0.613
        10 -10.6534    248.6614    203.2725   9.7013557538e+01  -7.8074078119e+00     1.016127    0.3997828 -25.51  0.003659236    3.738    0.732
        11 -12.4436    245.7507    242.0148   1.0458264867e+02  -1.2918654696e+01     1.497326     1.046971 -12.77            0    1.348    0.258
        12 -10.7415    247.3950    225.9886   1.0146812489e+02  -1.0975693817e+01    0.7889675    0.4497745 -12.42  0.004036986    2.108    0.526
        13 -10.9702    248.4203    214.6496   9.9207021210e+01  -9.4914327368e+00    0.8312579    0.4060436 -25.85  0.003966617    2.196    0.545
        14  -8.9724    202.4242    250.0151   1.1386618020e+02  -7.4055696291e+00    0.3570451     0.234426   3.55  0.001941484    1.945    0.486
        15  -8.4911    205.9742    245.5016   1.1247270477e+02  -7.3227811577e+00    0.2873776    0.1701895  18.86  0.001474213    1.931    0.482
        16  -9.5355    167.0224    250.0845   1.2065859331e+02  -1.5369862132e+00    0.3709405    0.1415451  36.23  0.001545253    2.464    0.594
        17  -8.0820    138.8055    250.5934   1.2619902283e+02   3.1695535038e+00    0.1904602   0.09964932  49.76 0.0009505139    1.662    0.398
        18  -8.3480     90.1244    250.1530   1.3542176883e+02   1.1149747116e+01    0.2343061    0.1341267  49.27 0.0009217939    1.438    0.304
        19  -8.9345     74.8646    250.4651   1.3825700679e+02   1.3366022058e+01    0.3042564    0.1011114  41.09  0.001341738    2.658    0.624
        20  -9.2328     63.2697    248.7679   1.4019487089e+02   1.5334126456e+01    0.3868703    0.1568668  42.05  0.001938378    2.196    0.545
        21  -8.7008     48.9293    249.8504   1.4280866009e+02   1.7054143568e+01    0.2518311    0.1602372  33.57  0.001526459    2.043    0.510
        22 -10.9684     15.0968    240.6517   1.4790683091e+02   2.2867797424e+01     0.600269    0.3977907  66.40    0.0043265    1.155    0.134
        23 -11.1000     28.0301    232.3838   1.4515353165e+02   2.3058470671e+01     1.034777     0.422263  63.16  0.005256604    2.289    0.563
        24  -9.7074     22.1842    244.6517   1.4698136221e+02   2.1308996336e+01    0.4160793    0.2425246  49.70  0.002778067    1.521    0.342
        25  -9.7423      3.9353    249.0460   1.5016702171e+02   2.2445240552e+01    0.3286419    0.1534058  49.68  0.001569862    1.769    0.435
        26 -10.4247      3.4023    242.7742   1.4992292181e+02   2.3684939442e+01    0.4746324    0.1945242  72.35  0.002634811    2.115    0.527
        27  -9.2709      9.2019    239.5654   1.4881098299e+02   2.3705252703e+01    0.3599921    0.1711982 -75.52  0.002231258    1.797    0.444
        28  -9.1733      6.0749    235.7554   1.4910454514e+02   2.4769199238e+01     0.214767    0.1369315  55.93 0.0008639459    1.365    0.267
        29  -8.6663     10.1578    244.2208   1.4892142672e+02   2.2708623572e+01    0.1563129    0.1138802  76.91 0.0005953793    1.082    0.075
        30  -9.8363     34.5595    248.1993   1.4514550394e+02   1.9176097788e+01    0.4802074    0.2494357  55.14  0.002968708    1.535    0.349
        31  -9.9739     27.3138    248.9057   1.4640365844e+02   1.9903845788e+01    0.5755705    0.2890887  31.02  0.003125205    2.945    0.660
        32  -9.1935     29.3663    243.6920   1.4571444501e+02   2.0665642876e+01    0.2964845    0.1438798  67.75   0.00101259    1.768    0.434
        33 -10.6482     25.8696    239.1484   1.4600074587e+02   2.1960255757e+01    0.9502117    0.1963256  49.66  0.004006677    3.512    0.715
        34  -9.3206    151.5695    249.2936   1.2354721295e+02   1.2236682856e+00    0.2267441    0.1436607  27.20   0.00112226    1.788    0.441
        35  -8.9735    197.4974    245.9360   1.1415376784e+02  -6.0043356414e+00    0.3865949    0.2316187   1.59   0.00170121    2.820    0.645
        36  -8.2206    201.1857    240.6971   1.1260099721e+02  -5.8234871872e+00    0.2481093    0.1622051   5.64 0.0008990884    1.989    0.497
        37  -8.2254    187.0544    246.1786   1.1619645070e+02  -4.3056395229e+00    0.2050626    0.1860686 -16.25   0.00125471    1.225    0.184
        38  -7.7009    100.4938    247.0160   1.3313656379e+02   1.0122252273e+01    0.1681184    0.1190001 -68.83 0.0006224482    1.536    0.349
        39  -8.2242     52.9866    250.1597   1.4212745956e+02   1.6462408897e+01    0.2064652    0.1053791  67.40   0.00114947    1.768    0.434
        40  -8.8711    108.3337    247.7509   1.3172303673e+02   8.7309462994e+00    0.4780084    0.1816476  61.33    0.0015382    4.828    0.793
        41  -8.8536     83.7618    244.4774   1.3603167451e+02   1.3193605312e+01     0.311472    0.1515938  53.77  0.001252605    1.753    0.430
        42  -8.9262     44.8064    244.6024   1.4312185396e+02   1.8596737923e+01    0.3635633    0.1546884  43.25  0.001948625    2.088    0.521
        43  -9.3944    177.3002    243.4109   1.1766195222e+02  -2.2154351702e+00    0.3146124    0.1997268  25.38  0.001658403    1.674    0.403
        44  -8.6182    192.2365    242.9085   1.1468091518e+02  -4.6698054964e+00    0.2544937      0.15116  18.55  0.001236388    2.117    0.528
        45  -8.8128     71.4571    239.0877   1.3780665663e+02   1.6063025620e+01    0.3007165    0.1442897  48.01  0.001373373    1.760    0.432
        46  -8.5361    143.4714    242.4414   1.2418841417e+02   3.7965752300e+00    0.1314278    0.1108637  48.58 0.0001291481    1.008    0.008
        47  -8.3607     54.4622    240.2389   1.4104820250e+02   1.8194231046e+01    0.2799827    0.1530565 -77.03  0.001612216    1.733    0.423
        48 -12.1617    243.2560    179.9121   9.3355529546e+01  -3.1202225297e+00     1.576364    0.9857139 -10.80  0.007380197    2.124    0.529
        49  -9.5060    206.3535    235.5752   1.1075762366e+02  -5.8993022748e+00     0.281381     0.224816  -6.61  0.001557755    1.297    0.229
        50  -8.2228    105.3160    241.6718   1.3159980845e+02   1.0360251557e+01    0.1352392   0.08440468  69.01 0.0007045231    1.676    0.403
        51  -8.9015     38.0242    240.7863   1.4401802005e+02   2.0192892305e+01    0.2595852    0.1441157  60.52 0.0008508399    1.460    0.315
        52  -8.2997    169.9653    240.0510   1.1858799447e+02  -3.9738963162e-01    0.2069692    0.1515965  11.55  0.001128348    1.712    0.416
        53  -8.8191    183.5391    237.0567   1.1543841827e+02  -2.2583708117e+00    0.2647166    0.1645799 -23.45  0.001310171    2.204    0.546
        54  -7.7599     96.5069    244.4840   1.3361754216e+02   1.1229776773e+01    0.1284236    0.1021062  64.30 2.683756e-05    1.020    0.019
        55  -8.4446    195.1284    236.5210   1.1308333740e+02  -4.1599480921e+00    0.2478347    0.1862418   4.37  0.001054736    1.500    0.333
        56  -8.9679    123.9930    238.0000   1.2746143912e+02   7.9534889221e+00    0.3745123   0.06546292  40.94  0.001055697    4.974    0.799
        57  -9.2224     44.7916    236.9228   1.4251862967e+02   2.0114356985e+01    0.3299636    0.1277972  47.87  0.001675897    2.143    0.533
        58  -8.3828     80.6390    236.0547   1.3575463207e+02   1.5316453892e+01    0.2327457    0.1420562  56.05  0.001313378    1.390    0.281
        59  -9.0864     64.4800    233.7526   1.3860695038e+02   1.8124855674e+01    0.4330319    0.1944928 -84.86   0.00193519    2.774    0.639
        60  -8.5607     94.2961    236.0062   1.3309647840e+02   1.3223534908e+01    0.2659819    0.1584742  52.75  0.001446512    1.432    0.302
        61  -7.6244    102.6682    234.3057   1.3124462955e+02   1.2219118874e+01    0.1377852   0.08578331  68.01 0.0004105569    1.661    0.398
        62  -9.3257     19.9990    233.5176   1.4662797939e+02   2.3736746355e+01     0.192748    0.1417964  67.68  0.001005105    1.132    0.117
        63  -8.9368     15.9658    230.9967   1.4715444056e+02   2.4678874167e+01    0.2193004      0.11361  77.43  0.000955427    1.619    0.382
        64 -10.1356     11.0794    248.4026   1.4900819798e+02   2.1816323796e+01    0.4481741    0.2554432  44.07  0.003052558    1.746    0.427
        65  -7.6931    153.3189    233.3423   1.2089939721e+02   3.6992512093e+00    0.1314814    0.1029405   5.56 0.0007049486    1.718    0.418
        66  -8.4657    202.1265    231.5183   1.1088422195e+02  -4.5572159569e+00     0.276763    0.1850271   2.50  0.001415567    1.946    0.486
        67  -8.9410    194.4494    231.0929   1.1231014309e+02  -3.1737193266e+00    0.3721307    0.2141435   6.52  0.001445669    3.491    0.714
        68  -8.7169    207.5309    230.5086   1.0966642848e+02  -5.3113010302e+00    0.3053605    0.2068771   4.32 0.0008441808    1.802    0.445
        69  -8.9782    211.9986    225.9641   1.0801385490e+02  -5.3490608207e+00    0.2941861    0.1964166 -20.09  0.001345959    1.689    0.408
        70  -8.2830    187.8136    230.2715   1.1348112343e+02  -1.8838810641e+00    0.2448596    0.1661254  -8.01  0.001218293    2.077    0.519
        71  -8.6330     47.8604    230.0721   1.4138549969e+02   2.1109998584e+01    0.2917714    0.1448466  79.86  0.001108568    2.142    0.533
        72  -8.0892     11.5184    231.6521   1.4795346027e+02   2.5018043825e+01    0.1629594   0.09126445  43.16 0.0008389108    1.798    0.444
        73  -8.5046     58.7694    230.1192   1.3934361806e+02   1.9655427371e+01     0.252353    0.1594595  31.20  0.001336961    2.080    0.519
        74  -8.2207      1.4865    227.0451   1.4936601710e+02   2.6945167916e+01     0.224153    0.1094919  72.43 0.0004819248    1.673    0.402
        75  -9.8631      3.8440    222.1925   1.4867971271e+02   2.7692164142e+01     0.246157    0.1550162 -76.96  0.001700335    1.377    0.274
        76  -8.9942      5.6484    229.7943   1.4882927024e+02   2.5987752550e+01     0.235857    0.1141685  54.61  0.001236681    1.715    0.417
        77  -7.8721      5.2381    226.1652   1.4868220855e+02   2.6753886454e+01    0.2166571    0.1395251 -81.97 0.0007560708    1.284    0.221
        78  -8.0923     39.7833    229.1949   1.4280001943e+02   2.2306385448e+01    0.1474541    0.1293533 -85.22 0.0008108533    1.333    0.250
        79  -9.3965     14.7812    211.5936   1.4602901553e+02   2.8796811608e+01     0.565259    0.1124209  45.67  0.002361968    3.722    0.731
        80  -9.8626     31.4789    222.5856   1.4379260254e+02   2.4666213989e+01    0.6566407    0.1735124  55.53  0.002517104    3.907    0.744
        81  -9.5655     19.4305    215.4512   1.4545876350e+02   2.7500195091e+01    0.4257469    0.1020362  42.33  0.001880114    3.335    0.700
        82 -10.0038     27.3085    225.0615   1.4474337837e+02   2.4632988103e+01    0.3171592    0.1496674  55.04  0.001022659    1.814    0.449
        83 -11.6334     19.7321    222.1944   1.4589514155e+02   2.6063736553e+01    0.5959969    0.5511222   5.65  0.004490266    1.844    0.458
        84  -8.6065     10.5234    226.0701   1.4777305928e+02   2.6240584682e+01    0.2154074    0.1093296  59.99  0.001322472    1.632    0.387
        85  -8.2656    199.1639    225.3005   1.1039118264e+02  -3.0441505087e+00    0.2142508    0.1502741  22.27 0.0006885917    1.439    0.305
        86  -9.4993    216.7369    221.5385   1.0631663688e+02  -5.4470443560e+00    0.3952179    0.2282811 -35.76  0.001752177    1.801    0.445
        87  -8.7694    205.9617    223.4914   1.0874388876e+02  -3.9255202632e+00    0.2503676    0.1759022 -17.93  0.001355685    1.618    0.382
        88  -8.6590     54.8205    223.3148   1.3945519711e+02   2.1601958261e+01    0.3014548    0.1575689  83.47  0.001510112    2.060    0.515
        89  -8.2746     72.2030    222.0019   1.3590800071e+02   1.9454755001e+01    0.2122288    0.1624905  32.20  0.001146395    1.648    0.393
        90  -7.9257     44.6190    220.8343   1.4118298342e+02   2.3444870302e+01    0.1767102   0.09528004 -87.64 0.0006046079    1.745    0.427
        91  -9.2669     19.4525    248.8163   1.4768654332e+02   2.0820802952e+01    0.2814753    0.1587532  66.87  0.001365762    1.348    0.258
        92  -8.0743    202.1750    219.8216   1.0883245811e+02  -2.6624514432e+00    0.1857506    0.1470925  -5.07  0.000996566    1.360    0.265
        93  -7.7849    185.6825    220.6758   1.1227239217e+02   1.3283588490e-01    0.1381277    0.1019831   5.73 0.0007044254    1.671    0.401
        94  -7.9449    220.7991    218.4023   1.0497381018e+02  -5.6321323369e+00    0.1926801     0.120199  38.07 0.0005620443    1.514    0.339
        95  -8.8208    221.4195    213.8919   1.0402487775e+02  -5.0153432616e+00    0.3742195     0.225598  -7.72  0.001581927    2.411    0.585
        96  -8.5841    210.9849    216.7974   1.0656412591e+02  -3.6989436133e+00    0.3106931    0.1787519 -27.87  0.001290492    1.976    0.494
        97  -9.5535     33.1463    216.3420   1.4297321108e+02   2.5785006941e+01    0.2416483    0.1460243 -85.16  0.001178968    1.393    0.282
        98  -7.5814    193.6751    216.6540   1.0995471570e+02  -6.0927384173e-01    0.1416955    0.1018336   3.73 0.0003187381    1.743    0.426
        99  -9.2709     12.7286    215.9258   1.4671090976e+02   2.8097290602e+01    0.3296961     0.144601  39.83  0.001855069    2.287    0.563
       100  -8.3872     58.1533    212.4968   1.3771645584e+02   2.3469148336e+01    0.2623877    0.1431409  88.75  0.001306815    1.941    0.485
       101  -7.8397    184.6529    226.6964   1.1351015012e+02  -7.2319751151e-01    0.1374354   0.09914512  10.00 0.0007040523    1.692    0.409
       102  -8.4388      1.8859    212.2040   1.4839971253e+02   2.9926546581e+01    0.2105494    0.1091021  76.47 0.0008515442    1.602    0.376
       103  -7.8194     69.3410    212.6689   1.3545404122e+02   2.1871430734e+01    0.1418942   0.08313998  70.64 0.0007051459    1.746    0.427
       104  -7.4667    208.4652    211.5261   1.0608543357e+02  -2.3763310026e+00    0.1365276    0.1201157  11.16 0.0004523079    1.049    0.046
       105 -10.0226     21.1362    210.2065   1.4474174410e+02   2.8429539766e+01    0.3624729    0.1908163  81.12  0.002045207    1.709    0.415
       106  -9.2116     14.1907    204.4045   1.4560328618e+02   3.0386829091e+01    0.4702539   0.08315303  47.44  0.001809185    4.291    0.767
       107  -9.9750    216.5121    208.3698   1.0393033864e+02  -3.2620312438e+00    0.4063266    0.2852816  -9.63  0.002125332    1.655    0.396
       108  -9.4249     31.8979    228.9132   1.4420814443e+02   2.3312225906e+01    0.2788622    0.1426506  55.79  0.001417479    1.652    0.395
       109  -9.9461    231.8212    191.9911   9.7854644092e+01  -3.1790950475e+00      0.38134    0.2555813  -7.86  0.001240341    1.829    0.453
       110  -9.6882    227.5410    200.5101   1.0032579832e+02  -3.8675227881e+00    0.2212751    0.1907041  -5.32 0.0008437342    1.070    0.066
       111  -9.2878    230.8982    197.8979   9.9189912510e+01  -4.0114698106e+00    0.3117752    0.2066184 -25.94 0.0009727395    1.511    0.338
       112  -8.6520    225.3827    206.8030   1.0194143487e+02  -4.5370732036e+00    0.3068455     0.124625 -36.21  0.001251797    2.515    0.602
       113  -9.7393    228.8579    205.3531   1.0101214525e+02  -4.8918006152e+00     0.319351    0.3128605 -21.66  0.001816628    1.251    0.201
       114  -8.3184     35.1625    207.8708   1.4184866026e+02   2.7371236973e+01    0.1959604    0.1305619  76.48 0.0006797471    1.267    0.211
       115  -9.3903     28.3789    208.0977   1.4318939978e+02   2.8094622927e+01    0.2477638    0.1681337  40.52  0.001575282    1.645    0.392
       116  -8.3228    206.0559    206.9550   1.0570497193e+02  -1.1598640167e+00    0.2218492    0.1586629   1.07 0.0006550126    1.713    0.416
       117  -7.7084     51.4607    206.5046   1.3845118826e+02   2.5668186641e+01    0.1287035     0.102021  81.51  0.000809313    1.014    0.014
       118  -8.1756      6.6587    205.1207   1.4706282047e+02   3.0964732323e+01    0.1987649    0.1247638  59.25  0.001146429    1.420    0.296
       119  -7.6029      1.3412    205.2930   1.4804864490e+02   3.1420420947e+01    0.1016158   0.07573443 -58.97 0.0007028238    1.654    0.395
       120  -9.6999    223.2900    200.1839   1.0106512713e+02  -3.0720780600e+00    0.2775118    0.2261137  24.03  0.001614067    1.171    0.146
       121  -7.6945    197.3989    202.8065   1.0665113795e+02   1.1670422914e+00    0.1920545    0.1284306 -28.20 0.0008498265    1.668    0.401
       122  -7.6862     61.3339    202.6965   1.3598715584e+02   2.5200133311e+01    0.1387454   0.08363823  70.52 0.0007037254    1.661    0.398
       123  -7.5988    210.2778    198.6588   1.0328421798e+02  -4.7229844924e-01    0.1299286    0.1118814 -82.38 0.0007004588    1.622    0.384
       124  -8.2542    215.8369    196.9307   1.0186109896e+02  -1.1818066272e+00    0.2184574    0.1753466  -0.33 0.0009412589    1.304    0.233
       125  -8.2819     12.9906    196.2648   1.4519953788e+02   3.2265736525e+01    0.1638626    0.1289621  77.41  0.001160675    1.113    0.101
       126  -7.7747    219.5035    193.4897   1.0047536995e+02  -1.2441967217e+00    0.1386587    0.1249273   0.80 0.0008104382    1.028    0.027
       127 -10.0231    224.6746    189.8792   9.8770569029e+01  -1.5479386118e+00    0.3702977    0.2486344 -25.23  0.001885154    1.541    0.351
       128  -8.0093    215.4724    189.0214   1.0036294507e+02   2.8863232404e-01    0.2120956    0.1322778 -34.63  0.001017375    1.604    0.376
       129  -9.3737    229.9205    185.9010   9.6987127969e+01  -1.7981465557e+00    0.2213572    0.1742561  -2.43 0.0008214197    1.339    0.253
       130  -8.2244     27.5047    184.5134   1.4120057517e+02   3.3422481643e+01    0.1252113   0.09756283  89.52 1.444195e-05    1.009    0.009
       131  -8.8264     11.2253    190.5812   1.4508854296e+02   3.3678022393e+01    0.1311047    0.1165394  24.07 0.0009262924    1.638    0.390
       132  -7.7360    220.6492    186.6843   9.8893636728e+01  -2.5120538933e-01    0.1463428    0.1043524   3.24 0.0007046961    1.732    0.423
       133 -10.0680    218.1383    247.0373   1.1044418042e+02  -9.4712255983e+00    0.7962734    0.3538905 -25.87  0.003488624    3.155    0.683
       134  -9.9457    101.0111    176.0004   1.2320556989e+02   2.5250097271e+01    0.2052803    0.1865321  85.65  0.001154178    1.001    0.001
       135  -7.6039    219.4490    175.5091   9.6828252609e+01   1.9996338887e+00    0.1424859    0.1305481  -9.25 0.0002006748    1.039    0.037
       136  -9.4509    232.8624    173.6804   9.3941060524e+01  -1.8369861050e-01    0.2182695     0.166218  15.98 0.0006858294    1.466    0.318
       137  -8.1377    227.6619    174.6681   9.5103873620e+01   6.0211050177e-01    0.1469837    0.1056926   0.23 0.0007051933    1.741    0.426
       138  -7.9451     28.3270    171.3143   1.3963886125e+02   3.6365017234e+01    0.1212843   0.08519069 -48.30 0.0007043444    1.670    0.401
       139  -9.2255    237.1854    168.1048   9.1998636126e+01   1.2878130868e-02    0.2173658    0.1757337 -11.30 0.0006550621    1.277    0.217
       140 -12.6676    236.3544    202.1631   9.9012101183e+01  -5.6348630066e+00     4.996731     1.515862 -28.85   0.01169648    8.416    0.881
       141  -9.3110    241.2784    162.3732   9.0073955618e+01   2.7819162295e-01    0.2685146    0.2172629 -38.14  0.001000431    1.148    0.129
       142 -10.2359    249.8655    150.6831   8.6151984870e+01   7.6836405763e-01    0.5439669    0.1849249 -40.70  0.002034037    2.610    0.617
       143  -9.3289    238.0064    157.4421   8.9600142297e+01   1.7687749689e+00    0.2750631    0.1858503 -23.56  0.001353053    1.589    0.371
       144  -7.7538    111.7164    155.6705   1.1677981069e+02   2.8161977283e+01    0.1479271     0.119344 -23.25 0.0004745828    1.609    0.378
       145  -9.1613    242.3165    152.9489   8.7896748458e+01   1.7655354283e+00    0.2054971    0.1689234 -33.47  0.001152463    1.103    0.094
       146  -8.1333    233.0036    151.9863   8.9307751317e+01   3.7220562550e+00    0.2268992    0.1700464  -5.05 0.0009333658    1.674    0.402
       147  -8.8136    238.6582    149.7749   8.7842408036e+01   3.0323397131e+00    0.2220518    0.1654238 -26.04 0.0009069717    1.346    0.257
       148  -9.5827    243.8143    147.1789   8.6408630145e+01   2.5175538287e+00    0.2116791    0.1833102 -52.00  0.001217297    1.176    0.150
       149  -8.4742    234.6840    144.2978   8.7338793093e+01   4.8084991867e+00    0.2892199     0.166005 -20.89  0.001159326    2.476    0.596
       150  -9.5395    223.7991    143.6385   8.9123136346e+01   7.1256213109e+00    0.2821029    0.2543361  36.55 0.0005265912    1.184    0.155
       151  -9.9420    246.2766    156.6761   8.8015831021e+01   3.6964055125e-01    0.3473384    0.2581862  -8.99  0.001258396    1.579    0.367
       152  -9.6687    243.7528    138.2929   8.4501503042e+01   4.1278248629e+00    0.2885076    0.1823678 -29.93  0.001005307    1.607    0.378
       153  -8.4986    248.4659    134.1846   8.2853120361e+01   3.9549751433e+00    0.2750044    0.1255976 -36.02    0.0011401    2.060    0.515
       154  -8.3602     10.3313    135.6575   1.3976122921e+02   4.6202116830e+01    0.1248696   0.07845595  75.17 -8.314931e-07    1.751    0.429
       155  -8.1727    242.1705    131.8585   8.3357672563e+01   5.6004073895e+00     0.193703    0.1609269 -18.56 0.0006730594    1.309    0.236
       156  -8.6028      4.3139    130.6713   1.4067997374e+02   4.7761248234e+01    0.1196112   0.07712259  76.65 0.0004562949    1.673    0.402
       157  -8.7374    248.0162    127.9799   8.1582208324e+01   5.1478813177e+00    0.2211737    0.1714282  -1.10  0.001145965    1.731    0.422
       158  -9.8000      3.7682    117.2663   1.3909725090e+02   5.0813785477e+01    0.2410772    0.1480602  73.07  0.001389142    1.989    0.497
       159  -9.7107      8.9889    103.7083   1.3558552046e+02   5.3495268034e+01    0.1651226    0.1389118 -58.07  0.001103483    1.084    0.077
       160  -9.7281      1.8832     95.3105   1.3635404209e+02   5.5744400091e+01    0.2097054    0.1328381 -71.61  0.001252218    1.360    0.265
       161  -9.7644      3.8125     72.9876   1.3156760268e+02   6.0298281534e+01    0.3300942    0.1880373  71.98   0.00153088    3.963    0.748
       162  -8.2358    237.1786     69.3728   7.0195199976e+01   1.7497980392e+01    0.1862354    0.1548923 -88.01 0.0005147156    1.143    0.125
       163  -8.0785      6.5051     13.0283   1.1255295818e+02   7.0527263510e+01    0.1568657   0.05999531 -27.61 0.0008092357    2.513    0.602
