#   1 NUMBER                 Running object number                                     
#   2 MAG_AUTO               Kron-like elliptical aperture magnitude                    [mag]
#   3 X_IMAGE                Object position along x                                    [pixel]
#   4 Y_IMAGE                Object position along y                                    [pixel]
#   5 X_WORLD                Barycenter position along world x axis                     [deg]
#   6 Y_WORLD                Barycenter position along world y axis                     [deg]
#   7 A_WORLD                Profile RMS along major axis (world units)                 [deg]
#   8 B_WORLD                Profile RMS along minor axis (world units)                 [deg]
#   9 THETA_WORLD            Position angle (CCW/world-x)                               [deg]
#  10 FWHM_WORLD             FWHM assuming a gaussian core                              [deg]
#  11 ELONGATION             A_IMAGE/B_IMAGE                                           
#  12 ELLIPTICITY            1 - B_IMAGE/A_IMAGE                                       
         1 -12.1198      2.0017     56.9278   1.4460714465e+02   6.3470024600e+01    0.9762006    0.1138176 -74.78  0.002543103    6.453    0.845
         2 -13.5368    188.6769     27.3268   7.4436981167e+01   3.4616442650e+01      1.28964      1.20206  59.04  0.005892386    1.125    0.111
         3 -13.9126    201.1362      9.2319   6.7390932154e+01   3.3344075035e+01     1.764311     1.113315  40.30  0.008743784    1.764    0.433
         4 -13.2277      2.4145     12.5588   1.3406807752e+02   7.3863790999e+01     2.141076    0.4844142 -68.21   0.00678217    4.868    0.795
         5 -13.5087      7.8005      5.7546   1.2728742602e+02   7.5026679790e+01     1.871444    0.7772811 -62.14  0.008650002    2.354    0.575
         6 -10.6972     46.4493    248.5356   1.4787732960e+02   2.0394131090e+01     0.271109    0.1113062  52.31  0.001057274    1.849    0.459
         7  -8.7387    156.3007    250.3592   1.2916618133e+02   7.7358653013e+00    0.1026069   0.06691723   9.66 0.0007036762    1.715    0.417
         8 -10.7667    138.9877    250.2211   1.3211723489e+02   9.8799580661e+00    0.2051014     0.120541  39.37  0.001455572    1.300    0.231
         9 -10.8911     66.6632    250.1964   1.4456153521e+02   1.8141714507e+01    0.2904139    0.1830285  36.04  0.001512918    1.284    0.221
        10 -10.2314     66.6630    243.1236   1.4415177929e+02   1.9146610693e+01    0.2083874     0.142126  74.24 0.0007344125    1.529    0.346
        11 -10.7594     28.9638    249.3209   1.5078993131e+02   2.1898744848e+01    0.2118824    0.1647464 -70.74   0.00112693    1.677    0.404
        12 -11.8707     35.0920    244.9827   1.4961982800e+02   2.1976236897e+01    0.4673989    0.4028274  -6.51   0.00414937    1.855    0.461
        13 -14.5564      7.6358    185.9214   1.5234076667e+02   3.4212658677e+01     2.847747     0.734706 -79.39   0.00308382    3.479    0.713
        14 -14.4697     57.4001    212.6829   1.4393250484e+02   2.4878636020e+01       7.9259     1.465305  44.96   0.03338704    3.602    0.722
        15 -10.2902     94.9596    241.2985   1.3905157167e+02   1.6295192811e+01    0.1962014    0.1468856 -55.47 0.0009140771    1.747    0.428
        16 -10.3768     83.6447    244.7198   1.4129537372e+02   1.7091983735e+01    0.3232248    0.1335119  57.83  0.001765532    2.854    0.650
        17 -13.7875     10.3221    207.3023   1.5257440220e+02   3.0146299717e+01     1.035295     0.707827 -68.41  0.004551665    1.704    0.413
        18 -12.6856     44.6307    234.2571   1.4751714845e+02   2.2689479670e+01    0.2732431    0.2598848  62.45  0.000798039    1.350    0.260
        19 -10.2749    183.8345    238.2755   1.2307593082e+02   5.6121679190e+00     0.214942    0.1144774  22.30  0.001346208    1.635    0.388
        20  -9.6981     35.2441    229.7808   1.4895784040e+02   2.4273449158e+01    0.2280981    0.1015106  51.93  0.001199836    1.689    0.408
        21 -10.6992     20.6481    227.9397   1.5143532875e+02   2.5866032224e+01    0.1376087   0.09781566  62.93  0.001016001    1.092    0.084
        22  -9.5417    177.3222    227.0765   1.2277720338e+02   7.7362594583e+00    0.1709959     0.154581  61.06  0.001059381    1.712    0.416
        23 -10.8119    173.3011    221.5293   1.2276389736e+02   8.9475457303e+00    0.3062376    0.2457167  48.45  0.001531308    1.566    0.361
        24 -13.9377     50.6772    225.2114   1.4596161971e+02   2.3511823616e+01    0.9070094    0.6574054  62.14  0.005674672    1.161    0.139
        25 -10.7364    197.4888    243.7979   1.2147824965e+02   3.3081523694e+00    0.2704606    0.1818242 -56.63  0.001665911    3.616    0.723
        26  -9.8354     27.6976    221.6438   1.4995037265e+02   2.6264594511e+01    0.1846632    0.1205804  55.56 0.0005978451    1.148    0.129
        27 -15.2698      3.9609    236.2658   1.5448528755e+02   2.5937060764e+01     11.48515    0.8423722 -79.09   0.04075508    9.485    0.895
        28  -8.7961    152.5090    212.9281   1.2547035645e+02   1.2935437432e+01    0.1369642    0.1142954 -37.15 0.0003262598    1.458    0.314
        29 -12.0490     28.5579    204.1215   1.4900614521e+02   2.9163864953e+01    0.4277204    0.1639202  38.06 0.0006861225    2.017    0.504
        30 -11.4421     68.7013    199.4461   1.4069730246e+02   2.5939030344e+01    0.2748508    0.2011728 -44.26  0.001223958    1.810    0.447
        31 -10.2929    193.1257    195.3459   1.1529873493e+02   9.4352439740e+00    0.6111936    0.3342852 -58.39  0.001921595    8.779    0.886
        32 -11.6245     73.9391    191.4591   1.3890284302e+02   2.6774538767e+01     0.225518    0.2085521 -44.61 0.0006146907    1.340    0.254
        33  -8.8174    106.1328    181.8814   1.3088757223e+02   2.4405604618e+01    0.1761334    0.1414821  55.18   0.00034707    1.219    0.179
        34 -10.9603     82.7691    178.7376   1.3568345502e+02   2.8080209348e+01    0.2092742    0.1959934 -79.76 0.0004511558    1.159    0.137
        35 -13.1992     70.3035    176.5465   1.3824870380e+02   3.0020572176e+01    0.4385492    0.2574318 -41.68   0.00207089    2.347    0.574
        36  -8.4946    172.5527    174.5055   1.1570820082e+02   1.5522497697e+01    0.1273544    0.1095313  18.93 0.0001238867    1.056    0.053
        37 -11.9545     89.8544    169.3130   1.3294945165e+02   2.8989199871e+01    0.7014478      0.51329  40.91  0.004291307    1.240    0.194
        38  -8.8845    250.6906    171.6867   1.0131330880e+02   3.8156733412e+00    0.1249398   0.07198439   6.79 0.0002429816    1.628    0.386
        39 -10.2697    194.5703    158.3030   1.0836521539e+02   1.4289818044e+01    0.3213748    0.2551486 -66.90   0.00140367    2.328    0.570
        40 -12.6979     66.9979    143.9723   1.3528632715e+02   3.7186802077e+01     1.085435    0.5965117  77.12  0.004873787    2.589    0.614
        41 -11.6907     58.0626    132.4509   1.3614652538e+02   4.0815543908e+01    0.7858781    0.3313152 -86.10  0.002653356    4.325    0.769
        42 -11.5592     54.2215    120.9453   1.3562391978e+02   4.3908980839e+01    0.6029846    0.2698756 -82.35  0.002342337    3.043    0.671
        43  -9.8444    101.0423    152.7264   1.2793397046e+02   3.0749044140e+01    0.3234021    0.2612692 -22.85  0.001049905    1.509    0.337
        44  -9.2807    103.9304    148.2788   1.2650544028e+02   3.1230058549e+01    0.2112628    0.1586944 -17.44  0.001120411    1.761    0.432
        45 -11.9935     90.0673    152.1522   1.3055437573e+02   3.2433892073e+01    0.2568935    0.2343938 -16.90 0.0005501428    1.272    0.214
        46 -10.2731     45.0188    147.9842   1.4141050953e+02   3.8725922423e+01    0.1892752    0.1383328 -40.77 0.0006949046    1.709    0.415
        47  -8.5804    191.9885    144.0059   1.0591758164e+02   1.6869774746e+01    0.1633854    0.1385944  -1.41 0.0003949756    1.042    0.041
        48 -12.0943     30.3672    139.7156   1.4440322507e+02   4.1919519371e+01    0.3363749    0.2610652  57.90  0.002229139    1.200    0.167
        49  -9.6630    111.2443    137.6352   1.2279035638e+02   3.2290732680e+01    0.3463614    0.2272985 -17.64  0.001533568    2.351    0.575
        50  -8.8584     88.6375    137.9608   1.2871039266e+02   3.5660206978e+01    0.1758941    0.1588931 -75.45  0.000429431    1.111    0.100
        51 -10.6568    174.9332    138.3506   1.0812579205e+02   2.0876710560e+01    0.4695114    0.3382922  79.94  0.002014872    3.065    0.674
        52 -10.7441     99.1147    135.2038   1.2547671747e+02   3.4710872474e+01     0.316165    0.2313888 -46.67 0.0006009259    1.408    0.290
        53  -9.7263    169.3810    133.2123   1.0816230472e+02   2.2779638943e+01    0.2401468    0.2163722  54.71 0.0008761035    1.352    0.261
        54  -8.9661    108.1755    124.1920   1.2094090484e+02   3.5637124911e+01    0.1916441    0.1787185  -9.78 0.0003201638    1.121    0.108
        55  -9.6776    151.4284    117.4860   1.0851061870e+02   2.9067331425e+01    0.5312244    0.3383062  79.48   0.00166394    4.880    0.795
        56 -10.5167    168.1026    113.2881   1.0371515098e+02   2.6491881291e+01    0.3499965    0.2927353 -65.59  0.001143736    1.632    0.387
        57  -9.0341    203.4711    111.5234   9.6247877360e+01   1.9639381899e+01    0.1450195    0.1227759  -1.04 3.901678e-05    1.039    0.037
        58  -9.5927    126.4725     99.7589   1.1023082266e+02   3.7487738153e+01    0.2585104    0.2218578  75.61 0.0006837973    1.473    0.321
        59  -9.7839     30.0773     91.0688   1.3884506164e+02   5.3431184973e+01     0.266569    0.1687368  39.55 0.0008237885    1.730    0.422
        60  -9.5058    155.4305     75.5155   9.5983435275e+01   3.5887528815e+01    0.1541846    0.1426216 -10.73 0.0001821515    1.012    0.012
        61  -9.9258     21.3601     67.9391   1.3825287555e+02   5.9760214511e+01    0.2006524     0.189444  24.95 0.0004523209    1.269    0.212
        62 -10.2113    161.8924    249.1086   1.2808095092e+02   7.1841927705e+00    0.1584838    0.1154316  39.13 0.0006411889    1.281    0.219
        63  -9.1055     20.0796     57.4775   1.3673172645e+02   6.2400936194e+01    0.1675213    0.1297998  15.85 0.0005966446    1.547    0.354
        64 -10.1390     13.7961     55.5934   1.3915295737e+02   6.3244593912e+01    0.1612594    0.1150892  35.50  0.000740678    1.679    0.404
        65  -9.1405     76.5052    244.9228   1.4255316422e+02   1.7843064854e+01    0.1227458   0.09393242 -87.66 0.0007761043    1.545    0.353
        66 -10.3104     98.1705    249.2379   1.3909475489e+02   1.4843054306e+01    0.2082842    0.1013921  46.43  0.001057756    1.628    0.386
        67  -9.9187     81.9458    249.0172   1.4187977089e+02   1.6681800253e+01     0.158589     0.110678  47.44 0.0006651637    1.092    0.084
