#   1 NUMBER                 Running object number                                     
#   2 MAG_AUTO               Kron-like elliptical aperture magnitude                    [mag]
#   3 X_IMAGE                Object position along x                                    [pixel]
#   4 Y_IMAGE                Object position along y                                    [pixel]
#   5 X_WORLD                Barycenter position along world x axis                     [deg]
#   6 Y_WORLD                Barycenter position along world y axis                     [deg]
#   7 A_WORLD                Profile RMS along major axis (world units)                 [deg]
#   8 B_WORLD                Profile RMS along minor axis (world units)                 [deg]
#   9 THETA_WORLD            Position angle (CCW/world-x)                               [deg]
#  10 FWHM_WORLD             FWHM assuming a gaussian core                              [deg]
#  11 ELONGATION             A_IMAGE/B_IMAGE                                           
#  12 ELLIPTICITY            1 - B_IMAGE/A_IMAGE                                       
         1 -13.8129    173.4044     42.0809   7.1071318180e+01   3.6075794622e+01    0.8378583    0.6963524  -0.78   0.00148159    1.446    0.309
         2 -14.0394    184.3472     31.6777   6.6350323135e+01   3.4568827613e+01     1.006788    0.9110004 -41.68  0.003118336    1.107    0.097
         3 -14.2406    191.1208     21.1768   6.2467569467e+01   3.4060460095e+01    0.8283561    0.6909946 -23.59  0.001319441    1.296    0.229
         4 -10.7612      2.4052      2.7530   1.2831392338e+02   7.8908267853e+01    0.1841268   0.08534411 -51.96 0.0009593219    1.675    0.403
         5 -13.6715    100.5472    248.5488   1.3056906059e+02   1.1927007393e+01     1.412336    0.3970918  36.23  0.003727902    2.364    0.577
         6 -15.0120    117.3679    229.1002   1.2520312238e+02   1.2740036959e+01     5.651382    0.5801641  35.37   0.01586282    5.548    0.820
         7 -19.3013     21.0083    134.5844   1.4132935539e+02   4.5013978090e+01     19.81383     2.426347 -80.02   0.04211037    9.261    0.892
         8 -10.8150     79.3600    211.1838   1.3195557564e+02   2.1076111098e+01     0.219496    0.1441223  29.76  0.001262638    1.364    0.267
         9 -10.4247     52.6201    208.7588   1.3799743746e+02   2.4845612982e+01    0.1874711    0.1598021  20.52  0.001259258    1.375    0.273
        10  -9.8778    165.8611    208.6097   1.1220304693e+02   8.8783520304e+00    0.1901688   0.09831002  41.05 0.0009520092    1.778    0.438
        11  -9.8733     92.9582    206.7820   1.2833902450e+02   2.0076923562e+01    0.1788079    0.1445625  42.58 0.0006699518    1.013    0.013
        12 -11.3045    108.3455    204.5099   1.2446048764e+02   1.8297975473e+01    0.4241276    0.2478367  10.06   0.00187458    2.670    0.625
        13 -12.0454     46.1385    203.8642   1.3919734525e+02   2.6560611271e+01    0.2566084    0.1589234  40.78 0.0004141054    1.279    0.218
        14 -13.4482     72.7027    196.6169   1.3221368880e+02   2.4840106758e+01    0.6615393    0.5369416  51.60  0.004158476    1.042    0.040
        15 -12.9004    195.9370    196.0503   1.0413469494e+02   6.1661276733e+00    0.9646118    0.7577926  74.96  0.005049961    2.999    0.667
        16 -10.4228    181.0461    194.7513   1.0687128489e+02   8.6402212703e+00    0.2259071    0.1755002 -76.67  0.001175737    2.723    0.633
        17 -11.6174     64.3774    192.7017   1.3392377250e+02   2.6724166321e+01    0.4028114    0.2409672  32.95  0.001535684    1.461    0.315
        18 -15.6059     77.6198    154.1989   1.2597976729e+02   3.3653238740e+01     4.244122      1.92136  66.60   0.00901666    4.289    0.767
        19  -9.9548    157.6127    192.8233   1.1151739224e+02   1.2681361192e+01    0.1569898    0.1309785 -57.92 0.0003941244    1.619    0.382
        20 -11.7120    208.1642    185.9248   1.0005204144e+02   5.7387435792e+00    0.2954412    0.2008775   9.67  0.001274969    1.349    0.259
        21 -11.8596    212.5399    182.1717   9.8569187401e+01   5.5965928068e+00    0.3378331    0.1918369  14.37  0.001114522    1.908    0.476
        22 -11.0748     80.1595    186.0835   1.2926492881e+02   2.6045954513e+01    0.1934672    0.1793079  15.90 0.0005909355    1.245    0.197
        23 -10.6657     90.5337    183.9630   1.2635190641e+02   2.5015660673e+01     0.262667    0.1535171  48.55 0.0007155995    1.545    0.353
        24 -11.5963     92.6417    177.7625   1.2501875434e+02   2.6029266645e+01    0.4403521     0.213303  55.47 0.0008131784    2.395    0.582
        25 -12.0391     83.0018    180.5480   1.2789597897e+02   2.6838801209e+01    0.3822873    0.2539868 -38.03  0.001909577    2.050    0.512
        26 -12.1072     86.1271    175.2744   1.2642320590e+02   2.7542232535e+01    0.3126351    0.2617951 -31.12  0.001681968    1.506    0.336
        27 -13.0011      7.3227    226.3546   1.4861838112e+02   2.6009337370e+01     0.342658    0.2320902   0.70  0.002199402    2.403    0.584
        28 -10.9100    198.1993    177.2969   1.0036960410e+02   8.5408730982e+00    0.2604475    0.2142752 -43.02  0.001226887    1.569    0.363
        29 -11.5456    119.1142    173.8391   1.1758509625e+02   2.2631081694e+01    0.2296636    0.1833736  52.75  0.001246488    1.255    0.203
        30  -9.5191     71.6428    174.2881   1.3019935132e+02   2.9806778973e+01    0.1499299   0.08682541  55.98 0.0007024671    1.680    0.405
        31 -13.8816     63.2021    210.0835   1.3562944814e+02   2.3332124922e+01    0.8443116    0.4548221  44.94  0.002151463    1.441    0.306
        32 -10.9010    137.7257    170.9803   1.1246349594e+02   2.0005474664e+01    0.1716932    0.1282109 -46.12 0.0008868235    1.508    0.337
        33 -11.1334    185.0014    168.2966   1.0130308725e+02   1.2152313651e+01    0.2695895    0.2458098  87.80  0.000969868    1.670    0.401
        34  -9.9867    110.1993    211.2438   1.2481870270e+02   1.6796250524e+01    0.1836445    0.1286841  51.88  0.001063935    1.384    0.277
        35 -12.2655     97.9181    158.1503   1.2074592944e+02   2.9572174244e+01    0.6148388    0.3697148 -36.61  0.002591947    2.244    0.554
        36 -12.0447     79.5162    219.7396   1.3266348005e+02   1.9454761702e+01    0.4044198    0.2312106  48.62 0.0008514474    1.442    0.307
        37 -12.1077     63.4899    155.5159   1.3031363693e+02   3.5294544896e+01    0.3040282    0.2167048  59.59 0.0008108387    1.332    0.249
        38 -11.5174    133.9782    144.7595   1.0843094364e+02   2.6068957460e+01    0.8198418    0.2359211 -54.82  0.002129655    5.347    0.813
        39 -12.8093     47.3719    145.1647   1.3399158165e+02   3.9819055239e+01    0.3648123    0.2743033 -53.05  0.001976317    1.479    0.324
        40 -12.3939     97.3180    142.4795   1.1824893727e+02   3.3339331913e+01    0.2834182     0.253814  27.98 0.0005154731    1.133    0.117
        41 -11.7622    108.7927    141.7192   1.1474673937e+02   3.1493928235e+01    0.5685014    0.2867395 -36.64   0.00205322    2.806    0.644
        42 -10.2929     41.5274    220.6207   1.4119699456e+02   2.3778943178e+01    0.2287646    0.0858165  45.30  0.001165519    1.879    0.468
        43 -11.3015    115.6419    131.7053   1.1071389333e+02   3.2531985570e+01    0.3141069    0.2468306  -6.61  0.000734038    1.648    0.393
        44 -11.7232    104.5272    129.2217   1.1347776177e+02   3.5226552525e+01    0.5402718    0.3793131  79.69  0.001430512    1.984    0.496
        45 -15.2144    125.9745    247.5895   1.2531442191e+02   8.7677864997e+00     3.330554    0.8514115  28.98    0.0111898    4.080    0.755
        46 -11.2784    160.7814    126.8267   9.7742944040e+01   2.4293308223e+01    0.3469809    0.2050423 -48.18  0.001319938    1.857    0.461
        47 -10.2068    110.8888    120.1638   1.0953058794e+02   3.6163007949e+01    0.2305333    0.2050219  61.63 0.0003416662    1.154    0.133
        48 -11.0185    168.1460    113.1492   9.2691389083e+01   2.5336409258e+01     0.344068    0.2859427 -81.76  0.001354703    1.599    0.375
        49  -9.9445    205.5287    110.0143   8.4561024672e+01   1.7871439921e+01    0.2159439    0.1303132 -32.58 0.0007529109    1.542    0.351
        50 -12.3810     47.3941    216.6326   1.3967986073e+02   2.3899211087e+01    0.3978574    0.1894638  36.26 0.0009544936    1.605    0.377
        51 -11.6033     87.8675    241.2033   1.3259402883e+02   1.4686037721e+01    0.2020881    0.1473231  48.84 0.0003036472    1.164    0.141
        52 -13.0141    106.8554    235.8203   1.2812563525e+02   1.3090463792e+01    0.4452565    0.3287138 -31.46  0.002099772    1.898    0.473
        53 -11.8301    102.0828    234.1202   1.2898221502e+02   1.4000459012e+01    0.2883655     0.202303  65.15 0.0004792492    1.662    0.398
