#   1 NUMBER                 Running object number                                     
#   2 MAG_AUTO               Kron-like elliptical aperture magnitude                    [mag]
#   3 X_IMAGE                Object position along x                                    [pixel]
#   4 Y_IMAGE                Object position along y                                    [pixel]
#   5 X_WORLD                Barycenter position along world x axis                     [deg]
#   6 Y_WORLD                Barycenter position along world y axis                     [deg]
#   7 A_WORLD                Profile RMS along major axis (world units)                 [deg]
#   8 B_WORLD                Profile RMS along minor axis (world units)                 [deg]
#   9 THETA_WORLD            Position angle (CCW/world-x)                               [deg]
#  10 FWHM_WORLD             FWHM assuming a gaussian core                              [deg]
#  11 ELONGATION             A_IMAGE/B_IMAGE                                           
#  12 ELLIPTICITY            1 - B_IMAGE/A_IMAGE                                       
         1  -8.8444     12.7708     20.9260   8.7000227988e+01   7.0815537729e+01    0.3295511    0.1918897  50.49  0.001375358    5.255    0.810
         2  -9.0511     74.0885     19.3129   5.8296813254e+01   6.2100623617e+01    0.3278962    0.1818798 -38.69  0.001018026    2.185    0.542
         3  -8.3238     38.9055     17.7397   7.1744894619e+01   6.8275881094e+01    0.2760368    0.1451086 -33.09  0.001503547    1.880    0.468
         4  -8.6833     96.9884     14.5372   4.9639404073e+01   5.7809673141e+01    0.2674848    0.1529949 -29.68 0.0009487393    1.952    0.488
         5  -7.6039    119.5201     11.0006   4.3356636616e+01   5.2997492630e+01    0.1745531   0.09520149 -51.32  0.000808754    2.445    0.591
         6  -8.6444     55.5520     10.0263   6.0795502163e+01   6.6529362714e+01    0.1979472    0.1638946  47.51 0.0007079156    1.438    0.305
         7  -8.2415     90.8977      8.9544   4.8997825601e+01   5.9645570554e+01    0.1808329     0.149795 -69.90 0.0005842063    1.662    0.398
         8  -7.9987     27.8452      9.6186   7.3235604832e+01   7.0814676153e+01    0.1467533   0.09821759  33.74 0.0002734218    1.584    0.369
         9  -7.6793    101.5676      7.8461   4.5979527339e+01   5.7387644051e+01    0.1557957    0.1184123 -36.34 0.0005059169    1.563    0.360
        10  -7.5912    166.0164      5.9718   3.4831282737e+01   4.2390847353e+01    0.1473911    0.1258749  84.30  0.000327787    1.016    0.016
        11  -8.5780     33.5204      5.1146   6.7998959241e+01   7.0576837487e+01    0.2624071    0.1720349 -46.16  0.001414832    2.624    0.619
        12  -8.3845     79.1505      3.8115   5.0042899382e+01   6.2562142527e+01    0.1968725    0.1553874 -29.78 0.0007296033    1.520    0.342
        13  -7.5189    115.4943      2.4665   4.1175507497e+01   5.4634436837e+01    0.1271019    0.1075359  60.99  0.000181254    1.040    0.039
        14  -8.2385     62.2629      1.3892   5.4207785781e+01   6.6110078205e+01    0.1556336    0.1049529  55.31 0.0004153806    1.545    0.353
        15  -7.6453     39.3326      1.6738   6.3426407776e+01   7.0067229417e+01    0.0970543   0.09686576  79.93 0.0007051284    1.712    0.416
        16  -8.7867    139.4983    244.4841   9.6488832848e+01   3.6102904521e+00    0.2017487    0.1300794 -69.45  0.001022234    2.343    0.573
        17 -10.0676    248.7224    243.8796   7.4782708284e+01  -1.1343840939e+01    0.7770621    0.1914404 -39.45  0.002878689    4.166    0.760
        18  -9.0245    247.9140    234.5682   7.3349519047e+01  -1.0015736642e+01    0.2541571    0.1405869 -27.32   0.00091401    1.560    0.359
        19  -9.7966    246.2868    228.7871   7.2635803736e+01  -9.0257444045e+00    0.5184538    0.1975041 -29.68  0.002284815    2.472    0.595
        20  -7.9317    191.8071    249.8020   8.6428066870e+01  -4.9122755142e+00     0.160445    0.1328897  33.16 0.0006085068    1.348    0.258
        21  -8.6022     93.8205    249.4527   1.0679906857e+02   9.3930547197e+00    0.2751998    0.1622807  83.48  0.001293792    2.505    0.601
        22  -7.5716     86.2597    250.6236   1.0849129543e+02   1.0219155498e+01    0.1269372   0.08162122  65.76 0.0004060355    1.662    0.398
        23  -9.5888     78.1009    243.1638   1.0946072245e+02   1.2772984463e+01    0.3702202    0.2184741  80.39  0.001899601    2.141    0.533
        24  -8.6801     67.4571    244.7776   1.1182878275e+02   1.3861861478e+01    0.2064996    0.1170487 -76.27  0.001121118    1.942    0.485
        25  -8.5692     50.1631    244.4823   1.1532496234e+02   1.6083067478e+01    0.3134279    0.1277695  89.66  0.001277961    3.619    0.724
        26  -9.1214      9.7951    244.4536   1.2308410969e+02   2.0481718189e+01    0.2854244    0.1094642  77.78   0.00137821    2.700    0.630
        27  -8.4511    201.9921    243.4398   8.3404620926e+01  -5.3711242017e+00    0.2050161    0.1683021 -43.02 0.0006859537    1.608    0.378
        28  -8.5965    169.0095    243.3370   9.0082651753e+01  -6.2238078069e-01    0.1958316    0.1743626  52.40 0.0005417794    1.432    0.302
        29  -8.6633     34.6200    244.1826   1.1837704824e+02   1.7945605474e+01    0.1533821    0.0969871 -67.97 0.0006322414    1.679    0.404
        30  -9.3852    159.9420    240.1737   9.1512624675e+01   1.2680655321e+00    0.3309832    0.2581384 -87.80   0.00173463    2.195    0.544
        31  -8.0223    153.6233    242.2837   9.3166263527e+01   1.8612734279e+00    0.1916858    0.1456943  60.18 0.0008969348    1.745    0.427
        32  -8.2322     88.1910    242.1843   1.0722412649e+02   1.1580164805e+01    0.1738605    0.1308067  72.28 0.0006833655    1.389    0.280
        33  -8.0372    214.2855    241.6467   8.0722850453e+01  -6.7710166977e+00    0.1032126    0.1000396  42.45 0.0007021138    1.665    0.399
        34  -8.0078    240.4909    240.4829   7.5668522212e+01  -9.9288278080e+00    0.1536586     0.102633 -36.27 4.505153e-05    1.662    0.398
        35  -9.0855    232.6555    247.6194   7.8270590661e+01  -9.9387575366e+00    0.2826217    0.1751454 -33.48  0.001479576    1.643    0.391
        36  -8.7582    194.2952    239.8247   8.4349231508e+01  -3.7436439782e+00    0.2052911    0.1532087  32.11 0.0005865997    1.316    0.240
        37  -9.3482    135.9435    239.2603   9.6535716414e+01   5.0899507696e+00    0.3069166    0.1685819  49.62  0.001464217    1.968    0.492
        38  -9.1349    230.9008    237.1761   7.6850102280e+01  -8.2900431210e+00    0.2783616    0.2457554 -66.07  0.001300111    2.251    0.556
        39  -8.4294    129.0229    238.9405   9.7996580622e+01   6.2046980967e+00    0.2070422     0.145763  59.60 0.0007343036    1.683    0.406
        40  -8.2275    122.5599    239.4905   9.9477289422e+01   7.0819388001e+00    0.2448733    0.1179683  24.57  0.001034502    2.414    0.586
        41  -9.1584    183.1004    239.8836   8.6631297727e+01  -2.1373257181e+00    0.3403736    0.3089384  76.95  0.001566721    1.723    0.420
        42  -8.4520    208.7732    238.2027   8.1217273449e+01  -5.5196852558e+00    0.1720759    0.1558941 -35.48 0.0006268889    1.504    0.335
        43 -10.0523    214.7342    233.1222   7.9205879828e+01  -5.5724133224e+00    0.4559189    0.3603048 -80.64   0.00231213    3.333    0.700
        44  -8.9989    203.1722    234.9119   8.1768103097e+01  -4.2402255163e+00    0.2688792    0.1924631 -53.13  0.001025278    2.078    0.519
        45  -9.4854    194.2062    234.0090   8.3412315361e+01  -2.8152402237e+00    0.2957766    0.2615403 -34.99  0.001251019    1.384    0.278
        46  -9.7841    175.6427    233.2559   8.7117873520e+01   6.6117950596e-02    0.4863996    0.2758059 -58.49  0.002214282    2.855    0.650
        47  -8.3891    170.3598    235.6377   8.8609924923e+01   4.6311732051e-01    0.2067736    0.1233199 -61.97 0.0006780767    2.873    0.652
        48  -9.6705    108.9400    234.3301   1.0180592002e+02   1.0127757120e+01    0.4671591    0.2608938  53.32  0.001230777    1.895    0.472
        49  -8.3053     99.8402    234.5092   1.0383662890e+02   1.1438655606e+01    0.2466478     0.166569  84.19   0.00122251    1.929    0.482
        50  -8.9879     78.5356    234.2477   1.0847093104e+02   1.4512233718e+01    0.2819731    0.1731487  76.40 0.0008818033    1.953    0.488
        51  -9.6202      8.1145    234.7503   1.2291487358e+02   2.2588990788e+01    0.2003471    0.1203444 -56.68 0.0009739271    2.079    0.519
        52  -8.5248    122.7496    234.1705   9.8730573767e+01   8.0671935125e+00    0.2021049    0.1593355  73.57 0.0007825671    1.560    0.359
        53  -8.7810     92.9211    232.7693   1.0515874603e+02   1.2794972463e+01    0.3891581    0.2304782  70.82  0.001846882    2.246    0.555
        54  -9.6579     68.6654    232.6663   1.1044773122e+02   1.6164911498e+01    0.5279538     0.204304  58.68  0.001982571    3.448    0.710
        55  -8.2319    144.8287    233.1969   9.3729785751e+01   4.8327924613e+00    0.2815413    0.1463484  53.75  0.001174923    2.682    0.627
        56  -8.6039    140.0424    230.2136   9.4341818169e+01   6.1383950848e+00    0.2520716    0.1645372  49.17 0.0009390125    1.611    0.379
        57  -8.8201    132.5856    232.8308   9.6370489179e+01   6.8066231929e+00    0.2359069    0.1744089 -76.95  0.001143438    1.868    0.465
        58  -9.5542    186.4153    230.5782   8.4434092734e+01  -1.1082539987e+00    0.3285045    0.2545229 -70.47  0.001123856    2.290    0.563
        59  -8.1528    157.8303    232.0214   9.0721283901e+01   3.0207781088e+00    0.1934226    0.1566445  84.99 0.0006792442    1.930    0.482
        60  -9.3107    236.2881    229.7660   7.4592198024e+01  -7.9211847932e+00    0.4817415    0.1791656 -32.04  0.001605409    2.547    0.607
        61  -8.6716      1.8248    231.0987   1.2392084966e+02   2.3917155427e+01    0.1859437    0.1120423  67.50 0.0007246873    1.316    0.240
        62  -9.9005    149.5375    226.0406   9.1604588068e+01   5.4241367463e+00    0.5809326    0.3738403 -84.09  0.002326563    3.643    0.726
        63  -8.7254    229.5857    228.7736   7.5648032569e+01  -6.9136270017e+00    0.2222539    0.1044167 -33.52 0.0009659843    1.978    0.495
        64  -8.9138    162.2374    227.9442   8.9123675226e+01   3.0644677428e+00    0.2798915    0.1827183  54.56   0.00136876    2.056    0.514
        65  -8.9600    127.8238    227.2641   9.6639167452e+01   8.6272904431e+00    0.3155848    0.2180598  64.36  0.001083514    1.877    0.467
        66  -8.3281    120.0495    227.9379   9.8483839925e+01   9.7063537053e+00    0.2166221    0.1514969  64.26 0.0009113737    1.747    0.428
        67  -9.1714      8.1487    227.7505   1.2254516695e+02   2.4031876410e+01    0.2299687    0.1032671  81.56  0.001197025    2.091    0.522
        68  -8.1008    223.4714    227.0302   7.6486427252e+01  -5.8419232849e+00    0.1803536    0.1108735 -33.75 0.0005151001    1.561    0.359
        69  -8.8387    206.1376    225.9288   7.9646868855e+01  -3.2518264347e+00    0.2391393    0.1751402 -47.12 0.0008537148    1.743    0.426
        70  -9.1425    180.3021    224.0514   8.4613152526e+01   9.3220876937e-01    0.3000784    0.2082943 -37.24 0.0006736837    1.502    0.334
        71  -8.0275     49.5909    226.7868   1.1400929280e+02   1.9816251510e+01    0.2678024    0.1238139  75.94  0.001133756    2.878    0.653
        72  -8.0208    200.1267    226.1956   8.0893140241e+01  -2.4212219205e+00    0.1601271    0.1504299  12.69 0.0004896955    1.313    0.238
        73  -8.9781     94.2008    224.4485   1.0388250071e+02   1.4335738661e+01    0.4209206    0.2126911  59.08  0.001780691    2.492    0.599
        74  -9.1705    104.6634    223.5979   1.0139106097e+02   1.2954013105e+01    0.3456406    0.2341134  75.52  0.001661035    1.925    0.481
        75  -8.3751     72.5743    225.2063   1.0883683602e+02   1.7222290738e+01    0.1671178    0.1160223 -54.93 0.0006288784    1.618    0.382
        76  -7.9776    113.9840    223.9713   9.9313108962e+01   1.1448849321e+01    0.2145679    0.1525925  65.24 0.0006806123    1.663    0.399
        77  -8.0750     59.7977    223.9651   1.1153935728e+02   1.9163248683e+01    0.2168189    0.1231049  72.35  0.001034619    1.972    0.493
        78  -7.7467     38.2752    224.6503   1.1623909590e+02   2.1594488887e+01    0.1313175   0.07559301  66.75  0.000588104    1.635    0.388
        79  -9.2958    192.5246    221.5025   8.1625112599e+01  -5.0759361793e-01    0.2900557    0.2578469  82.83  0.001105809    1.839    0.456
        80  -8.5682    172.9504    222.9426   8.5990397061e+01   2.2765312838e+00    0.2187269    0.1843905 -47.91 0.0006138452    1.416    0.294
        81  -8.1477    162.9840    222.4999   8.8075719021e+01   3.9382697724e+00     0.216985     0.188953  86.42  0.001036746    1.650    0.394
        82  -8.5639    159.0003    220.5051   8.8622089425e+01   4.9485687223e+00    0.2747101     0.215872  62.08 0.0007850883    1.708    0.414
        83  -8.0804    140.5373    222.7529   9.3104100775e+01   7.4930974692e+00    0.1697664    0.1367787 -70.52  0.000601822    1.580    0.367
        84  -9.1148    239.1395    221.2474   7.2576869670e+01  -7.0506746209e+00    0.3177527    0.1753737 -32.45  0.001211487    1.619    0.382
        85  -9.3353    225.6327    221.4346   7.5091196579e+01  -5.2861730244e+00    0.2817229    0.2116062 -25.04  0.001208283    1.230    0.187
        86  -9.2397      7.6469    221.9053   1.2232768299e+02   2.5312729256e+01    0.3165592   0.09449401  55.61  0.001368039    3.003    0.667
        87  -9.2086    120.4194    219.2422   9.7168182486e+01   1.1415726970e+01    0.4861673    0.2589148  60.23   0.00191446    2.873    0.652
        88  -8.9967     82.9152    220.6396   1.0599738618e+02   1.6778723653e+01    0.3175112    0.1847418  75.02  0.001273596    2.306    0.566
        89  -8.8547    216.3814    223.5227   7.7222151892e+01  -4.3288290394e+00    0.2266617    0.2163053 -35.62 0.0009697624    1.517    0.341
        90  -7.8789     27.5060    221.5028   1.1826469382e+02   2.3448335256e+01    0.1225202   0.09861633  72.25 0.0005135561    1.000    0.000
        91  -8.3958    210.1511    219.3336   7.7691440601e+01  -2.7730244324e+00    0.2130249    0.1525181 -22.21 0.0004120074    1.284    0.221
        92  -8.2005    202.5459    220.1092   7.9341444682e+01  -1.7815963578e+00    0.1865264    0.1202598 -34.64 0.0004904983    1.527    0.345
        93  -8.6968    248.8623    218.2483   7.0323097009e+01  -7.8470597448e+00    0.2373118    0.1904784  47.66  0.001500027    2.069    0.517
        94  -9.3407    132.6247    215.7895   9.3828686814e+01   1.0164481027e+01    0.4580514    0.3004724  80.59  0.001930424    2.821    0.646
        95  -8.5536     62.0544    217.5089   1.1039858014e+02   2.0291311718e+01    0.2866282    0.1672243  69.81  0.001256151    1.890    0.471
        96  -9.1196     51.5079    217.3415   1.1274726788e+02   2.1648403228e+01    0.2993227    0.1758905  81.85 0.0009987199    1.826    0.452
        97  -8.7556    169.3217    216.3009   8.5645094805e+01   4.0655042145e+00    0.2749289    0.2331113 -70.21 0.0009069783    1.647    0.393
        98  -8.5796    143.0180    216.6643   9.1582825671e+01   8.2909020384e+00     0.284163     0.211867  80.65  0.001276353    2.079    0.519
        99  -8.7632     18.4633    215.5412   1.1974357615e+02   2.5668559105e+01    0.3191573    0.1062045 -82.92  0.001317642    3.065    0.674
       100  -8.6739    232.3321    214.5067   7.2598469807e+01  -5.1352519420e+00    0.2655433    0.1763265 -39.83  0.001028656    1.605    0.377
       101  -8.4430    185.7122    214.6873   8.1842751861e+01   1.7327908515e+00    0.2406824    0.1806766 -49.16 0.0007429089    1.596    0.373
       102  -8.1878    154.4711    215.4695   8.8794591967e+01   6.6472151948e+00    0.2082703    0.1686148  59.16 0.0007059631    1.528    0.345
       103  -9.0863    150.9490    213.6767   8.9289702902e+01   7.5783650458e+00    0.2659873    0.2320836  52.68 0.0006822111    1.285    0.222
       104  -8.7654    147.7801    210.1968   8.9427855934e+01   8.7990755602e+00    0.3061632    0.2262354  62.20  0.000965142    1.781    0.439
       105  -9.0777     92.8359    213.7624   1.0284766328e+02   1.6844213019e+01    0.3578841    0.2115815  66.06  0.001317451    2.161    0.537
       106  -7.6162     41.3393    215.6602   1.1484608233e+02   2.3221047360e+01     0.140383   0.07761083  63.68 0.0007050244    1.765    0.433
       107  -9.4291    213.8427    212.2302   7.5681937214e+01  -2.1539707355e+00    0.3158345    0.2735641  62.10  0.001392902    1.874    0.466
       108  -9.5334     73.3630    212.0477   1.0720543704e+02   2.0012010765e+01    0.7157843    0.2650706  56.87   0.00232526    4.111    0.757
       109  -7.9286    224.8393    212.7761   7.3674972372e+01  -3.8271997196e+00    0.1604553    0.1448087 -24.13 0.0005164234    1.338    0.253
       110  -9.0099    161.4662    212.1680   8.6666122568e+01   6.1331218654e+00    0.2541589    0.2375573  75.73 0.0009817932    1.362    0.266
       111  -8.1564    106.5033    212.9514   9.9515127843e+01   1.4940251245e+01    0.1972329    0.1388281 -65.49  0.001013254    1.566    0.362
       112  -8.9902    204.1588    211.0055   7.7374653370e+01  -4.9683203178e-01    0.2664919    0.2038604 -46.84 0.0006154189    1.582    0.368
       113  -9.6209    175.5370    209.7733   8.3142649272e+01   4.2687267809e+00    0.4676871    0.3691823 -61.80  0.001605323    1.719    0.418
       114  -8.7983      6.0174    208.2873   1.2188220910e+02   2.8423220039e+01    0.3181818    0.1069366  73.37  0.001202459    3.767    0.735
       115  -7.8524    242.9332    211.7627   7.0187922042e+01  -6.1329232663e+00    0.1470783   0.09434193  24.11 0.0004514979    1.537    0.349
       116  -8.3878    192.2745    210.5502   7.9722115326e+01   1.4292323552e+00    0.2249372    0.1591513 -49.27 0.0005796034    1.696    0.410
       117  -8.9866    116.2621    210.1671   9.6797888248e+01   1.3999210808e+01    0.3644831    0.2414844  73.19  0.001210679    2.187    0.543
       118  -8.7294     85.5780    209.3309   1.0399235237e+02   1.8901163830e+01    0.3969043    0.2187781  71.95  0.001611409    2.712    0.631
       119  -8.0188     32.3051    210.6236   1.1641483450e+02   2.5351371782e+01    0.1390265   0.07629569  66.45 0.0007028541    1.771    0.435
       120  -9.2442    236.5272    208.2738   7.0690176951e+01  -4.7424090750e+00    0.2721558    0.2226125 -40.59  0.000835544    1.510    0.338
       121  -9.3834     99.9972    206.8398   1.0020106777e+02   1.7299612867e+01    0.5409877    0.2970893  66.76   0.00210624    2.850    0.649
       122  -7.8895     46.3784    209.2106   1.1314081669e+02   2.4095017089e+01    0.1851122     0.109316 -89.48 0.0007396922    1.725    0.420
       123  -9.3816    246.4787    207.2109   6.8730460981e+01  -5.9103887435e+00    0.2801602    0.1872202 -27.66 0.0006479225    1.261    0.207
       124  -9.5539    250.0959    202.0273   6.7146272672e+01  -5.5976539630e+00      0.49955    0.1733605 -40.61  0.002016908    2.671    0.626
       125  -9.4812    245.3997    193.3516   6.6316504385e+01  -3.6168184790e+00    0.3476477    0.2452605 -58.95  0.001712512    2.486    0.598
       126  -8.6364    125.7656    207.6908   9.4158577102e+01   1.2984390697e+01    0.3313386    0.2113013  76.05  0.001344555    2.772    0.639
       127  -8.5221     56.5467    205.3585   1.1040458407e+02   2.3749744384e+01    0.3582695    0.1831795  66.58  0.001363685    2.351    0.575
       128  -8.9579    183.8503    203.8949   8.0274412591e+01   3.9981547156e+00    0.3047283    0.2526261  59.79  0.001041814    1.665    0.399
       129  -8.6966    131.2963    203.8528   9.2219788679e+01   1.2886497085e+01    0.3250602    0.2321889  78.65 0.0009625755    2.110    0.526
       130  -8.3113    108.8766    205.1013   9.7804392741e+01   1.6294255352e+01    0.2181082    0.1832483  70.44 0.0006729608    1.282    0.220
       131  -8.2413     24.7751    205.0146   1.1763405500e+02   2.7406958343e+01    0.1626161    0.0900273 -78.58 0.0005340208    1.621    0.383
       132  -9.4049    194.8666    203.3126   7.7843099940e+01   2.3090203123e+00    0.4482112    0.2778722 -27.07  0.001456519    1.639    0.390
       133  -9.2236    192.3687    197.3741   7.7236028880e+01   3.8020124643e+00     0.376015    0.2642297 -45.16 0.0008504794    1.528    0.346
       134  -9.5461    163.8222    202.9419   8.4502531153e+01   7.5423598819e+00    0.4481343    0.2966165  55.90  0.001189723    2.035    0.509
       135  -8.4925     17.3980    203.2315   1.1912496293e+02   2.8531306136e+01    0.1837599   0.09681844  86.57  0.000951817    1.768    0.434
       136  -9.3193    242.9792    200.6256   6.8115010463e+01  -4.4299232508e+00    0.3258141    0.1633929 -40.33   0.00102312    1.893    0.472
       137  -8.3953    210.9616    201.9819   7.4334765699e+01   4.9509429473e-03    0.1847666    0.1708887 -80.17 0.0005149218    1.676    0.403
       138  -9.0139    140.6082    201.0743   8.9536942582e+01   1.1899373025e+01    0.3842419    0.2682258  72.48  0.001316756    2.254    0.556
       139  -8.4759     79.9871    201.4581   1.0432246993e+02   2.1514762605e+01    0.3125741    0.1804554  69.27   0.00134757    2.260    0.558
       140  -8.1620     48.6164    202.3264   1.1195323887e+02   2.5422636012e+01    0.2169633     0.129492  65.92 0.0008866507    1.715    0.417
       141  -8.1576     10.7852    202.5699   1.2051598932e+02   2.9287422698e+01    0.1706108    0.0916926  46.54 0.0009497978    1.699    0.411
       142  -7.9054    221.9927    201.4944   7.2108816392e+01  -1.5815916287e+00    0.1540881     0.117062  58.95 0.0004728863    2.252    0.556
       143  -9.1913    237.0988    198.5683   6.8767977734e+01  -3.2895754406e+00    0.3236542     0.160378 -42.06  0.001073744    1.996    0.499
       144  -9.5413    149.5597    198.6046   8.6993679537e+01   1.0877284730e+01    0.4642932    0.3294098  86.72  0.001462297    2.543    0.607
       145  -8.7782    123.9742    199.3530   9.3233844503e+01   1.5097649423e+01     0.316566    0.2279939  89.79  0.001334065    1.988    0.497
       146  -9.2542    112.8743    198.4990   9.5808002074e+01   1.7131332912e+01    0.4831006    0.2894307  65.22  0.001972268    2.439    0.590
       147  -8.6830    176.3359    198.9089   8.0970631470e+01   6.2031056991e+00    0.3621027    0.2153502  35.69  0.001702997    1.620    0.383
       148  -9.0999     88.5137    198.3654   1.0180778759e+02   2.0989526496e+01    0.3696833    0.2425566  78.14   0.00141159    1.944    0.485
       149  -8.0805    202.3887    198.1468   7.5317144624e+01   2.0273580525e+00    0.1841763    0.1250977 -48.81 0.0006054727    1.723    0.419
       150  -9.0933     61.2956    196.6228   1.0829189914e+02   2.5200490475e+01    0.5121937    0.2764328  81.33  0.002117437    2.470    0.595
       151  -8.6599     12.8321    197.5861   1.1972995553e+02   3.0245857932e+01    0.2580601    0.1134251  66.15  0.001196519    2.340    0.573
       152  -8.6886    216.0307    195.7704   7.2154273740e+01   2.9275863240e-01    0.2725008    0.1810012 -51.86 0.0009210164    1.964    0.491
       153  -8.4076     35.7659    196.5357   1.1440996224e+02   2.8239201992e+01    0.2486132     0.146493  81.98 0.0008202298    1.711    0.416
       154  -7.8715     29.2499    197.2735   1.1599257338e+02   2.8748542394e+01    0.2056118    0.0927764 -89.36 0.0006833664    2.393    0.582
       155  -8.8834    185.1467    194.8923   7.8290720677e+01   5.4788724949e+00    0.2718509    0.2268536 -59.17 0.0006968104    1.542    0.352
       156  -7.9121    133.0113    196.0191   9.0474514591e+01   1.4294560103e+01    0.2241412     0.175048  73.63 0.0006126869    1.669    0.401
       157  -7.9725     53.4640    196.5171   1.1018547828e+02   2.6209645919e+01    0.1373232    0.1154116  73.37 0.0001590976    1.076    0.070
       158  -8.6530    224.4029    194.0285   7.0222658322e+01  -6.8978033912e-01    0.2701346    0.1790128 -48.22  0.001124229    1.802    0.445
       159  -9.2298    160.8596    193.9302   8.3509788578e+01   9.8746229847e+00    0.4098815    0.3105517 -55.55  0.001278001    1.522    0.343
       160  -8.9319     77.1873    193.9567   1.0402079814e+02   2.3684257860e+01    0.2997639    0.2179054  72.25 0.0007714503    1.479    0.324
       161  -7.9534    230.9706    194.3212   6.9063905492e+01  -1.7166131873e+00    0.1815864    0.1504477  -6.55 0.0005910929    1.045    0.043
       162  -8.7909     43.7455    193.4242   1.1220605648e+02   2.8096851111e+01    0.3627474    0.1866764  69.07  0.001606773    2.280    0.561
       163  -8.2727    139.0238    208.0424   9.1093852763e+01   1.0705176208e+01    0.2221499    0.1713871  69.80 0.0006875964    1.717    0.417
       164  -7.9580    204.8861    191.8089   7.3581496365e+01   2.7644974101e+00    0.1723866    0.1670472 -38.72 0.0005727382    1.317    0.241
       165  -8.2955    198.8260    191.5561   7.4764593187e+01   3.8077300166e+00    0.2630227    0.1772393 -53.96  0.000753796    1.901    0.474
       166  -8.3756    172.3503    191.9809   8.0532044347e+01   8.2546124751e+00    0.2448192    0.2032765  62.95  0.001273095    1.593    0.372
       167  -9.2029    139.5377    190.8215   8.7965367801e+01   1.4297646277e+01    0.3609894    0.2750673  84.31  0.001072088    1.910    0.477
       168 -10.4714     92.2493    188.7753   9.9460245061e+01   2.2692114838e+01     1.007038     0.299639  46.49  0.003066339    3.787    0.736
       169  -8.2216     22.9082    192.0000   1.1701588918e+02   3.0620241619e+01    0.1870923   0.07028127  27.14 0.0007977712    2.910    0.656
       170  -8.4630    148.5733    189.5675   8.5562846190e+01   1.2968244726e+01    0.2779512    0.2097404  74.85 0.0009008404    1.961    0.490
       171  -9.1869    156.0217    187.6788   8.3442126969e+01   1.2039721398e+01    0.3364799    0.2423659 -66.56 0.0009630198    1.858    0.462
       172  -8.9294    129.2924    188.6263   9.0075011124e+01   1.6585617288e+01    0.3080086    0.2340888  74.08  0.001181557    1.746    0.427
       173  -9.6943    120.7305    186.5683   9.1845939658e+01   1.8542044491e+01    0.5628862    0.3277911 -74.79  0.002143916    2.714    0.632
       174  -8.7158     34.3332    188.1261   1.1395288513e+02   3.0401048697e+01     0.358116    0.1739409  73.78  0.001280626    2.500    0.600
       175  -9.6720    248.6152    185.9479   6.4347387283e+01  -2.8840251750e+00    0.3492074    0.2596246  -5.94  0.001555382    1.251    0.201
       176  -8.9295    216.6173    187.7105   7.0463347889e+01   1.6075255450e+00    0.2457781    0.2209411 -30.23 0.0007541664    1.221    0.181
       177  -8.8709    191.3643    187.4111   7.5499011622e+01   5.8470344884e+00    0.3028853    0.2415394 -58.80 0.0008771737    1.624    0.384
       178  -9.1244     54.7219    186.9667   1.0878077162e+02   2.8360488866e+01    0.4144073    0.2262661  72.21  0.001714829    2.302    0.566
       179  -8.0623    230.2236    187.2103   6.7816545682e+01  -4.1600499596e-01    0.1709547    0.1498718 -41.40  0.000753731    1.366    0.268
       180  -8.5874    164.9540    186.9456   8.1227099526e+01   1.0590765701e+01    0.2753241    0.2287881  80.77  0.001007695    1.720    0.418
       181  -9.1899    109.4635    186.0949   9.4622778407e+01   2.0563322543e+01    0.3913728    0.2658177  71.66  0.001067551    2.003    0.501
       182  -8.8606    210.2110    184.4443   7.1059112465e+01   3.2277169423e+00    0.2454624    0.1705892 -35.19 0.0004761313    1.331    0.249
       183  -8.5470    202.7968    184.8494   7.2621348529e+01   4.3862145563e+00    0.2407768    0.1915645 -56.12 0.0006725742    1.609    0.378
       184  -8.6863    182.8611    184.8220   7.6803143250e+01   7.8309733950e+00    0.2698492    0.1995914 -53.36 0.0007248448    1.580    0.367
       185  -8.9778     66.4427    184.4738   1.0547749383e+02   2.7467238055e+01    0.3735421     0.225751  71.30  0.001117941    2.021    0.505
       186  -8.8370    223.9982    183.3624   6.8201568477e+01   1.2030490629e+00    0.2836011    0.1686419 -43.99 0.0007332212    1.700    0.412
       187  -8.8838    174.2861    183.6781   7.8464902009e+01   9.5869492980e+00    0.2786023     0.238055 -84.30 0.0009073087    1.655    0.396
       188  -8.2053      1.8189    183.7643   1.2125301656e+02   3.4378042824e+01    0.1730792     0.114549  63.15  0.001049886    1.374    0.272
       189  -8.0757    237.0454    188.3243   6.6808202782e+01  -1.6157878244e+00    0.1792573    0.1484375 -15.67 0.0005314029    1.036    0.035
       190  -9.2020     44.5840    182.6150   1.1083576281e+02   3.0627295549e+01    0.3454275    0.2062886  62.70  0.001032965    1.767    0.434
       191  -8.4960     19.5191    183.0051   1.1705757872e+02   3.3084994402e+01    0.1937191   0.08727539  77.27 0.0008101914    2.592    0.614
       192  -8.3387    235.4517    181.5089   6.5752596369e+01  -2.4228670413e-01    0.2249791    0.1121672 -46.43  0.000788345    2.174    0.540
       193  -9.1684    147.5704    180.8039   8.4119135479e+01   1.5059550254e+01    0.3529714    0.2772951  88.22  0.001108357    1.833    0.454
       194  -7.6820     83.2944    182.6072   1.0083419923e+02   2.5545355851e+01     0.155731     0.105585  73.03 0.0007007572    1.787    0.440
       195  -8.1877     91.0953    181.3770   9.8600355038e+01   2.4660391499e+01    0.2838125    0.1444072  23.44  0.001083782    2.496    0.599
       196  -9.3772     36.4870    178.2403   1.1240667590e+02   3.2591163246e+01    0.6792204    0.2794098  89.29  0.002369611    3.582    0.721
       197  -9.4916     25.5924    178.8363   1.1520114575e+02   3.3533671889e+01     0.671682    0.2650212  78.48  0.002256955    4.136    0.758
       198  -8.6818    137.5515    179.3337   8.6289445538e+01   1.7217197438e+01    0.3182902    0.2363202  79.18  0.000915452    1.985    0.496
       199  -8.7195    204.9265    177.9205   7.0785339232e+01   5.3170922594e+00    0.3327839    0.1898062 -40.07 0.0009197948    1.648    0.393
       200  -9.4837    191.4255    178.3650   7.3654966125e+01   7.5847960631e+00    0.3321971    0.2758039  65.15 0.0006089849    1.677    0.404
       201  -8.0581    169.2609    178.4722   7.8546855667e+01   1.1572626317e+01    0.2408714    0.1834162 -67.82 0.0006801504    1.791    0.442
       202  -9.6958    248.4210    176.4566   6.2530180429e+01  -1.3193335317e+00    0.5258645    0.2685336 -47.32  0.001834385    2.182    0.542
       203  -8.5606    250.5813    172.7464   6.1443874973e+01  -1.0248681018e+00    0.1933089    0.1423848 -39.09 0.0004606172    1.286    0.223
       204  -8.4637    217.7580    177.4997   6.8194312926e+01   3.2427110195e+00    0.2556606    0.1706648 -52.51 0.0008105625    1.850    0.460
       205  -8.4226    129.4359    177.6358   8.7998907541e+01   1.9075938742e+01    0.3133853    0.2324601  84.05 0.0008584355    1.940    0.485
       206  -8.2238     97.2025    177.9482   9.6428115894e+01   2.4532125015e+01    0.2525567    0.1633514 -32.21  0.001083694    2.013    0.503
       207  -8.6497    231.1298    176.7756   6.5578152822e+01   1.2285394568e+00    0.2326148    0.1611999 -41.31 0.0006624985    1.400    0.286
       208  -8.9608    183.1215    176.4174   7.5033512776e+01   9.4603818445e+00    0.2634951    0.2308979 -75.18 0.0006851975    1.526    0.345
       209  -9.4738    104.2872    174.8797   9.4019028654e+01   2.4117976882e+01    0.5748516    0.3137406  58.15   0.00217145    2.492    0.599
       210  -8.7521     89.0389    176.8079   9.8404789793e+01   2.6101440152e+01    0.3010383    0.2275243  83.36 0.0008606108    1.531    0.347
       211  -9.9371     57.4085    173.4256   1.0636236121e+02   3.1388908179e+01    0.8329636    0.3905478  79.60   0.00256368    4.471    0.776
       212  -9.7890     12.5610    175.5042   1.1810576656e+02   3.5500030351e+01    0.4854425    0.1764276 -84.50  0.001949291    2.771    0.639
       213  -9.2197    158.7790    175.0292   8.0275940622e+01   1.4248302472e+01    0.3772337    0.2901581  88.27   0.00120545    2.027    0.507
       214  -7.8444     79.5055    158.4602   9.7914536749e+01   3.2169681855e+01     0.251607    0.1492676  30.65 0.0009722227    1.789    0.441
       215 -10.5722     76.0576    171.1231   1.0098855900e+02   2.9460464769e+01     1.142862    0.4935517 -79.65  0.003237022    4.764    0.790
       216  -8.6725     74.7248    160.2411   9.9581199411e+01   3.2415081575e+01    0.3232385    0.2137999 -21.25  0.001242617    2.234    0.552
       217  -8.1572    224.5020    174.5231   6.6326324587e+01   2.6755293445e+00    0.2288356    0.1188905 -47.55 0.0007077426    2.091    0.522
       218  -9.5233    175.7279    172.0900   7.5762618597e+01   1.1704077290e+01    0.4018821    0.2368126 -45.96  0.001147836    1.702    0.413
       219  -8.9687    143.1569    172.8515   8.3613286065e+01   1.7653446393e+01    0.2941101    0.2308456  83.63  0.001000543    1.790    0.441
       220  -9.1187    134.8919    171.9211   8.5496159597e+01   1.9403174668e+01    0.2952313    0.2160879 -65.90  0.000731252    1.617    0.382
       221  -9.4307    121.3703    170.5190   8.8699838913e+01   2.2201934860e+01    0.4071936     0.296867 -82.66  0.001217996    1.854    0.461
       222  -9.1307     45.0183    170.8548   1.0933382526e+02   3.3508436040e+01    0.4366497    0.2234006 -89.76  0.001796788    2.402    0.584
       223  -9.0963    230.4705    169.3927   6.4198133247e+01   2.6181484903e+00    0.4337376    0.1895086 -48.72    0.0017278    2.696    0.629
       224  -8.5651    205.7693    170.3324   6.9043214887e+01   6.6006018501e+00    0.3169426      0.18041 -53.47  0.001072735    2.227    0.551
       225  -8.6092    198.4253    170.3780   7.0534693525e+01   7.8924160499e+00    0.2503009    0.2308578  64.81 0.0009366215    1.392    0.282
       226  -8.6165    149.7554    169.4710   8.1294721285e+01   1.7172594006e+01    0.2791007    0.2024176 -66.39 0.0006221671    1.750    0.428
       227  -8.1903    244.2357    169.2243   6.1790844109e+01   4.9981019862e-01    0.1743606    0.1372003 -44.02 0.0004347483    1.351    0.260
       228  -8.2512    237.0322    169.3665   6.3042573105e+01   1.5832257742e+00    0.1805868    0.1609603  -9.21 0.0008792439    1.112    0.101
       229  -8.5252    218.8579    168.3423   6.6101536333e+01   4.7185793131e+00    0.2323828    0.1742959 -43.59  0.000577883    1.340    0.254
       230  -9.2634    167.0186    168.5293   7.6990760825e+01   1.4093832725e+01     0.361702    0.3000155  66.90  0.001225317    1.550    0.355
       231  -8.1024     88.6863    168.6353   9.7127467457e+01   2.8190312185e+01    0.2568545    0.1804001 -88.15 0.0007704906    1.753    0.429
       232  -8.8229    111.5380    167.2411   9.0667917680e+01   2.4739078248e+01    0.3454384    0.2445087 -89.12 0.0009392675    1.983    0.496
       233  -9.0335    191.9039    166.6280   7.1091505411e+01   9.8130254009e+00    0.2776597     0.202157 -46.01 0.0005800891    1.394    0.283
       234  -8.4539    185.0536    166.6222   7.2549511456e+01   1.1085506262e+01    0.2454667    0.1975354 -49.82    0.0005406    1.333    0.250
       235  -9.0979     20.4146    166.3260   1.1529906993e+02   3.7091114873e+01    0.3375428    0.1564567  66.62  0.001276436    2.626    0.619
       236  -9.7524    136.9466    164.6212   8.3479045921e+01   2.0711758160e+01    0.7022326    0.3170893  53.50  0.002236528    3.262    0.693
       237 -10.0038     94.9958    162.7002   9.4324297044e+01   2.8670155414e+01    0.9147928    0.5341923  80.12  0.003005872    3.423    0.708
       238  -8.2991    233.8223    165.0488   6.2717906190e+01   2.8400290951e+00    0.2019045    0.1634351 -42.71  0.000570499    1.272    0.214
       239  -8.6965    159.7382    164.4208   7.7817853305e+01   1.6379811161e+01    0.2792853    0.2389978 -82.32 0.0008338452    1.505    0.335
       240  -9.6567     33.6460    163.4883   1.1149130521e+02   3.6573181076e+01    0.6161627    0.2323675  53.40  0.002254235    3.350    0.701
       241  -8.2360    239.9095    164.1726   6.1495953141e+01   2.0246825341e+00    0.1982198    0.1674048 -41.81 0.0006991466    1.254    0.202
       242  -8.5886    212.8946    163.6425   6.6242860430e+01   6.6114474525e+00    0.2697244    0.1871674 -42.14 0.0006891391    1.370    0.270
       243  -8.9814    246.0839    162.8583   6.0204457585e+01   1.2903086031e+00    0.2346522    0.1656409 -28.08 0.0006465461    1.194    0.162
       244  -8.4005    204.8856    162.6297   6.7585440932e+01   8.2268044294e+00    0.2755973    0.1765749 -53.30  0.000622184    1.839    0.456
       245  -9.2853      3.3751    162.4125   1.1930221969e+02   3.9385500399e+01     0.390617    0.1780264  54.51  0.001621497    2.309    0.567
       246  -8.9106    151.6281    161.1121   7.9058300436e+01   1.8689201553e+01    0.3329967    0.2564875 -76.83 0.0009035541    1.779    0.438
       247  -8.6786     60.7710    160.9265   1.0363933558e+02   3.4140481901e+01    0.3797424     0.294169  67.24  0.001751609    1.369    0.270
       248  -7.8754    222.2607    161.6636   6.4074514833e+01   5.3580756736e+00    0.1317348    0.1053318 -58.72 0.0001770266    1.580    0.367
       249  -8.9026    177.3755    160.6797   7.2943577901e+01   1.3769965465e+01    0.2893569    0.2435679 -82.85 0.0008136785    1.624    0.384
       250  -8.5480    245.2578    158.6541   5.9486533635e+01   2.1300568092e+00    0.2864727    0.2044014  15.54  0.001005367    1.655    0.396
       251 -10.0555    242.8274    154.8929   5.9112332574e+01   3.1568520405e+00    0.6717966    0.2182679 -37.21  0.002553999    2.671    0.626
       252  -7.8859    239.7311    153.3172   5.9294322271e+01   3.9287322751e+00     0.194048   0.09527895 -38.29 0.0004010393    1.730    0.422
       253  -9.8478    250.1458    157.8089   5.8531677082e+01   1.5172806404e+00    0.3737988    0.1842005 -40.94 0.0007826109    1.731    0.422
       254  -8.8456    246.7146    155.6689   5.8643540836e+01   2.4093416972e+00    0.2381094    0.1364038 -28.99 0.0004856857    1.591    0.372
       255  -8.8317    237.2326    159.1279   6.0913727651e+01   3.3232959972e+00    0.2475788    0.1676241 -49.07 0.0005727381    1.582    0.368
       256  -8.5935    227.3869    159.0588   6.2604651189e+01   4.9603788830e+00    0.2855137    0.1859308 -51.95 0.0009290418    1.765    0.433
       257  -8.3643    128.0123    158.9894   8.4609167758e+01   2.3729273786e+01    0.2462091    0.1936128  80.60 0.0006253138    1.682    0.405
       258  -9.5801    105.7001    157.8514   9.0415972513e+01   2.8071890620e+01    0.4951631    0.3286064  72.66  0.001186784    2.251    0.556
       259  -8.4849    196.7346    157.9368   6.8208708945e+01   1.0639982025e+01    0.2600893    0.1950306 -55.98  0.000792048    1.557    0.358
       260  -8.2430    188.1263    157.7192   6.9954413434e+01   1.2313743033e+01    0.2587205    0.1902941 -48.97 0.0006200196    1.409    0.290
       261  -9.1266    167.5954    157.2577   7.4406199487e+01   1.6405664725e+01    0.3370885    0.2757924  89.28  0.001058003    1.714    0.417
       262  -8.5096    217.9969    156.5552   6.3773719177e+01   7.0348770265e+00    0.2732874    0.1775263 -49.71 0.0009012772    1.644    0.392
       263  -9.0293    157.6533    156.1026   7.6493564330e+01   1.8624697930e+01    0.3592647    0.2305776 -56.94   0.00106981    1.794    0.443
       264  -9.3662    119.5482    155.4135   8.6113139122e+01   2.6175397003e+01    0.4469609    0.3121276 -87.57  0.001555753    2.189    0.543
       265  -9.4056     81.9202    155.0060   9.6600908645e+01   3.2687939769e+01    0.5588202    0.3404121  78.78  0.001524231    2.653    0.623
       266  -9.2356     49.7648    155.4253   1.0594162351e+02   3.6900282880e+01    0.4060302    0.2463533  62.32  0.001551957    1.954    0.488
       267  -8.8714     33.9580    156.0859   1.1050558167e+02   3.8422279765e+01    0.3181255    0.1946931  26.28  0.001609926    1.849    0.459
       268  -7.9857    204.7847    155.5592   6.6075494464e+01   9.6072900220e+00    0.1795087    0.1419553  54.62 0.0004248045    1.548    0.354
       269  -8.7416    144.4857    154.8533   7.9458302145e+01   2.1513660442e+01    0.2831579    0.2412055  76.17 0.0005985489    1.448    0.310
       270  -9.3917     67.8624    153.6085   1.0042418768e+02   3.5081316071e+01    0.4262185    0.2627941  80.18  0.001060668    2.304    0.566
       271  -8.0922    233.1595    154.2113   6.0583094301e+01   4.8563125582e+00    0.1820065    0.1542795 -55.78 0.0004488637    1.396    0.284
       272  -9.6438    132.8196    153.0044   8.2049902741e+01   2.4229950766e+01    0.4598819    0.3760723 -79.82  0.001213747    1.511    0.338
       273  -9.5115    133.3339    148.3512   8.0874424075e+01   2.5229178060e+01    0.4565531    0.2510882 -38.67  0.001765404    1.945    0.486
       274 -10.5167    148.9196    144.8121   7.6058412804e+01   2.2921098045e+01     0.996306    0.5299483 -49.00  0.001578828    1.891    0.471
       275  -8.2999     60.0000    152.9591   1.0260465373e+02   3.6289214907e+01     0.239355   0.07718387 -63.44  0.000738279    2.869    0.651
       276  -8.6161     20.0447    152.7131   1.1397247548e+02   4.0534094173e+01    0.1765338    0.1556991  84.75 0.0005281155    1.091    0.084
       277  -9.4766     29.0593    150.2014   1.1114811478e+02   4.0388097445e+01    0.6055791    0.2958238  82.47  0.002399623    2.791    0.642
       278  -9.6114    248.8125    149.2899   5.7009294816e+01   3.1611171848e+00    0.3219685    0.1798291 -36.72 0.0007640899    1.485    0.327
       279  -8.9212    189.3179    150.2974   6.8048213825e+01   1.3591020862e+01    0.3175468    0.2401491 -57.88 0.0009207265    1.539    0.350
       280  -7.9887    182.4402    151.2770   6.9736091079e+01   1.4740633665e+01     0.202886    0.1407882 -52.19 0.0006019631    1.548    0.354
       281  -8.4456    162.5814    150.7680   7.4116087562e+01   1.8817599260e+01     0.290076    0.2344626 -78.47 0.0007619027    1.649    0.394
       282  -8.6625     98.2032    150.6689   9.1076627463e+01   3.1160637484e+01    0.3093684     0.232401 -89.04 0.0008870811    1.689    0.408
       283  -9.2310    242.6845    149.6066   5.8044317859e+01   4.0904875986e+00    0.2966307    0.2487566  35.84  0.001821298    1.390    0.281
       284  -8.0485    237.1769    150.3937   5.9107564400e+01   4.8595456306e+00    0.1580627    0.1324276  57.00 0.0002554928    1.554    0.356
       285  -8.0439    212.9591    149.9313   6.3277295688e+01   9.1795441260e+00    0.2091631    0.1706318 -68.15 0.0003995951    1.611    0.379
       286  -9.6144     40.1185    148.2166   1.0768913552e+02   3.9817008355e+01     0.519025    0.2521209  58.96  0.001836526    2.783    0.641
       287  -8.8035      2.8578    150.0358   1.1837516161e+02   4.2461452200e+01    0.2188931    0.1148042  74.71  0.000797237    2.025    0.506
       288  -8.6571    198.8333    149.0432   6.5815787520e+01   1.1999956103e+01    0.2223024    0.1949222 -63.13 0.0006458121    1.341    0.254
       289 -10.0603     89.1289    146.3068   9.2822725796e+01   3.3773504654e+01    0.6996799    0.4190386 -89.83  0.002446277    3.064    0.674
       290  -9.0352    233.4185    147.4945   5.9124091956e+01   6.0044914021e+00    0.3100198    0.1447724 -35.72 0.0008060988    1.897    0.473
       291  -8.1572    235.4919    142.5200   5.7725567344e+01   6.5313625539e+00    0.2088278      0.11601 -30.76 0.0009747032    1.702    0.412
       292 -10.2835    106.6630    144.0070   8.7241717209e+01   3.1343010228e+01    0.8606241    0.5595948 -82.43  0.002152642    2.441    0.590
       293  -8.5687     78.1311    147.2377   9.6255466797e+01   3.5250642735e+01    0.2868307     0.191194  86.31   0.00074769    2.071    0.517
       294 -10.2946     54.8738    144.7017   1.0276309091e+02   3.9062912256e+01    0.8380541    0.4318483  70.71  0.002836369    3.582    0.721
       295  -9.4444     55.8408    136.1301   1.0097796107e+02   4.1161071906e+01    0.5202223    0.2646382   2.06  0.001708917    4.120    0.757
       296  -8.1284    223.3068    147.0373   6.0766702881e+01   7.8494081645e+00    0.1997693    0.1588599 -36.92  0.000354807    1.117    0.105
       297 -10.2574    139.0675    143.0736   7.8160154577e+01   2.5322458000e+01     1.083736    0.3379645 -49.11  0.002945089    3.243    0.692
       298  -9.0865     13.0984    146.2247   1.1519596675e+02   4.2708533442e+01    0.3398545     0.192764  73.55  0.001230046    1.956    0.489
       299  -8.6616    240.3854    145.2339   5.7503434904e+01   5.2272395538e+00     0.264509    0.1617454 -44.80 0.0005050183    1.498    0.333
       300  -9.9703    242.6985    143.3311   5.6736817636e+01   5.1728621754e+00    0.5972267    0.1892292 -33.56  0.002041904    3.344    0.701
       301  -8.0758    206.9657    146.3548   6.3622930012e+01   1.0976501474e+01    0.1921556    0.1845121  -8.53 0.0006090999    1.093    0.085
       302  -8.3328    175.8082    146.1345   7.0017932057e+01   1.7142421477e+01    0.2337433    0.2061674 -74.57 0.0007455844    1.367    0.269
       303  -9.8698    124.8512    142.1154   8.1722936995e+01   2.8378854125e+01    0.7394648    0.3908381 -62.64  0.001633873    2.541    0.606
       304  -9.0224    247.0913    143.8534   5.6158534056e+01   4.3620622319e+00    0.2619123    0.1652333 -37.89 0.0004849322    1.318    0.241
       305  -8.3987    250.1934    140.8769   5.5071075494e+01   4.3658909505e+00    0.2003947    0.1579256 -47.56 0.0007276909    1.255    0.203
       306  -7.8029    194.3695    144.1612   6.5614321117e+01   1.3837153097e+01    0.2080731    0.1320245 -48.92 0.0004641377    1.601    0.375
       307  -8.7076    165.7941    144.0151   7.1803259056e+01   1.9638764041e+01     0.252807    0.2284614  47.12  0.000578305    1.175    0.149
       308 -10.0863     69.6724    140.9342   9.7599433221e+01   3.8099601259e+01    0.5508571    0.3475365 -86.44  0.001956989    2.146    0.534
       309  -9.3298     68.8666    134.8421   9.6662325315e+01   3.9780446301e+01     0.592512    0.3307494  -4.11  0.001955326    3.833    0.739
       310  -9.2925      2.6816    141.7019   1.1764392801e+02   4.4536420909e+01    0.4004799    0.1903941  75.20  0.001795082    2.477    0.596
       311  -8.4829    181.9782    141.7003   6.7639209720e+01   1.6818726024e+01    0.2650006    0.2100867 -67.82 0.0006735908    1.581    0.367
       312  -7.9045    238.4761    140.5286   5.6820077347e+01   6.3711997555e+00    0.1370329     0.115656 -32.21  0.000245166    1.005    0.005
       313  -9.8982     23.3772    138.1383   1.1125707193e+02   4.3958941120e+01    0.5235287    0.2621319  62.63  0.001987878    2.672    0.626
       314  -7.9225    218.8122    138.7968   5.9761121237e+01   1.0187125387e+01    0.1926673    0.1566687 -55.49 0.0005377237    1.339    0.253
       315  -8.6838    172.4410    138.3319   6.8944108868e+01   1.9486531692e+01    0.3187566    0.2367111 -75.84 0.0009791523    1.953    0.488
       316  -8.5363    207.3516    137.8504   6.1641114449e+01   1.2538698140e+01    0.2691759     0.198431 -57.01  0.000674416    1.536    0.349
       317  -8.6632    197.5600    137.6168   6.3475434873e+01   1.4506630488e+01    0.2826741    0.2244936 -57.77 0.0009939567    1.400    0.286
       318  -8.1255    192.2476    136.9480   6.4384962031e+01   1.5705280468e+01    0.2029588     0.120859 -41.90 0.0008785788    1.568    0.362
       319  -8.1757    162.6678    136.5133   7.0754418965e+01   2.1919916614e+01    0.2596618    0.1905389 -65.28 0.0007317321    1.705    0.414
       320  -8.8365     39.1318    136.2529   1.0619357681e+02   4.3000009277e+01    0.2626528    0.1841016  66.33 0.0008050363    1.659    0.397
       321  -8.5617    246.8715    130.1965   5.3350926298e+01   6.7314772427e+00    0.2297695    0.1514944 -44.10 0.0005031847    1.315    0.239
       322  -9.1543    248.3046    135.2413   5.4189506510e+01   5.6317162857e+00    0.3014729    0.1873545 -43.46 0.0006443848    1.389    0.280
       323  -8.9759    250.7324    130.0822   5.2761773042e+01   6.1030941260e+00    0.4373094    0.1084266 -39.62  0.001494953    3.297    0.697
       324  -8.3190    188.3666    136.1484   6.4993486466e+01   1.6654778530e+01    0.2196748    0.1328185 -50.93 0.0004786351    1.738    0.425
       325 -10.3731     83.5811    133.2462   9.1755435270e+01   3.7985297564e+01    0.5828598    0.3726375 -74.62  0.001495247    1.979    0.495
       326  -8.7614     84.6857    123.1820   8.9137542657e+01   4.0338522358e+01    0.6258312    0.4037202  -7.42  0.002440517    2.472    0.596
       327  -8.0887    237.4953    133.5313   5.5489195022e+01   7.7678959150e+00    0.2442702    0.1085539 -47.52 0.0007960857    2.197    0.545
       328  -7.9374    231.3571    134.1682   5.6611763805e+01   8.7415509358e+00    0.1994319    0.1115966 -46.33  0.000386824    1.662    0.398
       329  -8.6757    179.5892    134.0002   6.6339099376e+01   1.8907179159e+01    0.2698759    0.2275859 -64.60 0.0007817255    1.353    0.261
       330  -9.0543    112.8726    133.3074   8.3013049431e+01   3.2822411421e+01    0.3737152    0.2775393  77.28  0.001056269    1.903    0.475
       331  -9.1393    143.0558    131.8242   7.4427797468e+01   2.7090786796e+01    0.3374704    0.2545471 -65.75 0.0007388557    1.592    0.372
       332 -10.0957    132.1438    131.2044   7.7139848385e+01   2.9499531024e+01    0.7238633    0.4349679 -53.18  0.002936774    1.738    0.424
       333  -9.0920    134.6049    124.5812   7.4823169318e+01   3.0517755477e+01    0.4452467    0.3169264  19.98  0.001899939    1.740    0.425
       334 -10.4685     98.1091    129.5672   8.6480640281e+01   3.6461257428e+01     1.059978    0.3483716 -52.17  0.003192519    2.913    0.657
       335  -7.9979    103.1915    118.6336   8.2262938384e+01   3.8201871504e+01    0.3380743     0.196314  14.96  0.001169235    2.852    0.649
       336 -10.4421     60.0165    125.0084   9.7506451734e+01   4.3491872144e+01    0.9485855    0.5436543  80.80  0.003297356    3.491    0.714
       337  -8.5970     59.1746    115.3816   9.5744562852e+01   4.6036376552e+01    0.4607142    0.2399358 -28.85  0.001639061    2.734    0.634
       338 -10.0483     12.8189    128.5929   1.1322314681e+02   4.7166596303e+01     0.671439    0.3087616 -86.73  0.002799013    2.433    0.589
       339  -8.0235    204.4645    130.2436   6.0444469608e+01   1.4568360247e+01    0.2073065    0.1294906 -50.05 0.0007486445    1.621    0.383
       340  -8.2783    192.7104    130.2071   6.2711986074e+01   1.6957427901e+01    0.2364005    0.1790521 -57.01 0.0006937179    1.446    0.308
       341  -9.2806    168.3929    129.6675   6.7768718541e+01   2.2180672223e+01     0.338761    0.2619802  86.19 0.0007751384    1.839    0.456
       342  -8.4024    162.0103    130.0018   6.9323607303e+01   2.3472354533e+01    0.1931208    0.1843433 -29.79 0.0004541579    1.009    0.009
       343  -9.5250    152.8655    128.5649   7.1159575741e+01   2.5742264662e+01     0.551627    0.2717809 -52.16  0.001273809    2.237    0.553
       344  -9.6899     72.9893    129.0792   9.4176345684e+01   4.0664122752e+01    0.4337628    0.2755596 -75.65  0.001069935    1.946    0.486
       345  -9.1326     25.5831    130.0017   1.0945999295e+02   4.5850032419e+01    0.3597051    0.1753351   0.76  0.001453546    3.275    0.695
       346  -7.9863      1.6680    130.3157   1.1677781329e+02   4.7421924957e+01    0.1298364   0.08402202  67.83 0.0005557211    1.685    0.406
       347  -7.9957    211.6336    129.3186   5.8916100059e+01   1.3328710839e+01    0.2139229    0.1624448 -68.93 0.0007172524    1.696    0.410
       348 -10.7150     44.8347    123.5131   1.0219754003e+02   4.5674670659e+01     1.147308    0.6119851  76.67  0.003954703    3.778    0.735
       349  -9.9254    117.9354    125.3319   7.9614305406e+01   3.3754324560e+01    0.5515189    0.3934464  81.05  0.001464452    2.224    0.550
       350  -7.9597    228.4664    125.5228   5.5194691576e+01   1.0815242380e+01     0.140644    0.1208768 -45.09 0.0008078988    1.084    0.078
       351  -8.7969    179.0634    124.7828   6.4223884848e+01   2.0917892363e+01    0.2639606    0.2119623 -47.86 0.0006473176    1.219    0.180
       352 -10.2223     28.3388    122.3906   1.0741763673e+02   4.7553715494e+01    0.7374253    0.3695743  78.12  0.002683893    3.560    0.719
       353  -8.8045     26.4899    113.8326   1.0661507711e+02   4.9867857547e+01    0.2624894    0.1669234 -19.43  0.000977387    1.921    0.479
       354  -7.9325    188.5472    123.8135   6.2022323057e+01   1.9097709385e+01    0.2111866    0.1356296 -52.24 0.0003975009    1.635    0.388
       355  -8.0263    212.0000    123.0112   5.7408224254e+01   1.4439234655e+01    0.2442019   0.07538614 -39.98 0.0007983266    2.914    0.657
       356  -7.6813    203.1490    122.1406   5.8803175687e+01   1.6387527047e+01    0.2026616    0.1624775 -59.76  0.000547063    1.350    0.259
       357  -7.9734    195.0073    121.9875   6.0307180930e+01   1.8100701987e+01     0.234747    0.1744919 -67.19  0.000521061    1.679    0.404
       358  -8.8963    172.0733    121.7175   6.4979662731e+01   2.3056390335e+01    0.2591687    0.2067888 -54.92  0.000517181    1.307    0.235
       359  -9.1617    158.5973    121.0008   6.7873431950e+01   2.6147293638e+01    0.5012025    0.2766366 -42.18   0.00161852    1.763    0.433
       360  -9.6785     71.2159    120.0644   9.2768966368e+01   4.3203317729e+01    0.4468058    0.3114115  78.85  0.001245793    2.129    0.530
       361  -9.8742    141.5565    118.6239   7.1467050354e+01   3.0377227505e+01    0.4705538    0.3095918 -68.50   0.00106863    2.215    0.548
       362  -9.5440    130.8210    118.7150   7.4328604587e+01   3.2651017996e+01    0.4298206    0.3261948 -81.17  0.001299242    1.848    0.459
       363  -9.6573      2.8758    117.1620   1.1490044667e+02   5.0614116654e+01    0.4946612    0.2350882  72.71  0.002086931    3.005    0.667
       364  -7.7247    231.4536    117.5317   5.2965027975e+01   1.1675351328e+01    0.1393068    0.1187482 -45.99 0.0008071935    1.063    0.059
       365  -8.2301    219.4942    116.5187   5.4646777250e+01   1.4151556808e+01    0.1424795    0.1263512 -41.45 -5.472424e-05    1.006    0.006
       366  -8.3538    185.6564    116.1391   6.0733597442e+01   2.1237399835e+01    0.2425035    0.1755408 -53.49 0.0006421009    1.428    0.300
       367  -9.9093    109.3903    114.3455   7.9283611435e+01   3.8030819662e+01    0.5122283    0.3732423 -83.81  0.001427217    2.080    0.519
       368  -9.5597    249.6931    114.5285   4.9668194323e+01   8.8926548001e+00    0.4120971    0.2026227 -54.74  0.001812876    2.378    0.579
       369 -10.4125    248.7243    108.1425   4.8460612250e+01   1.0124477058e+01    0.4996003    0.2600917 -40.48  0.002484067    1.587    0.370
       370  -9.4479    249.5751    102.7128   4.7209555332e+01   1.0866269087e+01     0.319917    0.2300333 -41.88  0.001875966    1.154    0.133
       371  -8.1623    193.0037    115.2748   5.9076571963e+01   1.9827626191e+01    0.2015583    0.1915317 -55.64 0.0004866145    1.059    0.056
       372  -7.7932    153.2861    115.6461   6.7763056395e+01   2.8459566440e+01    0.1603392    0.1254157 -77.13 0.0007021991    1.668    0.400
       373 -10.0692     92.7758    112.6012   8.3952015400e+01   4.1548594708e+01    0.4908461    0.3568039 -73.89  0.001173117    1.795    0.443
       374  -7.7546    167.4533    114.4827   6.4173493363e+01   2.5564351011e+01    0.1552016    0.1480654 -55.98 9.082178e-05    1.059    0.056
       375 -10.2258    133.7927    109.3634   7.1037568648e+01   3.4099822366e+01    0.7422261    0.3411937 -51.20  0.002426003    2.400    0.583
       376  -9.8381     78.9524    112.4494   8.8405181848e+01   4.3911523193e+01    0.5323001     0.372415 -88.11  0.001845084    2.207    0.547
       377  -8.9403     78.8712    105.2388   8.6592869038e+01   4.5664943797e+01    0.3582111    0.2530033  -5.41   0.00159981    1.839    0.456
       378  -8.8343    242.5377    113.5208   5.0453392646e+01   1.0330353829e+01    0.1352696    0.1131284 -43.64 1.637127e-05    1.024    0.023
       379 -11.1940    109.3918     99.4219   7.5182265251e+01   4.1426168573e+01    0.9874074    0.5565699  60.50    0.0022351    2.772    0.639
       380 -10.0291    121.8475    112.6827   7.5217647998e+01   3.5899841787e+01    0.5433486     0.391229 -58.63  0.001596167    1.549    0.354
       381 -10.6716    119.3034    105.7562   7.4052937416e+01   3.7985711857e+01    0.7527332    0.4208649  46.09  0.003014114    1.846    0.458
       382  -8.5524    159.2281    111.7697   6.5342212022e+01   2.7956604650e+01    0.2665259    0.2019182 -51.20 0.0006390334    1.345    0.256
       383 -10.3302     66.4458    110.0039   9.2024614378e+01   4.6388787772e+01    0.6372707    0.3746916 -63.53  0.002089161    1.816    0.449
       384  -9.9716     14.0159    110.7192   1.1034976964e+02   5.1557281221e+01    0.4734054    0.2720723  88.26  0.001930073    2.079    0.519
       385  -8.6817     42.9365    109.4030   1.0007598257e+02   4.9439250185e+01     0.304497    0.1407294   9.26   0.00112085    3.317    0.699
       386  -8.3015    189.2821    107.8496   5.7969737527e+01   2.2059278461e+01    0.2705482    0.1693072 -44.66 0.0005888683    1.511    0.338
       387  -8.5912    174.7466    111.8809   6.1922512802e+01   2.4474928737e+01    0.2879279    0.2014335 -57.91 0.0007657816    1.601    0.375
       388 -10.5957     45.5326    102.3015   9.7608744144e+01   5.0911492680e+01    0.8061907    0.4661055  68.27  0.002896812    3.451    0.710
       389 -10.5629     22.9281    102.7510   1.0589259845e+02   5.2899590617e+01    0.7657422    0.4332036  74.27  0.002494731    2.919    0.657
       390  -9.6373    150.5589    103.0983   6.5077248087e+01   3.1700524342e+01    0.4896123    0.3133374 -63.13  0.001176627    2.102    0.524
       391  -9.1330    139.7383    104.5851   6.8174786827e+01   3.3820737807e+01    0.3382678     0.277951  88.49 0.0007001337    1.552    0.356
       392  -8.9961     93.3130    104.7813   8.1702362232e+01   4.3299055511e+01    0.2974837    0.2013013   4.43  0.001055168    2.101    0.524
       393  -8.4473    166.7480    104.0979   6.1631587805e+01   2.7823669491e+01    0.2382907    0.2000511 -64.08 0.0005255122    1.293    0.226
       394 -10.2738    128.5989    101.8653   7.0365660417e+01   3.6852069363e+01    0.4482893    0.3215638 -57.29  0.001100518    1.573    0.364
       395  -9.1270      6.4562    102.7243   1.1173385569e+02   5.3967719947e+01    0.2683423    0.1848887  69.07  0.001212503    1.786    0.440
       396  -8.0323    175.5049    101.9959   5.9225476507e+01   2.6251830541e+01    0.2355092    0.1443758 -42.80  0.001018318    1.566    0.362
       397  -8.2168    159.8461    101.0688   6.2360389857e+01   2.9997778620e+01    0.2383267    0.2009593 -65.71 0.0004883612    1.305    0.233
       398  -9.3336     81.9644     99.9135   8.4117584159e+01   4.6410523244e+01    0.3677769    0.2807571 -83.33 0.0009873768    1.874    0.466
       399  -8.9253     65.4215     87.5570   8.6496041258e+01   5.1840333746e+01    0.5709616     0.252471  16.72  0.001787422    4.120    0.757
       400  -8.2513    186.8004     99.6157   5.6382919700e+01   2.4164067270e+01    0.2078493    0.1427283  67.34 0.0008709027    1.718    0.418
       401  -9.5024     94.9787     97.1066   7.9018485503e+01   4.4746178275e+01    0.3691918    0.2480541 -55.41 0.0005536631    1.615    0.381
       402  -8.4927    150.7142     96.0254   6.3095684276e+01   3.3093730592e+01    0.4283527    0.2488432 -10.51  0.001271445    4.195    0.762
       403  -7.6767    249.6924     95.6884   4.5724071393e+01   1.1984936598e+01    0.1209859   0.09826371  -8.19 0.0002764503    1.620    0.383
       404  -8.3833    176.6034     93.6179   5.6820272184e+01   2.7591238022e+01    0.2878007    0.1997036 -72.02 0.0007367547    1.925    0.480
       405  -8.9375     90.4139     94.0767   7.9636182155e+01   4.6263325453e+01    0.2715161    0.2194164  31.28 0.0003038942    1.260    0.206
       406 -10.1493     63.7120     95.7128   8.9374613458e+01   5.0210468930e+01    0.6459114    0.3832623 -74.29  0.001542274    2.746    0.636
       407  -9.3783     45.7635     92.5831   9.5218405869e+01   5.3222479909e+01    0.4794725    0.2549255  -9.04    0.0018341    3.083    0.676
       408  -8.9841    246.4920     93.4746   4.5660446511e+01   1.2927756798e+01    0.1317744    0.1093426 -49.24 0.0002241339    1.008    0.008
       409  -8.2225    164.8141     94.0727   5.9377880827e+01   3.0221500599e+01    0.2353471    0.1993367 -69.27 0.0005199182    1.297    0.229
       410  -9.5235    138.9968     91.9301   6.4804254768e+01   3.6589312236e+01    0.4608647    0.2893401 -53.91  0.001207592    1.812    0.448
       411 -10.1645    123.8581     91.0945   6.8568151019e+01   4.0143912674e+01    0.5362228    0.4422692  28.88  0.001157364    1.258    0.205
       412  -9.2413    108.8837     92.0819   7.3197632437e+01   4.3117716279e+01    0.6272921    0.3039311  27.50  0.002064149    3.090    0.676
       413  -9.6165      5.3935     92.2972   1.1046034115e+02   5.6535006341e+01    0.3056697    0.2186376  58.35  0.001502182    1.797    0.443
       414  -8.1962    157.8336     91.5810   6.0227100859e+01   3.2315642576e+01    0.2433211     0.180369 -47.30 0.0003463107    1.352    0.260
       415  -9.6277     34.7822     89.7559   9.8738117477e+01   5.5028110086e+01    0.4851507    0.2815116 -82.07   0.00157251    2.694    0.629
       416  -8.6087     35.0359     82.9732   9.6982360464e+01   5.6584066635e+01    0.2978754    0.1323504 -38.62  0.001260763    2.161    0.537
       417  -9.1582     23.1736     90.1339   1.0331102897e+02   5.5930587263e+01    0.3293131    0.2439363  -2.43  0.001220453    1.502    0.334
       418  -8.0314    150.9556     88.9900   6.1069241078e+01   3.4409575762e+01    0.2353099    0.1841954 -73.35 0.0004280102    1.579    0.367
       419 -10.2431     86.4910     86.2913   7.8639693481e+01   4.8675878387e+01    0.6198176    0.4325737 -59.60  0.001700907    1.726    0.421
       420  -9.3590    249.0461     87.7937   4.4152467156e+01   1.3361912924e+01     0.191899    0.1492173  22.21  0.001097242    1.946    0.486
       421  -8.3781    163.4961     87.3528   5.7830572492e+01   3.1791475234e+01     0.292117    0.1878601  48.64  0.001062181    1.572    0.364
       422  -9.7754     48.4144     84.0237   9.1966756788e+01   5.4901092238e+01    0.5324031    0.3705296  81.63  0.002136715    2.619    0.618
       423  -9.8023    104.9322     83.3017   7.1740009420e+01   4.5750044554e+01    0.4694269    0.3469229 -75.29  0.001021523    2.076    0.518
       424  -8.2423    157.9707     83.9457   5.8072996327e+01   3.3713934579e+01    0.2298332    0.1792572 -73.04 0.0003824436    1.545    0.353
       425  -9.3678    140.8292     82.4318   6.1588257341e+01   3.8004719717e+01    0.3805561    0.2117498 -45.70  0.000948732    1.859    0.462
       426  -7.4011    185.3090     82.6538   5.2322998802e+01   2.7562412059e+01    0.1544714     0.108792 -69.50 0.0007044487    1.703    0.413
       427  -9.6583     24.7364     80.6495   1.0056715337e+02   5.8026063555e+01    0.4368562    0.2936133  87.37  0.001480265    2.278    0.561
       428  -9.4270      9.7369     80.9002   1.0669116303e+02   5.8983613993e+01    0.3374849    0.1982248  58.67  0.001227418    2.681    0.627
       429  -8.5454    249.6910     81.3281   4.2729014389e+01   1.4252523605e+01    0.1338608    0.0833934 -62.33 0.0003569747    1.660    0.398
       430  -8.4457    150.1470     80.6497   5.8876081396e+01   3.6155993329e+01    0.2672397    0.2029648 -52.45 0.0006163573    1.390    0.280
       431  -8.8099    119.3177     80.3334   6.6585944809e+01   4.3279874494e+01    0.3379022    0.2473192 -55.66 0.0008978118    1.584    0.369
       432  -9.0617     74.4641     79.8863   8.0890047406e+01   5.2112775177e+01    0.4010065    0.2595818 -66.89  0.001375105    2.365    0.577
       433  -8.4504    166.8357     79.7354   5.5049380672e+01   3.2381994961e+01     0.239734     0.199286 -27.89 0.0004044885    1.283    0.221
       434  -7.9496    184.0000     78.0851   5.1371766309e+01   2.8648435056e+01    0.2360967   0.08018799 -37.10 0.0007273435    2.873    0.652
       435  -9.4949    128.0176     75.3696   6.2694448012e+01   4.2262537431e+01    0.4049803       0.2707 -51.05 0.0006711172    1.672    0.402
       436  -8.7217    106.9153     76.5269   6.9002053820e+01   4.6679231780e+01    0.4075777    0.2258228  35.86  0.001680997    1.891    0.471
       437  -8.8806    106.0281     72.0838   6.7837357467e+01   4.7707919119e+01    0.2889233    0.2366649 -70.54 0.0007181038    1.616    0.381
       438  -8.8838    140.0565     74.6768   5.9472577365e+01   3.9601641424e+01    0.3926083    0.1889588 -48.95  0.001468735    2.382    0.580
       439  -9.7627     82.4704     72.8949   7.5793882747e+01   5.2169299010e+01    0.4032312    0.2950674 -64.24  0.001099153    1.908    0.476
       440 -10.0748     63.0330     73.1371   8.3036205277e+01   5.5319719788e+01    0.6133487    0.2842256 -54.68  0.001209679    2.514    0.602
       441  -8.7341     64.5578     62.9479   7.9057940789e+01   5.7128283421e+01    0.4076796    0.2277394  14.17  0.001702631    2.423    0.587
       442  -8.3123    163.5076     73.4869   5.3986164004e+01   3.4251382881e+01    0.2618358    0.1277693 -47.64  0.001019775    2.170    0.539
       443  -8.0059    175.3934     72.7494   5.1507971900e+01   3.1557872155e+01    0.1891579     0.140006 -27.55 0.0004176123    1.491    0.329
       444  -8.8516    115.7258     72.7560   6.5216947870e+01   4.5495971265e+01     0.293804    0.2023867 -48.51 0.0006807904    1.589    0.371
       445  -8.1434     42.5321     72.9810   9.1199355585e+01   5.8034997308e+01    0.2055535    0.1225145 -51.69 0.0005746749    1.550    0.355
       446  -9.2959     29.1808     70.3835   9.6079175170e+01   5.9952906109e+01    0.5784673    0.2338298 -24.77  0.001979757    4.032    0.752
       447  -9.1759     95.1594     71.1894   7.0947860313e+01   5.0099044175e+01    0.3411332    0.2401495 -55.52 0.0008898857    1.751    0.429
       448  -9.4670     51.4146     69.6269   8.6527538944e+01   5.7670703382e+01    0.4636014    0.2785282 -66.77  0.001512938    2.604    0.616
       449  -8.3204    151.3879     73.2188   5.6448265101e+01   3.7181216873e+01     0.212468    0.1347858 -48.44 0.0005019858    1.663    0.399
       450  -7.9568    156.9725     70.0002   5.4329725940e+01   3.6397747923e+01    0.1796685    0.1660454 -43.64 0.0003562566    1.099    0.090
       451  -8.8078    147.0933     68.1665   5.5908549473e+01   3.9062493219e+01    0.3126508    0.2014692 -43.77 0.0006280289    1.597    0.374
       452  -8.5730    138.6062     66.2192   5.7252730334e+01   4.1401642773e+01    0.2727048    0.2229151 -79.76 0.0007135763    1.485    0.327
       453  -8.8641    121.5858     66.0207   6.1444327601e+01   4.5383501437e+01    0.2884069    0.2325642 -65.70 0.0007594858    1.540    0.351
       454  -8.8925     84.3051     64.7952   7.2425697638e+01   5.3386622439e+01    0.4693628    0.2429823  17.60  0.001563054    3.634    0.725
       455  -8.9961     37.1702     64.4818   9.0903631719e+01   6.0429639054e+01    0.2782884    0.2240467 -73.71 0.0009568371    1.708    0.414
       456  -8.3445     37.6720     59.6847   8.9158629303e+01   6.1359419812e+01    0.2363106    0.1183814 -22.58 0.0009964792    2.505    0.601
       457  -8.8437    110.2797     63.6373   6.3795223811e+01   4.8310618265e+01    0.2769618    0.2309249 -73.19 0.0007400853    1.578    0.366
       458  -8.5452     17.4412     63.5314   9.9353253372e+01   6.2383076580e+01    0.3768558    0.1442161 -26.49  0.001435113    3.416    0.707
       459  -7.8589    158.0550     61.9747   5.1804439753e+01   3.7441314159e+01     0.170858    0.1653088 -70.98 0.0003487885    1.041    0.039
       460  -9.1979     16.4962     70.0053   1.0143881790e+02   6.1036433750e+01    0.3058399    0.2093044 -78.94 0.0009046164    1.857    0.461
       461  -9.4821     97.6850     60.3105   6.6451246103e+01   5.1556435197e+01     0.344527    0.3021232 -52.45   0.00112806    1.339    0.253
       462  -9.6700     73.2928     59.5509   7.4537386027e+01   5.6327574670e+01     0.384046    0.2424712 -50.87  0.001181834    1.897    0.473
       463  -8.8756     88.8894     59.5772   6.9044304457e+01   5.3449445497e+01    0.2229153    0.1703905 -41.96 0.0005271165    1.400    0.286
       464  -7.7101    146.7876     59.0067   5.3236374919e+01   4.0614410639e+01    0.1874233     0.118022 -34.94 0.0004382876    1.657    0.397
       465  -9.8700     23.5502     56.4683   9.4528280766e+01   6.3388055764e+01    0.4256732    0.3014867  83.31   0.00210826    2.865    0.651
       466  -8.2103    130.9198     57.9452   5.6490667792e+01   4.4553715378e+01    0.2212999    0.1750786 -73.55 0.0005572626    1.598    0.374
       467  -9.5818      7.4119     57.2113   1.0225740588e+02   6.4364953812e+01    0.2644606    0.2089004 -84.21  0.001008508    1.690    0.408
       468  -7.6570    193.6960     56.7143   4.4339187733e+01   2.9785322769e+01    0.1293252    0.1067776  30.11 0.0001893794    1.562    0.360
       469  -8.4270    139.9749     56.0232   5.3801507095e+01   4.2705261994e+01    0.2267356    0.1704735 -70.56  0.000494139    1.667    0.400
       470  -9.3060    119.0330     55.0805   5.8533145036e+01   4.7756723922e+01    0.4502151    0.2299902 -40.59  0.001418066    2.076    0.518
       471  -9.2823     62.6626     53.8827   7.6568699894e+01   5.9109844668e+01    0.5310028    0.2104795 -50.09   0.00156192    3.297    0.697
       472  -8.9836     44.2053     55.4863   8.4867611280e+01   6.1422889538e+01    0.2732838    0.2289761 -78.80  0.001089237    1.896    0.473
       473  -9.1284     54.0118     53.4657   7.9946025362e+01   6.0490233004e+01    0.4639668    0.2483534 -57.99   0.00180094    3.049    0.672
       474  -8.4336    249.3148     54.6777   3.7290946862e+01   1.8252536606e+01    0.1311649    0.0762186 -63.27 0.0003545351    1.660    0.398
       475  -8.6435    105.7327     53.0487   6.1494775056e+01   5.1042738972e+01    0.2908523    0.2150277 -63.18 0.0007925612    1.910    0.476
       476  -9.4635     92.3293     50.7160   6.4739376356e+01   5.4236710981e+01    0.3753285     0.238741 -47.20  0.001116478    1.884    0.469
       477  -8.4093     75.3964     51.3878   7.0782815285e+01   5.7384896630e+01    0.2742575    0.1111865  29.86 0.0009517914    3.218    0.689
       478  -9.1291      8.1118     49.7855   9.9877542624e+01   6.5862773780e+01    0.2624947    0.1000776 -38.98  0.001240417    2.101    0.524
       479  -8.7950    144.7235     48.9856   5.0628099187e+01   4.2601168608e+01    0.1968431    0.1792475 -37.17 0.0005434479    1.167    0.143
       480  -8.3500    129.8947     49.1523   5.3907330286e+01   4.6120395209e+01    0.2138979    0.1926492 -81.62 0.0005311788    1.246    0.198
       481  -8.9560    121.2820     47.8103   5.5529347245e+01   4.8328985842e+01    0.3382787    0.2255012 -52.95   0.00114103    1.853    0.460
       482  -8.6792    112.1731     46.7691   5.7516835392e+01   5.0561289266e+01     0.236795    0.1862846 -43.95 0.0006596869    1.422    0.297
       483  -9.1910     82.0883     46.1620   6.6441176684e+01   5.6979830721e+01    0.3399663     0.207023 -43.31 0.0009597589    1.869    0.465
       484  -8.1380    161.5148     46.2165   4.6642228227e+01   3.8925607226e+01    0.1772202    0.1393286 -11.90 0.0004160417    1.582    0.368
       485  -7.9087    152.6730     45.3176   4.7973892739e+01   4.1189625102e+01    0.1457732    0.1048169 -73.60  0.000704575    1.677    0.404
       486  -8.3653     45.0927     44.8327   8.0559400485e+01   6.3267069093e+01    0.1811785    0.1685971 -13.00 0.0005861752    1.264    0.209
       487  -9.1068     16.7417     44.3637   9.3903146079e+01   6.6343624584e+01    0.3012111    0.1703886 -60.15   0.00128188    2.048    0.512
       488  -8.7927     92.8005     42.8505   6.1686246456e+01   5.5329718733e+01    0.2902713    0.1904302 -12.59  0.001411773    1.795    0.443
       489  -8.9105     58.2521     42.8148   7.4118627786e+01   6.1697870352e+01     0.272449     0.202015 -54.67  0.001082154    1.930    0.482
       490  -8.0313    132.7659     43.5497   5.1450743804e+01   4.6223024913e+01    0.1899324    0.1318549  70.39 0.0003935017    1.542    0.351
       491  -9.3368     69.6729     41.6741   6.9166286474e+01   5.9967345520e+01    0.3270559    0.2526276 -56.02  0.001000413    1.883    0.469
       492  -9.6090      5.3124     42.1624   9.8990140265e+01   6.7544683939e+01    0.2949659    0.2214167 -82.40  0.001265915    2.051    0.512
       493  -8.5657    106.0400     41.3272   5.7255395866e+01   5.2698824893e+01    0.2876259    0.1854531 -41.12 0.0009407752    1.738    0.425
       494  -8.0636    140.3850     41.2483   4.9119772477e+01   4.4704689554e+01    0.1898251    0.1273481 -43.31 0.0006886018    1.605    0.377
       495  -8.7421     36.7794     40.5290   8.2699599943e+01   6.5065522439e+01    0.2732506    0.1717748 -51.93 0.0008422767    1.953    0.488
       496  -8.8916     95.5190     38.0573   5.9061010265e+01   5.5428605481e+01    0.2536013    0.2142012 -56.12 0.0007931077    1.523    0.343
       497  -8.1248     80.9013     36.9481   6.3274665380e+01   5.8566222407e+01     0.193453    0.1693365 -76.83 0.0005204109    1.703    0.413
       498  -7.7420    133.4780     36.4617   4.9016170404e+01   4.6976448640e+01    0.1385302    0.1264105  58.81 0.0001334055    1.015    0.015
       499  -8.2850    125.9679     35.5513   5.0327397420e+01   4.8875151799e+01    0.1927368    0.1866533   1.82 0.0003936843    1.114    0.102
       500  -9.3753     26.1573     35.2986   8.5819879106e+01   6.7152665581e+01    0.2888133    0.1975171 -49.96 0.0009469516    1.682    0.406
       501  -8.6069    111.8524     34.5708   5.3315304367e+01   5.2276560449e+01     0.252254    0.1694794 -48.65 0.0005960849    1.823    0.451
       502  -7.7838     88.5131     34.5201   5.9844469027e+01   5.7366130831e+01    0.1353761    0.1208831  26.55 -2.247435e-06    1.047    0.045
       503  -8.9120     48.5291     33.2681   7.4337965064e+01   6.4682893186e+01    0.2340759    0.2163815 -43.23 0.0007529475    1.520    0.342
       504  -8.3123    119.2038     33.1958   5.1061810759e+01   5.0751306168e+01    0.1795486    0.1588608 -75.87 0.0004356546    1.329    0.248
       505  -8.7516     60.8243     32.3475   6.8776478590e+01   6.2876174477e+01    0.2551188    0.1730903 -43.86 0.0008482198    1.835    0.455
       506  -8.6968     72.3903     31.3922   6.3991870034e+01   6.0950792835e+01     0.244411    0.1977246 -76.10 0.0007844269    2.213    0.548
       507  -7.6969    139.2726     31.6344   4.6329789517e+01   4.6171883079e+01    0.1382945    0.1000216 -66.07 0.0007001549    1.665    0.399
       508  -9.1410     12.8477     30.1542   9.0779804973e+01   6.9260123742e+01    0.2994958    0.1627149 -55.16  0.001536735    2.123    0.529
       509  -8.1703    101.4847     29.4712   5.4149679075e+01   5.5224256318e+01    0.2095006    0.1209011 -40.32 0.0005820786    2.010    0.503
       510  -8.2893     41.8740     30.1004   7.5990438542e+01   6.6110618387e+01    0.1810638    0.1619191  -6.87 0.0005262829    1.251    0.200
       511  -9.2020      3.6941     27.8664   9.4990356613e+01   7.0314361783e+01    0.2286994     0.163416 -56.51 0.0008551218    1.624    0.384
       512  -8.7559     81.5019     27.3960   5.9237370786e+01   5.9694368560e+01    0.2451645    0.1964954 -64.18 0.0006492989    1.924    0.480
       513  -7.8727     52.8445     27.8175   7.0107469051e+01   6.4819313646e+01    0.1516027    0.1371547  13.96 0.0009967741    1.251    0.201
       514  -8.9553     91.9092     26.5804   5.5718702873e+01   5.7639493994e+01    0.2284733    0.1919821 -26.10 0.0005565127    1.313    0.239
       515  -8.5801     49.0563     26.0053   7.0937515294e+01   6.5661955283e+01    0.1832871    0.1542213   2.83  0.001195484    1.086    0.079
       516  -7.8635    104.6597     23.2896   5.1025556541e+01   5.5216638549e+01    0.1276603    0.1031958 -82.50 0.0003137933    1.645    0.392
       517  -7.7897     34.4885     23.4377   7.6556482647e+01   6.8083669880e+01    0.1239379   0.09791134  -1.67  6.08702e-05    1.022    0.021
       518  -7.9561    116.3576     22.3881   4.7955472403e+01   5.2637100252e+01    0.2053467    0.1345492  33.01 0.0005911175    1.599    0.375
       519  -9.0131     63.5074     21.0225   6.2810786534e+01   6.3890795387e+01    0.3035649    0.2010297 -41.72  0.001201186    1.949    0.487
       520  -8.7973     48.2966     21.4844   6.9217288615e+01   6.6388720050e+01    0.2128021    0.1840714 -18.48  0.000655462    1.301    0.231
       521  -8.6270    218.6268    247.5037   8.0855797669e+01  -8.1697598314e+00    0.3112436    0.1315727 -41.24   0.00152439    2.619    0.618
       522  -9.0340    211.2528    246.9210   8.2166150549e+01  -7.1273698753e+00    0.2955781    0.2363352 -70.66  0.001420735    2.816    0.645
       523  -8.3132     19.4283     21.2493   8.3417174686e+01   7.0140759529e+01    0.1560438    0.1053854 -46.39 0.0009540785    1.762    0.432
       524  -8.4821     87.8686     17.4077   5.3231498455e+01   5.9497007077e+01    0.1986593    0.1732055 -29.51  0.000443323    1.342    0.255
       525  -8.9667    175.5858    247.7967   8.9397744687e+01  -2.3046144354e+00    0.2826148    0.2355752  73.95  0.001152452    2.006    0.501
       526  -7.7214    112.6927     16.7013   4.6751122096e+01   5.4058546402e+01     0.137097   0.08685092  35.14 0.0002493698    1.593    0.372
       527  -8.1380     30.0519     16.0158   7.5290489823e+01   6.9695653649e+01    0.1539319    0.1494137 -13.46 0.0006036231    1.665    0.399
       528  -9.3587    147.1802    246.0443   9.5069581975e+01   2.1829449707e+00    0.3122501    0.2241556  68.13  0.001579912    2.134    0.531
       529  -7.7119    120.5202     21.0082   4.6584476061e+01   5.1808665734e+01     0.178647    0.1010535 -52.83 0.0008079625    2.391    0.582
       530  -7.6717     17.3646     14.1836   8.1265200462e+01   7.1410564402e+01    0.1451086   0.09844756 -39.93 0.0003816207    1.624    0.384
       531  -8.4929    146.6068    240.0991   9.4350554745e+01   3.3096484150e+00    0.3665132    0.2418164  73.78  0.001308287    3.024    0.669
       532  -7.5653     83.6834     11.3104   5.1924555103e+01   6.0969184515e+01    0.1158718   0.09990721 -78.49 0.0005674154    1.638    0.389
       533  -9.0578    132.1577    247.9663   9.8516822987e+01   4.0938015454e+00    0.2732195    0.2094222  74.10 0.0007481283    1.771    0.435
       534  -7.6026     47.5517     10.4962   6.4301841659e+01   6.7831881246e+01    0.1217723   0.09833793  13.66 8.333517e-05    1.059    0.056
       535  -8.4328    113.0454    248.5585   1.0264831606e+02   6.8078497363e+00    0.2298949    0.1707871  87.71  0.001189516    1.756    0.430
       536  -9.2152    104.0068    246.9616   1.0438103713e+02   8.4149726952e+00    0.4118204    0.2240355 -80.52  0.001874545    2.973    0.664
       537  -9.0716    242.8316    246.8853   7.6318727792e+01  -1.1053264997e+01    0.3463255    0.1400451 -34.80  0.001537581    2.322    0.569
       538  -8.5026    202.4608    248.4914   8.4121320855e+01  -6.1785631202e+00    0.2279909   0.09938175  22.99  0.001036352    2.340    0.573
       539  -8.7205    156.1320    247.8978   9.3445077652e+01   5.3332510478e-01    0.1862345    0.1597197  42.63 0.0005876566    1.254    0.202
       540 -10.1262    223.8719    244.1825   7.9326796783e+01  -8.3782863122e+00    0.4391854    0.2305909 -43.40  0.002348539    2.334    0.572
       541  -8.0686    168.2546    247.4270   9.0852000831e+01  -1.1779299264e+00    0.1844152    0.1033981  40.25 0.0009514185    1.679    0.404
       542  -9.4126    120.2343    245.6595   1.0076565128e+02   6.2827945341e+00    0.3754779    0.2237992  62.70  0.001754715    2.313    0.568
