#   1 NUMBER                 Running object number                                     
#   2 MAG_AUTO               Kron-like elliptical aperture magnitude                    [mag]
#   3 X_IMAGE                Object position along x                                    [pixel]
#   4 Y_IMAGE                Object position along y                                    [pixel]
#   5 X_WORLD                Barycenter position along world x axis                     [deg]
#   6 Y_WORLD                Barycenter position along world y axis                     [deg]
#   7 A_WORLD                Profile RMS along major axis (world units)                 [deg]
#   8 B_WORLD                Profile RMS along minor axis (world units)                 [deg]
#   9 THETA_WORLD            Position angle (CCW/world-x)                               [deg]
#  10 FWHM_WORLD             FWHM assuming a gaussian core                              [deg]
#  11 ELONGATION             A_IMAGE/B_IMAGE                                           
#  12 ELLIPTICITY            1 - B_IMAGE/A_IMAGE                                       
         1 -16.5772    246.9616    120.4800   5.5385002418e+01   8.0272122451e+00     7.003815     4.076846  16.00   0.02660892    3.929    0.745
         2 -17.4346    232.7762     71.0877   4.6303659730e+01   1.8855869925e+01     7.264299     4.369005  -2.65   0.02534043    4.727    0.788
         3 -17.5174    212.2216     49.2055   4.3729379559e+01   2.6584900155e+01      7.47788     4.469279  28.05   0.03062881    3.334    0.700
         4 -17.3197    227.9517     95.1136   5.2493785831e+01   1.5984341109e+01     10.99731     4.385571  69.08   0.02527665    5.684    0.824
         5 -16.9398    222.1751     81.1735   5.0065987171e+01   1.9509927854e+01     9.956174      5.03609 -73.96   0.02344384    5.375    0.814
         6 -12.1922    113.2354     29.5104   5.5143170427e+01   5.2814492145e+01    0.6026415    0.4390766 -34.52  0.001296336    1.488    0.328
         7 -11.7651     15.9369     15.9889   8.6565790014e+01   7.1109983907e+01    0.6172925    0.3682674  38.34  0.003044165    2.347    0.574
         8 -10.7693     68.3208     14.7329   6.2274915685e+01   6.3837384519e+01    0.2836093    0.2651684  65.70  0.001184312    1.473    0.321
         9 -10.5134     51.6046     14.1894   6.8392736514e+01   6.6787239887e+01    0.3610751    0.2879593 -72.64  0.001993751    2.797    0.643
        10 -10.1496    168.5060     10.1664   3.9065155558e+01   4.1626516320e+01    0.4522608     0.340483  -1.13  0.002600058    1.766    0.434
        11 -10.4139    250.5408      8.8891   3.1339297719e+01   2.3388802496e+01    0.2388831   0.09572391 -46.75 0.0009431808    1.973    0.493
        12  -7.5177    248.4829      3.9380   3.0503600319e+01   2.4336604391e+01    0.1825077   0.09054062 -42.11 0.0005912814    1.717    0.418
        13 -17.7486    247.2676     68.7050   4.4053536531e+01   1.6260013003e+01     9.558377     2.182123 -35.03   0.03083649    4.110    0.757
        14 -10.3532    244.5467      7.6565   3.1493033566e+01   2.4729657552e+01      0.28425    0.1470834 -57.82  0.001626758    1.631    0.387
        15  -9.5627    244.4476      3.2846   3.0630738471e+01   2.5218515530e+01    0.1578214    0.1225599 -87.38 0.0002706801    1.163    0.140
        16  -9.6376     60.4546      9.3242   6.2596016006e+01   6.5840561038e+01    0.1903068    0.1515377  61.96  0.001125508    1.761    0.432
        17  -9.6111    209.2154      4.7803   3.3532415116e+01   3.2612940013e+01    0.3451827    0.2687819  10.08  0.002107771    1.976    0.494
        18 -10.4214     51.7607      6.7709   6.4708931379e+01   6.7599102141e+01    0.3560619    0.1771192  49.01  0.001842218    2.154    0.536
        19 -10.5151    107.4712      3.8913   4.6929888637e+01   5.6693258431e+01    0.3619422    0.3087932  60.12    0.0013115    1.110    0.099
        20 -10.8556    101.9958      3.3076   4.7892526618e+01   5.7970192038e+01    0.4820385    0.2963046  45.97 0.0006837152    1.375    0.273
        21 -10.7841     71.6885      4.2238   5.6353098975e+01   6.4246951431e+01    0.3863212    0.3213329 -25.87  0.001696229    1.403    0.287
        22  -9.3455    162.2512      3.8292   3.8061515148e+01   4.3717261800e+01    0.2465113    0.2079032  81.22 0.0009891877    1.032    0.031
        23 -10.4098     78.4228      2.8768   5.3706631658e+01   6.3028977660e+01    0.3167776    0.2585081 -37.64   0.00157135    1.538    0.350
        24 -10.1908     65.5185      4.8135   5.8653945638e+01   6.5366873277e+01      0.24737    0.1570459  23.69   0.00121531    1.450    0.310
        25  -9.3054    176.0846      2.8362   3.6201672422e+01   4.0492740960e+01    0.2635878    0.1603156 -38.37  0.001459742    1.708    0.415
        26 -10.1512     92.4757      3.5107   5.0210964031e+01   6.0040474181e+01    0.2531501     0.240295  41.81 0.0008917446    1.165    0.142
        27  -9.3388     11.2610      4.1904   8.3431490053e+01   7.3272168603e+01      0.13735    0.1165822  -9.77 0.0006502665    1.332    0.249
        28  -9.4177     44.9747     13.5321   7.0905598783e+01   6.7895524899e+01    0.1804832    0.1060544  35.37 0.0007627918    1.597    0.374
        29  -8.7426     85.6008    192.2751   1.0487643225e+02   2.3282833880e+01    0.1846023    0.1595052  64.96  0.001039233    1.075    0.070
        30  -9.7244    135.4460    193.0252   9.3147079398e+01   1.4953788526e+01    0.2790063    0.1893177  52.01 0.0008029737    1.545    0.353
        31  -8.6550     71.1506    188.1205   1.0779753501e+02   2.6316216087e+01    0.1960426    0.1466131  75.20 0.0006794824    1.334    0.250
        32  -9.0242     65.6569    187.9135   1.0909389213e+02   2.7107615579e+01     0.252697    0.1639289  62.35  0.001079075    1.564    0.361
        33  -9.2657    108.8765    187.1882   9.8494501950e+01   2.0787415554e+01    0.2229799    0.1824664  65.80  0.000570127    1.265    0.210
        34 -10.1031    168.4525    186.0046   8.4344734898e+01   1.0473321696e+01    0.2800072    0.2078574  34.61 8.402018e-05    1.297    0.229
        35 -15.7162    218.1493     63.4012   4.6387584577e+01   2.3183155649e+01     1.343364    0.7283238 -29.58  0.006143134    2.003    0.501
        36 -10.6269    171.7975    181.3745   8.2702148789e+01   1.0784191096e+01    0.3665666    0.2733817  36.90  0.001159766    1.307    0.235
        37  -9.9072    165.0626    181.5428   8.4231375997e+01   1.1994373781e+01    0.2296633     0.193815 -39.24 0.0004987902    1.206    0.171
        38  -9.6068     92.4687    178.6199   1.0118211326e+02   2.5426819921e+01    0.5463374     0.283103  63.98  0.002018714    2.939    0.660
        39 -10.2315    160.5528    176.5062   8.4255017842e+01   1.3874047412e+01    0.4959295    0.2784141  39.64  0.002149506    1.741    0.426
        40 -10.7402    171.6959    171.7885   8.0786161463e+01   1.2740837827e+01    0.4798321    0.3216938 -30.94  0.001365163    1.590    0.371
        41  -9.8272     87.4303    171.6583   1.0135746790e+02   2.7874982400e+01    0.4721011    0.3293563 -44.49  0.002327917    1.579    0.367
        42 -16.6812    242.5688    106.9286   5.3053522350e+01   1.1108182172e+01      4.22901     1.126201  49.78   0.01455673    4.224    0.763
        43  -8.2905     32.3132    168.3197   1.1499829164e+02   3.5711139947e+01    0.1284105   0.09020754 -46.06 0.0007037898    1.650    0.394
        44 -10.9293    154.4494    162.2958   8.2748339218e+01   1.8079255342e+01    0.7577761    0.5032125 -89.86  0.002762531    3.123    0.680
        45  -9.9581    154.9955    156.7646   8.1429805018e+01   1.9179378856e+01    0.3941914    0.2233536 -53.31  0.001604737    1.916    0.478
        46  -8.7894     77.8155    163.1793   1.0250849484e+02   3.1387190778e+01    0.1981832    0.1711279 -32.98  0.001081312    1.351    0.260
        47 -10.9206    124.1832    158.0505   8.9330905180e+01   2.4860037188e+01     1.021488    0.5895928  10.57  0.003205209    3.968    0.748
        48  -8.3596     15.4964    159.4793   1.1830538264e+02   3.9382703463e+01    0.1271891     0.103251 -85.32  0.000810311    1.007    0.007
        49 -10.0870     94.9387    157.2262   9.6885431140e+01   3.0202060968e+01    0.4846186    0.3166208  86.81  0.002030852    2.187    0.543
        50 -10.3223    143.7174    155.6265   8.3904817128e+01   2.1665726964e+01    0.4781306    0.3934745  53.24  0.002379121    1.284    0.221
        51 -10.3246    181.1736    155.1973   7.5149440224e+01   1.4286266462e+01    0.3032663    0.2667314 -58.22 0.0004113052    1.270    0.213
        52 -11.0024    179.1003    150.8115   7.4618365991e+01   1.5598175474e+01    0.4356017    0.3890139  74.85  0.001285112    1.355    0.262
        53 -10.5990    136.3524    151.4271   8.4826046119e+01   2.4069723289e+01    0.5142285    0.4118584  50.35 0.0006409624    1.294    0.227
        54 -11.9150    132.9536    140.5760   8.3260452344e+01   2.7249434034e+01    0.9893794    0.5414082 -59.48  0.003753121    2.187    0.543
        55 -11.1975    137.8028    139.7387   8.1820603122e+01   2.6465715768e+01    0.5607793    0.3252967 -53.90  0.002272641    1.812    0.448
        56  -9.9180     52.1103    150.7679   1.0756494134e+02   3.7888412494e+01    0.3453038    0.1912052 -69.84  0.001125234    1.667    0.400
        57 -12.9069     44.0923    142.1846   1.0854388917e+02   4.0951887622e+01     1.439268    0.6932061 -69.36  0.006391309    1.885    0.469
        58  -9.7614    104.2530    145.6991   9.2080181761e+01   3.1444484599e+01    0.3334883    0.2644777  68.21  0.001089649    1.447    0.309
        59 -10.2565     84.5159    143.6639   9.7199968170e+01   3.5228202354e+01    0.3176417    0.2169881 -75.40    0.0014593    1.634    0.388
        60 -10.3106    120.1572    141.5340   8.6852066958e+01   2.9528129499e+01    0.6018804    0.3764499  73.01  0.002169223    2.841    0.648
        61  -9.7303    163.8792    136.6166   7.4736693300e+01   2.1732478445e+01    0.3573361    0.3331042  37.82  0.001434595    1.097    0.088
        62 -10.4510    159.0887    138.4039   7.6279959106e+01   2.2356173282e+01    0.3803131    0.2945515 -51.67 0.0006060979    1.321    0.243
        63  -9.7496    158.4748    133.9758   7.5364706791e+01   2.3447868327e+01     0.337738    0.2616396 -44.26  0.001108458    1.264    0.209
        64  -9.3064    151.1590    139.8550   7.8521086292e+01   2.3694238982e+01    0.2383263    0.2160604 -87.48 0.0007054375    1.259    0.206
        65  -9.7977    151.5102    149.8422   8.0731779323e+01   2.1404277388e+01    0.4720519    0.3060222  72.41  0.001594324    2.681    0.627
        66 -10.9988    140.5909    133.0106   7.9514980166e+01   2.7427127267e+01    0.6142648    0.3213502  53.12  0.001934453    2.251    0.556
        67  -9.9852     85.7263    149.3671   9.7946539630e+01   3.3618629553e+01    0.3130128    0.2581492  40.46  0.001644053    1.258    0.205
        68 -10.0434     85.1734    133.4365   9.4942672746e+01   3.7672113818e+01    0.5988926    0.3129435 -62.83  0.002407349    1.994    0.499
        69 -10.0385     89.3360    131.9699   9.3406234204e+01   3.7363256675e+01    0.4768943    0.3153656   7.46  0.001975704    2.307    0.567
        70  -9.7887     60.0570    136.0545   1.0289002407e+02   4.0614466508e+01    0.2362243     0.165044  73.38  0.001139132    1.733    0.423
        71  -8.7707    250.0806    134.7062   5.7970755194e+01   5.0997118809e+00    0.1691564    0.1359711 -36.50 0.0002913318    1.073    0.068
        72 -11.2757    148.6173    130.9746   7.7012442293e+01   2.6199308049e+01    0.9376338    0.5290759  65.57  0.003144462    3.126    0.680
        73  -9.9233    145.8687    125.4483   7.6324823327e+01   2.8009483869e+01    0.3532478     0.330342  61.24  0.001011257    1.130    0.115
        74 -11.2045     61.7364    149.2676   1.0464951483e+02   3.7072421284e+01    0.4979507     0.348411 -35.67  0.002476696    1.718    0.418
        75  -9.1510    104.6174    133.2727   8.9279963570e+01   3.4407346245e+01    0.3905472    0.2211709 -38.58   0.00155775    1.976    0.494
        76  -8.8776    248.2234    129.5645   5.7154491834e+01   6.2805448471e+00    0.1681059    0.1508987  17.08  0.001045359    1.259    0.205
        77  -8.5621      6.0638    142.4996   1.1910692271e+02   4.4192455789e+01    0.1440755    0.1236158  34.39 0.0009692871    1.408    0.290
        78 -11.3836     56.0469    143.2874   1.0529214444e+02   3.9293679604e+01    0.5663396    0.3117776 -85.80  0.002341805    2.356    0.575
        79  -9.5290    127.8431    124.7796   8.0821594814e+01   3.1938206505e+01    0.2995093    0.2101714 -76.43  0.001223525    2.045    0.511
        80 -15.0121    248.4433     98.1135   5.0314275875e+01   1.1444404369e+01    0.6171878    0.5275183  17.10  0.002963426    1.500    0.333
        81  -9.9922     69.2442    150.1469   1.0269250860e+02   3.5848413015e+01    0.2854711    0.1665289  58.34  0.001237582    2.064    0.516
        82 -10.4198     26.9457    124.0742   1.1090759744e+02   4.7138926315e+01    0.3630717    0.1548416  48.12  0.001518571    2.903    0.656
        83  -8.2062     49.6790    230.7238   1.1687268663e+02   1.9732710752e+01    0.1019103   0.09416715 -28.61 0.0003398204    1.577    0.366
        84 -10.2776     19.7045    123.3130   1.1299984839e+02   4.7910948589e+01    0.2239073    0.1801235  83.32 0.0007534752    1.255    0.203
        85 -10.6827    138.7589    120.0175   7.6747097715e+01   3.0735389250e+01    0.5208116    0.3375166 -41.48  0.002241274    1.526    0.344
        86 -10.8112    134.9631    120.9909   7.7980287200e+01   3.1322558693e+01    0.3944696    0.3779546 -16.44  0.001077621    1.057    0.054
        87 -10.0344    135.0228    116.4319   7.6788019209e+01   3.2330512568e+01    0.3214995    0.3034446  61.53 8.802862e-05    1.115    0.103
        88 -11.7901      4.6392    118.1802   1.1688342625e+02   5.0173718066e+01    0.5056263    0.3606503 -51.30  0.003151805    1.303    0.232
        89  -9.7238    154.0652    145.8703   7.9216242837e+01   2.1762895091e+01    0.2711217    0.2219562 -44.94 0.0006190239    1.208    0.172
        90  -9.5150     81.6034    119.2331   9.2893346760e+01   4.1744407968e+01    0.4767379    0.1525947  39.43  0.001566591    3.209    0.688
        91  -9.3409    112.6388    114.2193   8.2352388733e+01   3.7428279669e+01    0.2758861    0.2447761 -75.64  0.001393362    1.252    0.201
        92 -10.7204    142.4242    145.3125   8.1937531826e+01   2.4258384624e+01    0.4222167    0.2725497 -46.23  0.001673219    1.532    0.347
        93 -10.9626    145.9130    144.0903   8.0791660145e+01   2.3826846479e+01    0.5831323    0.3549709 -51.04   0.00184499    1.675    0.403
        94  -9.2080     71.1293    109.8704   9.4029577645e+01   4.5613992714e+01    0.2246166    0.1990979  88.44  0.001222766    1.279    0.218
        95  -9.9984    113.8385    121.2957   8.3811252885e+01   3.5543735121e+01     0.360269    0.1433573  37.55  0.001205784    2.691    0.628
        96 -10.6268      2.6150    103.8093   1.1568106920e+02   5.3735042123e+01    0.2478893    0.1641496 -56.36  0.001501831    1.231    0.188
        97  -8.5161     90.8605    102.8286   8.5902199328e+01   4.4121165976e+01    0.2012318     0.181071  89.79 0.0005309248    1.298    0.230
        98 -10.1799      6.0174    213.4904   1.2429849233e+02   2.7937841138e+01    0.1563426    0.1031062  37.99  0.001033127    1.596    0.373
        99 -10.3028     16.3792     97.9803   1.1016171273e+02   5.4309197210e+01    0.4256186    0.1382304 -51.90  0.001796602    2.333    0.571
       100  -9.1445     68.0952     98.2462   9.2171763950e+01   4.8825914851e+01    0.2699462    0.1903116 -84.33 0.0009312427    2.069    0.517
       101  -9.0639     94.9290     95.6477   8.2638220181e+01   4.5025935540e+01    0.3020478    0.2494772 -27.94  0.001537259    1.223    0.182
       102  -8.5170     44.2534     95.0021   9.9708658667e+01   5.2591434551e+01    0.1895627    0.1549707 -49.12 0.0003610772    1.058    0.055
       103  -8.7075     49.1028     88.8761   9.6477374599e+01   5.3482428615e+01    0.2054921    0.1826471 -77.79 0.0007157749    1.285    0.222
       104 -10.8894    104.8304     85.4510   7.6570833164e+01   4.5331783112e+01    0.5216571     0.410944  82.13  0.001408028    1.817    0.450
       105  -9.3298     63.6161     86.8933   9.0702989710e+01   5.2074809591e+01    0.3207536     0.192155  32.61  0.001518324    1.792    0.442
       106 -10.4274      7.6914     82.8954   1.1059905688e+02   5.8376132768e+01    0.2208997    0.1182254 -50.72  0.001204279    1.464    0.317
       107  -9.8782     81.9389     77.4726   8.1479029334e+01   5.1257203646e+01    0.3306105    0.3036759  84.75  0.001219489    1.376    0.273
       108  -9.9839     84.9340     72.3090   7.8809146909e+01   5.1782814990e+01    0.3197547    0.2620588  26.60 0.0005426021    1.231    0.188
       109  -9.1544    105.5433     77.0389   7.3740848715e+01   4.6891769263e+01    0.2165389    0.1972609  36.35  0.000308701    1.111    0.100
       110  -9.8367      2.1694    226.2940   1.2567287891e+02   2.5652492376e+01    0.3849768    0.1127028 -71.41   0.00185702    2.924    0.658
       111  -9.4789     99.0344     77.0753   7.5753617431e+01   4.8186206117e+01    0.4220986    0.2775792  67.02  0.001435993    2.444    0.591
       112  -9.0736    105.0930     71.6173   7.2131707375e+01   4.8032216294e+01    0.2369483    0.2042267 -46.30 0.0005279973    1.221    0.181
       113 -10.4067    100.1357     68.9868   7.2781651827e+01   4.9536530205e+01    0.4452535    0.2700825 -42.23  0.002018516    1.652    0.395
       114 -10.1811    100.9373     62.4574   7.0334604846e+01   5.0568863009e+01    0.5242309    0.2566632 -48.86  0.002058288    2.435    0.589
       115 -10.5195     79.4588     62.9464   7.7556231273e+01   5.4567566964e+01    0.3599328    0.2575053  23.85  0.001517864    1.453    0.312
       116  -9.4081     85.6658     55.0921   7.2647575736e+01   5.4861247610e+01    0.3087856    0.2516877  89.35  0.001288314    1.953    0.488
       117 -10.7948     92.2773     59.0729   7.1885085251e+01   5.2899458180e+01    0.6354047    0.4269349  82.94  0.002361303    3.687    0.729
       118  -8.8150     53.5889     62.7147   8.7173610087e+01   5.8605055428e+01    0.1863789     0.123475 -55.14 0.0009486066    1.657    0.396
       119  -8.9472     65.8156     57.9495   8.0787837827e+01   5.7765634639e+01     0.214969    0.1634821 -67.93  0.001091477    1.992    0.498
       120  -9.4923     57.2943     55.4115   8.3201116730e+01   5.9515439450e+01    0.2625769    0.2014405 -82.30  0.001303215    2.426    0.588
       121  -8.7587     21.0263     50.9671   9.7303509915e+01   6.4437219643e+01     0.173155    0.1502798  82.04 0.0007349456    1.719    0.418
       122  -9.6815     74.4035     49.9883   7.4700443983e+01   5.7775504350e+01    0.2593865    0.1926897  52.08  0.001375576    1.664    0.399
       123  -9.2176     59.7289     46.8323   7.9076001467e+01   6.0709436147e+01    0.1648035    0.1626849  42.77 0.0008019946    1.361    0.265
       124 -11.5161     67.9561     41.0829   7.3648218555e+01   6.0345895093e+01    0.5952641    0.3629693 -47.89  0.002947728    2.017    0.504
       125 -10.9113     72.4606     36.8413   7.0283669599e+01   6.0217304800e+01    0.3602884     0.310827 -20.46  0.001337949    1.163    0.140
       126  -9.2252    132.8572     42.8581   5.5197211858e+01   4.6514915445e+01    0.2903011    0.1947531 -37.14  0.001433869    1.566    0.361
       127 -10.1450     55.0080     39.6957   7.8197442616e+01   6.2622860915e+01    0.3112596     0.219295  -5.44 0.0008626051    1.439    0.305
       128  -8.2377     33.6478     41.3187   8.8179904390e+01   6.5089267325e+01    0.1111377    0.1012791  70.51  0.000704727    1.743    0.426
       129 -11.6971    123.4498     34.8306   5.4608864442e+01   4.9798861361e+01    0.6420506    0.3817263 -25.26  0.003065584    1.846    0.458
       130  -9.0933     45.7717     39.1163   8.1882561163e+01   6.4014684758e+01    0.1815072    0.1641178 -24.19 0.0005267552    1.241    0.194
       131  -9.1145    136.4110    224.9102   9.7961049852e+01   8.3992843000e+00    0.2671655    0.1669132  21.08  0.001094055    1.875    0.467
       132 -16.2436    240.5378     89.2246   4.9397555526e+01   1.4410697424e+01     1.216089    0.7398928 -55.33  0.006128511    1.652    0.395
       133 -10.5953     78.9538     31.4535   6.5814053984e+01   5.9787321893e+01    0.3451669    0.2906266 -44.10  0.002065331    1.465    0.317
       134 -10.0132     55.0012     32.6925   7.5318342107e+01   6.3732799697e+01       0.2796    0.2083342  35.74  0.001471761    1.413    0.292
       135  -9.7279     53.7597     27.7979   7.3729260143e+01   6.4648622734e+01    0.2679028    0.1539492  24.38 0.0009008541    1.752    0.429
       136 -11.0555     24.0734     26.9737   8.7109043544e+01   6.8569803543e+01    0.3387224    0.1803378 -50.91  0.001733061    2.153    0.535
       137  -8.6379     48.2393     25.1567   7.4904341974e+01   6.5857621468e+01    0.1536646    0.1442619  -8.66 0.0005729243    1.351    0.260
       138  -8.9126    183.4846    223.2229   8.7826369504e+01   1.1014482370e+00    0.2362306    0.1226376 -36.86 0.0007767162    2.080    0.519
       139 -10.1085    107.2338     20.5471   5.3287161088e+01   5.5190168611e+01    0.2479518    0.2118492  22.32 0.0002368764    1.139    0.122
       140  -9.7773     50.6434     18.9906   7.1060683407e+01   6.6338149079e+01    0.2367468    0.1813439 -42.26  0.001000754    1.707    0.414
       141  -8.9190     86.5181    221.5259   1.0831892876e+02   1.6750346571e+01    0.2980418    0.1591351  77.74  0.001261324    2.878    0.652
       142  -9.8343     63.7786     16.2842   6.4613469232e+01   6.4483886847e+01    0.3452237    0.1351657  43.97  0.001558535    2.304    0.566
       143  -9.4637     43.6540    221.5027   1.1735055757e+02   2.2352752366e+01    0.2446608    0.1958276  67.22  0.001249484    1.027    0.026
       144 -12.3127     15.1222    217.7009   1.2277564397e+02   2.6201983821e+01    0.4531974    0.3677822 -63.46  0.003251747    1.491    0.329
       145 -12.3846     20.4918    223.3212   1.2207758186e+02   2.4500109873e+01    0.6050028    0.3333526  42.36  0.003695048    1.641    0.391
       146  -9.0505     57.8298    209.6465   1.1329579066e+02   2.3178935818e+01    0.2099327    0.1588529 -68.92 0.0007040962    1.336    0.252
       147 -10.2496    186.9821    207.4828   8.4390335891e+01   3.2188726801e+00    0.2630234     0.224872 -87.87  0.001191737    1.813    0.448
       148  -9.0452    144.1228    209.1468   9.3869118925e+01   1.0157711837e+01    0.2024816    0.1784508  12.90 0.0003753041    1.161    0.139
       149 -10.8214     25.2495    233.5146   1.2179642373e+02   2.1937712409e+01    0.2662189    0.1549921  65.68  0.001667511    1.417    0.294
       150  -8.9901    190.3329    208.6873   8.3920198716e+01   2.4558159785e+00    0.2484019    0.1952054 -77.56  0.001283481    2.215    0.548
       151 -10.2849     11.3788     23.8387   9.2464676306e+01   7.0228326680e+01     0.178407    0.1447259  10.55  0.000786339    1.353    0.261
       152 -10.8095    185.8930    201.6110   8.3548680077e+01   4.4434585777e+00    0.2796352    0.2300223  39.35  0.001274258    1.258    0.205
       153 -11.9070     26.3816    207.2906   1.1981501494e+02   2.7304833744e+01    0.7010372    0.6379989  46.20  0.002286917    1.323    0.244
       154  -9.4860    192.4829    199.9080   8.1875154062e+01   3.6326622591e+00    0.2021213    0.1303231 -38.27 0.0007754271    1.568    0.362
       155  -8.3046     89.3907    199.1971   1.0491884665e+02   2.1145615761e+01     0.182332    0.1245326 -82.61 0.0004278354    1.627    0.385
       156  -9.0876    214.4733    198.5008   7.7250690917e+01   2.5634086553e-01    0.1354397    0.1141081  -2.39  4.58688e-05    1.025    0.024
       157 -11.0166    170.1554    196.3203   8.5916308696e+01   8.1497260979e+00    0.4345426    0.3466302 -15.92  0.002356009    1.343    0.256
       158 -11.6379     14.5790    208.0891   1.2228897081e+02   2.8297804329e+01    0.5879485     0.306215  61.73  0.003368013    1.678    0.404
       159  -9.1988    134.5243    197.5081   9.4122209014e+01   1.4167038213e+01    0.1409544    0.1324901  34.50 0.0001492304    1.015    0.015
       160  -9.1027    102.4307    232.2235   1.0615884322e+02   1.2277474411e+01    0.1688929    0.1195514 -84.38 0.0009513522    1.672    0.402
       161  -8.9107      1.5683    193.2645   1.2403241677e+02   3.2688425979e+01    0.2228493   0.09297738 -85.36 0.0008199089    2.036    0.509
       162  -9.9327    162.8097    193.3136   8.6973018872e+01   1.0037866341e+01    0.2183236    0.1690934  47.46  0.000343166    1.343    0.255
