#   1 NUMBER                 Running object number                                     
#   2 MAG_AUTO               Kron-like elliptical aperture magnitude                    [mag]
#   3 X_IMAGE                Object position along x                                    [pixel]
#   4 Y_IMAGE                Object position along y                                    [pixel]
#   5 X_WORLD                Barycenter position along world x axis                     [deg]
#   6 Y_WORLD                Barycenter position along world y axis                     [deg]
#   7 A_WORLD                Profile RMS along major axis (world units)                 [deg]
#   8 B_WORLD                Profile RMS along minor axis (world units)                 [deg]
#   9 THETA_WORLD            Position angle (CCW/world-x)                               [deg]
#  10 FWHM_WORLD             FWHM assuming a gaussian core                              [deg]
#  11 ELONGATION             A_IMAGE/B_IMAGE                                           
#  12 ELLIPTICITY            1 - B_IMAGE/A_IMAGE                                       
         1 -16.1336    148.0686    122.2195   1.0012508736e+02   2.8236331709e+01     2.816294     2.497312  70.95   0.01403607    1.194    0.163
         2 -14.8197     10.0475     20.1497   1.1483004731e+02   6.9158308023e+01      1.50841    0.6980906 -21.02  0.008549912    2.144    0.534
         3 -12.8339     96.1257      3.3068   7.6219914300e+01   5.8526299904e+01      0.40683    0.1943179  44.97  0.002066649    1.672    0.402
         4 -13.0373     81.2469      4.4944   8.0630731296e+01   6.1350423373e+01    0.6604664    0.4741987  83.89  0.003624964    2.603    0.616
         5 -13.3122     87.9107      1.9842   7.7819420228e+01   6.0275287574e+01    0.7110537     0.189038  55.03  0.002818184    3.137    0.681
         6 -12.2625     82.2942     13.5869   8.3898977910e+01   6.0322186602e+01    0.3153479    0.2233905  27.73 0.0008590968    1.204    0.170
         7 -12.7478     86.9310     11.3879   8.1705575102e+01   5.9653436449e+01    0.4630048    0.2971765  63.11  0.001752373    1.922    0.480
         8 -12.3680     74.7392     13.3117   8.6104741285e+01   6.1724919457e+01     0.338935    0.2234458  48.44  0.001828638    1.519    0.342
         9 -11.0127    123.8976     10.2800   7.2432091813e+01   5.1943449727e+01    0.2251704    0.1829642   9.57  0.000819499    1.369    0.269
        10 -10.6177    138.1493      5.8399   6.8359651873e+01   4.9035595161e+01    0.1902771    0.1265149  47.04  0.001074329    1.333    0.250
        11 -12.6640     73.2603      2.4673   8.2165479666e+01   6.2989492188e+01    0.3638745    0.2381946  -7.68   0.00206315    1.556    0.357
        12 -10.4678    176.4865     33.4588   6.9900585479e+01   3.6834982943e+01    0.1398325    0.1223704  71.67  1.71459e-05    1.022    0.022
        13 -14.5617    194.3800    151.9453   9.6678951306e+01   1.1403788021e+01     1.419089     1.131361  20.23  0.006877352    1.442    0.307
        14 -12.5987    179.9635    158.6510   1.0130631182e+02   1.3159997275e+01    0.3599584    0.2332159 -44.18  0.001198555    1.566    0.361
        15 -12.6310    170.6412    157.9279   1.0324000182e+02   1.5346775567e+01    0.4433421    0.2660505  46.92  0.001855951    1.643    0.391
        16 -11.0477    222.3989    154.7770   9.1706868464e+01   4.9282487431e+00    0.2107051    0.1333579 -29.45 0.0007307613    1.656    0.396
        17 -12.9266     58.6161    145.2782   1.2919700896e+02   3.9003610514e+01    0.6589517     0.448807  74.18  0.003117246    1.742    0.426
        18 -13.7928     50.7458    143.1486   1.3094101338e+02   4.0480640311e+01    0.8757045    0.5438081  44.37  0.003300276    1.749    0.428
        19 -13.0455    196.8135    137.1133   9.2741749145e+01   1.3881762282e+01    0.5412866    0.5014876  67.43  0.002857348    1.130    0.115
        20 -14.7463    202.0652    125.7135   8.8975716260e+01   1.4974902114e+01     1.525114     1.073182 -41.90  0.007095614    1.387    0.279
        21 -11.3489    184.6656    246.6746   1.1688574646e+02  -4.1818684323e+00    0.1322484   0.09183191  11.74 0.0007051294    1.715    0.417
        22 -12.6324    132.3266    103.3242   9.9174643243e+01   3.5832031246e+01    0.3255005    0.2550144   2.33 0.0009223131    1.666    0.400
        23 -15.3274    169.5506    118.9802   9.4203268951e+01   2.3946120749e+01     1.341204     1.264159  61.58  0.006940314    1.054    0.051
        24 -13.2924     16.4812    100.6821   1.3356032421e+02   5.3505942910e+01    0.4060807    0.3488881 -65.86   0.00174092    1.112    0.101
        25 -12.4145    188.4174     94.4088   8.3894977721e+01   2.4272202098e+01    0.3119503    0.2701359 -80.16  0.001148795    1.210    0.173
        26 -11.5583     43.7999     98.8126   1.2456589251e+02   5.1548902918e+01    0.1714607    0.1516606  86.23 0.0008587413    1.348    0.258
        27 -10.9142     54.9322     94.7893   1.2003008215e+02   5.1178327115e+01    0.2100096     0.165102 -30.00 0.0008674835    1.235    0.190
        28 -10.6407     39.6838     92.7015   1.2453093832e+02   5.3306149930e+01    0.1325585   0.08431441 -31.57 0.0003324576    1.611    0.379
        29 -10.8290     18.2898     78.3127   1.2852807755e+02   5.8157642062e+01    0.1253587    0.0703802 -37.13            0    1.586    0.370
        30 -10.3133     66.5165     76.4563   1.1124938006e+02   5.3478514104e+01    0.1360151    0.1178537 -20.70 8.421542e-05    1.041    0.039
        31 -12.5259     33.7018     75.6806   1.2247832412e+02   5.7449760050e+01    0.2801805    0.1962731  -6.21 0.0007315006    1.583    0.368
        32 -12.6362     96.8235     71.9664   1.0007363805e+02   4.9334660132e+01     0.457201    0.3042108  25.84  0.001128982    1.639    0.390
        33 -10.9649     19.0939     72.1917   1.2683712362e+02   5.9347384243e+01    0.1766007    0.1311492 -32.15 0.0006051084    1.181    0.153
        34 -11.8918     59.8631     70.6595   1.1182067119e+02   5.5517343355e+01    0.2567078    0.1819188 -48.68  0.001031757    1.400    0.286
        35 -10.5740     76.5695     70.5104   1.0607871694e+02   5.3114185798e+01    0.1385983    0.1194141 -12.97 0.0001528029    1.071    0.066
        36 -10.8417     43.1768     66.6242   1.1659440232e+02   5.8294896358e+01    0.1681987    0.1108139   6.41 0.0009413531    1.702    0.412
        37 -11.6617    132.0160     65.2530   8.8180106797e+01   4.3103509366e+01    0.2107628    0.1875333  44.72 0.0003331034    1.062    0.059
        38 -12.6687    125.5907     57.4497   8.7372521594e+01   4.5817945594e+01    0.3275747    0.2441737  48.59 0.0005989858    1.259    0.206
        39 -10.2935    174.9666     56.7378   7.6452979065e+01   3.4015102386e+01    0.1908601    0.1189305  59.58 0.0004752762    1.486    0.327
        40 -10.6202    137.3821     55.7647   8.3965226588e+01   4.3359849951e+01    0.1888824    0.1401207 -17.10 0.0004928116    1.577    0.366
        41 -12.0170     66.9417     53.2011   1.0373519469e+02   5.7655357989e+01    0.3568849    0.3040972 -87.45  0.002065973    2.005    0.501
        42 -11.0409    210.8954     54.1513   7.0005268976e+01   2.5517797705e+01    0.1983623     0.188814  86.46 0.0005594466    1.140    0.123
        43 -11.0804    132.6207     53.8226   8.4493228796e+01   4.4764366160e+01    0.2445015    0.1768794  41.11 0.0006024576    1.315    0.239
        44 -11.3349     93.0046     52.9970   9.5056693415e+01   5.3279631475e+01    0.2002553    0.1781703  11.89   0.00119939    1.007    0.007
        45 -11.4748    145.3934     50.9271   8.0682471557e+01   4.2167238602e+01    0.2732523    0.1932998  48.99 0.0005092232    1.300    0.231
        46 -12.5208     42.4253     47.7021   1.1094732073e+02   6.1791339545e+01    0.3085785    0.2558493   7.82 0.0008390169    1.194    0.162
        47 -12.2547     41.7204     42.6263   1.0947662333e+02   6.2709825122e+01    0.3771985     0.242929   2.96  0.001514756    1.609    0.379
        48 -11.7255      2.5370     46.6429   1.2669597612e+02   6.5253891755e+01    0.2188738    0.1873461 -20.09  0.001052308    1.218    0.179
        49 -11.8758    156.9754     43.8241   7.6202236250e+01   4.0334200847e+01     0.209025    0.2069336   3.15 0.0004832516    1.125    0.111
        50 -12.4164    213.9416    140.7095   9.0166808381e+01   9.3913830298e+00    0.6000174    0.5100778 -74.89  0.003095618    1.382    0.276
        51 -10.7516    197.5885     41.0097   6.8688707785e+01   3.0628335917e+01    0.2094253    0.1614265  71.23 0.0001542126    1.171    0.146
        52 -11.8989     69.0566     39.3520   9.8079369413e+01   5.9485030596e+01    0.2253246    0.1573745 -15.86 0.0006714577    1.381    0.276
        53 -11.5072    187.3360    232.6744   1.1410058389e+02  -2.4181490644e+00    0.1303064    0.1021098  67.08  0.000705144    1.719    0.418
        54 -11.2703     41.6452     33.1278   1.0605226637e+02   6.4192541400e+01    0.1950059    0.1474312  26.39  0.001122761    1.411    0.291
        55 -10.4539     37.0098     27.4631   1.0577467994e+02   6.5554483898e+01    0.1558658    0.1009329  21.67 2.885945e-05    1.473    0.321
        56 -11.8368     83.7725     22.7118   8.6971193160e+01   5.9085219862e+01     0.289343    0.2119957  24.21 0.0009720527    1.202    0.168
        57 -11.6073     63.9783     18.0000   9.1582126413e+01   6.3045127820e+01    0.3801867    0.1582326  33.93  0.001816832    2.264    0.558
        58 -10.9568     60.6521     16.3168   9.2068162223e+01   6.3761895016e+01    0.1896231    0.1119037  43.08 0.0008704053    1.699    0.411
        59 -11.3134    204.5061    229.5262   1.1013569538e+02  -4.9110151626e+00    0.1331937    0.1138096  22.26 0.0008100573    1.010    0.010
        60 -11.4455     53.4962    201.5065   1.3802124444e+02   2.6478991858e+01    0.1299863    0.1048614  81.02 2.364158e-05    1.015    0.014
        61 -11.7442     41.2862    199.9971   1.4041013431e+02   2.8340337055e+01     0.184653    0.1410094 -87.84  0.001091044    1.087    0.080
        62 -12.5613    186.7584    194.8409   1.0738510239e+02   4.4317282973e+00    0.3769856    0.3557455  89.68  0.001756957    1.243    0.195
        63 -10.6184    213.3454    196.6955   1.0226921470e+02  -1.0026779071e+00    0.1334475    0.1136384  80.03 0.0006112527    1.690    0.408
        64 -12.4088     33.8002    177.5267   1.3967968054e+02   3.4277985090e+01    0.2518871    0.2196547 -23.28  0.001648799    1.658    0.397
        65 -12.4608     70.2917     34.5686   9.5870783544e+01   5.9959599446e+01    0.2788812     0.220191  29.18   0.00172164    1.203    0.169
        66 -12.6659    216.6598    172.8312   9.6721108448e+01   2.6902518614e+00     0.721017    0.5137365  39.29  0.003629266    1.409    0.290
        67 -13.3256    211.9240    164.9499   9.5969444086e+01   5.1253335955e+00    0.6732219    0.4526678  26.40  0.003102055    1.722    0.419
        68 -13.5932    199.2463    158.9059   9.7222883036e+01   8.9492207154e+00    0.7213046     0.576044  17.42    0.0035542    1.429    0.300
