#   1 NUMBER                 Running object number                                     
#   2 MAG_AUTO               Kron-like elliptical aperture magnitude                    [mag]
#   3 X_IMAGE                Object position along x                                    [pixel]
#   4 Y_IMAGE                Object position along y                                    [pixel]
#   5 X_WORLD                Barycenter position along world x axis                     [deg]
#   6 Y_WORLD                Barycenter position along world y axis                     [deg]
#   7 A_WORLD                Profile RMS along major axis (world units)                 [deg]
#   8 B_WORLD                Profile RMS along minor axis (world units)                 [deg]
#   9 THETA_WORLD            Position angle (CCW/world-x)                               [deg]
#  10 FWHM_WORLD             FWHM assuming a gaussian core                              [deg]
#  11 ELONGATION             A_IMAGE/B_IMAGE                                           
#  12 ELLIPTICITY            1 - B_IMAGE/A_IMAGE                                       
         1 -14.7713    246.0614     11.6677   1.0482209591e+01   2.2365137692e+01     2.196637    0.7259778 -40.08  0.009357455    2.506    0.601
         2 -13.7797     11.3471     23.8208   7.2781476105e+01   6.9391067471e+01    0.8140558    0.3039981 -33.62  0.004051904    2.563    0.610
         3 -12.3729      1.6771     24.6912   7.7697831390e+01   6.9801041969e+01    0.6297081    0.1149642 -59.17   0.00235299    4.515    0.779
         4 -13.1621     25.2159      4.1203   5.7723450050e+01   7.1342903594e+01    0.5882413    0.3434449   1.57   0.00361026    1.851    0.460
         5 -12.4581     15.6375      7.0477   6.3983492441e+01   7.1812964833e+01    0.4401861     0.226469 -23.35  0.002338152    1.843    0.457
         6 -13.3502      6.8772     10.6865   7.0116020843e+01   7.1897750994e+01    0.7692847    0.3889923 -33.86  0.004902006    1.562    0.360
         7 -12.6174     10.3603      2.1533   6.4556182970e+01   7.2967812387e+01    0.8417033    0.1890806  24.61   0.00352483    4.976    0.799
         8 -11.8763     26.2320     16.2662   6.2715749179e+01   6.9445154526e+01    0.2896558    0.1118596 -34.03  0.001418743    2.389    0.581
         9 -12.6013     19.7929     14.0814   6.4926886794e+01   7.0375227404e+01    0.3876585    0.1830611 -30.15   0.00218355    1.921    0.480
        10 -12.3343     13.3877     12.6270   6.7539374987e+01   7.1125009540e+01     0.341963     0.181436 -34.20  0.001497754    1.498    0.332
        11 -11.0005     41.5092      2.5051   4.9214860526e+01   6.9631439171e+01    0.2688703    0.1460733   2.76  0.001389618    2.400    0.583
        12 -11.6029     22.0420     22.4865   6.7207964044e+01   6.8812022591e+01    0.2373298    0.1227692 -35.06  0.001395322    1.608    0.378
        13 -12.1382    249.0306    225.2790   5.6001645981e+01  -9.6781889763e+00    0.3233916    0.1789354 -20.68  0.001847012    1.941    0.485
        14 -11.8496    250.0659    232.6034   5.7044632521e+01  -1.0677937338e+01     0.331421    0.1872356 -21.08  0.001837388    1.874    0.466
        15 -12.8545    242.5131    246.5793   6.0537539487e+01  -1.1127058909e+01    0.5836142    0.3198262  -7.96  0.003271428    2.363    0.577
        16 -12.5603    247.4406    239.3034   5.8568999319e+01  -1.1044923549e+01    0.4027152    0.2401711  -6.55  0.002099046    1.882    0.469
        17 -11.2105    249.1917    249.9324   5.9941276501e+01  -1.2430330138e+01    0.4264351    0.1474183  36.53  0.002148938    2.327    0.570
        18 -11.2796    248.8965    245.1015   5.9241807355e+01  -1.1881787941e+01    0.3088866    0.2132851  -6.94  0.002146647    1.416    0.294
        19 -11.3902     88.0337    250.2290   8.8473605508e+01   1.2875073350e+01    0.2912985    0.1389587  36.07  0.001515307    2.336    0.572
        20 -11.4025     74.2297    250.4590   9.0872602494e+01   1.4810088131e+01    0.2783767   0.07859989  44.40   0.00128721    2.602    0.616
        21 -11.9372     65.3961    249.1134   9.2275066113e+01   1.6253293950e+01    0.3683064    0.1741465  54.96  0.002200557    1.571    0.363
        22 -11.3426     50.6513    250.1130   9.4803054669e+01   1.8013873801e+01    0.3952624    0.1099703  43.72  0.001939782    2.656    0.624
        23 -12.0565     36.7643    248.6017   9.6973901401e+01   1.9984931191e+01    0.4191331    0.1812167  59.99  0.002560737    1.714    0.416
        24 -10.7408     27.3564    248.7468   9.8480979518e+01   2.1056315663e+01    0.2759776    0.1158481  61.27  0.001699271    1.748    0.428
        25 -12.1678      2.2559    210.7233   1.0073607331e+02   3.0651398661e+01    0.7054549    0.1669251 -83.63   0.00298161    3.919    0.745
        26 -11.7837     20.2599    249.0820   9.9607490135e+01   2.1792605122e+01    0.3634431    0.1594875  54.66  0.001873731    1.600    0.375
        27 -11.8191     12.1410    248.8997   1.0084796809e+02   2.2698026914e+01     0.358595     0.145926  53.94  0.001834205    1.703    0.413
        28 -12.3451     15.9450    240.3457   9.9878494801e+01   2.3788061875e+01    0.5292306    0.1966772  56.63  0.002594108    1.914    0.478
        29 -11.2605      3.3855    250.2590   1.0221945478e+02   2.3368277785e+01    0.2529857    0.1094065  43.37  0.001692378    1.999    0.500
        30 -12.3767      3.3385    243.2014   1.0195765916e+02   2.4587115404e+01    0.4226328    0.1991547  74.21  0.002155903    1.547    0.354
        31 -11.6854      6.6148    236.2749   1.0116934300e+02   2.5480610855e+01      0.38435    0.1687022  78.41  0.001678543    1.799    0.444
        32 -11.8576      4.7301    228.2805   1.0112495387e+02   2.7114755621e+01    0.4162742    0.1779697  71.95  0.002055152    1.814    0.449
        33 -11.6913      2.2323    220.8821   1.0120586124e+02   2.8725699749e+01    0.3272923    0.1515536  89.10  0.001689221    1.697    0.411
        34 -11.7567     72.6965    240.3187   9.0346523191e+01   1.6785475110e+01     0.270788     0.139406  65.90  0.001551304    1.727    0.421
        35 -10.6500     38.3116    240.6035   9.6262480924e+01   2.1208612843e+01    0.2524598    0.1161033  66.35  0.001505992    1.761    0.432
        36 -12.5169    240.1270    239.2831   5.9800367462e+01  -9.9699406471e+00    0.2681402    0.1715741   5.90  0.001445297    1.626    0.385
        37 -11.5449    107.7163    240.4252   8.4044439219e+01   1.1543013142e+01    0.2482886   0.08780038  46.48  0.001143661    2.166    0.538
        38 -10.4770     64.9643    240.0044   9.1679196624e+01   1.7907867541e+01    0.1956972    0.1001093  66.09  0.001134528    1.687    0.407
        39 -11.1588     45.1311    237.2133   9.4905499160e+01   2.0987702882e+01    0.2799673     0.104939  62.05  0.001428712    2.337    0.572
        40 -11.4057     81.9299    236.1449   8.8343910936e+01   1.6211072236e+01    0.2782891    0.1282679  66.75  0.001370934    2.328    0.570
        41 -10.4208     33.1089    236.2374   9.6873152021e+01   2.2611055721e+01      0.21859   0.09385973  71.57  0.001220193    2.075    0.518
        42 -11.7604    231.6409    234.7706   6.0540879639e+01  -8.1575325167e+00    0.2696939    0.1351654 -20.07  0.001366199    2.635    0.620
        43 -10.9679     77.2232    246.4086   9.0040924006e+01   1.5081906709e+01    0.1721562   0.07693244  51.94 0.0009517431    1.680    0.405
        44  -9.7280      1.2317    234.9881   1.0195855533e+02   2.6243637368e+01    0.1288568   0.06358252 -87.84 0.0008736975    1.619    0.382
        45 -11.5255     14.3140    232.0693   9.9748824967e+01   2.5449686570e+01    0.3672165    0.1618951  69.93   0.00194512    1.777    0.437
        46 -11.1713     11.1309    225.8389   9.9970108178e+01   2.6925074852e+01    0.3269151      0.14808  62.06  0.001562439    1.643    0.391
        47 -11.0013     59.5213    232.0135   9.2033054215e+01   2.0092010381e+01    0.2461055    0.1158428  55.95  0.001395421    1.663    0.399
        48 -11.1478     39.7847    230.8945   9.5415368272e+01   2.2800972940e+01    0.2932808    0.1454973  78.25  0.001734525    1.804    0.446
        49 -11.9671     25.6973    228.8300   9.7695283176e+01   2.4817315778e+01    0.4651693    0.2092412  77.59  0.002706315    1.952    0.488
        50 -12.0675    244.8879    230.1107   5.7508798385e+01  -9.6245589572e+00    0.2050673    0.1461421 -11.78   0.00125046    1.390    0.281
        51 -10.7477     48.5539    230.3621   9.3852934028e+01   2.1819144135e+01    0.2698933    0.1247668  69.57  0.001479451    1.988    0.497
        52 -10.2723     32.3602    229.3308   9.6593018719e+01   2.3968135389e+01    0.2367885    0.1001354  66.34  0.001161595    2.013    0.503
        53 -11.7795    236.8738    228.2168   5.8571015137e+01  -8.1766204760e+00    0.2824166    0.1443719 -15.93  0.001386039    2.687    0.628
        54 -11.2948     18.6691    221.8313   9.8501320207e+01   2.6894243149e+01    0.2806222    0.1384526  75.02  0.001750588    1.623    0.384
        55 -10.6078     44.2611    221.8264   9.4015462699e+01   2.3968600420e+01     0.195395    0.1106485  75.38  0.001203154    1.484    0.326
        56 -11.4058    238.7680    218.8969   5.6677218069e+01  -7.3176023368e+00      0.24997    0.1376186 -27.61   0.00137977    1.943    0.485
        57 -11.9651     12.1830    217.0572   9.9355131655e+01   2.8473162394e+01    0.4236358    0.2079081  69.31  0.002230905    1.572    0.364
        58 -10.8785     34.7123    217.7789   9.5452312723e+01   2.5891745025e+01    0.2923333    0.1249776  77.69  0.001493093    2.356    0.576
        59 -12.0330    248.6228    214.5068   5.4221700252e+01  -8.3098034943e+00    0.3487186     0.187164 -18.24     0.001838    2.126    0.530
        60 -10.8360     21.6580    211.5072   9.7390314378e+01   2.8567392248e+01    0.2655475     0.134591  87.13  0.001619568    1.642    0.391
        61 -10.7432     28.7079    211.5757   9.6126733031e+01   2.7787897620e+01    0.2106252      0.10155  78.76   0.00119262    1.841    0.457
        62 -12.7949     12.6132    205.4852   9.8654934015e+01   3.0681239275e+01    0.4930989    0.2349422  67.74  0.002633733    1.692    0.409
        63 -10.3136    250.3839    200.7863   5.1462955747e+01  -6.8280365592e+00    0.1733907    0.1052726 -18.95 0.0009470755    1.699    0.411
        64 -12.3563      3.4943    197.1410   9.9836354196e+01   3.3205000751e+01    0.3900593    0.1838605  75.15  0.002280877    1.712    0.416
        65 -12.6036      4.1645    188.8045   9.9254271264e+01   3.4831184335e+01    0.4890496    0.1906102  68.07  0.002575489    2.314    0.568
        66 -10.5394     24.1808    217.2676   9.7288606747e+01   2.7175083324e+01    0.2263842   0.09768742  73.76  0.001232549    2.088    0.521
        67 -11.4915     17.5727    195.9039   9.7169176450e+01   3.2114947730e+01    0.2383573    0.1018699  54.16  0.001344333    1.943    0.485
        68 -11.4335     11.4072    191.1166   9.8029867496e+01   3.3695193891e+01    0.2260005    0.1043233  84.67  0.001234397    1.839    0.456
        69 -10.9920     17.1605    189.6698   9.6839540336e+01   3.3439589295e+01    0.2360429    0.1090351  76.76  0.001285296    1.952    0.488
        70 -10.0525     24.3200    186.6387   9.5225938131e+01   3.3352772694e+01    0.1287484   0.06473616  69.67 0.0007042511    1.771    0.435
        71 -12.2434     11.6976    184.1171   9.7530772155e+01   3.5117415350e+01    0.2964151    0.1391511  88.78  0.001637791    1.780    0.438
        72 -12.1401      1.9738    178.1099   9.9046786715e+01   3.7228631422e+01    0.4071624    0.1671024  90.00  0.002199878    2.030    0.507
        73 -10.0980     23.3311    179.6637   9.4895995357e+01   3.4935507232e+01    0.1280548   0.06625703  69.12 0.0007052117    1.734    0.423
        74 -10.8488     18.8156    174.5925   9.5431673599e+01   3.6467263744e+01    0.1615846   0.08510424  51.34 0.0009523457    1.730    0.422
        75 -12.5168      6.6024    171.4105   9.7701296139e+01   3.8250388389e+01    0.3031435    0.1335406 -88.62  0.001654908    1.889    0.471
        76 -10.5915      1.4300    170.2551   9.8670209266e+01   3.8923547463e+01     0.213524   0.08034255 -74.90  0.001133046    2.057    0.514
        77 -11.6050     11.1277    166.8610   9.6447385895e+01   3.8837261599e+01    0.1910481    0.1213968  75.92  0.001245578    1.285    0.222
        78 -11.6652      2.8080    165.8736   9.8104917461e+01   3.9744453695e+01    0.3226154    0.1054104  50.51  0.001617757    2.735    0.634
        79 -11.9284      5.6774    161.2068   9.7181671260e+01   4.0517042269e+01    0.2346352     0.129016  75.73  0.001425655    1.560    0.359
        80 -12.1123     10.1043    155.6681   9.5805039574e+01   4.1363256198e+01    0.2883976    0.1234995 -87.02  0.001475069    2.039    0.510
        81 -12.1909      3.8765    153.3940   9.6993404598e+01   4.2355837506e+01    0.2988696    0.1219999 -71.00  0.001616245    1.901    0.474
        82 -11.1050      2.3074    143.4899   9.6574835057e+01   4.4641749750e+01    0.2111912   0.08095451 -77.48  0.001073455    2.011    0.503
        83 -11.5430      4.0088    136.5183   9.5595629099e+01   4.6061294634e+01    0.2405571    0.1268215  86.88   0.00138477    1.655    0.396
        84 -10.3060    242.6747    134.3231   3.9278604325e+01   4.5511750627e+00    0.1384061    0.1085897 -68.64 0.0007048011    1.686    0.407
        85 -11.3255    248.2634    129.6184   3.7327278348e+01   4.2067951010e+00    0.2676264    0.1559751 -45.00  0.001230036    1.713    0.416
        86 -11.2548      3.2116    128.1034   9.5029121974e+01   4.7986264659e+01    0.2947263    0.1259481 -89.93  0.001461744    2.236    0.553
        87 -10.6616    241.4948    125.4955   3.7498821069e+01   6.2554389412e+00    0.1399916     0.130523 -29.32 2.600297e-05    1.015    0.015
        88 -11.9279    248.7844    118.6516   3.4794683970e+01   5.8927845526e+00    0.2982939     0.175727 -44.55  0.001413278    1.634    0.388
        89 -11.2526    248.5824    106.7763   3.2127968106e+01   7.8793890503e+00    0.2062782    0.1183507 -45.00 0.0009323641    1.648    0.393
        90 -11.6678    249.4074     97.7414   2.9931829512e+01   9.1777280628e+00    0.2815797    0.1180749 -40.00  0.001132605    2.120    0.528
        91 -11.3285    249.5930     87.7823   2.7603741374e+01   1.0743141474e+01    0.2110723    0.1144353 -45.48 0.0009524846    1.697    0.411
        92 -12.3695    248.3916     74.6328   2.4705290039e+01   1.3086743045e+01    0.3481033    0.1539673 -40.89    0.0014618    1.991    0.498
        93 -12.4796      2.8883     49.9151   8.3806675658e+01   6.4932077890e+01    0.5002422    0.1525847 -59.93  0.002450647    2.271    0.560
        94 -11.9907     12.3213     37.3141   7.6632438988e+01   6.6870358215e+01    0.2176614    0.1375104 -38.19  0.001439652    1.278    0.218
        95 -12.0565      2.8771     34.3302   7.9960716762e+01   6.7965883034e+01    0.3758178   0.09127522 -50.21  0.001779792    2.527    0.604
        96 -12.2818    225.5560    248.0724   6.3648063221e+01  -8.7832089872e+00    0.2601627    0.2104263  28.90  0.001895076    1.138    0.121
        97 -11.5545     18.6759     30.4602   7.1637517010e+01   6.7694367947e+01    0.2807677    0.1117469 -32.30  0.001341959    2.622    0.619
        98 -12.6191    212.7337    247.9011   6.5849559185e+01  -6.7875880913e+00    0.4056605    0.2267496  22.46  0.002263916    1.882    0.469
        99 -11.8607    127.4838    247.9854   8.1232362659e+01   7.1424682280e+00    0.2561315    0.1306331  53.88  0.001393028    1.646    0.392
       100 -12.8387    234.0837    244.5219   6.1647595761e+01  -9.6625442713e+00      0.39838    0.2409276   9.26  0.002368259    1.843    0.458
       101 -11.2956     45.3213    245.1797   9.5376235500e+01   1.9541474082e+01    0.3176656    0.1734389  61.61  0.001894806    1.341    0.254
       102 -12.5061     97.8794    244.7616   8.6249735353e+01   1.2327877578e+01    0.3847882    0.1737158  59.50  0.001962513    2.070    0.517
       103 -12.4266     84.9015    244.2351   8.8514284274e+01   1.4352553111e+01    0.3561082    0.1492281  50.78  0.001892433    1.811    0.448
       104 -11.5043    115.9752    243.9834   8.2899940214e+01   9.6372978609e+00    0.2048205    0.1185727  65.42  0.001144953    1.750    0.429
       105 -12.1202     56.7226    241.8328   9.3236641910e+01   1.8680287106e+01    0.4542652    0.1583402  54.77  0.002314926    2.227    0.551
       106 -11.7491     29.4231    240.7636   9.7733841670e+01   2.2222478790e+01    0.4023471    0.1748524  67.53  0.002136442    1.865    0.464
       107 -12.2989    225.9240    240.8924   6.2494407754e+01  -8.0037172729e+00    0.2626944    0.1567269 -17.99  0.001541426    2.023    0.506
