#   1 NUMBER                 Running object number                                     
#   2 MAG_AUTO               Kron-like elliptical aperture magnitude                    [mag]
#   3 X_IMAGE                Object position along x                                    [pixel]
#   4 Y_IMAGE                Object position along y                                    [pixel]
#   5 X_WORLD                Barycenter position along world x axis                     [deg]
#   6 Y_WORLD                Barycenter position along world y axis                     [deg]
#   7 A_WORLD                Profile RMS along major axis (world units)                 [deg]
#   8 B_WORLD                Profile RMS along minor axis (world units)                 [deg]
#   9 THETA_WORLD            Position angle (CCW/world-x)                               [deg]
#  10 FWHM_WORLD             FWHM assuming a gaussian core                              [deg]
#  11 ELONGATION             A_IMAGE/B_IMAGE                                           
#  12 ELLIPTICITY            1 - B_IMAGE/A_IMAGE                                       
         1  -8.6751     55.8622      9.8121   4.0944505817e+01   6.9216021897e+01    0.2233545    0.1990003 -51.79 0.0006440386    1.351    0.260
         2  -7.8672     47.6292      9.8239   4.4854439027e+01   7.0996775330e+01    0.1807094    0.1223976 -40.67 0.0004977797    1.685    0.406
         3  -7.7717    101.5053      7.5579   2.6212814943e+01   5.8197135028e+01    0.1392554    0.1257519  71.61 7.041929e-05    1.024    0.024
         4  -8.2807      5.5031      7.5590   7.5772510016e+01   7.7963310529e+01    0.1242744    0.1099262 -12.18 0.0002767283    1.079    0.073
         5  -7.9800     70.3905      6.1972   3.3321432673e+01   6.6212753138e+01    0.1863254    0.1230964 -37.13 0.0008169443    1.680    0.405
         6  -8.6544     33.4901      4.9522   4.9675303959e+01   7.4462083158e+01    0.3154642     0.198846 -55.00  0.001381304    2.572    0.611
         7  -8.5520     79.3109      3.7356   2.9369498800e+01   6.4232212342e+01    0.2446278    0.1512397 -35.38  0.001209172    1.768    0.434
         8  -8.5374     90.8525      8.7160   2.9033140948e+01   6.0840002941e+01     0.265615    0.1583972 -53.28  0.001148791    2.037    0.509
         9  -8.1146     62.8477      1.4447   3.3007176645e+01   6.8495458975e+01    0.2003282    0.1240985  63.52 0.0007415843    1.522    0.343
        10  -9.9750    102.4759    246.1891   8.3979103886e+01   1.3566031417e+01    0.3091859    0.2314916  39.50 0.0007881479    1.274    0.215
        11  -8.7298    248.9936    248.8686   5.7482963025e+01  -2.1128428780e+00     0.282225    0.1153271 -19.81  0.001796095    2.188    0.543
        12  -9.5218    248.6779    242.1466   5.6604952066e+01  -1.4490740093e+00    0.2776108    0.1589807 -29.02  0.001355327    1.783    0.439
        13  -9.1170    232.8404    247.4407   5.9725038210e+01  -5.2719394818e-01    0.2748361    0.1451078 -33.51  0.001451801    2.106    0.525
        14  -7.4693     72.3047    250.6701   9.0795166706e+01   1.6073713507e+01    0.1166139    0.0655145  47.52 0.0007036497    1.654    0.396
        15 -10.0366    223.9661    243.9532   6.0646894620e+01   6.6549254049e-01     0.352341    0.1783713 -38.25  0.002288033    2.502    0.600
        16  -9.4722    210.8999    246.2809   6.3098911639e+01   1.7021410438e+00    0.1753403    0.1364996 -32.34 0.0009148627    1.853    0.460
        17  -9.2470    120.3022    245.3756   8.0139321317e+01   1.1696670185e+01    0.2900174    0.1954119  59.34  0.001759715    2.320    0.569
        18  -9.3317     10.2324    245.0063   1.0372928548e+02   2.2623826583e+01    0.2908283   0.09755497  78.49  0.001417225    3.565    0.720
        19  -9.3135    147.2089    246.0184   7.4729813735e+01   8.5665746345e+00    0.2864366    0.1817923  51.82  0.001369202    2.628    0.620
        20  -8.7838    201.9294    243.0952   6.4189939979e+01   2.9643766119e+00    0.2032072    0.1399602 -38.91 0.0009480384    2.023    0.506
        21  -8.8758    169.0111    243.2884   7.0167630919e+01   6.4821955166e+00    0.1659044    0.1416562  28.24 0.0006318078    1.506    0.336
        22  -8.6557    139.4041    244.2319   7.6086286767e+01   9.6937012591e+00    0.1265445     0.114369 -63.78 0.0009508762    1.725    0.420
        23  -9.2702     78.2681    243.2385   8.8953031917e+01   1.6650973404e+01    0.3327974    0.1356159  47.92  0.001492317    2.521    0.603
        24  -9.2227    194.4489    240.5153   6.5145965422e+01   4.0463554613e+00    0.2881823     0.200846 -37.85  0.001741612    1.891    0.471
        25  -9.3238    183.1826    240.0753   6.7112155182e+01   5.3171721888e+00    0.3237478    0.2230081  48.35   0.00199155    2.682    0.627
        26  -9.3305    160.1891    240.3120   7.1484767126e+01   7.8584523462e+00     0.241877    0.2024527 -70.84  0.001261089    2.312    0.567
        27  -8.2932    153.5382    241.7699   7.2969107748e+01   8.4210841042e+00    0.1206363    0.1134757 -46.74 0.0006682078    1.647    0.393
        28  -8.8147    146.9185    240.1841   7.4094213818e+01   9.3950121471e+00     0.299157    0.1999841  63.09  0.001539888    3.657    0.727
        29  -8.1413     88.1499    242.1214   8.6702628802e+01   1.5773392328e+01    0.1516149    0.1152776  48.75 0.0006654874    1.365    0.267
        30  -8.5528    214.1868    240.9441   6.1825766790e+01   1.9498985000e+00    0.2010673    0.1128673 -11.41  0.001361154    1.576    0.366
        31  -8.2016    240.6118    239.8029   5.7479699189e+01  -4.8791714938e-01    0.1442121   0.07787102 -22.86 0.0008549314    1.578    0.366
        32  -9.0077    242.7822    235.8191   5.6590174908e+01  -2.9223476451e-01    0.2778343    0.1127521  -1.97  0.001208022    4.409    0.773
        33  -8.9043    135.4568    238.4886   7.6228953707e+01   1.0961488562e+01    0.1832372     0.132307  44.37 0.0005398821    1.643    0.391
        34  -8.9132    128.9059    238.3831   7.7579536458e+01   1.1738648502e+01    0.1905401    0.1500847  61.57  0.000866731    1.932    0.482
        35  -7.6542      1.6776    239.3072   1.0538572387e+02   2.4248768250e+01    0.1177595     0.052448  47.99 0.0003478285    1.643    0.391
        36  -9.4201    230.9241    236.2832   5.8474866920e+01   7.8893399511e-01    0.2749068    0.1952949 -38.95  0.001751916    2.268    0.559
        37 -10.0162    215.0247    233.1444   6.0593624023e+01   2.7233806769e+00    0.3892312    0.3458675  89.13  0.002472206    3.855    0.741
        38  -8.2351    209.2933    237.9479   6.2229357309e+01   2.7799936071e+00    0.1761378   0.08700731 -39.84  0.001068685    2.523    0.604
        39  -8.2738     25.5595    236.5276   1.0016972270e+02   2.2862331215e+01    0.2481438   0.08101994  58.04  0.001139563    3.103    0.678
        40  -8.1774     13.7295    237.7402   1.0278424552e+02   2.3612988884e+01    0.1867409   0.04560957  34.53 0.0008371001    2.406    0.584
        41  -9.0095    203.2231    234.7103   6.2813791421e+01   3.7862665739e+00     0.218485     0.179765 -49.62  0.000971585    2.369    0.578
        42  -9.8634    175.7069    233.2095   6.7579212383e+01   7.0150451813e+00    0.3707809    0.2161107 -50.29  0.002173146    2.723    0.633
        43  -8.5473    170.3564    235.2755   6.8872256969e+01   7.3592752358e+00    0.1295736    0.1044846 -37.54 0.0007204759    1.650    0.394
        44  -9.0395    108.9952    234.2459   8.1390349545e+01   1.4689428751e+01     0.369424    0.1659947  45.02  0.001529181    2.399    0.583
        45  -8.9835     78.6976    234.5361   8.8152610651e+01   1.8051938548e+01    0.1858566     0.125579  61.61  0.001041148    1.768    0.434
        46  -8.6027     52.5785    234.5942   9.4048550359e+01   2.0738254333e+01    0.1487211    0.1212181  -3.26 0.0005651015    1.447    0.309
        47  -8.9891    247.7213    234.0179   5.5598797928e+01  -5.7060495738e-01    0.1611747    0.1057041  -1.71  0.000823313    1.008    0.008
        48  -9.4802    246.5995    228.7194   5.4999253786e+01   6.4333865630e-02    0.3899329    0.1475367 -27.68  0.002341807    2.282    0.562
        49  -8.2439    122.9761    233.9844   7.8335914853e+01   1.3093830032e+01    0.1817755    0.1254605  48.84  0.001125608    1.758    0.431
        50  -8.1662     99.6361    234.2933   8.3454271516e+01   1.5759634025e+01    0.1833405    0.1158542  50.49  0.001086526    1.778    0.437
        51  -9.7228     68.5029    231.5997   9.0225315920e+01   1.9646706048e+01    0.5092291    0.2614168  65.87  0.002552812    2.812    0.644
        52  -8.1133     67.4514    244.7404   9.1425913621e+01   1.7525246538e+01    0.1741752    0.1135486 -85.48  0.001119433    2.086    0.521
        53  -8.6068    194.2052    232.6627   6.4109161162e+01   5.0057115538e+00    0.1638221    0.1325742 -14.62 0.0007041505    1.357    0.263
        54  -8.5111    144.7207    232.9836   7.3656376524e+01   1.0666728244e+01      0.30951    0.1589906  49.19  0.001455215    3.277    0.695
        55  -8.6827    139.7868    229.8605   7.4287581394e+01   1.1711659111e+01    0.1792167     0.159698  48.44 0.0006256622    1.535    0.348
        56  -8.6224    133.1389    233.0301   7.6068106786e+01   1.2035175835e+01    0.2270604    0.1231735  44.56  0.001228688    2.138    0.532
        57  -9.3378    186.3169    230.4021   6.5218587385e+01   6.1646315983e+00    0.2384576    0.2029407 -53.68  0.001197706    2.149    0.535
        58  -8.3354    157.5226    231.5361   7.0883090572e+01   9.3547058805e+00    0.1587992     0.116064 -55.52 0.0007158218    2.159    0.537
        59  -8.4569     92.7062    231.6917   8.4746619128e+01   1.6977830244e+01    0.2486982    0.1341534  51.39  0.001084475    2.150    0.535
        60  -9.0860    236.1897    230.4431   5.6819970624e+01   8.8566764445e-01    0.2097122    0.1498913 -23.95 0.0009131943    1.530    0.346
        61 -10.0549    149.7545    226.0802   7.1737082472e+01   1.1060911336e+01    0.4760927    0.3494756  88.24  0.002449777    3.739    0.733
        62  -8.7052      1.6279    230.3795   1.0520716255e+02   2.5842826642e+01    0.1841374   0.08384357  50.03  0.001081611    1.670    0.401
        63  -8.0874    229.9142    228.9378   5.7578107730e+01   1.6654334534e+00    0.1351206    0.1188187   4.92   0.00107089    1.713    0.416
        64  -8.9171    162.3412    227.6000   6.9402100809e+01   9.3272839054e+00    0.2626607    0.1643702  45.87   0.00151204    2.245    0.555
        65  -8.7158    127.9136    227.0977   7.6468501302e+01   1.3566562652e+01     0.270735    0.1705331  51.47  0.001450183    2.169    0.539
        66  -8.6494    206.2222    225.9824   6.1048461148e+01   4.4847861358e+00     0.189345     0.135558 -35.85 0.0007538383    1.788    0.441
        67  -8.0850    120.0128    227.2398   7.8202848097e+01   1.4500434005e+01    0.1545245    0.1259225  57.79 0.0005229902    1.634    0.388
        68  -8.7196      8.0000    226.9917   1.0372447702e+02   2.5995080433e+01    0.1587646   0.05980508 -84.51  0.000802588    2.943    0.660
        69  -8.4267    200.1973    226.1479   6.2119849146e+01   5.1301306467e+00     0.136317    0.1148758   1.40 0.0005230467    1.349    0.259
        70  -8.0835     49.1368    226.1536   9.4300224733e+01   2.2591689337e+01    0.1680804    0.1108528  50.63 0.0005275627    1.366    0.268
        71  -8.9165    180.5738    224.0102   6.5380703706e+01   7.6479836055e+00    0.2331421    0.1800196  29.30  0.001046345    1.433    0.302
        72  -8.8471     94.3472    224.1712   8.3631542697e+01   1.8066649056e+01    0.4035488    0.1552769  45.16  0.001774207    2.717    0.632
        73  -8.0276     71.6918    225.6765   8.9015155026e+01   2.0354609761e+01    0.1155001   0.08580722 -10.23 0.0003949738    1.648    0.393
        74  -8.8418    216.4915    223.1455   5.8895851125e+01   3.7025238494e+00    0.1957389    0.1660815 -36.91  0.001206454    1.950    0.487
        75  -8.7115    173.0834    222.9803   6.6661150767e+01   8.6749193721e+00    0.1909473    0.1610806 -26.77 0.0005865463    1.439    0.305
        76  -8.1574    113.6121    223.7969   7.9220645660e+01   1.5832468119e+01    0.1376158    0.1204456 -83.02 0.0005299818    1.620    0.383
        77  -8.8983    104.8381    223.6180   8.1177289651e+01   1.6920070954e+01    0.2672356    0.1918993  62.42  0.001605413    1.898    0.473
        78  -8.0416     38.3661    224.2528   9.6691232850e+01   2.3965522354e+01    0.1516423   0.09808452  74.03  0.000663198    1.696    0.411
        79  -9.5055    192.6667    221.2835   6.2752059297e+01   6.5879619693e+00     0.285995    0.2535785  49.74  0.001143116    2.052    0.513
        80  -9.2337    160.8891    221.4029   6.8839850173e+01   1.0374129120e+01    0.5670279    0.2330585  46.20  0.002140658    4.723    0.788
        81  -7.9272     59.5323    223.4714   9.1685002980e+01   2.2040888973e+01    0.1226853   0.09508502  37.85 0.0002512603    1.055    0.052
        82  -9.1613    239.3396    221.5834   5.5033527029e+01   1.5090728998e+00    0.2332592    0.1963128  33.89  0.001804664    2.126    0.530
        83  -9.4323    225.6139    221.4447   5.7154635878e+01   2.9278583745e+00     0.213907    0.1773155  -1.23  0.001055759    1.413    0.292
        84  -8.7749     82.7896    220.3272   8.5939050441e+01   2.0080377764e+01    0.2462463    0.1589276  76.92  0.001152285    2.285    0.562
        85  -8.0457     73.7007    221.0858   8.8151616303e+01   2.0964108641e+01    0.2171242   0.09588811  54.88 0.0009558575    2.911    0.656
        86  -8.3672    202.5150    219.9277   6.0797765530e+01   5.6281717585e+00    0.1503683   0.09594364 -27.17 0.0004212652    1.517    0.341
        87  -9.0519    120.4933    218.9570   7.7105435692e+01   1.5783860865e+01    0.4005617    0.2167641  52.45  0.001911185    2.742    0.635
        88  -7.3598     27.6629    220.6853   9.9004939056e+01   2.5593187652e+01    0.1087246   0.08455865 -20.11 0.0003639068    1.695    0.410
        89  -8.3110    210.1070    218.9080   5.9334710215e+01   4.8982421037e+00    0.1535184    0.1266736   4.06 0.0004503874    1.313    0.239
        90  -8.0529    249.6761    218.3557   5.3011654446e+01   8.3141130823e-01   0.08600587   0.07447214 -14.03 0.0007045924    1.766    0.434
        91  -9.2232    133.0353    216.0768   7.3961488724e+01   1.4673103068e+01      0.45175    0.2713338  59.29  0.002070636    3.398    0.706
        92  -8.6819     51.7800    217.6292   9.3102723965e+01   2.3923734539e+01    0.2261226    0.1212341  59.11 0.0009637643    2.010    0.502
        93  -8.3682    179.3768    217.2287   6.4621980212e+01   8.6956391047e+00    0.1375617    0.1067732 -38.88  0.000428528    1.655    0.396
        94  -8.8042    169.3539    215.9981   6.6383211166e+01   1.0096473193e+01    0.2317909    0.2032012 -79.50   0.00105397    2.213    0.548
        95  -8.7973    142.9919    216.3743   7.1849784616e+01   1.3360517601e+01    0.2328929    0.1969432  78.40  0.001303299    2.032    0.508
        96  -8.2538     61.9410    216.9594   9.0609010576e+01   2.3002418822e+01    0.2090507    0.1137156  51.38  0.001120857    1.810    0.448
        97  -8.1004     18.4876    215.9977   1.0095387056e+02   2.7261174037e+01    0.1572012    0.1085565 -89.04  0.001026461    1.572    0.364
        98  -9.3149    243.4996    215.4965   5.3487839768e+01   1.7418990859e+00    0.1625817   0.08439185  25.63 0.0006742263    1.764    0.433
        99  -8.8164    232.3281    214.2835   5.5005752341e+01   3.0237447532e+00    0.1993463    0.1601011 -26.14 0.0009779693    1.631    0.387
       100  -8.3680    154.7417    214.9566   6.9184119599e+01   1.2083920941e+01    0.1639646    0.1406246  64.91  0.001058032    1.946    0.486
       101  -9.4139    214.0487    211.6988   5.7565252912e+01   5.3226509521e+00    0.3036095    0.2824594  -5.83   0.00180325    1.689    0.408
       102  -8.3125    185.6669    214.1738   6.2979572501e+01   8.3436077048e+00    0.1552283    0.1391331 -14.96 0.0007131041    1.436    0.304
       103  -8.9456     92.8085    213.6868   8.2890032599e+01   2.0104536617e+01    0.2807335    0.1424409  49.76  0.001357665    2.238    0.553
       104  -9.3180     73.4258    211.8656   8.7381257567e+01   2.2710145982e+01    0.6972938    0.1856818  47.17  0.002274938    4.646    0.785
       105  -9.0165    161.6463    212.1600   6.7364077796e+01   1.1620847396e+01    0.1909185    0.1846423 -13.30 0.0009975412    1.466    0.318
       106  -7.9906    225.1014    212.1637   5.5822188312e+01   4.0390186751e+00    0.1353311    0.1087359 -10.61 0.0004292697    1.320    0.242
       107  -9.1496    204.1986    210.6590   5.9090454940e+01   6.5869866877e+00    0.2338383     0.162468 -33.78 0.0008043547    1.620    0.383
       108  -7.9802    106.7174    212.6030   7.9484891500e+01   1.8589340655e+01    0.1812589   0.09432931  36.62 0.0008760591    1.627    0.385
       109  -9.3735    175.7181    210.0145   6.4244831852e+01   1.0145125288e+01    0.3110482    0.2251893  54.67  0.001771987    2.560    0.609
       110  -8.8098    148.1741    210.4071   6.9910754352e+01   1.3622987462e+01    0.2473149     0.176673  52.03  0.001274713    2.024    0.506
       111  -8.9481    116.5434    210.2376   7.6910340984e+01   1.7756907284e+01    0.3363155    0.1966214  54.48  0.001160946    2.461    0.594
       112  -8.6411      6.0000    207.9984   1.0363425946e+02   2.9793645252e+01    0.2003943   0.09595918  51.28 0.0006400811    1.695    0.410
       113  -8.3466    192.0625    210.0466   6.1165570130e+01   8.1160245912e+00    0.1508407    0.1391255  28.81 0.0005649225    1.639    0.390
       114  -7.9739     32.3236    210.0174   9.7342602679e+01   2.7259699295e+01    0.1903031   0.06748232  69.32  0.000703396    4.191    0.761
       115  -9.2976    236.4893    207.5696   5.3318887370e+01   3.3358923536e+00    0.3095197    0.1808378 -38.36   0.00162409    2.113    0.527
       116  -8.3585     85.6454    209.3222   8.4146636120e+01   2.1769730015e+01    0.2023667     0.125831  52.69    0.0010936    1.763    0.433
       117  -8.2383     46.6141    209.3274   9.3777297766e+01   2.6051130761e+01     0.201807    0.1129284  51.81  0.001102565    1.667    0.400
       118  -9.4961    245.7654    193.4404   4.9666410132e+01   3.9308488966e+00    0.2871709    0.2144317 -51.01  0.001846831    2.880    0.653
       119  -9.4057    250.1749    201.7491   5.0369033937e+01   2.5440712806e+00     0.333361    0.1293464 -28.25  0.001338217    2.151    0.535
       120  -7.9002    156.5616    207.7879   6.7763735134e+01   1.2933961329e+01    0.1432702    0.1204135 -51.74 0.0008512494    1.676    0.403
       121  -8.3081    139.1969    207.9012   7.1491563377e+01   1.5196943113e+01    0.1811959    0.1546547  38.09 0.0008269664    1.339    0.253
       122  -7.9629    126.4300    208.1979   7.4380339258e+01   1.6824571832e+01    0.1479588    0.1263329 -73.57 0.0007457891    1.689    0.408
       123  -9.2255     99.3971    205.9826   8.0433040654e+01   2.0702900264e+01    0.3296732     0.204184  63.07   0.00130614    2.421    0.587
       124  -9.1205     56.9618    205.9471   9.0937725936e+01   2.5666011063e+01    0.3929709    0.1474632  53.12  0.001586648    3.125    0.680
       125  -9.3387    194.8866    203.3828   5.9601997578e+01   8.6560722805e+00     0.284715    0.2429534 -25.45  0.001288516    1.442    0.306
       126  -9.4490    192.4169    197.1127   5.9038061289e+01   9.8195906054e+00    0.3105814    0.2418936 -42.54 0.0008752908    1.731    0.422
       127  -9.0101    183.8799    203.7103   6.1698177918e+01   9.9958217921e+00     0.251924    0.2026778  46.86  0.001324086    1.882    0.469
       128  -8.5429    131.2558    203.7758   7.2675666555e+01   1.6935962874e+01    0.2660587    0.2023755  66.15  0.001405243    2.099    0.524
       129  -8.0956    109.0524    204.9991   7.7997455606e+01   1.9649080959e+01    0.1942623    0.1392181  52.95 0.0006289781    1.650    0.394
       130  -9.6495    163.9628    202.8611   6.5489138657e+01   1.2709535637e+01    0.3846022    0.2332706  45.39  0.001411888    2.138    0.532
       131  -7.8738     41.6713    202.9879   9.4575160759e+01   2.7809027178e+01    0.1961941   0.07628817  71.64 0.0007045828    4.272    0.766
       132  -9.1795    243.0735    200.5229   5.1208653354e+01   3.4244386457e+00     0.236525    0.1275449 -29.58 0.0008838386    1.635    0.389
       133  -8.4822    211.0557    201.7591   5.6496388043e+01   6.8983088634e+00    0.1895956    0.1727819 -47.66 0.0009564829    1.959    0.490
       134  -8.4327     48.7458    202.1826   9.2717621611e+01   2.7274963833e+01    0.2223442   0.08937123  54.16 0.0009439201    2.721    0.633
       135  -7.9906     10.4894    202.5022   1.0236352131e+02   3.0575410255e+01    0.1186063   0.09616039  47.16 2.941763e-05    1.002    0.002
       136  -7.9708    222.1463    201.1983   5.4562701783e+01   5.6677990797e+00    0.1393028    0.1183909  -9.66 0.0006653311    1.382    0.276
       137  -8.3420     79.7494    200.9644   8.4715916517e+01   2.4082132705e+01    0.2089317    0.1282468  61.03  0.001062224    2.034    0.508
       138  -9.4092    149.7409    198.6126   6.7820490430e+01   1.5289979818e+01     0.366434    0.2642098  61.17  0.001533846    2.453    0.592
       139  -8.7851    124.1605    199.0686   7.3637678239e+01   1.8706665668e+01    0.2674206    0.2174688  70.43  0.001111896    1.806    0.446
       140  -9.1901    112.9862    198.3478   7.6182516106e+01   2.0342548127e+01    0.4145023    0.2302208  55.28  0.001857293    2.712    0.631
       141  -9.1743    237.0853    198.3173   5.1750501192e+01   4.3242114385e+00     0.221999    0.1261784 -30.91 0.0008959925    1.629    0.386
       142  -8.1225    177.0958    198.8103   6.2222122277e+01   1.1574378191e+01    0.1713942    0.1481824  16.96 0.0005086868    1.258    0.205
       143  -8.9531     88.6244    198.2609   8.2173702154e+01   2.3524460783e+01    0.3255294    0.1983041  64.32  0.001177925    2.343    0.573
       144  -8.3827    202.2985    197.5522   5.7328637586e+01   8.5098125204e+00    0.1784785    0.1734371   1.42  0.001227854    1.672    0.402
       145  -8.9192     61.3874    196.9888   8.9021987833e+01   2.7002145070e+01    0.4106427     0.194717  58.72  0.001768642    2.658    0.624
       146  -7.9944     29.3209    197.6473   9.7390798369e+01   3.0053187320e+01    0.1372694   0.07103827  52.66 0.0007047382    1.750    0.429
       147  -7.8426     12.7057    197.3799   1.0161528609e+02   3.1468232180e+01    0.1339405   0.06617258  53.87 0.0007020775    1.752    0.429
       148  -8.9052    215.9817    195.3320   5.4615768098e+01   7.1186538821e+00    0.2228183    0.1682288 -44.35 0.0009626587    1.998    0.499
       149  -8.4823    133.0165    195.9081   7.1130207149e+01   1.8047096279e+01    0.1891347     0.149121  54.74 0.0006756944    1.669    0.401
       150  -7.4362     36.3379    196.6630   9.5515553298e+01   2.9624584585e+01    0.1390492   0.07302768  51.90 0.0007051349    1.754    0.430
       151  -8.8462    224.7475    193.8260   5.2935809273e+01   6.2621615290e+00      0.26598    0.1335111 -40.01  0.001208139    2.294    0.564
       152  -8.7444    140.5491    200.9793   7.0189437642e+01   1.6153630482e+01    0.2987704    0.2211058  59.16  0.001214211    2.093    0.522
       153  -9.0471    185.2386    194.4221   5.9936203377e+01   1.1132592726e+01    0.2403984    0.1989739 -44.37 0.0008564614    1.679    0.405
       154  -7.9398    230.7057    194.3018   5.2074216067e+01   5.5125174597e+00   0.09233127   0.08240888 -16.48 0.0001934578    1.574    0.365
       155  -8.8225    160.5511    193.8626   6.4770771940e+01   1.4563139355e+01    0.2197513     0.184413  42.80  0.000827934    1.505    0.336
       156  -8.7719     76.9806    193.7246   8.4633739195e+01   2.5864625775e+01    0.2345199    0.1942361  51.64 0.0006552504    1.213    0.175
       157  -8.8477     43.9162    193.1667   9.3278767584e+01   2.9635048214e+01    0.3965644    0.1843668  53.93  0.001857987    2.181    0.541
       158  -8.2873    179.5155    191.7149   6.0586046547e+01   1.2291757481e+01    0.1480286    0.1151499 -40.94 0.0009322394    1.582    0.368
       159  -8.5397    172.7000    191.7940   6.1944420077e+01   1.3208988737e+01    0.2016836    0.1728029 -51.24  0.001099948    1.687    0.407
       160  -9.1260    139.7159    190.4662   6.8767851249e+01   1.8050863656e+01     0.345218    0.2524927  74.19  0.001260583    2.736    0.634
       161  -9.2514    246.4115    206.9097   5.1729406252e+01   2.3711182272e+00    0.2318144    0.1338647 -23.32 0.0006438427    1.414    0.293
       162  -7.7588    205.4009    191.5019   5.5777652977e+01   8.9224865851e+00    0.1170879   0.09168449  -3.00 0.0001541046    1.047    0.044
       163  -8.2293    198.7401    191.2821   5.6918305480e+01   9.8050792863e+00    0.1602205    0.1384694 -25.19 0.0006056553    1.410    0.291
       164 -10.4109     92.5261    188.7720   8.0006965707e+01   2.4903975794e+01    0.9468587    0.2290856  40.26  0.002916941    3.655    0.726
       165  -7.9800      6.4727    190.4956   1.0294332561e+02   3.3377988741e+01    0.1210088   0.09881024  50.54   0.00080998    1.017    0.017
       166  -8.3808    237.4622    188.4735   5.0070972758e+01   5.4296448698e+00    0.2015499   0.08863717 -31.63 0.0007010582    1.969    0.492
       167  -8.7398    148.4556    188.8297   6.6552428579e+01   1.7085128826e+01    0.2085883    0.1836259 -78.21 0.0008931874    1.763    0.433
       168  -8.6064    129.1443    188.4622   7.0896678581e+01   1.9909537493e+01    0.2406218    0.1995254  73.48 0.0008413754    1.792    0.442
       169  -8.8953     34.3676    188.0888   9.5454204464e+01   3.1638994305e+01    0.3450337    0.1544077  62.72  0.001436101    2.537    0.606
       170  -8.6905    216.3817    187.6603   5.3260376174e+01   8.0464363704e+00    0.1937249     0.180839 -31.43 0.0007662849    1.683    0.406
       171  -8.9038    191.4104    187.0500   5.7534964026e+01   1.1362573386e+01    0.2514693    0.1980758 -56.95 0.0009975806    2.179    0.541
       172  -9.2851    155.7569    187.0166   6.4664722089e+01   1.6342171965e+01    0.2935858    0.2140955 -54.97 0.0009874097    1.898    0.473
       173  -9.5460    120.6987    185.8654   7.2517704918e+01   2.1592157853e+01     0.432182      0.28161 -75.30  0.002038457    2.694    0.629
       174  -9.0272     54.8526    186.6530   8.9790754164e+01   2.9896338984e+01    0.3939608    0.1884941  61.03    0.0014695    2.650    0.623
       175  -9.5651    249.0165    185.4914   4.7885151837e+01   4.4754415037e+00    0.2489216    0.2004357  -1.24   0.00127463    1.248    0.199
       176  -8.2834    230.6894    187.2242   5.0893984472e+01   6.3668011846e+00    0.1593994    0.1206674 -27.26 0.0007630662    1.402    0.287
       177  -8.6454    164.9445    186.4930   6.2636291351e+01   1.5115218773e+01     0.204891    0.1790971 -48.60 0.0006185376    1.545    0.353
       178  -9.2058    109.6972    186.0847   7.5265557676e+01   2.3104584801e+01     0.360425    0.2290878  59.65  0.001263948    2.279    0.561
       179  -8.8103    210.0615    184.1706   5.3721970767e+01   9.3022119394e+00    0.1953241    0.1394891 -18.25  0.000467987    1.196    0.164
       180  -8.5204    202.7889    184.4879   5.5036305025e+01   1.0206346807e+01    0.1952987    0.1487468 -44.09 0.0006832355    1.789    0.441
       181  -8.4389    183.1551    184.6387   5.8678146966e+01   1.2840355459e+01    0.2079743    0.1926126 -58.20 0.0008360023    1.700    0.412
       182  -9.2007     66.8380    184.4099   8.6304123325e+01   2.9024022580e+01    0.3869756    0.2046965  50.28  0.001071971    1.945    0.486
       183  -8.3896    224.0979    183.3246   5.1263626222e+01   7.6438943145e+00    0.1889452    0.1242512 -17.21  0.000521604    1.253    0.202
       184  -8.4776    197.2893    183.4657   5.5839216591e+01   1.1079454426e+01    0.1872044    0.1409522 -46.83 0.0007190339    1.864    0.463
       185  -8.8778    174.2949    183.4718   6.0213893168e+01   1.4259971427e+01    0.2149004    0.2117542 -54.98 0.0007477219    1.521    0.343
       186  -9.5333    138.9176    183.5587   6.7838958857e+01   1.9374879956e+01    0.2392906    0.2056105 -27.61 0.0003782811    1.232    0.188
       187  -8.5322    137.7671    178.9925   6.7346517962e+01   2.0361378040e+01     0.290979    0.1920002  48.84  0.001283751    1.837    0.456
       188  -8.2359    242.6608    183.2767   4.8426184832e+01   5.4454538985e+00   0.09074087    0.0822012 -18.85 0.0004667734    1.616    0.381
       189  -9.0436     44.4646    182.2013   9.2241448477e+01   3.1956646989e+01    0.3496286    0.1686528  56.33 0.0007843273    2.219    0.549
       190  -8.1505      1.9171    183.4896   1.0389220468e+02   3.5199515848e+01    0.1783847    0.1030981  26.67  0.001014295    1.556    0.357
       191  -7.9286    235.2061    181.2232   4.9180624688e+01   6.5594657523e+00    0.1646277   0.07225598 -39.38 0.0008647664    2.453    0.592
       192  -9.4537    147.1458    180.4605   6.5451691116e+01   1.8705495026e+01    0.3439437    0.2464233  34.97  0.001127604    1.336    0.252
       193  -7.7386    109.3029    181.3073   7.4658776388e+01   2.4093470819e+01    0.1356761   0.09872826  -7.95 0.0005277303    1.602    0.376
       194  -7.8526     83.2829    181.6700   8.1526243394e+01   2.7570837951e+01    0.1360073   0.09508078  57.13 0.0004571594    1.609    0.378
       195  -9.4287     25.8652    178.9116   9.7169601636e+01   3.4421376640e+01    0.6153471    0.2119959  68.77  0.002121456    4.253    0.765
       196  -8.6467    250.5423    172.5139   4.5464902842e+01   5.7947503330e+00    0.2336085    0.1231043 -22.04 0.0005681744    1.541    0.351
       197  -9.2245    248.9140    177.1382   4.6486991072e+01   5.4454433965e+00    0.2431557    0.1975485 -28.58  0.001349713    1.510    0.338
       198  -8.7684    247.3112    173.6857   4.6117396048e+01   6.0326536832e+00    0.1700619    0.1052126 -24.39 0.0004392884    1.294    0.227
       199  -9.4592    191.4742    178.1422   5.5964287394e+01   1.2637854997e+01    0.2425948    0.2280838 -28.29 0.0005911987    1.463    0.316
       200  -8.6321    205.1641    177.4047   5.3375294386e+01   1.0863623901e+01    0.2071849    0.1435903 -42.87 0.0005377479    1.797    0.444
       201  -7.9147    169.4160    178.2521   6.0287098690e+01   1.5782896660e+01    0.1626445    0.1203525 -46.81 0.0005406205    1.672    0.402
       202  -9.0009     35.9685    176.6946   9.4170938494e+01   3.4017454051e+01    0.4559357    0.1934729  68.40  0.001791139    3.168    0.684
       203  -8.5647    231.1511    176.7538   4.9021142568e+01   7.5979882653e+00    0.1897269    0.1273881 -30.84 0.0007075777    1.426    0.299
       204  -8.6187    217.4596    176.8839   5.1209775455e+01   9.3098124270e+00    0.1873217    0.1716425 -19.00 0.0007193233    1.471    0.320
       205  -9.1903    183.1297    175.9218   5.7143563123e+01   1.4152049625e+01    0.2762079    0.1905518 -41.98 0.0006624209    1.655    0.396
       206  -8.4948    129.0286    177.0002   6.9084296003e+01   2.2035075716e+01    0.2019262    0.1627648  63.16 0.0007204417    1.704    0.413
       207  -8.0049     97.7049    177.2156   7.7061860801e+01   2.6555712809e+01    0.2156746    0.1040802  19.93 0.0007069572    2.332    0.571
       208  -9.0758     89.1008    176.6969   7.9291978490e+01   2.7848074349e+01    0.2733482    0.1933489  64.72 0.0008587598    1.785    0.440
       209  -9.2685     58.7486    175.4956   8.7583477686e+01   3.1915251188e+01    0.6083344    0.2267172  55.86  0.002002459    4.121    0.757
       210  -8.9858     55.9877    170.7484   8.7860046499e+01   3.3300249098e+01    0.4860755    0.2174574  61.54  0.001808889    3.272    0.694
       211  -7.7914    211.6060    175.8622   5.1998896977e+01   1.0212813933e+01    0.1551379    0.1001349 -38.57  0.000618692    1.691    0.409
       212  -9.2313    158.8279    174.7663   6.1889967604e+01   1.7929284217e+01    0.3068803    0.2588539  80.69  0.001080509    2.043    0.511
       213  -9.3381    104.1842    174.5257   7.4949425693e+01   2.6187965222e+01    0.5356987    0.2598744  53.73  0.001895918    3.138    0.681
       214 -10.6735     75.9652    170.3271   8.2065862208e+01   3.0969146489e+01     1.130959    0.4961524 -79.36  0.003786848    4.388    0.772
       215  -9.8666     81.3134    155.4672   7.8364172197e+01   3.3591803864e+01    0.5544928     0.468176 -16.12  0.002106074    1.317    0.241
       216  -8.6749     12.6699    175.9811   1.0067917662e+02   3.6124718503e+01       0.2532    0.1318985  70.11  0.001284086    1.908    0.476
       217  -8.2683    224.4153    174.2636   4.9627690933e+01   8.7560759363e+00    0.1537618    0.1437111  32.35  0.000635184    1.644    0.392
       218  -9.4092    175.7714    172.3775   5.7943347348e+01   1.5777254265e+01      0.25881    0.2467383 -37.96 0.0007408283    1.422    0.297
       219  -7.8660    142.9897    172.4866   6.5013025794e+01   2.0742591138e+01    0.1744572    0.1083138  52.70  0.000517089    2.250    0.555
       220  -8.5258    134.6519    171.1929   6.6741688619e+01   2.2265042901e+01    0.2563908    0.1778668 -61.55  0.001143913    1.987    0.497
       221  -9.5813    121.1850    169.8629   6.9814960938e+01   2.4591903524e+01    0.3867442    0.2441026 -62.15 0.0009763592    2.113    0.527
       222  -8.9979     45.1315    170.7436   9.1018939792e+01   3.4473618060e+01    0.2960319     0.171739  62.09  0.001434824    1.885    0.470
       223  -8.3872    237.2962    169.3283   4.6790175489e+01   7.7580930382e+00    0.1906938    0.1281448 -24.34 0.0007353829    1.238    0.192
       224  -9.0280    230.2984    169.0156   4.7779222114e+01   8.6750608995e+00    0.3044766    0.1518636 -37.39  0.001718184    1.953    0.488
       225  -8.3499    205.8786    170.1485   5.1940136753e+01   1.1773093709e+01     0.170283    0.1522754 -19.50 0.0005712092    1.327    0.247
       226  -8.3418    198.5410    170.1040   5.3219594353e+01   1.2807850574e+01    0.1754738    0.1668547  -0.32 0.0006754671    1.397    0.284
       227  -8.4171    149.8508    169.5156   6.2917288315e+01   2.0210564642e+01    0.2278194    0.1854562 -71.28 0.0009410526    1.900    0.474
       228  -8.6369    244.4532    168.9892   4.5699569120e+01   6.9271241099e+00     0.165975   0.08743029 -28.95 0.0004815478    1.558    0.358
       229  -9.0821    166.9536    168.4052   5.9008725452e+01   1.7751445980e+01    0.2628324     0.214204  59.83   0.00101084    1.847    0.458
       230  -8.2137     88.6771    168.5901   7.8246531991e+01   2.9640404173e+01    0.2199909    0.1680145  75.97  0.001050888    1.682    0.405
       231  -8.5633    218.6850    168.1233   4.9435163429e+01   1.0305949046e+01    0.1735916    0.1509715  11.59 0.0005060039    1.278    0.218
       232  -7.9796    211.3672    168.1248   5.0636859633e+01   1.1296422614e+01    0.1636491   0.09922974 -40.62 0.0009317233    1.815    0.449
       233  -8.5036    111.5596    167.3199   7.1856347828e+01   2.6568339340e+01    0.2777355     0.209894  71.97  0.001070618    1.909    0.476
       234  -8.9067    191.8847    166.5692   5.3771424866e+01   1.4286051346e+01    0.2215323    0.1652358 -32.86 0.0005218763    1.350    0.259
       235  -8.6892    185.1728    166.6075   5.5037674946e+01   1.5273867889e+01    0.2084046    0.1579255 -36.71  0.000546255    1.409    0.290
       236  -7.7545     13.2952    167.6415   1.0007748882e+02   3.7988498829e+01    0.1404002   0.07595713  55.47 0.0007032264    1.700    0.412
       237  -9.6381    137.3156    164.4277   6.4890859059e+01   2.3112629217e+01    0.6065423    0.2778504  50.69  0.002217151    3.364    0.703
       238  -9.8934     95.0502    162.1002   7.5464798824e+01   3.0136941423e+01    0.8457795      0.55081  78.35  0.003607113    2.592    0.614
       239  -8.9217     20.6120    166.2467   9.7858163536e+01   3.7758818894e+01    0.3280019    0.1053358  39.66  0.001345499    2.498    0.600
       240  -7.6317    250.7632    164.9810   4.4118529635e+01   6.6490521037e+00    0.1404078   0.07262071 -27.80 0.0004365644    1.545    0.353
       241  -8.2658    234.0986    164.8553   4.6459067381e+01   8.7152577749e+00    0.1621954    0.1327504 -22.95 0.0005428187    1.281    0.219
       242  -9.3428     33.8247    163.5174   9.3715392535e+01   3.7266208037e+01    0.5780204    0.1578069  44.10   0.00205569    3.219    0.689
       243  -8.3987    239.6052    163.4345   4.5399867151e+01   8.1959416244e+00    0.1986775    0.1430334 -48.41  0.001267524    2.138    0.532
       244  -8.6862    212.8746    163.4807   4.9526106436e+01   1.1725036150e+01    0.2169209    0.1490019 -31.89 0.0005221188    1.378    0.274
       245  -8.6077    159.3530    163.9844   5.9792657062e+01   1.9682194826e+01    0.2182555    0.1850373  52.95 0.0008141078    1.541    0.351
       246  -8.5901    246.1329    162.7286   4.4353171271e+01   7.4741710697e+00     0.182678    0.1220948 -29.54 0.0005843748    1.334    0.250
       247  -8.5680    204.8494    162.3971   5.0675286552e+01   1.3010661401e+01    0.2031445    0.1448308 -33.81 0.0005180964    1.392    0.282
       248  -9.2792      3.6848    162.2371   1.0261875833e+02   3.9894148760e+01    0.4648025    0.1542776  43.67  0.001723159    2.463    0.594
       249  -9.0153     60.4535    160.6440   8.5353340251e+01   3.5113620203e+01    0.3591084    0.3135406 -61.74  0.001797173    1.229    0.186
       250  -9.0290    177.4284    160.3232   5.5344583634e+01   1.7442975403e+01    0.2508372    0.2209071 -45.60 0.0007965815    1.440    0.306
       251  -8.6562    151.6916    160.6743   6.0851665342e+01   2.1488852401e+01    0.2424873    0.2122533 -67.85  0.001013397    1.595    0.373
       252  -9.4633    242.9875    154.7039   4.3334372187e+01   8.8422391324e+00    0.1611933    0.1315076 -24.62 0.0003754659    1.269    0.212
       253  -9.7282    250.1834    157.7139   4.2901819920e+01   7.5787526707e+00    0.2922798    0.1580966 -27.80 0.0009218972    1.473    0.321
       254  -8.8954    246.5672    155.4962   4.2988413049e+01   8.2927447361e+00    0.3608677    0.1683042 -15.79  0.001826897    2.460    0.594
       255  -8.0258    242.1354    159.8168   4.4386330538e+01   8.3226787593e+00    0.1546268    0.1057571  -3.25 0.0004100108    1.297    0.229
       256  -8.8404    227.1195    158.7614   4.6387513865e+01   1.0408113923e+01    0.2373281     0.177247 -46.19  0.001211257    1.828    0.453
       257  -8.8283    237.1304    158.8830   4.4928274508e+01   9.0752351481e+00    0.1678466    0.1344559 -26.68 0.0005540739    1.292    0.226
       258  -8.7863    196.8413    157.8820   5.1216025035e+01   1.4841966274e+01    0.2540853    0.1653934 -45.15  0.000896324    1.830    0.454
       259  -8.5053    128.2923    158.9413   6.6079226079e+01   2.5617272312e+01    0.2482723     0.184723  53.43 0.0009786633    1.627    0.385
       260  -9.6061    105.8745    157.8396   7.1751392863e+01   2.9415832511e+01    0.4326797    0.2898149  64.00  0.001247695    2.166    0.538
       261  -8.3335    187.9882    157.4450   5.2750516293e+01   1.6255345845e+01     0.224874    0.1675931 -44.86 0.0006950428    1.597    0.374
       262  -9.1790    167.5607    157.1805   5.6735471601e+01   1.9526721616e+01    0.2935294    0.2431488 -70.63  0.001150466    1.916    0.478
       263  -8.5473    217.9486    156.3969   4.7369123326e+01   1.1982810970e+01    0.2158792    0.1466749 -40.55 0.0007489056    1.635    0.388
       264  -9.0260    157.7841    155.9324   5.8576984361e+01   2.1334607589e+01    0.2787075     0.182227 -47.61 0.0008969569    1.739    0.425
       265  -9.2619    119.5506    155.0299   6.7581767258e+01   2.7822294471e+01    0.3498431    0.2581614  78.59  0.001425561    2.222    0.550
       266  -9.7696     49.1963    155.3323   8.8168725992e+01   3.7665441520e+01    0.4606953    0.2767644  36.06  0.002273172    1.504    0.335
       267  -8.0782    204.9323    155.2505   4.9293507394e+01   1.4020130789e+01    0.1712064    0.1400561  -4.62 0.0004703141    1.021    0.020
       268  -8.4597    144.4592    154.7712   6.1363274124e+01   2.3752087296e+01    0.2457735    0.2152764  63.00 0.0007911982    1.501    0.334
       269  -9.4516     68.2841    153.6486   8.2024928646e+01   3.5777349407e+01    0.4728929    0.2354127  56.76  0.001477775    2.667    0.625
       270  -9.6385    132.7555    152.7415   6.3781039034e+01   2.6095600104e+01    0.4173826    0.3167047  69.27  0.001129882    2.012    0.503
       271  -9.1587    133.8136    148.1461   6.2603892084e+01   2.6814899009e+01    0.3570892    0.2210249 -39.54   0.00170913    1.669    0.401
       272  -9.5449     29.6927    150.9402   9.3892145642e+01   4.0666164479e+01    0.4287258    0.1963081  59.18  0.001566076    2.445    0.591
       273  -8.2868     20.4127    152.2891   9.6955090705e+01   4.1107108506e+01    0.1822892    0.1157835  80.55 0.0009036067    1.599    0.375
       274  -8.7983    189.5288    150.0050   5.0990394742e+01   1.7161874337e+01    0.2341713    0.1970126 -49.29 0.0008041357    1.534    0.348
       275  -8.1878    182.2375    150.9906   5.2562192990e+01   1.8172057635e+01    0.1891215     0.147359 -60.30 0.0007174708    1.946    0.486
       276  -8.3740    162.8053    150.7396   5.6451308587e+01   2.1407205085e+01     0.229634    0.1808919 -68.76 0.0009841074    2.005    0.501
       277  -8.6013     98.4324    150.6160   7.2550119748e+01   3.2139188382e+01    0.2998217    0.2167121  72.59 0.0009492901    1.963    0.490
       278  -9.4916    248.8873    149.1045   4.1506751634e+01   8.7734071472e+00    0.2581675    0.1379822 -27.58  0.000767098    1.491    0.329
       279 -10.2771    243.1747    149.6950   4.2383117074e+01   9.4354171599e+00    0.2596583    0.2096719  56.98  0.001805737    2.043    0.511
       280  -9.8729    233.7853    147.4018   4.3264163165e+01   1.0975777876e+01    0.2604251    0.1440681 -28.98 0.0009372467    1.501    0.334
       281  -8.5815    198.7753    148.5400   4.9035095805e+01   1.5933389938e+01    0.2195651    0.1509457 -45.35 0.0007223625    1.711    0.415
       282  -9.9581     89.2107    146.0738   7.4436464568e+01   3.4580604100e+01    0.6531715    0.3937498  79.55   0.00240439    3.321    0.699
       283 -10.1992     39.7040    146.7963   9.0233507180e+01   4.0741242179e+01    0.7061362    0.3919641  84.36  0.002836099    2.185    0.542
       284 -10.4031     55.1742    144.2996   8.4856142522e+01   3.9657641379e+01    0.9471778    0.4859817  69.01  0.003322015    3.019    0.669
       285  -8.3762    223.1709    146.6529   4.4684292788e+01   1.2558422175e+01    0.1881244    0.1373751 -30.07  0.000364056    1.250    0.200
       286 -10.5007    148.8603    144.8742   5.8334150649e+01   2.4837865270e+01    0.5374406    0.4091185 -82.83  0.001541951    2.360    0.576
       287  -8.8521    150.5140    135.6062   5.5969147494e+01   2.6257606769e+01    0.3780473    0.2150815  10.44  0.001385262    3.206    0.688
       288  -9.9808    139.2083    145.1131   6.0661816276e+01   2.6472479721e+01    0.3633955    0.2841991 -83.50  0.001172875    2.078    0.519
       289  -9.1654     78.2055    146.9640   7.7934888523e+01   3.5996795371e+01     0.267581    0.1793709  51.50 0.0007977071    1.591    0.372
       290  -9.2147     13.5152    146.1993   9.8732707541e+01   4.3104959899e+01    0.3479391    0.1770491  48.77  0.001292998    1.836    0.455
       291  -8.2246    206.8400    146.1530   4.7181632064e+01   1.5041924865e+01    0.1778632    0.1533836 -29.27 0.0006089149    1.249    0.199
       292  -8.2571    175.9169    146.0030   5.2779278884e+01   2.0014737740e+01    0.1896238    0.1684383 -84.03 0.0006923781    1.723    0.420
       293  -9.5715    240.3870    145.2088   4.1923453600e+01   1.0361576336e+01    0.1679683     0.117541 -25.53 0.0004420633    1.170    0.145
       294 -10.2854    243.1873    141.6724   4.0874887448e+01   1.0428358386e+01    0.4716193    0.1829201 -36.23  0.002400038    2.200    0.545
       295  -8.6746    165.5627    143.8107   5.4436450825e+01   2.2136903483e+01    0.2355878    0.2136176  79.49 0.0008421573    1.565    0.361
       296  -9.8746    124.9648    142.0620   6.3606835308e+01   2.9559558226e+01    0.5817521    0.3833348 -66.69  0.001492362    2.234    0.552
       297  -7.6345    194.3457    143.7020   4.8837334682e+01   1.7359653040e+01    0.1154342     0.104341 -74.44 0.0005063345    1.676    0.403
       298 -10.7700     69.4438    140.8575   7.9694387075e+01   3.8669426202e+01      0.68147    0.3921105  68.62  0.002447686    2.667    0.625
       299  -9.1416      2.8558    141.5441   1.0192432049e+02   4.4916853576e+01    0.4229805    0.1946599  66.79  0.001485154    2.170    0.539
       300  -8.4445    213.1169    149.6808   4.6849429655e+01   1.3602168405e+01    0.2014247    0.1443145 -35.02 0.0005663114    1.376    0.273
       301  -8.3226    182.1217    141.4832   5.0630858161e+01   1.9711875434e+01    0.1983452    0.1741187 -44.70 0.0005867005    1.356    0.262
       302  -9.2383    247.0828    143.6741   4.0735932576e+01   9.6662374563e+00    0.2096409    0.1289532 -22.46 0.0004318612    1.303    0.232
       303 -10.1979    106.7324    143.9260   6.8934467925e+01   3.2270167242e+01    0.7253356    0.5003172  82.71  0.002360792    2.531    0.605
       304  -9.7258     23.3055    137.7879   9.4810143702e+01   4.4472643672e+01     0.520879    0.2351099  57.45  0.001856945    2.432    0.589
       305  -7.5347    218.5164    138.4599   4.3775748579e+01   1.4355722394e+01    0.1214057    0.1014004 -16.81 0.0008082514    1.065    0.061
       306  -8.3258    207.7778    137.7271   4.5322088992e+01   1.6110222120e+01    0.2133044    0.1492975 -51.87 0.0009404085    1.934    0.483
       307  -8.8106    197.4271    137.1062   4.6931133445e+01   1.7859495559e+01    0.2625157    0.1832397 -50.96 0.0008100055    1.847    0.459
       308  -8.5496    172.2417    138.1175   5.1853112907e+01   2.1951560280e+01    0.2190463    0.1812414  76.95 0.0007429916    1.896    0.472
       309  -9.4032    139.8315    137.0431   5.8797364010e+01   2.7917415629e+01    0.3298354    0.2004016  -0.02  0.001081248    2.863    0.651
       310 -10.4042     83.2647    133.1596   7.3880414450e+01   3.8492254792e+01    0.6360939    0.3821662 -59.07  0.001485529    1.775    0.437
       311  -9.0932    248.6001    134.9302   3.8889126080e+01   1.0534966390e+01    0.2603038    0.1357909 -35.87 0.0007967341    1.649    0.394
       312  -8.8499    250.8023    129.9025   3.7654642725e+01   1.0851571191e+01    0.3476506   0.08685426 -30.81   0.00139877    3.369    0.703
       313  -8.3453    162.7840    136.1984   5.3394873404e+01   2.3945819500e+01    0.1947053    0.1906273 -56.14 0.0007478335    1.260    0.207
       314  -8.6883    246.9851    129.9812   3.8144610659e+01   1.1361097674e+01    0.2049711    0.1298038 -28.46 0.0006586701    1.259    0.206
       315  -9.6509     39.0295    135.7471   8.9168491296e+01   4.3566470305e+01    0.3449785    0.2198834  62.37 0.0008775783    1.711    0.416
       316  -8.2396     57.3237    134.9443   8.2766063048e+01   4.1701932320e+01     0.195945    0.1927609 -75.63 0.0007629347    1.051    0.048
       317  -8.5926    237.7019    133.5484   4.0046220889e+01   1.2206737362e+01    0.1953907    0.1175573 -42.86 0.0009845736    1.791    0.442
       318  -8.0173    231.5029    133.9460   4.0974991887e+01   1.3042703920e+01    0.1761668   0.09736789 -30.70 0.0004500334    1.507    0.337
       319  -8.5409    179.4459    133.8274   4.9510112932e+01   2.1407919206e+01    0.2248805    0.2034716 -62.10  0.000713905    1.453    0.312
       320 -10.2553    132.3224    131.0228   5.9328467398e+01   3.0468921736e+01    0.5895668    0.4057062 -75.20  0.001384829    2.579    0.612
       321  -8.8789    112.8853    133.1169   6.4981552159e+01   3.3554855715e+01    0.3608193    0.2493288  65.29    0.0011036    2.101    0.524
       322  -9.2563    143.0577    131.5260   5.6801831860e+01   2.8387488433e+01    0.2976478    0.2448777 -66.59 0.0008681283    1.595    0.373
       323  -9.7430     97.9660    128.5326   6.8354280422e+01   3.7164928535e+01    0.6106077    0.2258109 -52.37  0.002136366    2.804    0.643
       324  -9.7898     12.8840    128.8320   9.7686213649e+01   4.7501801455e+01    0.5322397    0.2298738  65.50  0.002136925    2.644    0.622
       325  -8.2388    204.4354    130.1986   4.4300308301e+01   1.7739601085e+01    0.1708051    0.1079411 -40.72 0.0005294509    1.576    0.365
       326  -7.9844    192.8306    130.1006   4.6244709804e+01   1.9692103173e+01    0.1895487     0.167222 -36.26 0.0004911727    1.229    0.187
       327  -9.2899    168.3067    129.2109   5.0697567153e+01   2.4161730264e+01    0.2769772    0.2222598 -58.96 0.0007627366    1.616    0.381
       328  -9.2033    153.0383    129.1939   5.3965225277e+01   2.6973417357e+01    0.3201489    0.2299445 -59.66 0.0009243855    1.864    0.464
       329  -9.8932     72.9992    129.1826   7.6477180438e+01   4.0992030533e+01    0.4221239    0.2677521  63.48  0.001173071    2.091    0.522
       330 -10.7388     45.2790    123.6491   8.5274374246e+01   4.5976835483e+01     1.260432    0.5768772  68.14  0.003965653    4.127    0.758
       331  -8.2693    211.7269    128.9508   4.2875618049e+01   1.6739120032e+01    0.1936547    0.1301357 -51.90  0.001031772    1.973    0.493
       332  -8.0755     25.6308    129.6884   9.3200798888e+01   4.6339479427e+01    0.1463205    0.0959662 -34.74 0.0004723784    1.770    0.435
       333 -10.6854     60.2541    125.2569   8.0145317243e+01   4.3738321177e+01    0.7322347    0.4174354  67.02  0.002568822    2.594    0.614
       334  -9.9493    117.9670    124.8747   6.1728843018e+01   3.4390677847e+01    0.5450561    0.4255076 -82.91  0.001684657    1.844    0.458
       335  -7.5055    228.6421    125.3211   3.9642202262e+01   1.4601578929e+01    0.1141243   0.08857034 -55.45 0.0007044718    1.765    0.433
       336  -8.9203    179.2022    124.5585   4.7507085467e+01   2.2962194461e+01    0.2492485    0.2105865 -66.88 0.0007654216    1.619    0.382
       337 -10.4324     28.2852    121.8287   9.1340841024e+01   4.8135602896e+01    0.8716187    0.3640876  67.27  0.002910223    3.715    0.731
       338  -9.0489     26.4957    113.5105   9.0990570293e+01   5.0448260496e+01    0.3230005    0.1440248   9.83  0.001251175    2.693    0.629
       339  -8.4222    243.8516    123.8373   3.7340564329e+01   1.2560159063e+01    0.1528704    0.1141332 -37.12 0.0005342856    1.313    0.239
       340  -7.9979    188.6340    123.8419   4.5615694352e+01   2.1390502345e+01      0.18789     0.111862 -43.39 0.0009336228    1.726    0.421
       341  -9.1319    158.8657    121.5371   5.0916311044e+01   2.7257923917e+01    0.3351787    0.2530771 -83.67  0.001130482    2.294    0.564
       342  -8.0299    195.0070    121.9521   4.4088997076e+01   2.0563231613e+01    0.1888462    0.1563088 -62.40 0.0004929992    1.634    0.388
       343  -8.9064    171.8669    121.4190   4.8209493134e+01   2.4827741568e+01    0.2444583     0.178407 -34.20 0.0005755402    1.305    0.234
       344  -9.9058    130.8534    118.2112   5.6712449178e+01   3.3307234164e+01    0.5298009    0.3695007  86.97  0.001944069    2.842    0.648
       345 -10.3789    133.3410    108.8515   5.3743932094e+01   3.4662559478e+01    0.6871047    0.3536796 -36.86  0.002273631    2.030    0.507
       346  -9.9195    141.6154    117.7974   5.3940601589e+01   3.1284639101e+01    0.5875083    0.3184318 -49.29   0.00129254    2.046    0.511
       347  -9.8026     70.7130    119.3981   7.5350703314e+01   4.3717757799e+01    0.3651387    0.2857782  74.92  0.001409936    1.541    0.351
       348  -9.7334      2.9776    117.0553   1.0045644702e+02   5.1083700315e+01    0.6548604    0.2540665  65.12  0.002529936    2.905    0.656
       349  -7.9965    231.4584    117.2735   3.7614239543e+01   1.5230014329e+01    0.1639104   0.09416889 -38.98   0.00090511    1.584    0.369
       350  -8.7681     58.6454    115.7088   7.8969246077e+01   4.6348109069e+01    0.5133026     0.282496 -11.65  0.001736322    3.515    0.716
       351  -8.1315    185.6066    115.7617   4.4327641590e+01   2.3203993954e+01    0.1836074    0.1160625 -42.45 0.0003956736    1.578    0.366
       352  -9.8976    109.5143    114.1691   6.1588861557e+01   3.8269388849e+01     0.487702    0.3614942 -85.94  0.001549552    2.073    0.518
       353  -8.9210    108.8525    107.1641   6.0018918714e+01   3.9909472016e+01      0.44289     0.202842 -40.80  0.001650669    2.331    0.571
       354  -8.2938    193.1929    114.9998   4.2839603082e+01   2.1942513254e+01    0.2323219    0.1370902 -40.92 0.0006925589    1.636    0.389
       355  -8.5257     84.2673    122.8541   7.1470909512e+01   4.0768914822e+01    0.2877448    0.1956084  -3.63 0.0008818734    2.081    0.519
       356 -10.0789     92.8401    112.4157   6.6308372507e+01   4.1742208783e+01    0.5657817    0.3593175 -69.46  0.001284869    2.147    0.534
       357  -8.9586     92.8780    104.8384   6.4414990808e+01   4.3467014750e+01    0.5877715    0.3032425  17.32  0.001818509    3.759    0.734
       358  -8.0534    250.2817    114.6101   3.4746687908e+01   1.2781303413e+01    0.1370905    0.1006375  27.54 0.0009413457    1.571    0.363
       359  -8.0389    167.4147    114.2107   4.7401709248e+01   2.6890701355e+01    0.1905795    0.1259397 -45.54 0.0004904907    1.582    0.368
       360  -9.8600     79.0218    112.3677   7.0934800610e+01   4.4123684048e+01    0.5483034    0.3720163  87.36  0.001728967    2.286    0.563
       361  -8.6825     78.2441    105.4655   6.9585726799e+01   4.5903905203e+01    0.4049712    0.2673335 -14.83   0.00165361    2.244    0.554
       362  -9.8448    122.1261    112.3584   5.7572529439e+01   3.6205649518e+01    0.3318337    0.2622569 -63.09 0.0004725227    1.523    0.343
       363  -8.5801    174.9241    111.5753   4.5307644882e+01   2.5883808108e+01    0.2550616    0.1772455 -49.40 0.0007307384    1.603    0.376
       364  -8.8394    159.2646    111.7049   4.8472484828e+01   2.8917986623e+01    0.2268265    0.2120268 -63.85  0.001108369    1.248    0.199
       365  -9.8594     66.4671    110.3636   7.4985029351e+01   4.6576045811e+01    0.4129251    0.2946354  83.94  0.001228827    1.877    0.467
       366  -8.6419     67.1261    105.3222   7.3619177353e+01   4.7721154960e+01     0.309397    0.1425445  22.61  0.001095662    2.627    0.619
       367  -9.7266     14.5446    111.1493   9.5463195582e+01   5.1957555479e+01    0.3732932    0.2163712  60.58  0.001760932    1.844    0.458
       368 -10.8825    248.3858    107.9655   3.3645075193e+01   1.3862253148e+01    0.4442016     0.259176 -20.72  0.002686248    1.541    0.351
       369  -8.9610     43.0024    109.0250   8.3746459017e+01   4.9990584777e+01    0.3481796    0.1892691   3.65  0.001367749    2.526    0.604
       370  -8.3623    189.2791    107.7968   4.1841370886e+01   2.3761548514e+01    0.2403183    0.1441076 -37.18 0.0006562837    1.538    0.350
       371  -9.8877    118.8042    105.9895   5.6851878390e+01   3.8180520557e+01    0.2769162    0.2176906  41.61 0.0008278496    1.249    0.199
       372 -10.4585     45.6181    101.9944   8.1378553124e+01   5.1497869587e+01    0.8607454    0.4313682  62.77  0.002990942    3.270    0.694
       373  -9.2121     45.7420     92.3410   7.9305042612e+01   5.3951987134e+01    0.5284867    0.2907074  -4.17  0.001935367    2.958    0.662
       374 -10.7091     22.8644    102.4948   9.1001445140e+01   5.3625152442e+01    0.7696084    0.3667086  61.95  0.002467998    2.726    0.633
       375  -9.5469    150.6685    103.1339   4.8172027926e+01   3.2178026127e+01    0.4420616    0.2649163 -55.79  0.001259253    2.178    0.541
       376  -8.4290    166.7327    103.9586   4.5030108324e+01   2.8756833007e+01    0.2532389    0.1788725 -51.06 0.0007028395    1.583    0.368
       377  -9.9592    128.4992    101.8329   5.3143467677e+01   3.7031928905e+01    0.3299339    0.2795697  88.95 0.0009302254    1.522    0.343
       378  -9.2152      6.5543    102.7108   9.7906529060e+01   5.4623220645e+01    0.3117744    0.1716891  59.36  0.001123664    1.935    0.483
       379  -7.9884    175.6067    101.8320   4.2816477360e+01   2.7333006924e+01    0.1938719    0.1193166 -44.45 0.0005211196    1.644    0.392
       380 -10.7329    108.7705     98.5329   5.7741952868e+01   4.1767088040e+01    0.8094726    0.5110795  63.30  0.001292325    2.254    0.556
       381  -8.8601    107.3856     92.7202   5.6526045571e+01   4.3272226136e+01    0.4363861    0.2960781  17.89     0.001859    1.949    0.487
       382  -8.3550    159.8369    101.0113   4.5670973355e+01   3.0659115086e+01    0.2143013    0.1853537 -58.46  0.000523106    1.313    0.239
       383  -9.2257     82.2049     99.8797   6.6776990947e+01   4.6541725833e+01    0.3721969    0.2754523 -80.21 0.0009062506    1.809    0.447
       384  -9.1779     95.0449     96.9384   6.1604626660e+01   4.4833514585e+01    0.3270095    0.2489505 -65.76 0.0007123472    1.565    0.361
       385 -10.0568     63.9426     95.6712   7.2546185407e+01   5.0581336527e+01    0.5609528    0.3581881  73.89  0.001559153    2.544    0.607
       386  -7.4005    183.6629     96.3410   4.0044330372e+01   2.6599849264e+01    0.1378411    0.1028179 -64.80 0.0007050484    1.763    0.433
       387  -9.3473    139.7778    104.2846   5.0978954052e+01   3.4219660682e+01    0.3382507    0.2530632 -59.98 0.0008187664    1.637    0.389
       388  -8.1608    164.9787     93.9846   4.2829200200e+01   3.0774358103e+01    0.2135718    0.1677152 -65.85 0.0005081607    1.596    0.373
       389  -7.9279    188.4327     93.2489   3.8498117165e+01   2.6128202455e+01    0.1901899    0.1138127 -42.69 0.0009400312    1.611    0.379
       390  -8.1133    176.1774     92.9512   4.0492460515e+01   2.8628230610e+01    0.2105633    0.1752204 -52.77 0.0005444352    1.292    0.226
       391  -9.4297    139.0642     91.5448   4.7708608747e+01   3.6734323221e+01    0.5635688     0.291115 -46.18  0.001188349    2.033    0.508
       392  -9.4151    120.3025     92.9996   5.2890523990e+01   4.0501635700e+01    0.3534553    0.2367938  49.37   0.00161572    1.512    0.338
       393  -9.7488    124.6852     90.7780   5.1078243126e+01   3.9996302258e+01    0.4101192    0.3138829 -76.06 0.0009910837    1.812    0.448
       394  -9.1811     22.5798     90.4631   8.9322198532e+01   5.6799607323e+01    0.4868376     0.291976 -31.43  0.002252602    1.867    0.464
       395  -9.9127    247.7308     91.7960   3.0439861297e+01   1.5912533921e+01    0.1793746    0.1737711 -19.22  0.001107491    1.234    0.189
       396  -9.5420     34.9300     89.7113   8.3539726937e+01   5.5861342751e+01     0.509819    0.2885017  83.99  0.001485197    2.568    0.611
       397  -9.4468      5.3480     91.7672   9.7370987259e+01   5.7541195899e+01     0.300984    0.1822596  54.46  0.001096917    1.762    0.433
       398  -8.0316    151.0032     88.9997   4.4329749825e+01   3.4591110475e+01    0.2217014     0.174136 -69.42 0.0005284882    1.616    0.381
       399 -10.1188     86.5453     86.0597   6.1391358664e+01   4.8892908618e+01    0.6253866    0.4213057 -63.44  0.001732287    1.829    0.453
       400  -8.6521     64.5230     87.6476   7.0227869265e+01   5.2439973386e+01    0.2881344    0.1840446  -2.02  0.001132465    2.417    0.586
       401  -7.9027    164.2681     86.6718   4.1035256550e+01   3.2116510809e+01    0.1396387     0.106589 -62.40 0.0002884249    1.577    0.366
       402  -8.6748     70.5392     86.1091   6.7391336165e+01   5.1807459728e+01     0.384632      0.16341  38.83  0.001395129    2.283    0.562
       403  -9.7170     48.6431     83.7924   7.5991817417e+01   5.5731627806e+01     0.633217    0.4357792  88.29  0.002180855    1.995    0.499
       404  -8.3175    158.1445     83.8714   4.1457811379e+01   3.3895161458e+01    0.2117556    0.1843177 -55.82 0.0005127339    1.222    0.181
       405  -9.7227    104.8008     82.9958   5.4428177782e+01   4.5822653049e+01    0.4253958    0.3249568 -76.56 0.0009077825    1.802    0.445
       406  -8.5569     64.1113     82.2840   6.8896137640e+01   5.3788623045e+01     0.271521    0.1946799 -89.90 0.0005769368    2.046    0.511
       407  -9.5322     24.6664     80.3148   8.6518131048e+01   5.9267518175e+01    0.5453404    0.3082605  77.91  0.001715797    2.463    0.594
       408  -9.1749      9.8712     80.8570   9.3925256641e+01   6.0163388281e+01    0.3982469    0.1706162  53.90  0.001343549    2.924    0.658
       409  -8.5661    119.5724     80.2116   4.9308452858e+01   4.3140264391e+01    0.3289211    0.2206524 -58.56 0.0009664471    1.844    0.458
       410  -8.7786     74.7231     80.2166   6.4011548147e+01   5.2429056929e+01    0.3277739    0.2351308 -75.40 0.0009737962    1.916    0.478
       411  -7.9949    157.8975     91.8213   4.3662026337e+01   3.2628274917e+01    0.1916175    0.1662607 -63.16 0.0005277534    1.310    0.237
       412  -8.2688    150.2319     80.2658   4.2047086124e+01   3.6237997405e+01    0.1959572    0.1683148 -73.52 0.0008721168    1.349    0.259
       413  -8.6794    128.9020     79.8421   4.6774936295e+01   4.1114322946e+01    0.2209168    0.1946597   9.17 0.0002971847    1.237    0.192
       414  -9.3694    128.1846     75.1627   4.5522290377e+01   4.2117206119e+01    0.4086586    0.2560211 -57.74  0.000804548    2.035    0.509
       415  -8.1928    166.9900     79.3309   3.8554080653e+01   3.2689892694e+01    0.1857408    0.1812646 -65.13 0.0004922285    1.069    0.065
       416  -7.7623    184.0066     77.9684   3.5359529458e+01   2.9271066200e+01    0.1672118    0.1420675 -32.61 0.0005537621    1.090    0.082
       417  -9.1640    140.9311     82.6653   4.4753086188e+01   3.7908564113e+01    0.2784647     0.206569 -47.71 0.0006272695    1.399    0.285
       418  -7.8636    157.3986     76.1947   3.9461576686e+01   3.5296733178e+01    0.2031238    0.1243254 -45.38 0.0005040744    1.654    0.395
       419  -8.5279    140.4023     75.2101   4.2677118419e+01   3.9309233863e+01    0.2738061    0.2081523 -64.82 0.0006965503    1.593    0.372
       420  -9.8894     63.2459     73.4930   6.6608312185e+01   5.5989976034e+01    0.4770037    0.3178494 -70.30  0.001105298    1.978    0.494
       421  -9.7010     82.4752     72.3499   5.8541555733e+01   5.2674925281e+01    0.4424942    0.3029989 -69.76 0.0009581953    2.092    0.522
       422  -8.3175    163.5029     72.9963   3.7431600215e+01   3.4431196669e+01    0.2156013    0.1331821 -33.81  0.001022413    1.559    0.358
       423  -8.2260    151.1852     73.1141   3.9790726057e+01   3.7189943492e+01    0.1975283     0.166167 -64.30  0.000505204    1.314    0.239
       424  -8.7648    115.7669     72.7006   4.7980013693e+01   4.5401629226e+01    0.2832829    0.2004827 -49.96 0.0004604213    1.520    0.342
       425  -8.4413     42.7107     72.5737   7.5773493912e+01   5.9289001757e+01    0.2398214    0.1799267  87.61 0.0006309368    1.724    0.420
       426  -7.6626    175.5186     72.4501   3.5245079016e+01   3.1872424765e+01    0.1347135    0.1274386 -37.31 0.0006219984    1.005    0.005
       427  -9.2813    105.9547     71.5068   5.0407272983e+01   4.7841488087e+01    0.2764657     0.209794 -58.13 0.0006135268    1.521    0.342
       428  -9.1822     95.2252     70.9489   5.3602384997e+01   5.0308747946e+01    0.4188029    0.2508633 -56.84  0.001020658    2.090    0.521
       429  -9.3961     51.5732     69.5023   7.0606448368e+01   5.8790414787e+01    0.4779879    0.3046433 -80.94  0.001469841    2.468    0.595
       430  -9.2778     29.5510     69.9557   8.1744985779e+01   6.1456714474e+01    0.5283371    0.2516186 -19.34  0.001806183    3.518    0.716
       431  -9.1626     16.6614     69.4898   8.8513751030e+01   6.2682400717e+01    0.3762771    0.1935428 -86.48  0.001344128    2.374    0.579
       432  -8.4556    138.8189     66.1157   4.0245053224e+01   4.1178617347e+01    0.2273404    0.1908759 -65.13 0.0005722138    1.318    0.241
       433  -8.7453    121.6514     65.8469   4.4183238847e+01   4.5264445257e+01    0.2793158    0.2119087 -64.10 0.0006128459    1.594    0.372
       434  -8.9296     37.2554     63.8637   7.6021335907e+01   6.2099918252e+01     0.312222    0.2247749  86.96  0.001147516    1.907    0.476
       435  -8.9279    110.2163     63.4251   4.6428836508e+01   4.8362356519e+01    0.3228616    0.2407929 -62.48 0.0008164806    1.638    0.389
       436  -9.3576     97.4033     60.7990   4.9343160612e+01   5.1780734056e+01    0.4083217    0.3292031 -19.27  0.001439897    1.387    0.279
       437  -8.7346    147.1480     67.9833   3.9080062383e+01   3.8934091213e+01    0.2812981    0.1963802 -43.77 0.0006795744    1.431    0.301
       438  -8.0157    158.1649     61.2294   3.4995991951e+01   3.7399761840e+01    0.1977568    0.1537906 -55.50 0.0005931753    1.343    0.255
       439  -9.7147     73.3662     59.0704   5.7359288990e+01   5.7264122784e+01    0.4580567    0.2604486 -52.24  0.001096165    1.979    0.495
       440  -8.0660     51.9909     61.5281   6.7782046771e+01   6.0575550641e+01    0.2076719    0.1272954   3.68 0.0007193004    2.483    0.597
       441  -7.8223     68.6412     60.7070   5.9923475490e+01   5.7845848763e+01    0.1549699    0.1157929   1.33 0.0007030045    1.695    0.410
       442  -8.0527     88.8871     59.3648   5.1648054822e+01   5.3947500199e+01    0.2078211     0.189294 -58.27 0.0005755684    1.201    0.168
       443  -9.8222     23.4816     56.1796   8.1474777723e+01   6.5465466644e+01    0.4986703    0.3026292  73.27  0.002119076    2.602    0.616
       444  -9.5716      7.5756     56.8607   9.1220003716e+01   6.6450543835e+01    0.3483874    0.2196582  79.39  0.001180829    1.917    0.478
       445  -7.9462    130.4857     57.2775   3.9231175217e+01   4.4569435362e+01    0.2001987    0.1339397 -47.53 0.0006870694    1.571    0.363
       446  -9.3409    119.1911     55.3661   4.1242733460e+01   4.7600698970e+01    0.4507664    0.2307578 -48.67  0.001501943    2.236    0.553
       447  -7.8773    139.8850     55.8641   3.6773591013e+01   4.2518170142e+01     0.195715    0.1633964 -62.86 0.0002780618    1.283    0.221
       448  -8.7433     44.2469     55.2900   6.9495427992e+01   6.3172108385e+01     0.293618    0.2321191 -67.61 0.0009711745    1.468    0.319
       449  -9.6083     62.8995     53.2301   5.9570208635e+01   6.0487673774e+01    0.7038509    0.2218132 -46.86  0.002139969    3.264    0.694
       450  -9.0586     54.1606     53.8394   6.3910874418e+01   6.1922855670e+01    0.3915601     0.233815 -65.79  0.001102003    2.425    0.588
       451  -8.3813    105.8542     53.1061   4.3973695885e+01   5.1172265446e+01    0.2328727    0.2000351 -75.98 0.0007365813    1.354    0.261
       452  -9.4190     92.5388     50.4630   4.7015711403e+01   5.4745801372e+01    0.3962615     0.250936 -51.91 0.0009924126    1.853    0.460
       453  -8.0919    144.9913     48.9489   3.3570725622e+01   4.2279107306e+01    0.1691048    0.1602167 -44.33 0.0004707799    1.057    0.054
       454  -8.3762    130.1512     49.1435   3.6559588826e+01   4.5883366990e+01    0.2024314    0.1671171 -63.35 0.0004345796    1.313    0.238
       455  -8.1563    120.8119     47.3151   3.7999454467e+01   4.8454385942e+01    0.2016902    0.1768751 -44.31 0.0006218168    1.174    0.148
       456  -8.3887    112.2243     46.6972   3.9869446155e+01   5.0659984716e+01    0.2559659    0.1878712 -46.88  0.000775188    1.447    0.309
       457  -8.9234     82.2454     46.1794   4.8817427183e+01   5.7831330084e+01    0.3355013    0.2421501 -57.82 0.0006437907    1.711    0.415
       458  -8.5178     45.0123     44.4594   6.4857075052e+01   6.5427933667e+01    0.2488391    0.2017431 -69.01 0.0006081397    1.547    0.353
       459  -8.8204     16.8463     44.5862   8.2203722859e+01   6.8850776164e+01    0.2431909    0.1764141  88.27 0.0005957051    1.774    0.436
       460  -8.7215    148.2110     43.8409   3.1368329710e+01   4.2186031317e+01    0.1882283    0.1601973  37.19 0.0005028631    1.283    0.221
       461  -8.2630    132.9585     42.9673   3.3861563307e+01   4.6063791016e+01    0.2287082    0.1645082 -65.17 0.0004922083    1.612    0.380
       462  -8.8431     93.0875     42.2451   4.3530716364e+01   5.5985958405e+01     0.307914    0.2082678  26.74   0.00138473    1.795    0.443
       463  -8.7057     58.4321     42.5800   5.7169232016e+01   6.3453805131e+01    0.3013877    0.2330759 -85.06 0.0009650633    2.027    0.507
       464  -9.6639      5.2231     41.7188   8.9412642624e+01   7.0317708022e+01    0.3995648    0.2334954  86.96  0.001558706    2.187    0.543
       465  -9.1875     69.6961     41.2554   5.1560087118e+01   6.1433347682e+01    0.3541707     0.261219 -75.45    0.0010873    2.119    0.528
       466  -7.7196    140.2353     40.9773   3.1818185298e+01   4.4523686847e+01    0.1783478    0.1174558 -31.22   0.00037275    1.542    0.352
       467  -8.7889    105.9141     41.1458   3.9387494583e+01   5.3048245365e+01    0.2241174    0.1964187 -76.33 0.0004576901    1.272    0.214
       468  -7.8634    160.5613     39.5192   2.8099862712e+01   3.9748687061e+01    0.1380084     0.124202 -63.50 9.937435e-05    1.069    0.064
       469  -8.9032     95.4669     37.7864   4.0952199181e+01   5.6103753945e+01    0.2610658    0.1385931 -38.68  0.000725677    1.963    0.490
       470  -7.9545     80.8009     36.5995   4.5193446943e+01   5.9761340057e+01    0.1999492    0.1370366  62.51 0.0004081818    1.595    0.373
       471  -9.2190     26.2735     35.4203   7.2433154945e+01   6.9994583948e+01    0.2782584    0.2322048 -81.34 0.0008520441    1.558    0.358
       472  -8.2208    125.9551     35.3390   3.2551197447e+01   4.8834485814e+01    0.1994634     0.176832  62.43 0.0003149634    1.078    0.073
       473  -8.6561    111.8223     34.1178   3.5145678773e+01   5.2566057478e+01    0.2249406    0.1891472 -66.13 0.0006004269    1.305    0.234
       474  -8.6179     36.8040     40.0605   6.7692441979e+01   6.7604934257e+01    0.3011124    0.1949771 -59.23  0.001160512    1.772    0.436
       475  -7.8030     88.5536     34.4721   4.1644917905e+01   5.8265225224e+01    0.1455756    0.1366607  41.35 7.676532e-05    1.006    0.006
       476  -8.5987    119.1772     32.7427   3.2978165628e+01   5.0884648716e+01    0.2589034    0.1818337 -44.35  0.001023522    1.486    0.327
       477  -8.7125     60.8915     32.4829   5.1277885861e+01   6.4800294250e+01    0.2531126    0.1978288 -54.81 0.0006139581    1.551    0.355
       478  -8.8561     48.4902     32.8000   5.7601018457e+01   6.7150871315e+01    0.2470492    0.2316715 -68.44 0.0007018393    1.307    0.235
       479  -8.7466     72.3555     31.0483   4.5742865871e+01   6.2557683670e+01    0.2429359    0.2012995  87.93 0.0006824529    1.565    0.361
       480  -9.1586     12.8397     29.8872   7.9958392817e+01   7.2589986480e+01    0.3467482    0.2109343 -81.48  0.001234266    2.348    0.574
       481  -8.5371    101.5097     29.4905   3.5788741352e+01   5.5774159532e+01     0.144393    0.1357982  60.25 0.0001026296    1.016    0.016
       482  -7.7673     42.2908     29.6674   5.9493576795e+01   6.8825599136e+01    0.1308805    0.1135333  83.69 0.0002813845    1.630    0.387
       483  -8.8258     81.6307     27.3256   4.0624481056e+01   6.0952239737e+01    0.2926855    0.2225078 -71.46 0.0008502997    1.753    0.430
       484  -9.0437      3.6235     27.5554   8.6574368869e+01   7.3755711650e+01    0.2368346    0.1923223  85.62 0.0007630552    1.507    0.337
       485  -8.7582     91.9784     26.4255   3.7026092107e+01   5.8553560810e+01    0.2667735     0.191455 -49.85 0.0006114253    1.582    0.368
       486  -8.0645     34.9345     22.9710   6.0432013705e+01   7.1286653222e+01    0.2047244    0.1713284  71.31 0.0007360919    1.746    0.427
       487  -7.4799    185.2409     22.6922   2.0387312806e+01   3.5873999717e+01    0.1295243   0.08097032 -53.44  0.000141194    1.496    0.332
       488  -8.2158    104.4535     22.4912   3.2106224392e+01   5.5894162823e+01    0.1419584     0.133057  73.48 0.0001437788    1.041    0.039
       489  -8.9526     63.5557     20.6331   4.3942981811e+01   6.6074796045e+01     0.328663    0.2105044 -48.48  0.001102888    1.915    0.478
       490  -8.7281     48.3283     21.4387   5.1607812244e+01   6.9151991634e+01    0.2446488    0.2221951 -51.53 0.0007315764    1.323    0.244
       491  -8.1168    120.6133     20.7691   2.8102924370e+01   5.1931200774e+01    0.1964099    0.1231654 -39.70 0.0007357298    1.639    0.390
       492  -8.0305     19.5072     20.9967   7.0552657011e+01   7.3828780371e+01    0.1947622    0.1254748 -50.80 0.0007641285    1.562    0.360
       493  -8.8757     74.1234     19.3606   3.9229629553e+01   6.3808492256e+01    0.2644801    0.1978807 -41.36 0.0007182115    1.481    0.325
       494  -8.2917     87.8894     17.3991   3.3973540794e+01   6.0680409066e+01    0.2313421    0.1885884 -44.02 0.0005903789    1.347    0.258
       495  -8.1727     38.8596     18.1210   5.5090451647e+01   7.1466645823e+01    0.1912566    0.1880231  74.36 0.0005087993    1.285    0.222
       496  -8.1128    112.6307     17.1300   2.8147756618e+01   5.4380804896e+01     0.189041    0.1346022  -1.33 0.0006602514    1.730    0.422
       497  -8.0680     30.3877     16.1446   5.9477871648e+01   7.3236367630e+01    0.1754503    0.1257157 -51.65 0.0005751313    1.685    0.406
       498  -7.9516     97.3539     15.1028   3.0503403847e+01   5.8532979724e+01    0.1938459    0.1212655 -39.43 0.0004913713    1.712    0.416
       499  -8.3226      7.5000     14.9915   7.7897901270e+01   7.6271696374e+01    0.1688345    0.1136112  84.55 0.0008106375    2.616    0.618
       500  -7.8586     17.3583     14.1028   6.8428921229e+01   7.5445245169e+01    0.1681053    0.1219224 -58.88 0.0005090377    1.676    0.403
       501  -8.0264    191.5089    249.5031   6.6852024558e+01   3.3187592476e+00    0.1074623   0.07721407  11.04 -9.297214e-05    1.095    0.086
       502  -9.4245    175.7055    247.5915   6.9460533186e+01   5.2162831439e+00    0.2331435    0.2247255  15.27  0.001462056    1.743    0.426
       503  -8.9291    132.3523    247.8495   7.7921345178e+01   9.9863148991e+00    0.2583506    0.1666755  52.30 0.0007077734    2.288    0.563
       504  -8.3360    113.4132    248.4412   8.1888276025e+01   1.2018005659e+01    0.1602453    0.1142099 -80.59  0.001023145    2.414    0.586
       505  -8.3964     93.8890    249.2788   8.6082643604e+01   1.4028991139e+01    0.1942436     0.104219  38.87  0.001117042    1.538    0.350
       506  -9.1926    243.0643    246.4813   5.8035881916e+01  -1.3639895198e+00    0.2789729    0.1135144 -26.86  0.001384734    2.164    0.538
       507  -9.0201    218.6510    246.6295   6.1869030154e+01   9.0184930549e-01    0.2949161   0.09665996 -30.64  0.001592856    2.998    0.666
       508  -8.9798    156.1169    247.7857   7.3192490219e+01   7.3379465367e+00    0.1592008    0.1472865   9.13 0.0007899268    1.454    0.312
