#   1 NUMBER                 Running object number                                     
#   2 MAG_AUTO               Kron-like elliptical aperture magnitude                    [mag]
#   3 X_IMAGE                Object position along x                                    [pixel]
#   4 Y_IMAGE                Object position along y                                    [pixel]
#   5 X_WORLD                Barycenter position along world x axis                     [deg]
#   6 Y_WORLD                Barycenter position along world y axis                     [deg]
#   7 A_WORLD                Profile RMS along major axis (world units)                 [deg]
#   8 B_WORLD                Profile RMS along minor axis (world units)                 [deg]
#   9 THETA_WORLD            Position angle (CCW/world-x)                               [deg]
#  10 FWHM_WORLD             FWHM assuming a gaussian core                              [deg]
#  11 ELONGATION             A_IMAGE/B_IMAGE                                           
#  12 ELLIPTICITY            1 - B_IMAGE/A_IMAGE                                       
         1 -12.2400      2.1164     39.2703   1.4461300259e+02   6.9176719841e+01     1.617456    0.1546916 -78.25  0.003279606   11.206    0.911
         2 -13.4839      6.0511     10.5750   1.3506751038e+02   7.5727205051e+01     1.888192    0.8092598 -54.34  0.009657452    1.746    0.427
         3 -13.3395    189.8890     28.3596   7.1544790735e+01   3.3692048151e+01     1.260255     1.195819  30.98  0.006332632    1.127    0.113
         4 -13.9579    203.1978     10.6267   6.4805184680e+01   3.2104870504e+01     1.881768     1.163867  43.19  0.009115626    1.875    0.467
         5 -10.5976     88.7004    248.9670   1.3871588145e+02   1.5699958992e+01    0.2244265    0.1017551  44.09 0.0006288252    1.556    0.357
         6 -11.5541    139.0698    248.5782   1.2911658307e+02   9.3287957046e+00    0.2685663     0.233549  25.02   0.00218318    1.257    0.204
         7 -11.4520    124.0483    249.8817   1.3207533493e+02   1.1131715524e+01    0.4769637    0.1147745  33.92  0.001999638    3.081    0.675
         8 -10.8599    109.8468    250.1407   1.3478825842e+02   1.2918862180e+01    0.3472315    0.1270247  42.47  0.001609694    1.938    0.484
         9 -11.2236     98.3331    249.7444   1.3694257187e+02   1.4414033366e+01     0.375424    0.1667515  37.02  0.002249866    1.545    0.353
        10 -11.7227    101.8661    246.7426   1.3603750541e+02   1.4395266105e+01    0.4119898    0.1740244  39.53  0.002242269    1.618    0.382
        11  -9.9075     66.9842    250.1872   1.4288456456e+02   1.8050290925e+01    0.1684588   0.09708901  49.76 0.0007608506    1.279    0.218
        12 -13.2707     32.9889    246.6866   1.4900325039e+02   2.2136471148e+01     1.474568    0.6275001  26.28  0.008647364    2.385    0.581
        13 -15.3522      6.5651    216.7689   1.5312564075e+02   2.9410279644e+01     8.157512    0.9737749 -82.17   0.01901914    7.744    0.871
        14  -9.4908     72.5365    239.9680   1.4122780342e+02   1.8951632017e+01    0.1372766    0.1024016 -88.70  0.001037923    1.617    0.382
        15 -10.6195    233.9894    237.7699   1.1088065394e+02  -1.9547040786e+00    0.1900702    0.1394039 -37.70  0.001313378    2.379    0.580
        16 -13.8625     49.2586    222.9037   1.4486495568e+02   2.4321979764e+01    0.9975406     0.535359  48.45  0.005177066    1.361    0.265
        17 -14.6013     56.6170    211.8484   1.4269602010e+02   2.5439195517e+01     7.574666          nan  40.05   0.01973133    7.760    0.871
        18 -14.5725     18.7807    170.5059   1.4901501791e+02   3.7240175856e+01     5.064061     1.264727  73.15   0.01560742    6.248    0.840
        19 -10.5010    228.5603    227.9184   1.1035861509e+02  -3.4550566958e-01    0.2418594    0.1891875 -33.90  0.001324884    2.011    0.503
        20 -11.5444    148.9521    229.6526   1.2516693300e+02   1.0437534630e+01    0.4619282    0.1443658  32.71  0.002004905    2.596    0.615
        21  -9.5147     33.5906    228.8697   1.4824599985e+02   2.4921796372e+01    0.1844763    0.1310392  43.68 0.0006137717    1.125    0.111
        22  -9.9477     35.1432    224.3748   1.4776224849e+02   2.5523456230e+01    0.3184192    0.1142375  63.18  0.001662707    2.623    0.619
        23 -11.6723     81.8079    242.7043   1.3960804882e+02   1.7443458901e+01    0.3257472    0.2189814  49.45  0.001849635    1.165    0.142
        24 -10.5863    174.1004    221.9982   1.1930708978e+02   7.8260604602e+00    0.2193586    0.1823481  51.30 0.0009654442    1.617    0.382
        25 -10.9738     81.6612    248.5361   1.4002285989e+02   1.6602326775e+01    0.3626756     0.179768  57.93  0.002239099    1.987    0.497
        26 -10.9324     46.0931    248.1474   1.4666149798e+02   2.0602985764e+01    0.3242354    0.1150806  53.39 0.0009729273    2.118    0.528
        27  -8.7585    152.5980    212.8004   1.2233554740e+02   1.2246455978e+01    0.1280098    0.1213658 -82.11 0.0002653231    1.503    0.335
        28  -9.9107    191.7512    192.6160   1.1147470741e+02   8.9815788291e+00    0.4079585     0.259436 -67.19  0.001286007    8.421    0.881
        29 -11.4480     67.5916    197.7143   1.3926248386e+02   2.6746398326e+01    0.3081307    0.2277166 -43.91  0.001348378    1.876    0.467
        30 -12.1985     49.5959    232.0596   1.4526406387e+02   2.2762586356e+01    0.3531598    0.2678179  55.49  0.001501841    1.101    0.092
        31 -11.6343     72.8591    190.1113   1.3739080016e+02   2.7544851256e+01    0.2424283    0.2259596 -40.22 0.0004718196    1.396    0.284
        32  -8.6625    104.0285    179.9813   1.2881733663e+02   2.5184530062e+01    0.1924285    0.1320666  57.39  0.001054022    1.483    0.326
        33 -13.2128     69.3384    175.2825   1.3683410701e+02   3.0954139389e+01     0.458749    0.2825188 -42.48  0.001918604    2.272    0.560
        34 -10.8771     81.9150    177.5707   1.3394411244e+02   2.8836082440e+01    0.2278726    0.1997791  45.10 0.0003758457    1.074    0.069
        35 -11.8864     88.2478    167.8330   1.3119420295e+02   2.9942449822e+01    0.8809037    0.5046616  52.43  0.004400047    1.675    0.403
        36 -11.5085     33.0441    156.8547   1.4462722391e+02   3.8925880428e+01    0.3695048    0.2004397  85.48  0.001974442    1.810    0.447
        37 -11.9891     89.4638    151.4598   1.2863451678e+02   3.3255052060e+01    0.2727024    0.2531388 -10.48   0.00164289    1.280    0.219
        38  -9.8652    100.6529    151.8987   1.2565971550e+02   3.1418704324e+01     0.298817    0.2296988  31.18 0.0008257931    1.248    0.198
        39  -9.2312    103.2908    147.9961   1.2431099276e+02   3.1827208053e+01    0.2083425    0.1871022  -0.22 0.0003408793    1.288    0.224
        40 -12.5971     67.1995    143.9900   1.3386639860e+02   3.8060713786e+01    0.8566091    0.4957232  62.91  0.004070554    1.905    0.475
        41 -11.7911     58.4028    133.0977   1.3506149543e+02   4.1705557596e+01     1.886737     0.650019 -84.81  0.004249462    8.942    0.888
        42 -12.0584     27.3038    138.4663   1.4488753932e+02   4.3604464735e+01    0.6378847    0.1109482  38.26  0.002331845    3.635    0.725
        43  -9.7468    111.2643    137.0386   1.2016262826e+02   3.2832669522e+01    0.3575149    0.2566427 -12.04   0.00144207    2.055    0.513
        44 -10.3849     98.8057    134.2833   1.2317497533e+02   3.5587892227e+01    0.2626307    0.2274035 -25.03 0.0007620219    1.362    0.266
        45 -12.6604     42.9558    232.2597   1.4656869781e+02   2.3424042860e+01    0.2726715    0.2667199  -0.05 0.0007966198    1.516    0.340
        46  -9.4783    107.9788    123.9540   1.1848085585e+02   3.6303954432e+01    0.2131856    0.1998423  37.54 -0.002661949    1.027    0.026
        47 -10.7552    168.1669    113.1331   1.0019825387e+02   2.6099199650e+01    0.3278255    0.3123921 -87.56 0.0007353656    1.264    0.209
        48  -8.8638    203.3252    111.3439   9.2589044103e+01   1.8801132777e+01    0.1530937    0.1037659  11.48 0.0007050694    1.738    0.425
        49 -10.1679     53.4353    110.2907   1.3341104977e+02   4.7831015149e+01    0.2635029    0.1213587 -63.22  0.001129548    2.021    0.505
        50  -8.3806    192.2486    143.9864   1.0220078420e+02   1.5969940483e+01    0.1622217    0.1147249 -29.35 0.0003600046    1.449    0.310
        51 -10.7627    249.6140    248.2723   1.0986455509e+02  -4.6975820730e+00    0.2894497    0.1598094   0.48   0.00208812    1.560    0.359
        52 -10.7629    239.9681    249.2005   1.1150038875e+02  -3.6675128355e+00    0.3013244    0.1177036  42.84  0.001479647    3.788    0.736
        53 -10.1766    199.1807    246.7863   1.1796620217e+02   1.5762071730e+00    0.1570533    0.1092379  55.28 0.0009580579    2.879    0.653
