#   1 NUMBER                 Running object number                                     
#   2 MAG_AUTO               Kron-like elliptical aperture magnitude                    [mag]
#   3 X_IMAGE                Object position along x                                    [pixel]
#   4 Y_IMAGE                Object position along y                                    [pixel]
#   5 X_WORLD                Barycenter position along world x axis                     [deg]
#   6 Y_WORLD                Barycenter position along world y axis                     [deg]
#   7 A_WORLD                Profile RMS along major axis (world units)                 [deg]
#   8 B_WORLD                Profile RMS along minor axis (world units)                 [deg]
#   9 THETA_WORLD            Position angle (CCW/world-x)                               [deg]
#  10 FWHM_WORLD             FWHM assuming a gaussian core                              [deg]
#  11 ELONGATION             A_IMAGE/B_IMAGE                                           
#  12 ELLIPTICITY            1 - B_IMAGE/A_IMAGE                                       
         1 -14.6537     68.4435    144.3977   1.0123097729e+02   3.7195142488e+01     5.202021     2.415942  65.24  0.003395515    3.521    0.716
         2 -14.3500    214.7808     27.4543   3.8679359621e+01   2.8656230062e+01     1.209294    0.9270206  20.01  0.006832851    1.788    0.441
         3 -14.4545    202.5242     39.4452   4.3106119459e+01   2.9980892450e+01     1.868692     1.418653  24.11    0.0069332    1.757    0.431
         4 -12.5703    242.5821      4.0160   3.1050705318e+01   2.5242940563e+01    0.4967318    0.4460469  36.07  0.003168683    1.510    0.338
         5 -12.4159    236.8894      3.7673   3.1275209715e+01   2.6420701559e+01    0.4457855    0.3053254 -55.99  0.002465413    1.203    0.169
         6 -10.9459     56.5262      6.0163   6.0036523292e+01   6.9812086412e+01    0.3206602    0.2179886  67.81  0.001335244    1.906    0.475
         7 -10.2797     65.4432    192.6510   1.0774597873e+02   2.6619780090e+01    0.3490851    0.1947948  76.46  0.001734792    2.147    0.534
         8 -11.3011    139.6045    249.3130   9.7979451547e+01   7.2666912545e+00    0.2132341    0.2070014 -65.49  0.001780151    1.407    0.290
         9 -13.5001      7.7463    188.5127   1.2098765844e+02   3.3462726197e+01    0.6861408    0.3860225 -59.40  0.003983564    2.122    0.529
        10 -15.8519      7.2117    163.6076   1.2004393639e+02   3.9029891040e+01     6.145455     1.579739 -81.24  0.007856361    3.453    0.710
        11 -10.6023    207.4952    193.0399   7.7620498045e+01   5.8835154354e+00    0.1716461    0.1077161 -31.56 0.0006568445    1.566    0.361
        12  -9.2280     72.4665    188.4900   1.0566145938e+02   2.6604606374e+01    0.1308265    0.1083305  57.20 2.922551e-05    1.055    0.052
        13  -9.0153     77.2190    185.9302   1.0424219300e+02   2.6522134610e+01    0.1564117    0.1039531 -72.59 0.0005978768    1.619    0.382
        14  -9.5820     80.1014    183.6352   1.0328302773e+02   2.6621670901e+01    0.2149971    0.1677343  75.83   0.00126881    1.311    0.237
        15 -15.8203      9.5702    208.0423   1.2130262928e+02   2.9299949846e+01     2.127753     1.501399 -68.29  0.008996278    1.660    0.397
        16  -9.9280     99.4031    180.8759   9.8263629941e+01   2.4468979922e+01    0.2403365     0.180087  29.74 0.0006061038    1.309    0.236
        17  -9.8262    143.4721    179.0500   8.7814306104e+01   1.7949403031e+01     0.188023    0.1312624 -46.59 0.0005075126    1.555    0.357
        18  -8.8786    133.7164    196.3022   9.2610700525e+01   1.6350103573e+01    0.1219815   0.09403885  61.36 0.0002099755    1.554    0.357
        19 -12.6829     87.0109    154.1538   9.7531029105e+01   3.2190827467e+01     1.374528     1.004347 -59.19  0.003446101    1.402    0.287
        20 -13.2625     78.6907    159.4489   1.0055362131e+02   3.2185319799e+01     1.687585    0.6478185  57.55  0.002704715    4.483    0.777
        21 -13.6514     67.6085    156.5069   1.0315734121e+02   3.4401169953e+01    0.5526811    0.4289022 -53.30  0.001410429    1.405    0.288
        22 -10.4576    107.8271    203.8808   9.9268321609e+01   1.8750214677e+01     0.190544    0.1814059  63.61 0.0004866612    1.136    0.120
        23 -10.4679    146.6188    172.0070   8.5920271123e+01   1.8736985054e+01    0.2636649    0.2079095 -73.83  0.001436798    1.731    0.422
        24 -10.1249     34.9080    171.9211   1.1346033170e+02   3.4637991939e+01    0.1920717    0.1597149  69.80 0.0003846835    1.015    0.015
        25 -10.4183    230.4815    167.4531   6.9186116671e+01   6.0773379214e+00    0.2189293   0.09856586 -42.10  0.001042256    2.490    0.598
        26 -12.1836     66.3049    174.9834   1.0572928622e+02   3.0324146869e+01    0.4336533    0.2946675 -31.02  0.002203582    2.202    0.546
        27 -10.1524    136.7749    166.6629   8.7192469212e+01   2.1408451048e+01    0.3686145    0.1836043  58.08  0.001320198    3.476    0.712
        28  -9.2667    132.6532    162.3561   8.7380660263e+01   2.2963048792e+01    0.2105374    0.1593245  69.93 0.0007749351    1.721    0.419
        29 -11.1061     33.2733    156.2285   1.1260531046e+02   3.8478316743e+01    0.2894602    0.2432844  56.24 0.0008321999    1.104    0.094
        30  -9.3175    154.4780    155.5083   8.1117983198e+01   2.0488769278e+01    0.2084552    0.1343537 -56.03 0.0002794619    1.867    0.464
        31 -11.7434     55.2786    146.4529   1.0532635024e+02   3.8406621099e+01    0.6493431    0.4901327 -64.61  0.003605777    1.313    0.238
        32 -11.1063    133.7146    144.1759   8.3637558454e+01   2.6510127722e+01     1.043279    0.3014999 -55.75  0.002672374    5.767    0.827
        33 -15.6727     40.9893    200.0450   1.1401008685e+02   2.7896621495e+01     5.321517     1.416494  49.56   0.02158957    3.072    0.674
        34 -14.4634     50.6625    190.5202   1.1105978598e+02   2.8823548350e+01     2.053597      1.07287  61.43   0.01056306    1.867    0.464
        35 -10.8647    101.4883    139.4046   9.1023426560e+01   3.3294244282e+01    0.5477308    0.3611998 -21.55  0.002300857    2.429    0.588
        36 -12.3245     88.5099    139.5306   9.4672318749e+01   3.5397235275e+01    0.2809169    0.2503126 -53.67  0.001567059    1.168    0.144
        37 -11.5839     80.1925    140.2829   9.7184441202e+01   3.6503008604e+01    0.3744093    0.2472549  62.08  0.001769935    1.677    0.404
        38 -14.6335     57.2744    239.6713   1.1308928380e+02   1.8689914030e+01    0.8881573    0.6679673  81.78  0.004168038    1.400    0.286
        39  -9.6164     31.4413    137.7907   1.1139222548e+02   4.3183035042e+01    0.2191133    0.1574715  46.17 0.0005662946    1.340    0.254
        40 -10.8862     25.4628    137.4738   1.1316826002e+02   4.3818854754e+01    0.3519022    0.1608049  41.84  0.001641938    2.026    0.506
        41 -10.4505    106.0368    130.8772   8.8063411210e+01   3.4481012963e+01    0.3724599     0.303607 -62.64  0.001572269    1.249    0.199
        42 -10.1224    110.9489    130.0687   8.6542071721e+01   3.3782402085e+01    0.3324951    0.2393675  19.21  0.001539475    1.737    0.424
        43 -10.7745    135.7355    127.5356   7.9537686663e+01   2.9634486149e+01    0.5642626    0.1653474 -49.03  0.001711357    3.568    0.720
        44  -9.5350    161.0085    127.9865   7.3787679831e+01   2.4541901916e+01    0.2602215    0.1524422 -60.99  0.000803563    2.545    0.607
        45 -10.9660     98.0291    126.2769   8.9364470701e+01   3.6972205980e+01    0.3123477    0.2622297 -14.25  0.001591469    1.482    0.325
        46 -12.0800     70.8862    169.9675   1.0397763790e+02   3.0852909458e+01     0.343794    0.2624655 -49.03  0.001037905    1.515    0.340
        47  -9.7289    116.9714    124.2265   8.3620096843e+01   3.3989992716e+01    0.2432627    0.1770787   5.62  0.001065618    2.003    0.501
        48  -9.6552     86.7681    120.5001   9.1494704742e+01   4.0284541606e+01    0.3849684    0.2040338  63.29  0.001355699    2.987    0.665
        49 -11.1382     44.2627    129.7647   1.0647612481e+02   4.3877682075e+01    0.2467901    0.2383668  57.25 0.0009750598    1.146    0.127
        50 -10.0104    107.3433    119.0917   8.5108391648e+01   3.6980823728e+01    0.2207976    0.2024383  23.54 0.0003559071    1.174    0.148
        51 -10.5203     40.1366    113.8019   1.0557021277e+02   4.8435277685e+01    0.2205957    0.1730558  72.35  0.000621585    1.257    0.205
        52 -10.0913    205.5316    110.2594   6.1103534811e+01   1.8844807130e+01    0.2701286    0.2147867  33.26 0.0008217716    1.371    0.271
        53 -11.1765     33.3397    108.4013   1.0715616431e+02   5.0535145847e+01    0.3793441    0.2542012 -79.70  0.001959103    1.368    0.269
        54 -10.3172    174.4421    148.9389   7.5562178262e+01   1.8113979870e+01    0.2532193    0.2358816  50.95 0.0008241916    1.238    0.192
        55 -11.6678    248.2096    102.6027   5.3292257208e+01   1.2214938478e+01    0.2944487    0.2029407  59.09  0.001755377    1.886    0.470
        56 -10.2014     42.3060    103.8848   1.0318165823e+02   5.0774569524e+01    0.3016155    0.1716769  45.92 0.0008608592    1.837    0.456
        57 -10.8777     36.2481    101.1990   1.0496042247e+02   5.2121039811e+01    0.3191598     0.226274  88.10  0.001146222    1.420    0.296
        58  -9.7237    134.5889    105.3197   7.4344436823e+01   3.4577851445e+01    0.3015517    0.1440878 -48.14   0.00113473    2.104    0.525
        59 -16.3659     33.5664    249.3368   1.1812702815e+02   1.9549866267e+01     10.80735     3.155567  21.58   0.02672117   12.877    0.922
        60 -11.0037    242.9993     92.2104   5.1606938028e+01   1.4533527520e+01    0.1923683    0.1298956 -11.47  0.001058261    1.622    0.383
        61  -9.0294    125.4387     92.4760   7.3165312610e+01   3.9265668040e+01     0.154456    0.1474458 -66.36 -7.929846e-05    1.051    0.048
        62 -10.1173     52.8282     91.1173   9.6660021238e+01   5.2796701232e+01    0.3005016     0.166502 -85.41  0.001151009    2.586    0.613
        63 -16.4807      7.2947    245.8857   1.2285657623e+02   2.2576372684e+01     2.147636     1.514206  17.74   0.01606641    1.835    0.455
        64  -9.0095    156.4698     88.5098   6.4607565394e+01   3.3085645406e+01    0.1542966    0.1409059 -62.60  0.000250826    1.131    0.116
        65  -9.6714    112.1845     81.6988   7.3621437676e+01   4.4448047989e+01    0.5909728    0.3413833  78.76  0.001658608    4.841    0.793
        66  -9.7796    159.2067     82.1986   6.2222268082e+01   3.3616612367e+01    0.2085643    0.1749872 -66.26 0.0005709719    1.302    0.232
        67  -8.7762    184.3862     77.2691   5.6150469240e+01   2.8671401236e+01    0.1469006    0.1102097  22.20 0.0006989388    1.705    0.414
        68  -9.5732     51.8992     64.2169   8.9772912803e+01   5.9596440256e+01    0.2090647    0.1876499  73.05 0.0005457298    1.259    0.206
        69 -10.7445     13.4765     59.8829   1.0712338813e+02   6.4657329905e+01    0.2715247    0.2124912 -80.41 0.0004193888    1.213    0.175
        70 -10.7252    109.8275    201.0315   9.8477475389e+01   1.8994937187e+01    0.2685038     0.190917 -86.61  0.001085222    1.882    0.469
        71 -13.0535    193.2115     46.1423   4.6077847833e+01   3.1268348046e+01    0.6828526    0.6085171  18.59  0.001087154    1.340    0.254
        72 -11.6455    193.6442    195.8501   8.0564007781e+01   7.4656018147e+00     0.773735     0.446775 -60.38  0.003136113    4.759    0.790
        73 -10.1362    142.3343     39.8384   5.1946717717e+01   4.4755872517e+01    0.2592416    0.2233144 -78.01  0.000516842    1.205    0.170
        74 -10.9200    188.0140     31.0410   4.2329256523e+01   3.4447349807e+01    0.2147478    0.1961355 -58.49 0.0004948674    1.024    0.023
        75 -10.9267      2.7026     24.9791   1.0449440947e+02   7.3609876355e+01    0.3184474    0.2612111  25.63  0.001813225    1.436    0.304
        76  -9.5740    189.6870     15.0160   3.7458834901e+01   3.5861924843e+01    0.1919565    0.1613052 -40.85 0.0005591373    1.117    0.105
        77 -11.0615    138.7418     44.5529   5.4330724296e+01   4.4971625144e+01    0.3461803    0.2624731 -69.75  0.001667093    1.497    0.332
        78 -14.4033     21.3312    221.8918   1.1938741096e+02   2.5569887789e+01    0.7949281    0.6806262  14.97   0.00450451    1.552    0.356
        79  -9.3940    120.0133    194.0458   9.5297082941e+01   1.8812763827e+01    0.1857517    0.1670141  37.40 0.0003287166    1.024    0.023
