#   1 NUMBER                 Running object number                                     
#   2 MAG_AUTO               Kron-like elliptical aperture magnitude                    [mag]
#   3 X_IMAGE                Object position along x                                    [pixel]
#   4 Y_IMAGE                Object position along y                                    [pixel]
#   5 X_WORLD                Barycenter position along world x axis                     [deg]
#   6 Y_WORLD                Barycenter position along world y axis                     [deg]
#   7 A_WORLD                Profile RMS along major axis (world units)                 [deg]
#   8 B_WORLD                Profile RMS along minor axis (world units)                 [deg]
#   9 THETA_WORLD            Position angle (CCW/world-x)                               [deg]
#  10 FWHM_WORLD             FWHM assuming a gaussian core                              [deg]
#  11 ELONGATION             A_IMAGE/B_IMAGE                                           
#  12 ELLIPTICITY            1 - B_IMAGE/A_IMAGE                                       
         1 -15.0504    168.5832     47.8411   6.7556123218e+01   3.6975189996e+01     1.439962     1.073494   5.08  0.004249129    1.607    0.378
         2 -15.1063    185.0486     17.4771   5.4751976362e+01   3.6539317827e+01     1.116883     1.018272  17.38  0.004160131    1.156    0.135
         3 -11.2934    140.2627    219.4874   1.1100917044e+02   1.3075709074e+01    0.2949551    0.1417435 -59.48  0.001604079    2.827    0.646
         4 -19.4333     68.1247    155.8804   1.1739039216e+02   3.5052088665e+01     15.37926     5.676278 -70.22   0.06714768    2.781    0.640
         5 -11.0176    152.4396    219.7001   1.0894006644e+02   1.1143442125e+01    0.1263126     0.111198 -25.92 0.0009356102    1.495    0.331
         6 -11.7422     99.4526    244.9685   1.2024338510e+02   1.5362830388e+01    0.2674621    0.1514177  66.80   0.00182531    1.713    0.416
         7 -10.9838    113.0590    205.9047   1.1427171876e+02   1.9312209229e+01    0.1758317    0.1358676  58.07 0.0009814868    1.045    0.043
         8 -11.2919     11.6007    206.0390   1.3204960153e+02   3.1693295854e+01    0.1912296    0.1195185  44.03  0.001489718    1.570    0.363
         9 -11.7528    112.9682    195.7896   1.1312500362e+02   2.1005547684e+01    0.3923164    0.2672361  13.01  0.001927804    3.009    0.668
        10 -11.2056    133.6059    195.6066   1.0923966234e+02   1.7767008961e+01    0.2167831     0.166664  60.95  0.001410262    1.195    0.163
        11 -11.9276    102.2402    240.3864   1.1943013783e+02   1.5628950575e+01    0.2081712    0.1466333  74.85  0.001433657    1.386    0.278
        12 -10.5797     25.7307    185.0115   1.2850919580e+02   3.4118221855e+01    0.1390964    0.1111659  83.10 0.0004583049    1.182    0.154
        13 -11.8916     29.9604    183.1881   1.2761246460e+02   3.4036137704e+01    0.2440536    0.1360807  50.25  0.001299959    1.527    0.345
        14 -13.1731    162.6213    181.1428   1.0165279762e+02   1.5124596263e+01    0.2741482    0.2136742 -87.32  0.001597027    1.768    0.434
        15 -12.6222    209.9852    187.0096   9.4109192643e+01   5.8573285696e+00    0.2497938    0.1724595 -60.29  0.001326951    2.588    0.614
        16 -14.1166    186.9432    174.7025   9.6024322916e+01   1.1686715675e+01    0.6713831    0.3697921 -48.29  0.002431375    2.263    0.558
        17 -11.9170      6.3508    177.0947   1.3161818296e+02   3.7392841725e+01    0.2769738    0.1281431  62.48   0.00161658    1.707    0.414
        18 -12.9386    103.8027    236.8859   1.1888388130e+02   1.5913057170e+01    0.2517195     0.163956  62.72  0.001142694    1.300    0.231
        19 -10.3419     11.7176    173.8258   1.3045144738e+02   3.7550666821e+01   0.07802375   0.07093484  76.17 0.0006456987    1.410    0.291
        20 -12.4676    193.7607    171.3406   9.4171497071e+01   1.0917139549e+01    0.2699882     0.220913  41.42 0.0006926781    1.123    0.110
        21 -12.8107    176.8956    169.6569   9.6990356863e+01   1.4320799228e+01    0.2218022     0.180586 -21.00  0.001222854    1.401    0.286
        22 -11.0751     90.7585    244.9038   1.2160694333e+02   1.6516547818e+01    0.1591126    0.1387911 -22.90  0.001154218    2.140    0.533
        23 -12.0477    134.3481    240.1279   1.1422215237e+02   1.1144617540e+01    0.2068602    0.1562712 -50.41  0.001220475    1.787    0.440
        24 -10.7914     24.7118    165.4198   1.2740407971e+02   3.8000103322e+01     0.150711    0.1279421  44.65 0.0008466803    1.459    0.315
        25 -15.4948    133.6384    145.9139   1.0138759368e+02   2.6646091730e+01     1.432342    0.6324595 -60.66  0.005199885    3.139    0.681
        26 -12.5683    167.9951    237.4454   1.0847572806e+02   6.4720990493e+00    0.1702856    0.1655101 -26.12 0.0007175667    1.361    0.265
        27 -11.8675    188.0185    153.3161   9.1767407960e+01   1.4757229585e+01     0.199477    0.1720698  40.92  0.001174718    1.089    0.082
        28 -11.4334    191.7020    151.7125   9.0748440470e+01   1.4280687482e+01    0.2556966    0.1586055 -57.88  0.001153247    2.431    0.589
        29 -14.7077    135.7004    127.8662   9.7305968231e+01   2.9811415279e+01     1.764657    0.4000364 -51.86  0.004493994    5.836    0.829
        30 -12.7752    161.6621    149.3458   9.6149799258e+01   2.0633564332e+01    0.2875825    0.2225301  87.41 0.0009066092    1.749    0.428
        31 -12.1287    174.7076    149.1191   9.3490369988e+01   1.8087784424e+01    0.2440759    0.1841759  55.67 0.0007796394    1.364    0.267
        32 -10.7336    151.2055    236.3873   1.1108598917e+02   9.1347940311e+00     0.171613    0.1247777  42.50 0.0007909868    1.083    0.076
        33 -12.4637      9.8747    146.6883   1.2914302852e+02   4.3112743678e+01    0.1859161    0.1200169 -76.57 0.0006791772    1.308    0.236
        34 -13.4498      5.8980    112.3673   1.2735304858e+02   5.0718558375e+01    0.5331828    0.3170948 -49.98  0.003364844    1.918    0.479
        35 -13.8089      9.1203    127.6837   1.2788870817e+02   4.7170224489e+01    0.4436372    0.1998348 -80.68  0.002194979    1.742    0.426
        36 -13.8622      6.6347    138.3494   1.2926302704e+02   4.5099320910e+01    0.5931809    0.3938376 -88.55    0.0023858    1.129    0.114
        37 -12.9549     13.6759    137.2580   1.2761574434e+02   4.4773687402e+01    0.2262804    0.2080043   0.43 0.0009182573    1.663    0.399
        38 -13.9800      3.2812    127.5068   1.2923424417e+02   4.7633380438e+01     0.813749    0.2954818 -83.05   0.00415755    2.224    0.550
        39 -13.6511      6.4697    120.0987   1.2789014745e+02   4.8997525458e+01    0.3446027    0.2982628  46.51  0.001944145    1.422    0.297
        40 -12.9787    160.6512    128.0389   9.1862761022e+01   2.4704296780e+01    0.3653913    0.3051011 -72.93  0.001906003    1.418    0.295
        41 -11.0149    231.2682    113.8352   7.5253354562e+01   1.1824461102e+01    0.2193475    0.1960824  55.05 0.0008123796    1.284    0.221
        42 -12.2426    167.9768    112.9473   8.6740334812e+01   2.5912298747e+01    0.3980368    0.3027098 -72.27  0.001644268    1.745    0.427
        43 -15.6967    144.5330    145.0587   9.8878304982e+01   2.4751000849e+01     1.400796    0.8228736 -77.11  0.005230842    3.534    0.717
        44 -11.0759    114.7831    229.7865   1.1643222662e+02   1.5395821042e+01    0.1615321    0.1370067 -47.53 0.0009010406    1.666    0.400
        45 -12.7179    129.5491    157.0337   1.0425206728e+02   2.5255812759e+01     0.262099     0.170148  58.75  0.000740163    1.567    0.362
        46 -11.2161    205.6302    110.1091   7.8694944515e+01   1.7960071190e+01    0.2847884      0.20709  40.16 0.0007416852    1.372    0.271
        47 -13.3576    103.8508    249.2472   1.1989053881e+02   1.4191244830e+01    0.3817197     0.271358  57.21   0.00306843    1.046    0.044
        48 -13.2255    199.2499    225.5176   1.0188176359e+02   3.0293914532e+00    0.2280729     0.159844 -48.64  0.001542156    2.059    0.514
        49 -11.8534      7.1474    102.1206   1.2602699258e+02   5.2888890592e+01    0.2106144    0.1852687  50.04 0.0008398998    1.385    0.278
        50 -10.3085    128.6059    227.4509   1.1387783673e+02   1.3713417037e+01    0.1081254   0.08593193  49.02 -4.560442e-06    1.077    0.072
        51 -13.8265    156.0289     61.7359   7.4668554911e+01   3.7946879336e+01    0.4892958    0.4726569  33.13 0.0009199049    1.050    0.047
        52 -10.8449     13.7722     60.0523   1.1786107866e+02   6.1847076668e+01     0.176159    0.1331584 -82.84 0.0004891978    1.255    0.203
        53 -10.2850    127.4098    248.2151   1.1610293022e+02   1.1090699501e+01    0.1007176   0.06477117  33.08 0.0006732364    1.654    0.395
        54 -13.0526    173.3656     39.8092   6.4007968727e+01   3.6881338244e+01    0.4326053    0.3966596  27.01 0.0008459836    1.119    0.106
