#   1 NUMBER                 Running object number                                     
#   2 MAG_AUTO               Kron-like elliptical aperture magnitude                    [mag]
#   3 X_IMAGE                Object position along x                                    [pixel]
#   4 Y_IMAGE                Object position along y                                    [pixel]
#   5 X_WORLD                Barycenter position along world x axis                     [deg]
#   6 Y_WORLD                Barycenter position along world y axis                     [deg]
#   7 A_WORLD                Profile RMS along major axis (world units)                 [deg]
#   8 B_WORLD                Profile RMS along minor axis (world units)                 [deg]
#   9 THETA_WORLD            Position angle (CCW/world-x)                               [deg]
#  10 FWHM_WORLD             FWHM assuming a gaussian core                              [deg]
#  11 ELONGATION             A_IMAGE/B_IMAGE                                           
#  12 ELLIPTICITY            1 - B_IMAGE/A_IMAGE                                       
         1 -17.2303    146.1731     74.5036   6.2119586983e+01   3.8008320593e+01     11.37731       8.0602  64.50   0.05280169    1.589    0.371
         2 -17.4346    241.8688    104.5452   5.2581536184e+01   1.1557984560e+01     6.756368     4.188313  14.25   0.02778641    3.284    0.696
         3 -16.1349    225.1047     56.2175   4.3751428681e+01   2.2512300234e+01     1.515938    0.8977223 -31.78  0.007671889    1.701    0.412
         4 -17.6892    247.7776     71.3495   4.4490084770e+01   1.5621258920e+01     10.37459     2.293793 -32.36   0.02872059    5.702    0.825
         5 -17.2213    233.2192     71.1254   4.6189325296e+01   1.8595983282e+01     2.315357     1.502908 -15.62   0.01120586    2.168    0.539
         6 -12.1345    113.1730     29.4870   5.5118161505e+01   5.2390580941e+01    0.5801868    0.4661049 -35.12  0.001222676    1.369    0.270
         7 -11.8038     13.9988     15.4071   8.6766228905e+01   7.0899013520e+01    0.5708717    0.4582521  30.64  0.004039045    1.712    0.416
         8 -11.2176     68.3461     14.8704   6.2223779746e+01   6.3321330530e+01    0.3128892    0.2947959 -47.12  0.001348293    1.498    0.332
         9 -10.7938     51.6573     14.2178   6.8186304771e+01   6.6274102478e+01    0.3579069    0.2853875 -69.05  0.001981333    2.766    0.638
        10  -9.9657    168.3538     10.3122   3.9104803167e+01   4.1260454612e+01    0.4104868     0.286401 -20.02  0.001995075    1.693    0.409
        11  -9.7078     90.6632     11.0627   5.3769322400e+01   5.9278720039e+01    0.2975654    0.2096882 -53.65  0.001400187    2.070    0.517
        12 -10.5288     86.6480      5.6857   5.2614362236e+01   6.0603802455e+01    0.4240828    0.2843744 -48.93  0.002317103    2.131    0.531
        13 -10.1031    250.5695      9.1167   3.1286479969e+01   2.3098934141e+01    0.2450884   0.08781869 -47.11  0.001220771    2.204    0.546
        14  -9.6656    244.4488      7.8563   3.1449822205e+01   2.4457306380e+01    0.2981794    0.1406474 -58.54  0.001613088    1.885    0.469
        15  -8.5006    244.4475      3.3841   3.0561869872e+01   2.4929686316e+01     0.130786    0.1042417 -35.60 0.0002065415    1.413    0.292
        16  -9.6521     60.6329      9.3717   6.2433823404e+01   6.5300270277e+01    0.1614545    0.1543512 -73.50 0.0007513424    1.630    0.387
        17 -17.1642    209.6813     49.2287   4.3994192355e+01   2.6915186950e+01     3.912766     3.078398  -2.97   0.02150522    1.741    0.426
        18  -9.5823    227.6567      6.6263   3.2404351454e+01   2.8069454876e+01    0.2333615    0.1623043  -3.12  0.001330406    2.377    0.579
        19 -10.0251    209.1799      4.9497   3.3518969182e+01   3.2272260100e+01    0.2926261    0.2471383  24.34  0.001359189    1.646    0.392
        20 -10.4712     51.5661      6.8828   6.4680967966e+01   6.7111918316e+01     0.319471    0.1644088  47.52  0.001689912    2.027    0.507
        21 -10.4341    107.6320      4.0751   4.6980557138e+01   5.6166096247e+01    0.3467835    0.3147621  26.06  0.001352357    1.112    0.101
        22 -10.9373    102.0457      3.5336   4.7983216123e+01   5.7459278620e+01     0.478138    0.3344661  47.35 0.0008636679    1.196    0.164
        23 -10.7509     72.4088      4.6908   5.6294715780e+01   6.3562757694e+01    0.3555627    0.2702359  11.65 0.0009293086    1.202    0.168
        24  -8.8737    166.6511      3.6272   3.7463525336e+01   4.2276095845e+01    0.1858444    0.1669563  33.38 0.0005712154    1.286    0.223
        25  -8.7681    161.9597      3.7156   3.8056551112e+01   4.3389169447e+01    0.3135637    0.2027104  80.96  0.001195083    1.444    0.307
        26  -9.6237    156.3469      4.3770   3.8960863875e+01   4.4676576719e+01    0.2435698    0.1947741 -75.76 0.0004777184    1.284    0.221
        27 -10.1804     92.5654      3.6390   5.0245849960e+01   5.9520932373e+01     0.256642    0.2292915  27.94 0.0008278434    1.091    0.083
        28 -10.4329     65.6621      4.7012   5.8480839570e+01   6.4844993570e+01    0.2260305    0.1570442  22.60 0.0009788774    1.245    0.197
        29 -10.3754     78.5198      2.7290   5.3594670463e+01   6.2521375691e+01    0.2720902    0.2651662 -70.98  0.001311696    1.387    0.279
        30  -9.4925     11.2425      4.2078   8.2835730280e+01   7.2783232748e+01    0.1393252     0.117781  -5.79 0.0008956413    1.346    0.257
        31  -9.0818    176.2066      2.6275   3.6112443399e+01   4.0094334630e+01    0.2590531    0.1275328 -43.17  0.001291562    2.063    0.515
        32  -9.0943    150.9577      2.3518   3.9081429538e+01   4.6137116752e+01    0.1793088    0.1406672  67.80  0.001055706    1.100    0.091
        33 -10.3982    136.1515    151.6181   8.4963262679e+01   2.3938074305e+01    0.4425277     0.356705  44.36  0.000929696    1.262    0.208
        34 -11.9190    132.5334    140.4135   8.3358870775e+01   2.7206384126e+01     1.062237    0.5350853 -58.36  0.003817169    2.466    0.594
        35 -10.8701    137.7312    139.5151   8.1817114701e+01   2.6374742735e+01    0.4657467    0.3485837 -61.61  0.001874076    1.512    0.339
        36  -9.7664     52.0268    150.6571   1.0745149421e+02   3.7654718718e+01    0.3160309    0.1873228 -67.14  0.001031366    1.523    0.343
        37 -10.3321     41.8528    151.5783   1.1035263176e+02   3.8563347148e+01    0.4105861    0.2047949  80.86   0.00157276    3.109    0.678
        38 -11.6236     43.7890    142.4804   1.0851376760e+02   4.0611523908e+01    0.5518864    0.3638434 -78.28  0.002861119    1.462    0.316
        39 -10.0147     86.4046    149.9863   9.7840075296e+01   3.3132905812e+01    0.3766033    0.2443773  47.16  0.001754666    1.626    0.385
        40  -9.9116     68.9671    150.0014   1.0267010286e+02   3.5670759239e+01    0.2362679    0.1660677  72.64  0.001016685    1.704    0.413
        41 -10.7493    142.4223    145.2942   8.1975039004e+01   2.4130956040e+01    0.4557559    0.2243918 -43.31  0.001394152    2.018    0.504
        42 -10.7507    145.8711    144.4174   8.0919261437e+01   2.3634057994e+01    0.6194136    0.3366565 -52.70  0.001977867    1.977    0.494
        43  -9.9977    104.0453    145.5290   9.2097200315e+01   3.1316035446e+01    0.3668031    0.2879693  77.83 0.0009163912    1.578    0.366
        44 -11.9649     54.6628    143.3689   1.0557577487e+02   3.9154993276e+01    0.5723566    0.4445257 -58.75  0.003177129    1.169    0.144
        45 -10.0354     84.3956    143.4324   9.7141505200e+01   3.5057932311e+01    0.3277959    0.2237839 -78.16  0.001492973    1.741    0.426
        46 -10.3050    120.2295    141.6303   8.6869143649e+01   2.9305549218e+01    0.6278607     0.383489  72.18  0.002149685    3.238    0.691
        47  -8.9759     28.4778    143.4796   1.1291851659e+02   4.1875695382e+01    0.1322243    0.1112892 -73.33 0.0001210402    1.017    0.017
        48  -8.2594      6.2245    142.6491   1.1880149992e+02   4.3830717736e+01    0.1243241   0.07800431  80.56 0.0002526634    1.554    0.356
        49  -9.6825    163.8463    137.0796   7.4893184718e+01   2.1526743511e+01    0.3780139    0.3058078 -32.04  0.001854277    1.221    0.181
        50 -10.1081    159.0937    138.4141   7.6320614630e+01   2.2234314561e+01    0.3814894    0.2834285 -43.44 0.0007048092    1.319    0.242
        51  -9.9567    158.4780    134.0077   7.5405127539e+01   2.3309077043e+01     0.330688     0.261888 -45.04 0.0009375352    1.246    0.198
        52  -9.1892    151.1473    139.9060   7.8574792802e+01   2.3555797421e+01    0.2394737     0.215976 -80.47 0.0007881276    1.294    0.227
        53 -10.9263    140.5403    132.9380   7.9534349067e+01   2.7285202948e+01    0.5540822     0.311342  53.22  0.001623665    2.098    0.523
        54 -10.3254     59.7139    135.6375   1.0279150702e+02   4.0462826682e+01     0.417427    0.2278695  84.93  0.001478586    3.431    0.709
        55 -10.9378     87.0800    132.8914   9.4209960564e+01   3.7231839175e+01      0.69331    0.5456835   7.97  0.003438601    1.551    0.355
        56  -9.3457    104.3600    133.4034   8.9362403480e+01   3.4183048306e+01    0.3230157    0.2363864 -39.51  0.001143868    1.383    0.277
        57 -11.8104     39.6355    138.1631   1.0904531103e+02   4.2119201813e+01    0.6947733    0.3042426 -77.03  0.002746315    2.584    0.613
        58 -10.3936    147.8652    130.6109   7.7134241959e+01   2.6278778276e+01    0.5897933    0.3634389  66.70  0.001551071    2.646    0.622
        59  -9.8200    145.8311    125.4905   7.6362759636e+01   2.7829979393e+01    0.3643136    0.3229729  69.63 0.0009765558    1.293    0.227
        60 -10.9185     51.4893    128.1931   1.0389901068e+02   4.3312734514e+01     0.611963    0.3306818  87.54   0.00225606    3.264    0.694
        61 -16.9440    227.7121     95.0703   5.2476439517e+01   1.5924347873e+01     2.601516     1.290693  61.23   0.01128767    2.437    0.590
        62 -16.1370    219.2609     77.9688   4.9667476273e+01   2.0492980599e+01     1.503822    0.9520626 -70.48  0.006963084    2.070    0.517
        63 -10.6500     26.9971    124.3793   1.1067855632e+02   4.6712836099e+01    0.3723009    0.1991126  57.13  0.001713946    2.440    0.590
        64 -11.1431     61.9752    149.1135   1.0446223382e+02   3.6816369217e+01    0.6274841    0.3104621 -40.78  0.002537397    2.486    0.598
        65 -11.5619    135.9028    120.8587   7.7707395637e+01   3.0943414538e+01    0.7487124     0.480507  28.37  0.002352692    1.839    0.456
        66  -9.5489    135.0071    116.4983   7.6809644383e+01   3.2095233002e+01     0.295318     0.263127 -51.39  0.000353742    1.140    0.123
        67 -16.0691    240.5077     89.3608   4.9373442712e+01   1.4281326343e+01     1.068569    0.7321421 -63.81  0.005660391    1.646    0.393
        68 -10.6796     19.3404    123.3224   1.1282223341e+02   4.7587328734e+01    0.2792275    0.1788031  47.54  0.001196409    1.805    0.446
        69 -11.5427      4.9959    117.9256   1.1638757040e+02   4.9858630953e+01     0.497158    0.2258654 -58.06  0.002528557    1.714    0.417
        70  -9.3987     82.6874    119.4317   9.2517326195e+01   4.1213095780e+01    0.2688687    0.1417156  39.45  0.001113625    2.008    0.502
        71  -8.6725    248.1609    129.7402   5.7184832766e+01   6.2344594127e+00    0.1776465     0.156304  -9.34  0.001094766    1.157    0.135
        72 -11.1636     22.3957    229.7721   1.2205106459e+02   2.2885708230e+01     0.259951    0.1618806 -79.97  0.001511447    1.466    0.318
        73 -12.2487     14.3289    218.0848   1.2286040015e+02   2.6058937328e+01    0.4709611    0.2973626 -72.38   0.00307797    1.499    0.333
        74 -11.3744     15.6929    210.0539   1.2208745018e+02   2.7610922175e+01    0.3520633    0.2167787 -61.03  0.002181001    1.739    0.425
        75  -9.9078      2.5206    108.9115   1.1598584406e+02   5.2154013672e+01    0.1993684   0.09705873 -68.33  0.001026572    1.585    0.369
        76  -9.3211     57.7770    209.4975   1.1328336498e+02   2.3111321704e+01    0.2265957    0.1631713 -77.42 0.0007801345    1.331    0.249
        77  -8.9043    144.0055    209.2931   9.4044090740e+01   1.0178680649e+01    0.1969994     0.166072  32.68 0.0004420016    1.084    0.078
        78  -9.6931    182.5096    205.0090   8.5007052514e+01   4.4693944067e+00    0.1989827    0.1325506 -41.08  0.000620538    1.578    0.366
        79  -9.8158     15.4924     99.0100   1.1026360746e+02   5.3736320182e+01    0.2040548     0.106572 -66.36 0.0007919008    1.585    0.369
        80  -9.3838    190.0096    208.8133   8.4149114950e+01   2.5626427670e+00    0.2371187     0.189978 -74.32  0.001256614    2.102    0.524
        81  -8.5457    215.6240    203.3081   7.8059795181e+01  -6.3610071607e-01    0.1197668    0.1082146  73.15 0.0007029579    1.778    0.438
        82  -8.5689     44.1383     95.1207   9.9514945465e+01   5.2180777136e+01    0.2026106     0.158903 -37.97 0.0004075021    1.164    0.141
        83 -10.3165    185.8518    201.6634   8.3697512368e+01   4.5010656655e+00    0.2754393    0.2290895  37.81  0.001009763    1.252    0.201
        84  -8.6751     49.1289     88.9056   9.6223327262e+01   5.3068472767e+01    0.2043164    0.1809887 -72.27 0.0007068855    1.277    0.217
        85 -11.1197    104.6688     85.4973   7.6565690502e+01   4.4999086599e+01    0.5454908    0.4183731  75.38  0.001299614    1.922    0.480
        86  -9.4452    192.3940    199.7791   8.1996501868e+01   3.7319228305e+00    0.1936618    0.1207656 -27.96 0.0009480593    1.665    0.399
        87 -10.1685    213.9668    198.8352   7.7529703220e+01   3.5274354172e-01    0.2148616    0.1606598   0.23 0.0005466235    1.279    0.218
        88  -9.8204     81.9715     77.6361   8.1386914776e+01   5.0816321835e+01    0.3265584    0.3038766 -87.18  0.001188176    1.367    0.269
        89 -10.0034     84.9277     72.3300   7.8693570046e+01   5.1372045043e+01    0.3255377    0.2608499  24.36  0.000612385    1.259    0.206
        90 -10.6716    170.1681    196.6773   8.6101748807e+01   8.1147095026e+00    0.4339053    0.3308796 -22.46  0.002312326    1.388    0.279
        91  -9.5145     98.4358     76.7438   7.5749990193e+01   4.7987015034e+01    0.2641797    0.2343058  87.23 0.0006676355    1.482    0.325
        92  -8.4137     89.2017    199.1854   1.0500176964e+02   2.1092209782e+01    0.1902559    0.1449631  67.78 0.0004564611    1.344    0.256
        93  -9.3191      1.9869     76.9960   1.1114645768e+02   5.9607610449e+01    0.1541865    0.1156909 -55.50 0.0004845702    1.031    0.030
        94  -8.9822     65.3265    199.6499   1.1055086912e+02   2.4319423432e+01    0.1425375   0.08739872  67.87 0.0007048673    1.758    0.431
        95  -9.7302    186.6757    207.3287   8.4564294449e+01   3.3674589281e+00    0.2196556    0.1682536  46.29  0.001213394    1.481    0.325
        96  -9.0832     46.2666    197.8480   1.1464957872e+02   2.7074334134e+01    0.2401862    0.1391531 -69.37 0.0009365736    1.605    0.377
        97 -10.0089    183.0219    194.9683   8.3033119727e+01   6.1952717658e+00    0.2182653    0.1923406   5.10 0.0004378704    1.028    0.028
        98  -8.8394      1.4353    193.7303   1.2392093571e+02   3.2387730309e+01    0.1627748   0.08658444 -70.17 0.0009510238    1.639    0.390
        99 -10.5727     79.5508     63.1119   7.7437482045e+01   5.4091605544e+01    0.3368808    0.2552086  23.78  0.001362893    1.325    0.245
       100  -9.3344    162.5343    193.4680   8.7178532414e+01   1.0076304755e+01    0.1424615    0.1307532  12.69 7.056821e-05    1.008    0.008
       101  -9.4818    135.1376    192.9339   9.3300744787e+01   1.5005785242e+01    0.2209413    0.1914405  66.29 0.0007113607    1.288    0.224
       102  -8.5880     85.5064    192.4989   1.0495435176e+02   2.3136559516e+01    0.1370185      0.12419  71.46 -3.436843e-05    1.023    0.023
       103  -8.7294     71.1691    188.1227   1.0778255007e+02   2.6168600739e+01    0.1927256    0.1464597  74.98  0.000642996    1.325    0.245
       104  -9.0940     65.5009    187.6861   1.0907938967e+02   2.7027197430e+01    0.3026502    0.1837663  73.17  0.001370941    1.931    0.482
       105  -8.7768     20.9980     50.9779   9.6821337353e+01   6.3990282936e+01     0.169096    0.1508213  84.64 0.0005898583    1.668    0.400
       106  -8.6668    108.9962    187.4927   9.8573283409e+01   2.0617397020e+01     0.213331    0.1335018  39.64 0.0005273063    1.531    0.347
       107 -11.4970     67.8774     41.5175   7.3672486645e+01   5.9822416367e+01    0.4756219    0.3937575 -62.49  0.001739524    1.844    0.458
       108 -10.8889     72.4445     36.8345   7.0138361762e+01   5.9750285960e+01    0.3749986    0.3252468 -32.09  0.001307903    1.298    0.230
       109  -9.9027    168.3335    186.0824   8.4493605159e+01   1.0490748555e+01     0.262586    0.2018997  38.47  0.000336309    1.274    0.215
       110 -15.2235    218.1464     63.8775   4.6441667900e+01   2.2912138891e+01     1.130125    0.4338304 -40.57  0.004598248    2.295    0.564
       111  -8.5751     71.0000    183.9558   1.0727437857e+02   2.7162331512e+01    0.2208971   0.07342982 -63.82 0.0007986524    2.916    0.657
       112 -10.1064     55.2401     39.6241   7.7827468018e+01   6.2126355101e+01    0.2595224    0.1924605   1.68 0.0004690537    1.278    0.217
       113  -9.1736     45.5382     39.1951   8.1703979228e+01   6.3557948514e+01     0.206553    0.1674511 -29.19 0.0005719106    1.186    0.157
       114 -11.6866    123.4349     34.8448   5.4587242518e+01   4.9381176725e+01    0.6360263    0.3772091 -23.76  0.002959895    1.849    0.459
       115 -12.3481     21.6471    222.9865   1.2176546402e+02   2.4331995020e+01    0.4305232     0.404676  62.86  0.003353499    1.333    0.250
       116  -9.9981    107.2048     20.6299   5.3302679399e+01   5.4728652882e+01    0.2383259    0.2219181  19.03 0.0002754449    1.087    0.080
       117 -10.6343    171.8867    181.6291   8.2834809195e+01   1.0722905389e+01    0.3744252    0.3013275  -9.94  0.001288548    1.317    0.241
       118 -10.0148    123.3622    181.9526   9.4159188209e+01   1.9429929463e+01    0.5292117    0.3179121  81.53  0.001790764    3.840    0.740
       119  -9.9501     53.9250     27.7020   7.3388228715e+01   6.4149360657e+01    0.3262307    0.1671404  23.05  0.000800997    2.172    0.540
       120 -11.3401     24.0780     27.6241   8.6884872976e+01   6.7985616425e+01    0.3660013    0.1992154 -47.52    0.0017007    1.905    0.475
       121 -11.2029     15.9964    223.4889   1.2286967845e+02   2.4790911686e+01    0.2619313    0.1718874  53.13  0.001750037    1.305    0.234
       122 -10.1187     11.7969     23.7500   9.1566422908e+01   6.9744461936e+01    0.1869049     0.147759  26.24 0.0007434061    1.611    0.379
       123 -10.0522     32.3227     23.0336   8.0883309202e+01   6.7801260699e+01    0.2278137    0.1663515  24.77  0.001468568    1.412    0.292
       124  -9.9934     50.5683     19.2291   7.0976386727e+01   6.5822186076e+01    0.2270554    0.1725977 -45.54  0.001326111    1.868    0.465
       125 -10.1656     78.6501     31.8362   6.5960828515e+01   5.9320086823e+01     0.369248    0.2820253 -59.51   0.00167858    2.070    0.517
       126 -10.2063      2.4086    226.0967   1.2551529703e+02   2.5538305228e+01    0.3861759    0.1384341 -68.60   0.00204373    2.537    0.606
       127  -8.9760    136.4523    225.0204   9.8104837642e+01   8.4254141700e+00    0.2598428    0.1719366  22.49 0.0008734304    1.624    0.384
       128  -9.0968    183.4806    223.2209   8.7986694031e+01   1.1976005256e+00    0.2364444    0.1218283 -35.92 0.0007792181    2.092    0.522
       129  -9.7987    165.0223    181.7243   8.4376778105e+01   1.1962132886e+01    0.2063825    0.1870274  20.56 0.0004200912    1.049    0.046
       130  -9.0990    231.4628    221.9959   7.8519441159e+01  -5.8061750055e+00    0.1788609    0.1378038   8.96 0.0003311211    1.082    0.075
       131  -9.6158     43.5467    221.4652   1.1734652927e+02   2.2277195208e+01    0.2588325    0.2295879  57.16   0.00149846    1.190    0.160
       132 -12.0640     26.1723    207.8613   1.1981808622e+02   2.7049447845e+01    0.7728215    0.6557493 -54.60  0.003033876    1.475    0.322
       133 -15.4561    247.6027    120.6050   5.5289758537e+01   7.8461903399e+00     2.200853     1.367115  15.68  0.009802666    2.787    0.641
       134 -11.1363     25.9044    233.2266   1.2161217113e+02   2.1836389356e+01    0.3363021     0.161835 -63.29  0.001917857    2.180    0.541
       135  -9.6444     92.6839    178.5106   1.0113030589e+02   2.5283913130e+01    0.5088343    0.2725152  62.04  0.001992632    2.640    0.621
       136 -10.3706    160.3980    176.6716   8.4415847034e+01   1.3847677669e+01    0.4160224    0.3019426  35.57  0.002056513    1.344    0.256
       137 -10.6790    171.5250    172.2293   8.1003583183e+01   1.2667925247e+01    0.4707213    0.2855792 -29.89  0.002059913    1.830    0.453
       138 -10.0159     87.2527    171.7560   1.0141848298e+02   2.7715076378e+01    0.4859702    0.3869113 -30.97  0.002556028    1.515    0.340
       139 -10.3680    154.6405    162.1325   8.2738946982e+01   1.8011823495e+01    0.4948156    0.2582023 -54.35  0.001923425    2.218    0.549
       140  -8.8220     77.7548    163.4081   1.0252864097e+02   3.1136891778e+01    0.1929835    0.1404562  19.10 0.0009553114    1.676    0.403
       141  -8.9948     48.1072     25.0626   7.4654448774e+01   6.5399974943e+01    0.1642547    0.1608395 -81.05 0.0007847238    1.659    0.397
       142 -10.8856    124.9308    157.6191   8.9091827516e+01   2.4688971431e+01    0.9246706    0.5450697   5.17  0.002874202    4.112    0.757
       143  -8.4025     15.4906    159.5231   1.1810479550e+02   3.9094781508e+01    0.1265423    0.1025153 -87.04 0.0001193021    1.024    0.023
       144  -8.9924    150.1716    158.3903   8.2996203170e+01   1.9693859898e+01    0.2208474    0.1405355  50.71 0.0009453548    1.734    0.423
       145  -9.7133     94.8905    157.1383   9.6876352287e+01   3.0040476983e+01    0.4611223    0.2570143 -77.12  0.001720589    2.708    0.631
       146 -10.3029    143.6667    155.7377   8.3997224546e+01   2.1548879349e+01    0.4637437    0.3677833  51.44  0.002270971    1.348    0.258
       147  -9.0610    102.3266    232.5203   1.0631675755e+02   1.2256434565e+01    0.2145608    0.1171992 -60.88  0.001103204    2.053    0.513
       148 -10.1907    181.1724    155.2274   7.5219757929e+01   1.4239205764e+01    0.3009944    0.2440949 -44.57 0.0005155292    1.251    0.201
       149 -10.8989    179.0844    150.6832   7.4649984451e+01   1.5572969013e+01    0.4186093     0.389382  69.80  0.001180735    1.273    0.215
       150 -10.9333      6.0762    213.8380   1.2418847204e+02   2.7701753561e+01    0.2388852    0.1548522 -54.88  0.001535753    1.913    0.477
       151  -8.7950     49.7442    230.9302   1.1687909855e+02   1.9619642786e+01    0.1641101    0.1270999  74.77 0.0004298505    1.104    0.094
       152 -10.1729    151.4615    149.7586   8.0776903725e+01   2.1329641228e+01     0.496608    0.3441244  78.52  0.001576297    2.510    0.602
       153  -9.8521    154.1379    146.1164   7.9303512509e+01   2.1586077272e+01    0.2982891    0.2258303 -32.96  0.000558787    1.344    0.256
