#   1 NUMBER                 Running object number                                     
#   2 MAG_AUTO               Kron-like elliptical aperture magnitude                    [mag]
#   3 X_IMAGE                Object position along x                                    [pixel]
#   4 Y_IMAGE                Object position along y                                    [pixel]
#   5 X_WORLD                Barycenter position along world x axis                     [deg]
#   6 Y_WORLD                Barycenter position along world y axis                     [deg]
#   7 A_WORLD                Profile RMS along major axis (world units)                 [deg]
#   8 B_WORLD                Profile RMS along minor axis (world units)                 [deg]
#   9 THETA_WORLD            Position angle (CCW/world-x)                               [deg]
#  10 FWHM_WORLD             FWHM assuming a gaussian core                              [deg]
#  11 ELONGATION             A_IMAGE/B_IMAGE                                           
#  12 ELLIPTICITY            1 - B_IMAGE/A_IMAGE                                       
         1 -12.5935    119.7839     37.9774   4.0503009971e+01   4.9395934878e+01    0.8625382    0.4974466 -53.89  0.002904617    2.060    0.515
         2 -11.9063    106.0186     20.9773   3.7754968865e+01   5.4563646591e+01    0.5093606    0.3462716 -83.75  0.001915147    1.795    0.443
         3 -11.9124     26.5926     27.9862   6.9442038282e+01   6.9445651525e+01    0.5022759    0.3977086 -26.34  0.001925014    1.266    0.210
         4 -12.2820     20.2230     21.8061   7.0243412480e+01   7.1236662218e+01    0.5058437    0.2729278 -34.79  0.001770939    1.850    0.460
         5 -11.8789     35.5904     17.8900   5.9741186337e+01   6.9520552629e+01    0.6590702    0.3013077 -20.59  0.002366856    3.091    0.677
         6 -12.6418    135.5057     22.6029   3.3036126657e+01   4.7484913301e+01    0.9095707    0.2946568  55.53  0.003703055    2.677    0.626
         7 -11.0971    121.1683     11.7802   3.1990979164e+01   5.1908965709e+01     0.375698    0.1543453  67.24 0.0009124064    2.023    0.506
         8 -11.4044    127.1338     11.8360   3.1099153604e+01   5.0507994593e+01    0.3541765    0.2202929 -78.34  0.001726326    1.770    0.435
         9 -11.5206    134.6228     14.7387   3.0880508345e+01   4.8486020863e+01     0.531224    0.2616086  64.66  0.002701609    1.702    0.412
        10 -11.2202    179.3385     20.4453   2.7140092589e+01   3.7781806744e+01    0.4261224    0.2309995  44.37  0.002126803    2.754    0.637
        11 -10.6508     90.8927     22.0851   4.1605784830e+01   5.7924631909e+01    0.3594246    0.2611705 -28.81   0.00209344    1.587    0.370
        12 -10.5003     87.7772      7.7004   3.6885929219e+01   5.9998095443e+01    0.4963936    0.2232115  60.13   0.00242667    1.779    0.438
        13 -11.2955     85.9193     14.0472   3.9783251409e+01   5.9852482015e+01    0.3785512    0.2752926 -18.01  0.001681415    1.643    0.391
        14 -12.8249    164.2651     18.6103   2.8250738046e+01   4.1298666670e+01    0.4501594    0.2621818  47.74  0.002417874    2.109    0.526
        15 -11.8324     67.8543     18.2944   4.6696854356e+01   6.3365879147e+01    0.4631072    0.3835348  56.26  0.001941848    1.180    0.152
        16 -10.8356     13.1486      9.4353   6.8308424134e+01   7.3903768943e+01    0.3531353    0.3000834 -71.12  0.002252938    2.404    0.584
        17 -12.0857     15.9993     14.0480   6.8944523627e+01   7.2907295999e+01    0.5728696    0.3331525 -10.44  0.003143876    1.938    0.484
        18 -11.7960     22.6710     11.1370   6.3266113146e+01   7.2385592986e+01    0.4038576    0.2573148  12.19   0.00153713    1.513    0.339
        19 -12.2661    104.8979     13.0261   3.5242750913e+01   5.5596668667e+01    0.4301755    0.3357718 -24.14  0.001643658    1.532    0.347
        20 -11.5403    212.0843      9.1087   2.2108889657e+01   3.2241957601e+01    0.4397172    0.2831805 -11.58   0.00253916    2.940    0.660
        21 -11.7262    192.1758      8.9408   2.3463530666e+01   3.6259117826e+01    0.4232886    0.2885017   0.50  0.002403052    2.907    0.656
        22 -12.0035     48.1713     12.9191   5.1489621770e+01   6.7872459863e+01    0.6026667    0.2615794  48.34  0.002909677    1.961    0.490
        23 -10.3491      4.9561     10.9662   7.4866404921e+01   7.4626012928e+01      0.33002    0.1988434 -31.10  0.001951365    1.541    0.351
        24 -11.6529    169.3451      9.1764   2.5430868744e+01   4.1118468501e+01    0.4197446    0.1733572  59.09  0.001898126    2.339    0.573
        25 -11.1309    163.3934      6.9338   2.5446520772e+01   4.2647760274e+01    0.3771161    0.2066215 -20.56  0.001771396    2.500    0.600
        26 -10.9613    145.3124      9.7107   2.8087645634e+01   4.6483370869e+01    0.2145767    0.1802434  64.14 0.0004051381    1.211    0.175
        27 -11.8015    184.0160      5.6700   2.3374546807e+01   3.8288635832e+01    0.3643548    0.2416394 -56.66  0.002399434    1.326    0.246
        28 -11.7023    177.1528      5.9560   2.3989986151e+01   3.9726411718e+01    0.3374318      0.17594  85.82 0.0006076322    1.697    0.411
        29 -11.2756    157.3763      2.6980   2.4966255455e+01   4.4374043470e+01      0.30433    0.2006699 -40.50  0.001916011    1.595    0.373
        30 -11.4004    122.1591      5.3224   2.9835174318e+01   5.2238646193e+01    0.2128233    0.2039851 -35.92 0.0009256591    1.273    0.214
        31  -9.8294     62.6822      6.8924   4.3318462047e+01   6.5559766336e+01    0.1959722    0.1375254  20.85  0.001174699    1.513    0.339
        32  -9.8991    247.0283      5.7737   1.9562136185e+01   2.6210561835e+01    0.1242227   0.06984028  87.61  0.000446879    1.628    0.386
        33 -11.8326    234.6180      3.2448   1.9728014486e+01   2.8635724300e+01    0.4038514    0.1731582 -70.58  0.002367848    2.063    0.515
        34 -12.6541    134.8112      2.9437   2.7459013112e+01   4.9496813287e+01    0.8778726    0.2767829  76.07  0.003499748    2.974    0.664
        35 -10.3103     41.3799      4.3198   5.0001316950e+01   7.0015257876e+01    0.2739629     0.155871  25.04  0.001078953    1.792    0.442
        36 -10.8546    218.6725      3.8659   2.0695253997e+01   3.1508627003e+01     0.220318    0.1467896  89.01 0.0006944631    1.301    0.232
        37 -11.3392    207.7687      3.7088   2.1313084949e+01   3.3629136521e+01    0.3799407    0.1495396  74.25  0.002064649    2.276    0.561
        38 -10.1574    204.5002      1.5212   2.1078401560e+01   3.4487514997e+01    0.1843244   0.08989747  82.52 0.0007051316    1.799    0.444
        39 -11.2679    105.7382      2.7261   3.1553878667e+01   5.6269502940e+01    0.3181194    0.2326398 -62.91  0.001461423    1.546    0.353
        40 -11.0565     74.7442      3.5813   3.8385421399e+01   6.3244472205e+01    0.5347421    0.1764506  58.92  0.002320228    2.328    0.570
        41 -10.5854    224.0554      2.6985   2.0177935988e+01   3.0615318107e+01    0.1799071     0.134564 -48.84 0.0005367369    1.305    0.234
        42 -11.6644    114.5249      2.5794   3.0097467456e+01   5.4238598106e+01    0.4794819    0.1993189  71.80  0.002249371    2.044    0.511
        43 -12.1074    227.8017     15.5540   2.2353144255e+01   2.8583968242e+01    0.3597702    0.2021206 -76.49  0.002333714    1.549    0.354
        44 -11.0474      2.6056      1.9203   7.1507906651e+01   7.6151977890e+01    0.2992285    0.1595787  13.31  0.001334998    1.744    0.427
        45 -10.3525    152.4291      1.4439   2.5126546712e+01   4.5595001328e+01    0.2305359   0.09850001  75.56 0.0004930081    1.965    0.491
        46 -10.2431     82.1329      1.3182   3.5662710167e+01   6.1776646508e+01    0.1800682   0.09533054  64.07 0.0003912206    1.560    0.359
        47  -9.8283     12.7653      1.5675   6.3981061566e+01   7.4953483949e+01    0.2173283   0.09153056  31.16  0.001012872    2.048    0.512
        48  -9.9488      2.1348    125.9221   1.0598198907e+02   4.9317778374e+01    0.2117081    0.1726228  75.29 0.0007868516    1.276    0.216
        49 -10.5349    248.9085    250.0118   6.2322934796e+01  -8.9423988541e+00    0.1859066    0.1347287  42.85  0.001226187    2.775    0.640
        50 -12.5155    103.9207    122.4393   6.9348513195e+01   3.7117651328e+01     0.341336    0.3269659   7.81  0.000421413    1.054    0.052
        51  -9.3206     84.8145    123.3617   7.5602388365e+01   4.0392608122e+01    0.2146515    0.1471059  19.95 0.0003796248    1.661    0.398
        52 -10.2520     49.6846    123.0201   8.7875103516e+01   4.5803697806e+01    0.3109802    0.2015187  -4.57   0.00132536    2.004    0.501
        53 -10.0085     56.2710    121.9889   8.5242203646e+01   4.5203446490e+01    0.2092896    0.1928569 -54.78 0.0003814306    1.063    0.059
        54 -10.7116     43.9285    116.6876   8.8747793426e+01   4.8163620354e+01    0.3180487     0.209771 -67.23 0.0006855605    1.550    0.355
        55 -10.5147      7.1818    114.8697   1.0272371801e+02   5.1929086502e+01    0.3009652    0.2594483 -73.60  0.000808951    1.096    0.087
        56 -12.4257      2.4341    111.7903   1.0416071406e+02   5.2997836229e+01    0.4677518    0.2574548 -71.92 0.0007740079    1.620    0.383
        57 -11.2868      4.5987    104.9818   1.0235240899e+02   5.4637823048e+01     0.412272    0.3503183   8.41  0.002468292    1.292    0.226
        58  -9.8940     79.0730    114.6921   7.5431794238e+01   4.3518459571e+01    0.2585967    0.2173386 -64.84 0.0009179363    1.278    0.217
        59  -9.4489     67.4989    114.9724   7.9576429905e+01   4.5346618704e+01    0.2120899    0.1382234 -87.74  0.000809392    2.490    0.598
        60 -12.0863     17.5808    100.7878   9.6246771535e+01   5.4854982754e+01    0.4717149    0.4008943  38.41  0.001142495    1.318    0.241
        61 -11.7494     25.2594    107.5947   9.4331533902e+01   5.2473347107e+01    0.7969285    0.4836771 -48.01  0.003816059    1.494    0.331
        62 -11.3794     21.6260    114.3916   9.6999762586e+01   5.1021830875e+01    0.4825391    0.2823132 -11.26  0.001524208    2.101    0.524
        63 -10.8349     28.1711    113.1254   9.4192605384e+01   5.0773238629e+01    0.3066744    0.2297381   8.23 0.0007239608    1.438    0.305
        64 -10.1044     48.7599    112.3106   8.5959438379e+01   4.8692681886e+01    0.2547627    0.2273513  56.05  0.001005755    1.248    0.198
        65  -9.3953     93.6866    112.3494   6.9982553585e+01   4.1443612358e+01    0.1593072    0.1243975  80.64 0.0006808893    1.722    0.419
        66  -9.6192     66.0149    110.7197   7.9087697994e+01   4.6636073595e+01    0.2147033    0.1956164  17.94 0.0005737587    1.101    0.091
        67 -11.3424     79.9555    108.2273   7.3485456326e+01   4.4925747581e+01    0.5014585     0.316817  26.50 0.0006417078    1.704    0.413
        68  -8.9214    143.3065    105.7029   5.4600467353e+01   3.2706371584e+01    0.1486531    0.1166522 -84.45 0.0003956814    1.589    0.370
        69 -10.2962     34.2593    103.8757   8.9895126908e+01   5.2542991923e+01    0.2902247    0.1691996 -17.97  0.000894133    2.180    0.541
        70  -9.3558     85.7067    103.6726   7.0312418665e+01   4.4955363177e+01    0.1570997    0.1191505 -13.79 0.0007020604    1.624    0.384
        71 -10.7701     51.5482     99.6636   8.1878302590e+01   5.1481006033e+01    0.6499949    0.1814253 -45.48  0.001952143    3.603    0.722
        72 -12.2019      9.2190     97.3955   9.9209386223e+01   5.6297429116e+01    0.5450036    0.4251341   0.10            0    1.361    0.265
        73 -11.5148     22.5308     94.4620   9.2864987332e+01   5.6039234679e+01    0.3512726    0.2798453 -11.02  0.001257303    1.273    0.215
        74 -12.1066     18.4402     90.9996   9.3945567063e+01   5.7237771364e+01    0.7160568    0.3687424 -63.43  0.002729333    1.810    0.448
        75 -11.5665     27.6067     85.4932   8.8561835260e+01   5.7753784231e+01    0.6378375    0.5088675   6.32  0.002953877    1.263    0.208
        76 -11.1488     29.7337     97.7021   9.0452088064e+01   5.4560423646e+01    0.7138894     0.300055 -39.90  0.002724338    2.474    0.596
        77 -11.1765     35.4193     93.0093   8.6934049339e+01   5.5117501894e+01    0.5606587    0.2976965 -57.01  0.002483855    1.772    0.436
        78 -11.5281     44.4566     84.9116   8.0927405332e+01   5.5940113591e+01    0.4983538    0.3530201   7.00  0.002413468    1.523    0.343
        79 -10.4002     37.2826     85.9251   8.4335296488e+01   5.6600303574e+01    0.3344072    0.2020383  21.05 0.0009488585    1.692    0.409
        80 -11.9313    248.1111     97.4634   3.6018524388e+01   1.4249511703e+01    0.3764714    0.2447504  -8.85    0.0018355    3.456    0.711
        81 -11.5598     68.5104     95.8702   7.4289496916e+01   4.9793658775e+01    0.4150621    0.3083639   4.38 0.0006809423    1.588    0.370
        82 -10.1584     82.9440     93.4384   6.8403216207e+01   4.7780704356e+01    0.2714877    0.1866655  29.53 0.0006150152    1.502    0.334
        83 -10.9358     78.0893     92.6569   6.9880403137e+01   4.8850882382e+01    0.4354839    0.3917649   6.48  0.002058135    1.125    0.111
        84 -12.0200    125.6578     94.9844   5.6059372328e+01   3.8662680774e+01    0.2730836    0.2594157  48.97 0.0002295766    1.049    0.046
        85 -10.6811     43.0296     94.6285   8.4099183920e+01   5.3824068635e+01    0.3433376    0.2805378 -43.30  0.001324407    1.153    0.132
        86 -11.0379     89.4603     90.3097   6.5292041507e+01   4.7206941775e+01    0.4157203    0.2781315 -43.73  0.001430102    1.524    0.344
        87 -10.5839     49.4928     91.5112   8.0597941189e+01   5.3719908349e+01     0.271108    0.2538612   0.85  0.001537132    1.046    0.044
        88 -11.0027     98.5249     90.9936   6.2586974846e+01   4.5241702127e+01    0.2780596    0.2135804  42.51  0.001360034    1.272    0.214
        89 -11.7193      7.1289     88.8091   9.8604196701e+01   5.8565875456e+01      0.60381    0.3775736   7.16  0.002517723    1.712    0.416
        90 -10.0753     66.1921     88.8512   7.3179129243e+01   5.1779747500e+01    0.3706315    0.2301224  -2.05   0.00142932    2.601    0.615
        91  -9.6306    104.1377     87.3451   5.9819589929e+01   4.4822955381e+01    0.2624789    0.2053652 -30.78  0.001292698    1.387    0.279
        92 -10.7072    143.1305     84.6640   4.9145950155e+01   3.6766730607e+01    0.2357408    0.2021995 -39.52 0.0003311197    1.202    0.168
        93 -10.7809     80.2882     84.0471   6.6552017940e+01   5.0304127151e+01    0.3968654    0.3321544 -52.75  0.002001586    1.284    0.221
        94 -10.9140     76.2413     78.1434   6.6168559467e+01   5.2289362589e+01      0.53448    0.3176158 -53.19  0.002347055    1.906    0.475
        95 -10.1957     72.5053     78.0078   6.7498639070e+01   5.3008958790e+01    0.4010115    0.2808978 -70.29  0.001797915    2.104    0.525
        96 -10.6809    112.8617     82.3772   5.5873119431e+01   4.3920946125e+01    0.2670985    0.2581982  30.32   0.00038117    1.051    0.048
        97 -10.0743     66.7747     81.8214   7.0859442773e+01   5.3223552545e+01    0.3713827    0.2633184  17.73  0.001775126    1.543    0.352
        98 -11.0540     58.3232     77.8722   7.3001830601e+01   5.5476425273e+01    0.4567998    0.3048183 -64.25  0.001993265    1.952    0.488
        99 -11.4026     53.4269     76.3886   7.4577674650e+01   5.6562679465e+01    0.4596824     0.391667 -47.99  0.002547256    1.230    0.187
       100 -12.7960    247.3292     75.6274   3.2044868058e+01   1.7565719348e+01    0.4731797    0.2716772 -68.28   0.00278438    1.896    0.473
       101 -10.6511     14.3350     67.6556   9.0431644626e+01   6.3073043966e+01    0.4080113    0.1966063  12.37   0.00186539    2.173    0.540
       102 -10.6115     95.0280     76.5193   5.9316454358e+01   4.8867697610e+01    0.3923956    0.2346687  52.79  0.001270321    1.739    0.425
       103 -10.2264     92.0477     71.9519   5.8809746667e+01   5.0353614266e+01    0.2537066    0.2070394  30.96 0.0003893293    1.223    0.182
       104 -11.4392     82.3948     73.9138   6.2640217278e+01   5.1945177049e+01    0.5205094     0.295058  39.54  0.001197813    1.698    0.411
       105 -10.9885     88.1687     73.1512   6.0449028297e+01   5.0930020638e+01    0.2791011    0.2193649 -45.64 0.0009261366    1.349    0.259
       106 -11.7466     13.7479     74.6273   9.2480441176e+01   6.1524621085e+01    0.5274744    0.3775263 -62.55  0.002925958    1.390    0.281
       107 -11.0300     79.3424     68.0700   6.1785260763e+01   5.3662252273e+01    0.5057549    0.3440826  65.08  0.002283883    2.049    0.512
       108 -10.4260     24.4836     73.5594   8.6950369216e+01   6.0841402219e+01    0.2740822    0.2198072  -6.47 0.0008125513    1.195    0.163
       109 -12.0257     38.7918     70.9702   7.9385947714e+01   5.9794374997e+01    0.7958719    0.4577642  19.15  0.003155805    1.805    0.446
       110 -11.0198      1.9560     71.7178   9.7704429786e+01   6.2951430127e+01    0.3677155    0.1760472 -59.91  0.001393279    1.776    0.437
       111 -10.7457    187.0255     70.9382   3.7992505545e+01   2.9487718329e+01     0.449696    0.1757742 -41.65  0.001915469    2.307    0.566
       112 -11.0830    122.9628     68.9229   4.9295390345e+01   4.4081994830e+01    0.4103825    0.2422562  47.19  0.001250272    1.653    0.395
       113 -10.6246    220.7549     66.9987   3.3014643848e+01   2.3420094559e+01     0.295396    0.1684347  76.13  0.001620176    2.000    0.500
       114 -12.6005      6.4852     62.0594   9.3091846339e+01   6.4885904143e+01    0.7686593     0.432375 -11.47  0.003891335    1.843    0.457
       115  -9.4366     25.6181     65.1068   8.3964898932e+01   6.2598663725e+01     0.196027    0.1054223 -42.15 0.0009264653    1.706    0.414
       116 -11.0918     92.4384     63.0236   5.5766896555e+01   5.1872420362e+01    0.5540264    0.2709283  58.24  0.002136561    2.481    0.597
       117  -9.3636    156.6679     63.7269   4.0949918687e+01   3.7215795033e+01    0.1312886    0.1050096  32.95 0.0003904136    1.594    0.373
       118  -9.8994     51.0452     56.6441   6.8960144660e+01   6.0903133434e+01    0.2643235     0.226834 -16.12  0.001247018    1.125    0.112
       119 -11.2553     40.8262     57.0397   7.3802095793e+01   6.2379411359e+01    0.3954585    0.2456765  42.41  0.001716779    1.795    0.443
       120 -11.1522     43.3773     62.4136   7.4475922309e+01   6.0955538872e+01    0.2781873    0.2303206 -32.69 0.0008353303    1.175    0.149
       121 -10.5386     50.9856     61.4858   7.0715326396e+01   5.9992248285e+01    0.3467068    0.2253413  37.63  0.001741369    1.515    0.340
       122 -11.1149     46.4578     59.1359   7.1918332849e+01   6.1147928686e+01    0.3386533    0.2959774  38.73 0.0009904491    1.267    0.211
       123 -11.2156    235.7324     60.7207   3.0308743334e+01   2.1600288209e+01     0.312637    0.1352402  72.60  0.001593037    2.768    0.639
       124 -10.4315     59.0143     63.2195   6.7892046289e+01   5.8336547767e+01    0.3289947    0.2674759  78.38  0.001121573    1.852    0.460
       125 -12.3549     74.6707     52.4686   5.7982403429e+01   5.7331690968e+01    0.7992963    0.3911903 -48.98  0.002111957    2.564    0.610
       126 -10.7143     72.6958     47.3516   5.6787015256e+01   5.8546904452e+01    0.1940596    0.1893507  63.31 0.0006190077    1.187    0.158
       127 -11.5755     33.7130     52.2903   7.5586459372e+01   6.4264533170e+01     2.071461     1.041228   9.91  0.008376719    2.812    0.644
       128 -10.7579     24.5176     59.4894   8.2780047254e+01   6.3907383466e+01    0.4170338    0.2225043  29.66  0.001544891    1.872    0.466
       129 -10.8130     25.0001     56.2464   8.1469096316e+01   6.4525167260e+01     0.529941    0.2512624 -17.66  0.001962064    3.403    0.706
       130 -10.5024     87.7594     56.4818   5.5010927087e+01   5.3969877319e+01    0.3961877    0.1616081 -32.82  0.001459373    2.989    0.665
       131 -11.1712    117.3511     55.3351   4.6498067641e+01   4.7548774591e+01    0.6203912    0.3376604 -64.02  0.002354901    3.116    0.679
       132 -10.7161    109.4699     41.0335   4.3759552851e+01   5.1403051215e+01    0.4481266     0.300923 -15.44  0.002246951    1.986    0.497
       133 -11.1355    114.5985     49.2622   4.5230265180e+01   4.9080993023e+01    0.6866502    0.2916775  42.64   0.00263321    2.666    0.625
       134 -11.7568    117.5069     43.6786   4.2792335108e+01   4.9183175392e+01    0.5018939     0.354302  80.07  0.001705278    1.564    0.361
       135 -10.7602    242.3963    247.7986   6.3042487007e+01  -8.0730465984e+00    0.1601189   0.07568683 -27.74 0.0008455401    1.716    0.417
       136 -10.0045     91.6740     57.1953   5.4036276473e+01   5.3015313177e+01    0.2445488    0.1841701  60.34 0.0007000854    1.390    0.281
       137 -10.0049    237.7784     55.9929   2.9229191562e+01   2.1880769792e+01    0.1473559   0.07686974 -42.09 0.0008524578    1.594    0.373
       138  -9.9060    157.7309     55.4342   3.8598574645e+01   3.8210137458e+01    0.3640307     0.248045 -70.74  0.001893202    1.606    0.377
       139  -9.4333     67.0346     54.9996   6.1740389193e+01   5.8391051127e+01    0.1675024    0.1548448  -0.36 0.0008694245    1.071    0.066
       140  -9.8256      7.4240     54.7047   9.0573838009e+01   6.6421217092e+01    0.1743953    0.1016339 -45.71 0.0005506054    1.467    0.318
       141 -11.5601     60.7343     48.1040   6.1634871836e+01   6.0727553875e+01    0.7913155    0.3425038 -36.29  0.003296712    2.529    0.605
       142 -11.0195     51.8522     48.3929   6.5498526523e+01   6.2245596857e+01     1.013875    0.4721164  19.67  0.003374489    4.040    0.752
       143 -11.2201     45.5769     48.1564   6.8248099362e+01   6.3311442677e+01    0.4181788    0.3214802  18.92  0.001918471    1.196    0.164
       144 -11.8777     42.8312     44.0144   6.7906062387e+01   6.4458678602e+01    0.6446536    0.2637974  36.36 0.0002914674    2.273    0.560
       145  -9.8039      1.7730     48.9758   9.2172487066e+01   6.7997003630e+01    0.1775659    0.1452679 -30.04 0.0008436035    1.024    0.024
       146  -9.9144    146.2811     47.2111   3.8283816925e+01   4.1990480919e+01    0.2229409    0.1649181 -34.19  0.001056548    1.491    0.329
       147 -11.3408     20.7784     46.1539   8.0236254543e+01   6.6979100831e+01    0.3181072    0.2287031 -33.62 0.0006785613    1.269    0.212
       148  -9.8000     82.7057     47.0029   5.3252519882e+01   5.6534064684e+01    0.1900395    0.1759221  17.12 0.0009391019    1.085    0.078
       149  -9.9871    138.7724     44.0928   3.8710092692e+01   4.4155772928e+01    0.3800982    0.1840253  37.69  0.001445425    3.322    0.699
       150  -9.8074    134.0090     45.7809   4.0072561161e+01   4.5041919924e+01    0.2074116    0.1307125  64.21 0.0004128758    1.464    0.317
       151 -10.4549    155.9407     42.2981   3.5418871357e+01   4.0418266011e+01    0.2287867    0.1952947 -29.55 0.0008277957    1.383    0.277
       152 -10.0504    240.3132     50.6846   2.8021460839e+01   2.2139005493e+01    0.1198838   0.06554916 -63.07 0.0004566058    1.641    0.391
       153 -10.6745     26.6824     42.7566   7.5678824004e+01   6.6936324287e+01    0.2365191    0.1992998  -7.31 0.0008691244    1.020    0.019
       154 -10.4673     22.4125     37.3324   7.5892544027e+01   6.8422400742e+01    0.4825559     0.260038  45.69  0.002247737    2.709    0.631
       155 -10.3571     92.6969     41.7837   4.8341947199e+01   5.5114592214e+01    0.3247063    0.1871305  53.95  0.001565399    1.566    0.361
       156 -10.2374     13.0463     47.3631   8.5066484723e+01   6.7494046169e+01    0.3134908    0.1350235 -40.75  0.001451296    2.072    0.517
       157 -10.8009    231.8396     39.1858   2.6528133430e+01   2.5099535754e+01    0.2302861    0.1186364 -45.15 0.0009453254    1.572    0.364
       158 -10.5142     79.7554     38.9121   5.1181454890e+01   5.8328241967e+01    0.4332435    0.2727664  77.53   0.00185463    2.767    0.639
       159 -11.4055     79.6733     32.8930   4.8890666305e+01   5.9145426789e+01    0.6002942    0.3112422  36.43  0.002732679    2.039    0.510
       160 -10.3649     67.2083     32.8098   5.3035433821e+01   6.1757805914e+01    0.4577281    0.3184726  51.83  0.002526186    1.375    0.272
       161 -11.7046     57.4822     30.4614   5.5743067742e+01   6.3981192672e+01    0.4057524     0.298147   6.29  0.001031816    1.501    0.334
       162 -11.5200     48.2667     30.5608   5.9686325293e+01   6.5657768076e+01    0.6343393    0.2383324  38.34  0.001993591    2.425    0.588
       163  -9.6813     43.0409     28.0279   6.0945988347e+01   6.6917434455e+01    0.1888384    0.1483152  13.28  0.001155209    1.151    0.131
       164 -11.3186      4.4889     36.2747   8.6377654295e+01   7.0354181366e+01    0.4344924    0.2774694  -4.42  0.002552142    1.444    0.308
       165 -10.3997    176.4954     35.5792   3.1014667563e+01   3.6655240533e+01    0.2534193    0.1389412 -55.53 0.0009414164    1.751    0.429
       166  -9.3825     94.3409     35.7214   4.5716204294e+01   5.5551375012e+01     0.132271    0.1023388 -88.88 0.0004114819    1.623    0.384
       167 -12.3379    159.9991     29.8009   3.1593767825e+01   4.1026994567e+01    0.4196993    0.3233738 -58.42 0.0004878626    1.243    0.195
       168 -12.1571    164.2694     27.6823   3.0523966948e+01   4.0305523508e+01    0.2720269    0.2237651  85.50  0.000394251    1.061    0.058
       169 -11.8561    126.5334    241.9214   8.5171866173e+01   6.1968389214e+00     0.321709    0.2436358  49.45  0.001750538    1.538    0.350
       170 -11.5687    107.4617     31.2019   4.0928571321e+01   5.3099369849e+01    0.4926911    0.2929662  22.12   0.00199183    2.722    0.633
       171 -12.0369    113.6284     25.3104   3.7668416897e+01   5.2328441793e+01    0.6731132    0.2361811  52.09  0.002580213    2.469    0.595
       172 -10.6154    240.1516     32.4767   2.4673814152e+01   2.4434666519e+01    0.1811755    0.1754251 -25.71  0.001476387    1.581    0.367
       173 -11.2730     61.1143     36.2489   5.6745264783e+01   6.2482679838e+01    0.3933718    0.2891552 -14.49  0.001406753    1.517    0.341
       174 -10.1580     32.6565     31.0288   6.7510205067e+01   6.8113895185e+01    0.1737257    0.1463095 -10.22 0.0004216573    1.122    0.109
       175  -9.7169    229.3032    248.3385   6.5321192955e+01  -6.9218062336e+00    0.1196498   0.06605066 -12.48 0.0007038713    1.671    0.402
       176 -11.4065     67.7738    240.7805   9.8899900788e+01   1.3987664528e+01    0.3670636    0.2215641  -1.79   0.00158501    2.547    0.607
       177 -10.3454     38.7070     22.0860   6.0248116266e+01   6.8458210885e+01    0.2190323    0.1810085   8.66 0.0004784609    1.078    0.072
       178 -11.2019     74.0336    238.7269   9.7198799613e+01   1.3654875435e+01    0.5099877    0.2046232  45.01  0.002136269    2.352    0.575
       179 -10.3007     12.0182     29.8275   7.9027890536e+01   7.0870353542e+01    0.2980833    0.1599807 -21.39    0.0015224    1.972    0.493
       180 -10.1236      7.4989     30.4848   8.2209246461e+01   7.1179353723e+01    0.2922289    0.1111013  14.32  0.001255195    2.823    0.646
       181 -12.1845    126.0030     28.3764   3.6322457967e+01   4.9083547271e+01    0.4820929    0.3533424  85.03  0.002751806    1.347    0.258
       182 -10.0723    197.3592     29.1395   2.7390692328e+01   3.2991617251e+01    0.1952631     0.123528  85.75 0.0008570572    1.461    0.315
       183 -10.9842    189.0411     27.8445   2.7887977311e+01   3.4876895327e+01    0.2685942    0.2413132  48.44  0.001439274    1.483    0.326
       184  -9.7030     89.5930     29.5008   4.4716200357e+01   5.7383549880e+01     0.130601     0.117323  55.56 4.961066e-05    1.051    0.048
       185 -11.6940    183.0835     25.7704   2.8002076839e+01   3.6383463834e+01    0.3178975    0.2352884  66.84  0.001448192    1.368    0.269
       186 -11.6717    143.9143     25.1532   3.2523677700e+01   4.5249361782e+01    0.3180237    0.1659709  68.97  0.001598918    1.689    0.408
       187 -10.2417    174.9797    246.2592   7.5244247496e+01  -7.1873167473e-01    0.1820765    0.1412557   7.76 0.0008353307    1.066    0.062
       188 -11.3545    146.6931    237.7455   8.0030423634e+01   4.3136200096e+00    0.3860227    0.2691461  40.52  0.002156718    1.549    0.355
       189  -9.1491     48.3178    233.3286   1.0289163327e+02   1.7878837974e+01    0.1268147   0.09785324 -26.70 0.0007046559    1.682    0.405
       190 -10.3390    246.4795    230.5474   5.9709285236e+01  -6.0991569947e+00    0.1132204   0.08125504 -16.14 0.0002521226    1.004    0.004
       191 -11.2494    127.4567     16.4962   3.2459223541e+01   4.9991382298e+01      0.37295    0.1766998  64.69  0.001211087    1.761    0.432
       192 -10.0431     59.6938     23.8773   5.2010687184e+01   6.4394249322e+01    0.1677204    0.1547376   2.82 0.0004874147    1.162    0.139
       193  -9.5496     75.4872    224.5140   9.5312476466e+01   1.6565832420e+01    0.1372505     0.123228  39.42 0.0002378274    1.009    0.009
       194  -9.9831    164.5362    211.9747   7.2023872471e+01   6.7025981412e+00    0.2010247    0.1691939  11.32 0.0005482907    1.091    0.084
       195 -10.1727    152.7357    207.2061   7.3848309261e+01   9.3382756716e+00    0.3033956    0.1932868 -64.61  0.001381986    2.321    0.569
       196 -10.1790    139.4870    198.9916   7.5539927981e+01   1.3035482227e+01    0.1880361    0.1320262 -82.63 0.0008098644    2.491    0.599
       197  -9.8627      6.0815     21.1616   7.9120705843e+01   7.2914793318e+01    0.2841747    0.1237866 -32.27  0.001393594    2.253    0.556
       198 -11.8838      5.1123    185.8334   1.1027507445e+02   3.3450241344e+01     0.473125    0.3789759 -72.07  0.002786969    1.198    0.165
       199  -9.6985     86.0629    185.5076   8.7272445595e+01   2.4383727716e+01    0.2317383    0.1438913  28.71  0.001026913    1.575    0.365
       200  -9.8249     74.4510     19.5963   4.5166213896e+01   6.1825483353e+01    0.2175627    0.1648007  38.74 0.0005365456    1.179    0.152
       201 -10.3654     46.6265     19.3843   5.5273849892e+01   6.7420180587e+01    0.2568083    0.1929566  21.69  0.001581688    1.199    0.166
       202 -10.0888    246.2782     19.6483   2.1997912760e+01   2.4850532712e+01    0.1143834   0.05448606 -60.05  0.000700958    1.646    0.392
       203  -9.5705     28.1731    175.8198   1.0288096023e+02   3.4056006793e+01    0.1938216    0.1587932 -43.94 0.0005976588    1.321    0.243
       204  -9.1255    113.6103    175.6966   7.7960657511e+01   2.2473109611e+01    0.1625986    0.1157583 -11.44 0.0007013576    1.803    0.446
       205 -11.8421      9.3499    166.9110   1.0762372978e+02   3.8006000388e+01    0.3538393    0.2318377  13.16  0.001247028    1.749    0.428
       206 -10.4534    117.3088     16.5830   3.4151483699e+01   5.2362640667e+01    0.2426349    0.1118731  71.11 0.0007012749    1.997    0.499
       207 -10.4479    186.9347     14.9641   2.5202026956e+01   3.6740209751e+01    0.1801548     0.143492 -76.56  0.000477346    1.011    0.011
       208 -11.1484     14.3601    159.7572   1.0544017572e+02   3.9510227963e+01    0.3065645    0.1965474 -71.37 0.0009748287    1.413    0.292
       209 -10.0812    204.9659    163.2656   5.4915049569e+01   9.9156004057e+00    0.2329178    0.1684341 -37.71 0.0006568183    1.195    0.163
       210  -9.7501     28.5122    160.5101   1.0108105473e+02   3.8082202957e+01    0.1419769    0.1327128 -81.61 3.918548e-05    1.008    0.008
       211 -10.6844      9.4274    155.6879   1.0658877344e+02   4.0960567150e+01    0.2624584    0.1253191 -80.46  0.001124202    1.984    0.496
       212 -10.1214    104.1319    154.6117   7.6512753830e+01   2.9227738278e+01    0.2743593    0.1903732 -46.97  0.001233216    1.434    0.303
       213 -10.3438      3.6343    153.2562   1.0818651363e+02   4.1998637627e+01    0.2525835    0.1491795  36.61  0.001256965    1.744    0.426
       214 -10.1629    141.3154    152.2296   6.6026903691e+01   2.3076494937e+01    0.3014501    0.2024468  47.58 0.0008863372    1.614    0.381
       215 -12.3215     23.2774    148.6896   1.0134830550e+02   4.1731814549e+01    0.5251712    0.2902231 -38.94  0.001603257    2.022    0.505
       216  -9.9781     65.4663     10.4665   4.4041116138e+01   6.4650864446e+01    0.2579951    0.1068063  56.96  0.001180134    2.074    0.518
       217 -10.2176     89.2381     16.6122   3.9951633885e+01   5.8857514838e+01    0.2761284    0.1447362  48.19  0.001181885    1.651    0.394
       218 -11.0918     46.8210    147.2394   9.3253278793e+01   3.9704946020e+01    0.6619227    0.3775849 -38.44  0.002766469    1.983    0.496
       219 -11.1300     16.2049    147.9232   1.0360032914e+02   4.2522924923e+01      0.29999    0.2510159  49.74 0.0005859538    1.243    0.195
       220 -10.6504      3.0877    147.5093   1.0784416090e+02   4.3552270311e+01    0.2123091    0.1685338 -76.44 0.0009178919    1.118    0.105
       221  -9.4945     74.3472    145.8792   8.3896022246e+01   3.6336653932e+01    0.2234256    0.1319107 -48.18 0.0005095186    1.676    0.403
       222 -11.1643     33.1865    144.4563   9.7447089629e+01   4.1943551159e+01    0.2959732    0.2718941  72.93 0.0006782382    1.113    0.102
       223 -10.9650      5.8563    142.1440   1.0641747584e+02   4.4800845171e+01    0.2430925    0.2090483  78.94 0.0002841309    1.145    0.126
       224 -11.2758      1.9947    140.8783   1.0757997358e+02   4.5373391252e+01    0.4261526    0.2266811 -77.47  0.001085117    1.684    0.406
       225 -10.3942     40.5294    138.1314   9.3934803534e+01   4.2872768800e+01    0.2861074    0.2168232  63.14 0.0008932133    1.488    0.328
       226  -9.2544    217.3185    138.7072   4.8018089900e+01   1.2390670419e+01     0.123721   0.09538715 -67.63 0.0003593428    1.604    0.377
       227  -9.8041     79.1354    137.8977   8.0722669933e+01   3.7661518210e+01    0.2390949    0.2134924  77.70 0.0008631386    1.247    0.198
       228  -9.9651     32.2940    137.5592   9.6736525403e+01   4.3889438337e+01    0.3166813    0.1848457  39.51  0.001184125    1.785    0.440
       229 -11.4860     22.4456    136.1090   9.9997116627e+01   4.5184649651e+01    0.6522872    0.3435093  30.27  0.002915211    1.947    0.486
       230 -10.9112     29.9128    133.2130   9.6917888461e+01   4.5288093571e+01     0.410566    0.2437533 -35.43 0.0008371945    1.857    0.461
       231 -11.2839     12.6122    136.0821   1.0344302070e+02   4.5959913166e+01     0.537468    0.2755478 -42.35  0.002369735    2.006    0.501
       232  -9.1348     47.2984    134.6750   9.0958207982e+01   4.3015704738e+01    0.1538151    0.1124313  66.17 0.0003011674    1.630    0.386
       233 -10.1752     73.1379    133.1438   8.1703931907e+01   3.9836864212e+01    0.2442523    0.2111827 -23.45 0.0005724614    1.222    0.182
       234  -9.5687     39.4913    133.4864   9.3528157139e+01   4.4232382660e+01    0.1481403    0.1380889 -49.54 3.436102e-05    1.030    0.029
       235 -10.9704     11.0264    126.9193   1.0287353874e+02   4.8509893590e+01    0.4271751    0.1636346 -63.90  0.001713035    2.147    0.534
       236  -9.1839     92.6876    129.3549   7.4470292064e+01   3.7522151247e+01    0.1623141    0.1243917  76.97 0.0007044505    1.734    0.423
       237  -9.3404     22.9435    126.7645   9.8471797496e+01   4.7641979625e+01    0.1658888    0.1213966  13.36 0.0003059628    1.491    0.329
       238 -10.8003    148.7191     15.8564   2.9339076254e+01   4.5110592272e+01    0.2863305     0.155624  47.34  0.001460595    2.143    0.533
