#   1 NUMBER                 Running object number                                     
#   2 MAG_AUTO               Kron-like elliptical aperture magnitude                    [mag]
#   3 X_IMAGE                Object position along x                                    [pixel]
#   4 Y_IMAGE                Object position along y                                    [pixel]
#   5 X_WORLD                Barycenter position along world x axis                     [deg]
#   6 Y_WORLD                Barycenter position along world y axis                     [deg]
#   7 A_WORLD                Profile RMS along major axis (world units)                 [deg]
#   8 B_WORLD                Profile RMS along minor axis (world units)                 [deg]
#   9 THETA_WORLD            Position angle (CCW/world-x)                               [deg]
#  10 FWHM_WORLD             FWHM assuming a gaussian core                              [deg]
#  11 ELONGATION             A_IMAGE/B_IMAGE                                           
#  12 ELLIPTICITY            1 - B_IMAGE/A_IMAGE                                       
         1 -14.1472    205.5082     14.3770   6.3062222368e+01   3.2430964103e+01     2.258515     1.400194  32.11   0.01086403    2.634    0.620
         2 -12.2218      2.0000     13.1055   1.1676205336e+02   7.0772419127e+01     1.151425    0.1404335 -48.68  0.003545286    7.867    0.873
         3 -12.4349      2.3444      4.4231   1.1301866094e+02   7.1949126366e+01    0.5456296    0.3855957  -6.29  0.004407745    1.159    0.137
         4 -11.8039     81.5127    249.2563   1.3834531310e+02   1.2985256687e+01    0.3543895    0.2298779  46.74  0.002196437    1.389    0.280
         5 -13.1508    128.1365    248.9950   1.2972169980e+02   5.6323369712e+00    0.9591261    0.3507639  42.52  0.004196588    2.292    0.564
         6 -12.1327    104.9573    245.4786   1.3366477494e+02   1.0065523419e+01    0.3279687    0.2525565  76.56   0.00149382    1.201    0.167
         7 -12.7536    100.1818    249.3913   1.3497353495e+02   1.0108578398e+01     1.011452    0.2934766  52.78  0.003811695    3.388    0.705
         8 -10.6759     66.3795    250.0116   1.4108441672e+02   1.5022811736e+01    0.2435262    0.1409649  49.29 0.0004428843    1.456    0.313
         9 -14.8600     29.9579    245.8199   1.4692420147e+02   2.0505549283e+01     8.370216     2.125665  33.11   0.02330834   10.575    0.905
        10 -15.4062      7.1295    196.0823   1.4747709438e+02   3.2973799996e+01     8.547298      1.13907 -73.07   0.02799842    5.328    0.812
        11 -14.2196     46.3973    219.6023   1.4204591382e+02   2.3702566902e+01     1.390835    0.7370991  58.47  0.006681757    1.646    0.392
        12 -13.9621      7.1738    240.6039   1.5026901126e+02   2.4008552735e+01     2.109658    0.9739644 -82.25   0.01329379    1.755    0.430
        13 -14.9082     12.4829    159.3173   1.4323012800e+02   4.0581573070e+01     4.406759     1.555666  89.62   0.01522213    4.593    0.782
        14 -10.2220    193.1532    195.1474   1.0812798603e+02   3.5359781474e+00    0.8986422    0.4100608 -62.58  0.001982666    9.459    0.894
        15 -11.4361     65.2650    195.4229   1.3578362669e+02   2.6431561664e+01    0.3758068    0.2459099 -47.60  0.001682179    1.961    0.490
        16  -8.7560    113.7983    193.3755   1.2491109228e+02   1.9161024198e+01    0.1955994    0.1312782  32.73 0.0007650386    1.726    0.421
        17  -9.1413     47.8489    193.1508   1.3918057365e+02   2.9232854345e+01    0.1809392    0.1355124  79.75  0.001126331    1.122    0.109
        18 -11.5488     70.5702    187.7320   1.3367594081e+02   2.7422421297e+01     0.349683    0.2518068 -77.58 0.0007857307    1.252    0.201
        19 -11.5922     49.7681    233.7272   1.4264241930e+02   2.0400557943e+01    0.3868793    0.1966614 -72.86  0.002208898    1.829    0.453
        20  -8.9602    126.0153    185.3116   1.2082828685e+02   1.8714979935e+01    0.2267609    0.1218718  21.89 0.0007041259    4.206    0.762
        21 -10.8120     80.0541    175.8079   1.2985967143e+02   2.8780175114e+01    0.2538961    0.2247088 -64.32 0.0004096512    1.196    0.164
        22 -13.0710     67.2637    173.3955   1.3247292427e+02   3.1210587476e+01    0.5075477    0.2781066 -45.89   0.00162391    2.257    0.557
        23 -11.8502     87.2684    166.9850   1.2676107258e+02   2.9734245630e+01    0.6878766    0.5142336  56.12  0.003678241    1.329    0.248
        24 -14.9094     54.9072    210.2737   1.3953253170e+02   2.4575287685e+01     7.985777    0.7609833  48.63   0.01961301    8.494    0.882
        25 -13.0306     66.3743    143.0808   1.2791345678e+02   3.8535492053e+01     1.452325    0.7846088  84.80  0.004275435    3.343    0.701
        26  -9.7689     99.5362    150.8976   1.2082793357e+02   3.1522403284e+01    0.2696237    0.2494935  55.67 0.0007380415    1.128    0.114
        27 -11.8872     88.2245    150.0882   1.2354927239e+02   3.3607775627e+01    0.2904587    0.2537179 -45.90 0.0006154136    1.241    0.194
        28  -8.9437    134.3807    148.2746   1.1158123468e+02   2.5510068593e+01    0.2215793     0.144122 -60.48 0.0008848184    1.634    0.388
        29  -9.0419    102.3705    146.8437   1.1930126921e+02   3.1991146612e+01     0.211806    0.1281884 -45.85 0.0004809091    1.709    0.415
        30  -8.7260    192.4230    144.4608   9.7535005509e+01   1.3692403375e+01    0.1523583    0.1462963 -68.06 0.0001304399    1.057    0.054
        31  -9.7613    110.6506    136.4735   1.1496521811e+02   3.2936972969e+01     0.324941    0.2502484 -25.45  0.001190346    1.658    0.397
        32 -10.3553     97.9881    133.5593   1.1766497910e+02   3.5911400819e+01    0.2751802    0.2211274 -33.36 0.0007084137    1.417    0.294
        33 -11.0466     50.2006    129.8299   1.2988873720e+02   4.3713459646e+01    0.2574728    0.2058323  81.68 0.0006484143    1.332    0.249
        34  -9.5569     44.3170    130.3165   1.3156436253e+02   4.4258353845e+01    0.1322968    0.0888322 -40.19 0.0005741722    1.652    0.395
        35 -11.4179     54.3419    119.8523   1.2688805954e+02   4.5560398127e+01    0.4601426    0.2359195 -79.01   0.00182727    2.895    0.655
        36  -9.2711    107.2749    123.2662   1.1283275840e+02   3.6646105940e+01    0.2030175    0.1940604 -31.05 0.0005775923    1.109    0.098
        37 -10.5379    167.9931    113.2131   9.5174229566e+01   2.5791374879e+01     0.361356    0.3019622 -86.03  0.000821735    1.361    0.265
        38 -10.5594    248.7473    249.2111   1.0736473042e+02  -1.4072045229e+01    0.2533865    0.1381175  27.13  0.001469004    1.617    0.382
        39 -12.5392     39.5851    228.7601   1.4405437088e+02   2.2676417278e+01    0.3284838    0.2549586 -69.02 0.0007423735    1.480    0.324
