#   1 NUMBER                 Running object number                                     
#   2 MAG_AUTO               Kron-like elliptical aperture magnitude                    [mag]
#   3 X_IMAGE                Object position along x                                    [pixel]
#   4 Y_IMAGE                Object position along y                                    [pixel]
#   5 X_WORLD                Barycenter position along world x axis                     [deg]
#   6 Y_WORLD                Barycenter position along world y axis                     [deg]
#   7 A_WORLD                Profile RMS along major axis (world units)                 [deg]
#   8 B_WORLD                Profile RMS along minor axis (world units)                 [deg]
#   9 THETA_WORLD            Position angle (CCW/world-x)                               [deg]
#  10 FWHM_WORLD             FWHM assuming a gaussian core                              [deg]
#  11 ELONGATION             A_IMAGE/B_IMAGE                                           
#  12 ELLIPTICITY            1 - B_IMAGE/A_IMAGE                                       
         1 -12.2532    119.7657     37.5591   5.7846870747e+00   5.0110031040e+01     1.038666    0.4429142 -50.57  0.003990591    2.621    0.618
         2 -12.3905     74.0693     50.0334   2.3329590924e+01   5.8804151230e+01     1.275274    0.4808576 -52.05  0.004140717    3.551    0.718
         3 -10.5974    105.5482      2.1503   3.5496906948e+02   5.7654190210e+01      0.29515    0.2011523 -56.71 0.0008838092    1.496    0.331
         4 -12.0068    104.5802     11.8313   3.5902205403e+02   5.6996991327e+01    0.5644608    0.3476066 -22.51  0.001856792    1.875    0.467
         5 -12.8431    105.5870     19.9296   2.0595833622e+00   5.5871886759e+01     0.365707    0.2876795 -72.70 0.0007136838    1.294    0.227
         6 -12.8439    163.7041     27.6747   3.5603037769e+02   4.0853050198e+01    0.6771961    0.3573308  59.09  0.003350511    1.990    0.498
         7 -11.9267     57.9151     29.5490   2.0707643194e+01   6.5740211447e+01    0.7046092    0.4572409 -13.14  0.001547869    2.188    0.543
         8 -11.0959     20.6373     21.6793   3.7760189656e+01   7.3620530384e+01     0.556278    0.3273296 -29.67  0.002068026    1.868    0.465
         9 -11.8330    150.3207     22.8172   3.5615411621e+02   4.4565818966e+01      0.85495    0.2957605  74.01  0.003124468    2.908    0.656
        10 -12.6043    245.9584     21.7954   3.4843155542e+02   2.5043874292e+01    0.4885639    0.3430213  57.50  0.003485485    2.023    0.506
        11 -10.7123    186.6017     14.7950   3.5049428766e+02   3.7217315048e+01    0.2635417    0.1787065 -66.36  0.001084755    1.240    0.193
        12 -11.9654    134.5157     22.0411   3.5796974337e+02   4.8473558859e+01     1.181216    0.5367831 -13.33  0.004189637    4.152    0.759
        13 -11.9279    127.3818     15.8048   3.5686918962e+02   5.0920546723e+01    0.5614828    0.3718237 -17.93  0.001838688    1.863    0.463
        14 -11.5077    131.8301     15.3888   3.5611624448e+02   4.9869833680e+01    0.5274799    0.2543863  52.88  0.002393972    2.195    0.544
        15 -11.7964     35.8654     18.0722   2.5551071453e+01   7.1817892803e+01    0.6166124    0.5059456 -22.43  0.002578151    1.255    0.203
        16 -11.7028     23.1915     10.5855   2.9062690902e+01   7.5123858754e+01     1.117237    0.5473977  23.78   0.00482198    2.698    0.629
        17 -12.5161    236.2650     16.4443   3.4784720303e+02   2.7303499076e+01     0.349191    0.2433718 -31.36   0.00164036    1.481    0.325
        18 -12.0322    164.4733     18.0959   3.5324759255e+02   4.1785422359e+01    0.4277536     0.272305  43.91  0.002244303    2.147    0.534
        19 -11.2878     86.0889     14.2060   3.9241640345e+00   6.1312221857e+01    0.5882571     0.371719 -37.85   0.00302849    1.680    0.405
        20 -10.6611     88.7407      8.1399   5.6126783451e-01   6.1283441193e+01    0.3354391     0.317018  44.78  0.001179554    1.139    0.122
        21 -12.3281    243.3480     14.5551   3.4712832724e+02   2.6272923449e+01    0.2835418     0.248166 -11.14  0.001656404    1.689    0.408
        22 -10.8393    225.7325     13.3488   3.4773956480e+02   2.9541251731e+01    0.2025717    0.1370681 -43.03 0.0004565965    1.218    0.179
        23 -11.1345    191.3121     11.2588   3.4928301614e+02   3.6589150927e+01    0.4642423    0.2360482 -20.14  0.002307237    2.567    0.610
        24 -12.2494     48.6135     12.7179   1.5713815799e+01   7.0082349863e+01    0.7239063    0.2654734  52.16  0.002949845    2.450    0.592
        25 -11.5971    212.0675      9.6860   3.4766520628e+02   3.2528872254e+01    0.4189119    0.2500117 -19.64  0.001815587    2.172    0.540
        26 -10.9228    121.0238     11.1547   3.5612857771e+02   5.2974166511e+01    0.3791955    0.2408809 -72.36  0.001956802    1.613    0.380
        27 -11.7951     63.6718      9.9035   8.2000543430e+00   6.7097890074e+01    0.3568317     0.236497  51.34 0.0003582043    1.342    0.255
        28 -10.6473     62.5014      6.4949   6.7110402669e+00   6.7724840819e+01     0.299208    0.1811784  46.01  0.001162217    1.523    0.343
        29  -9.5580     98.9329     10.7183   3.5961425716e+02   5.8512189440e+01    0.1879292    0.1660413  81.14   0.00104237    1.014    0.014
        30 -10.9725    168.0959      9.4131   3.5050910335e+02   4.1876656475e+01    0.4652311    0.2070754  64.93  0.002136455    2.215    0.548
        31 -10.5187      1.3168      8.1965   4.6744970035e+01   7.8311093468e+01    0.3293663   0.09602982 -53.61  0.001345713    3.176    0.685
        32  -9.5947    145.2151      9.4295   3.5260727545e+02   4.7228644138e+01    0.1954585    0.1364381  45.38 0.0006391121    1.773    0.436
        33  -9.8899      5.6480      8.9897   4.2882100241e+01   7.7741883307e+01    0.1718483    0.1444659 -25.43 0.0007968915    1.106    0.096
        34 -11.8398    247.3257      5.0859   3.4511227718e+02   2.6577920713e+01    0.3216224    0.2610261 -87.96  0.002635264    1.406    0.289
        35 -11.1882    242.0227      2.0176   3.4471325155e+02   2.7791807155e+01    0.2290619    0.1312223 -49.94  0.001108605    1.212    0.175
        36 -12.0700    235.9802      4.8569   3.4551246300e+02   2.8565574913e+01    0.3100468    0.2646114 -20.78   0.00241672    1.595    0.373
        37 -11.5420    185.6382      6.7851   3.4854482853e+02   3.8258820708e+01    0.2321422    0.1993422  83.65 0.0009732527    1.265    0.209
        38 -10.8969    153.8773      6.6239   3.5092110660e+02   4.5444146096e+01    0.2153031    0.1924608 -61.76 0.0002721931    1.133    0.117
        39  -9.6485     77.9319      7.1878   2.6300018259e+00   6.4010074495e+01      0.20214    0.1641283 -85.01 0.0007290456    1.298    0.229
        40 -10.9141     41.0175      4.1008   1.3854543388e+01   7.2688963867e+01    0.3761338    0.2156076  32.85  0.001619307    1.841    0.457
        41 -10.7433    148.3030      5.4601   3.5107894273e+02   4.6875033915e+01    0.2362093    0.1073548  71.91 0.0009344206    1.989    0.497
        42 -10.1226    128.9745      4.7622   3.5285496024e+02   5.1619901392e+01    0.1828809    0.1598466  66.75  0.001154707    1.195    0.163
        43 -12.0574    134.0762      2.4920   3.5153047344e+02   5.0575802335e+01    0.6420007    0.2739484  79.61  0.002604523    2.151    0.535
        44 -11.3806      9.0345     19.4305   4.5817104595e+01   7.5426306588e+01    0.4663245    0.2539648  -6.02  0.001213982    2.412    0.585
        45 -11.2169    223.5589      2.4557   3.4553743709e+02   3.1067653608e+01    0.2456933    0.1845836  85.93 0.0009366436    1.416    0.294
        46 -10.8146    218.5357      3.2531   3.4592978830e+02   3.1935688300e+01     0.203348     0.181402 -62.72 0.0007415351    1.271    0.213
        47  -9.6267     70.9509      5.4858   3.6144937765e+00   6.5845187780e+01    0.2099061    0.1167431  63.91    0.0010341    1.595    0.373
        48 -11.3797    113.8467      2.2150   3.5381679581e+02   5.5584736994e+01    0.4781348    0.2416995  83.25  0.001461685    1.879    0.468
        49 -11.0691     16.5595     13.5154   3.6077830693e+01   7.5625840153e+01    0.3088192    0.2163782  -6.62   0.00100797    1.566    0.361
        50 -11.5246    206.7816      2.2936   3.4627334910e+02   3.4322072336e+01    0.4681084    0.1811602 -86.00  0.002278135    2.674    0.626
        51  -9.6336     74.7341      2.7773   1.2221220056e+00   6.5188035940e+01    0.3425533    0.1491394  77.04  0.001385731    2.618    0.618
        52 -10.0942      1.8648      1.9517   4.1954238239e+01   7.9375217815e+01    0.2192196    0.1415025 -24.54  0.001189214    1.515    0.340
        53 -11.7859     16.8662      9.8681   3.3436736440e+01   7.6193264090e+01    0.5663865     0.295855  47.89  0.001854871    2.440    0.590
        54  -9.9639     11.5143      1.9414   3.2256627431e+01   7.8192945680e+01    0.2492831    0.1571219  36.78  0.001446045    1.531    0.347
        55 -10.5467    210.3206      1.3435   3.4588957774e+02   3.3714748631e+01    0.1651354    0.1434223 -80.42 0.0006317511    1.257    0.205
        56 -10.1597    152.5056      1.4395   3.4949939511e+02   4.6252487129e+01    0.2399016    0.1098094  80.71 0.0006597397    1.993    0.498
        57 -11.9067     26.7990    105.8656   5.9949468927e+01   5.2607724392e+01    0.8371989    0.6657521 -41.49  0.004361842    1.301    0.232
        58 -11.1593    242.6020    247.2111   2.9193915517e+01  -4.5465366340e+00    0.1683734   0.09748919 -24.26  0.001271907    1.337    0.252
        59 -11.1198    246.5022    247.9823   2.8727501454e+01  -4.9456234775e+00    0.1893531    0.1551647 -56.19  0.001354346    3.251    0.692
        60 -11.6820     22.9671    114.0193   6.2771576620e+01   5.0703633384e+01    0.5808846    0.3259283   2.11  0.002313256    2.275    0.560
        61 -11.6446     27.3993    112.2462   6.0705468553e+01   5.0787166521e+01    0.4849397    0.3089055  37.79  0.001582926    1.582    0.368
        62 -10.8451      7.8536    114.2420   6.8938540834e+01   5.1783453382e+01    0.3418735    0.2805128 -52.70 0.0008410077    1.217    0.179
        63 -12.1077      2.7434    111.6797   7.0772088823e+01   5.2790380183e+01    0.5389928    0.3472296 -66.10  0.001956185    1.403    0.287
        64 -11.4928      2.9636    104.1849   6.9966554601e+01   5.4840668600e+01    0.5567033    0.3264948  37.44  0.001245294    1.759    0.432
        65 -10.1463     49.1052    111.8852   5.1920722397e+01   4.8401931939e+01    0.2624814    0.2183248  35.13 0.0007207009    1.225    0.183
        66  -9.6976     35.5212    112.5049   5.7443922884e+01   4.9879795721e+01    0.2779152    0.1146872  37.16  0.001033568    2.339    0.573
        67 -11.6891     79.3126    108.2496   3.9899975289e+01   4.4655984814e+01    0.6477515    0.4358498  11.75  0.002662488    2.113    0.527
        68 -10.2670     18.8436     86.3503   6.0174579235e+01   5.8637307051e+01    0.4823232    0.3780554 -66.56  0.002477722    1.185    0.156
        69 -11.8474     22.4023     94.9654   6.0046267454e+01   5.6001279140e+01    0.5745999     0.448234 -39.81  0.002241754    1.309    0.236
        70 -11.0511     15.7417    108.5583   6.5027991817e+01   5.2810828702e+01    0.4166711    0.4061377  29.11  0.002065019    1.110    0.099
        71 -11.2311     17.8005    101.7803   6.3205842773e+01   5.4522642151e+01    0.5582607    0.2929547 -82.30   0.00117472    1.943    0.485
        72 -10.4684     35.4098     92.1929   5.3579553000e+01   5.5417304802e+01    0.5014411    0.4405514 -80.25  0.002711994    1.139    0.122
        73 -10.4937     30.1565     87.6258   5.5010492311e+01   5.7219398254e+01     0.557115    0.2500849  12.05  0.001489196    2.918    0.657
        74 -10.9064     27.8816     84.2916   5.5369493202e+01   5.8342533961e+01    0.5517607    0.4052951  -5.06  0.001833216    1.573    0.364
        75 -10.7517    104.5925    108.1704   3.1767375013e+01   3.9914115825e+01    0.4767706    0.3441052  28.19  0.002167604    1.604    0.377
        76  -8.9213    139.7374    106.6738   2.2184975223e+01   3.3081987531e+01    0.1444011    0.1163364 -13.53 0.0004322049    1.563    0.360
        77  -9.7002     47.2215    102.0138   5.0623952660e+01   5.1313855214e+01    0.6368158    0.2173317 -47.21  0.002028033    3.114    0.679
        78 -10.7982     50.7396    100.4039   4.8818819813e+01   5.1261028335e+01    0.4527068    0.2862147 -46.06  0.001958012    1.612    0.379
        79 -10.5626     91.4355    102.5385   3.4369294688e+01   4.3823891341e+01    0.3821618    0.3252679 -19.33  0.001564894    1.388    0.280
        80  -9.8870     85.9600    103.2977   3.6376157612e+01   4.4679544440e+01    0.2161269    0.1987559  39.11 0.0004369489    1.112    0.101
        81  -9.2953    120.4971    101.4558   2.5555845823e+01   3.8188104759e+01    0.1505758    0.1466316 -53.73 0.0001896907    1.041    0.039
        82 -10.6876      8.3362     95.7471   6.6615541614e+01   5.6846941195e+01    0.3091621    0.2902279 -17.41  0.001839336    1.152    0.132
        83 -10.6340     12.3244     97.3245   6.5011070483e+01   5.6154161914e+01     0.307413    0.1762647 -52.27  0.001015242    1.634    0.388
        84  -9.4247    156.6356     98.8237   1.6585439347e+01   3.1150286633e+01    0.1975168    0.1239266 -50.46 0.0003641487    1.522    0.343
        85  -9.4142    136.2221     99.5807   2.1164238432e+01   3.5273844359e+01    0.1924062    0.1435452  37.62 0.0004822912    1.508    0.337
        86 -10.4035     29.8093     97.3174   5.7133645075e+01   5.4649051245e+01    0.5853226    0.1395991 -51.78  0.001740797    3.642    0.725
        87 -10.5312    210.3520     98.0777   7.6990669962e+00   2.0995445023e+01     0.192519    0.1731984 -73.82 0.0003091873    1.225    0.184
        88 -10.1215     81.7415     83.7824   3.2332218361e+01   5.0140088090e+01    0.4682713     0.326196  17.04  0.001998269    1.998    0.499
        89 -10.1934     77.1408     96.5314   3.7642163045e+01   4.7970251230e+01    0.2900737    0.2113558  41.68 0.0005441842    1.380    0.275
        90 -11.6137     78.5679     92.2640   3.5950167872e+01   4.8747328851e+01    0.8089441    0.6394948 -71.59  0.003899565    1.381    0.276
        91 -11.4641     75.0151     78.9876   3.3299846376e+01   5.2552247526e+01    0.6316761    0.4423622  61.82  0.001925824    1.696    0.410
        92 -10.2531     76.5198     75.1773   3.1518224517e+01   5.3123463123e+01    0.3331605    0.2375355  70.88  0.001472467    1.838    0.456
        93 -12.1317     68.1973     95.2558   4.0613738916e+01   4.9868045365e+01    0.5244073    0.3979369  21.85  0.000780742    1.483    0.326
        94 -10.5282     59.4730     97.0416   4.4480387188e+01   5.0843671024e+01    0.2787972    0.2125047  11.90 0.0005327617    1.554    0.357
        95 -10.3891     43.1248     94.3741   5.0650277587e+01   5.3889531986e+01    0.3771952    0.2698121  36.56  0.001814805    1.421    0.296
        96 -10.7425     15.7573     94.3883   6.3006175276e+01   5.6707473051e+01    0.3291116    0.2106666  58.40  0.001544625    1.736    0.424
        97  -9.8542    125.8510     93.8448   2.2115039458e+01   3.8671546196e+01    0.2090874    0.2043404   7.60 0.0003050377    1.131    0.116
        98 -10.7543     98.3744     90.7100   2.8880552118e+01   4.5192873731e+01    0.2708325    0.2606116  57.71 0.0003583157    1.049    0.047
        99 -11.1959     52.2725     87.2402   4.4920839234e+01   5.4464591316e+01    0.3414144    0.2153239 -49.77 0.0005085594    1.546    0.353
       100  -9.3458     43.8959     90.3319   4.9360121173e+01   5.4853527505e+01    0.1936488    0.1862876   8.44 0.0003288293    1.085    0.078
       101 -11.5984      5.7923     88.0459   6.6789133984e+01   5.9090101148e+01    0.6510051    0.3634591  15.73  0.002496789    1.931    0.482
       102 -10.9808      2.4536     80.5232   6.7414806762e+01   6.1285099462e+01    0.6782897     0.324319  83.55  0.002761881    2.451    0.592
       103 -10.7933      2.2137     71.0339   6.6125504545e+01   6.3800164771e+01    0.4222424    0.2224644 -67.87   0.00138846    1.667    0.400
       104 -13.3050      5.8969     61.1495   6.2183900105e+01   6.6143439547e+01    0.8263463    0.5154861 -21.67  0.004147554    1.708    0.415
       105  -9.8764    104.6598     86.8836   2.5861636076e+01   4.4715278821e+01    0.2516489    0.2130643  35.12 0.0004717602    1.280    0.219
       106 -10.2511     90.2241     85.6195   2.9985787017e+01   4.8018647470e+01    0.3704641    0.2556975 -75.70  0.001569394    1.942    0.485
       107  -9.7784    118.5484     85.6599   2.1655149453e+01   4.1955599005e+01     0.282858     0.146218 -40.81 0.0008447432    1.963    0.491
       108  -9.4372     38.3304     77.6790   4.8694459346e+01   5.8847205004e+01    0.2947626    0.1605682  66.09  0.001026082    3.248    0.692
       109 -11.4280     44.9132     84.4207   4.7415948234e+01   5.6247903527e+01     0.446418    0.3993259 -15.02  0.001436688    1.198    0.165
       110  -9.2903     41.7079     80.3378   4.7806085786e+01   5.7727537506e+01    0.2193209    0.1329006  87.38    0.0007482    2.605    0.616
       111 -12.3952     60.9153     83.4281   4.0212240725e+01   5.4041284412e+01    0.3159927    0.2982787  68.38 0.0003677131    1.094    0.086
       112 -10.4253     58.3113     77.9837   3.9683445529e+01   5.5801210351e+01     0.325446    0.2149988 -58.98 0.0008198475    1.544    0.352
       113  -9.8145     37.0375     85.5415   5.1311314300e+01   5.6982336673e+01     0.222324     0.144579  27.37  0.001025857    1.584    0.369
       114  -9.5410    143.4117     84.2330   1.5427691737e+01   3.6739232635e+01    0.1951976    0.1307365 -51.46 0.0003930749    1.438    0.305
       115  -9.4242     72.4941     83.9519   3.5777110811e+01   5.1868126190e+01    0.2226588    0.1493268 -53.05 0.0003594374    1.480    0.324
       116  -8.9125    127.7045     83.3006   1.8682254194e+01   4.0402422507e+01    0.1510548    0.1143395 -78.71 0.0002166002    1.574    0.364
       117 -10.2811    112.9076     82.6149   2.2256358451e+01   4.3825724419e+01    0.3705881    0.2774181  63.83  0.001735153    1.431    0.301
       118 -10.3183     67.3044     81.3735   3.7014402816e+01   5.3427753913e+01    0.3411246    0.2759025  -6.52  0.001649671    1.545    0.353
       119 -12.8093    247.1869     75.5268   3.5900132734e+02   1.8215696021e+01    0.5223601    0.2633142 -45.37  0.003095613    1.487    0.327
       120  -9.8586     47.1105     74.7460   4.3696455379e+01   5.8360781783e+01    0.4477468    0.2222823 -34.77  0.001621675    2.739    0.635
       121  -9.4743    118.9602     78.2780   1.9356204189e+01   4.3352405923e+01    0.2015508    0.1894217 -84.00 0.0002656218    1.031    0.030
       122 -10.5937     89.1555     77.1118   2.7698460497e+01   5.0124539708e+01    0.5236634    0.2721782  47.48  0.001922017    1.930    0.482
       123 -10.5774     94.5315     75.4412   2.5415973524e+01   4.9339322847e+01     0.432458    0.3020356 -65.98  0.001462057    1.695    0.410
       124  -8.9778    158.7516     75.9988   1.0222537461e+01   3.4848062249e+01    0.1675961    0.1125548 -41.84 0.0002600824    1.380    0.276
       125 -11.1185     14.1171     74.2390   6.0237519469e+01   6.2221820522e+01    0.4771675    0.3050153 -82.89  0.001940088    1.663    0.399
       126 -11.6669     27.7161     73.3252   5.2856132174e+01   6.1211471923e+01    0.3884725    0.2981419   2.16 0.0002108049    1.432    0.302
       127 -10.5871     34.7445     71.2944   4.8701691753e+01   6.0907581022e+01    0.4158214    0.2401968  34.26  0.001186849    1.746    0.427
       128 -10.3393     40.7413     72.8472   4.6166646929e+01   5.9737755149e+01    0.3506916    0.2713349   7.92 0.0008315823    1.448    0.310
       129 -10.7544     40.2329     68.8019   4.5202984618e+01   6.0798709133e+01    0.3128148    0.2498139  37.24  0.001097941    1.281    0.220
       130 -11.0621     53.2125     76.0539   4.1316204472e+01   5.7101161680e+01    0.5720319    0.4145425  61.21  0.002684204    1.664    0.399
       131  -9.7770    103.2303     74.1323   2.2351576799e+01   4.7706176599e+01    0.2928247    0.1991986  79.43   0.00123039    2.050    0.512
       132  -9.8993     80.9121     71.4276   2.8676215462e+01   5.3063284949e+01     0.311859    0.2012286 -29.36  0.001315533    1.984    0.496
       133 -11.6648    122.7154     68.4910   1.5420207561e+01   4.4360268113e+01    0.4063205    0.2777587  45.01  0.000904588    1.581    0.368
       134  -9.8010     15.5901     67.1304   5.7883756355e+01   6.3941065033e+01    0.2954901    0.1708594  18.33  0.001105093    1.811    0.448
       135 -10.2786    219.4754     67.1371   3.5987594548e+02   2.4014975996e+01    0.3389502    0.1484407  64.53  0.001683922    2.717    0.632
       136 -10.8657    106.4127     58.3413   1.6194375802e+01   4.9999019689e+01    0.3663727    0.2636002 -72.93 0.0009693467    1.692    0.409
       137 -10.7250    101.9629     66.8626   2.0337488254e+01   4.9433656147e+01    0.2549578    0.2467739  10.45 0.0003796787    1.151    0.131
       138 -10.7724    105.4955     63.5385   1.8219598035e+01   4.9260888221e+01    0.3200051    0.2644068  26.47 0.0009932886    1.467    0.318
       139  -9.7507    201.8808     63.6288   9.6267811493e-01   2.7816365953e+01     0.227216    0.1557346 -32.22  0.001300328    1.438    0.305
       140 -10.7590     50.9721     56.4979   3.5713008290e+01   6.1971474010e+01    0.7948005    0.2015186 -50.64  0.002375109    3.944    0.746
       141 -11.7296     39.6284     56.5381   4.1429697178e+01   6.3765423984e+01    0.3545493    0.2402157  35.85 0.0007760812    1.480    0.324
       142 -11.6011     43.4356     60.4117   4.0841497960e+01   6.2315033188e+01    0.5198081    0.2515163 -54.58 0.0009317563    2.057    0.514
       143 -11.4183     46.4549     59.4997   3.9012484473e+01   6.2053007890e+01    0.4845307    0.2947988  52.87  0.001812413    2.002    0.500
       144 -10.9773     92.7054     62.5611   2.1652741491e+01   5.2348055268e+01    0.4066176    0.2612515  67.36 0.0009219787    1.894    0.472
       145 -10.0181     58.2692     62.2970   3.4498055108e+01   5.9428289502e+01     0.292776    0.2465576  79.27  0.001514458    1.434    0.303
       146  -9.7309    159.4567     62.5044   6.4140494415e+00   3.6931166360e+01     0.237136    0.1195198  49.81  0.001020809    2.258    0.557
       147  -9.7939    150.8716     60.8898   7.3943010959e+00   3.9140378849e+01    0.1961236    0.1894562 -26.94 0.0004815405    1.207    0.171
       148 -12.3626    127.1760     28.4893   1.2756327738e+00   4.9497726026e+01    0.8442914    0.3926136  72.80  0.001865653    2.168    0.539
       149 -10.8389    121.7690     56.6946   1.1859483781e+01   4.6660633930e+01    0.9751906    0.7268492  52.25  0.002359758    1.369    0.270
       150 -11.1821    109.9320     39.7855   8.6935601588e+00   5.2190674133e+01    0.6340776    0.4751493 -36.82  0.002134606    1.394    0.283
       151 -10.3405    112.3521     50.2067   1.1855317182e+01   4.9984808407e+01    0.3432925    0.2884704  -9.86  0.001057051    1.503    0.335
       152  -9.8259    218.9764    248.9710   3.3078639872e+01  -2.7495318010e+00    0.1729677   0.09404717  -9.22 0.0008774268    1.684    0.406
       153 -11.2332    116.9891     47.6670   9.8958672158e+00   4.9277340616e+01    0.4928207    0.4097736  12.43  0.001612758    1.604    0.376
       154 -10.8399    116.5147     43.4929   8.5479365338e+00   5.0036304461e+01    0.3302198    0.2772354  59.60  0.001061339    1.176    0.149
       155  -9.9174    113.5720     60.3204   1.5011422650e+01   4.7969813599e+01    0.2645284    0.2031419 -61.20 0.0009130499    1.356    0.262
       156  -9.3266    239.3299    250.3158   3.0103668454e+01  -4.6320452344e+00    0.1054315   0.05515363  -8.88 0.0005400482    1.680    0.405
       157  -9.7580     26.1939     59.3741   4.9767744452e+01   6.4842930684e+01    0.3369993    0.2278566  20.16  0.001342364    1.530    0.346
       158 -11.1936     24.2286     56.2711   4.9933784012e+01   6.5803924316e+01    0.5965084    0.3482606  10.78  0.002736137    1.964    0.491
       159  -9.9927     88.2621     49.0725   1.8077005558e+01   5.5837531005e+01    0.3446701    0.2390481 -25.64   0.00162424    1.740    0.425
       160  -9.7396     29.5040     60.4749   4.8250672366e+01   6.4194857040e+01    0.3506199    0.1923012 -55.95   0.00119152    1.723    0.420
       161 -10.5979     88.0963     55.2615   2.0479399910e+01   5.4761964676e+01    0.5435135     0.204992 -33.87  0.001736033    3.524    0.716
       162  -9.4357    238.3184     55.6912   3.5575590411e+02   2.2274725898e+01    0.1220701   0.06649572 -57.33 0.0007032551    1.638    0.389
       163 -10.0944     66.5903     88.4569   3.9370794985e+01   5.1836726388e+01    0.3391002    0.2234687 -19.76  0.000869997    2.315    0.568
       164 -10.1852    156.7567     53.8156   4.4008285572e+00   3.8894919123e+01    0.3731722    0.2092077  89.58  0.001579095    2.428    0.588
       165 -10.0215    155.4007     48.3178   3.0306720167e+00   4.0024157549e+01    0.3689255    0.1743661 -22.82  0.001385641    3.170    0.685
       166 -11.1705     31.6613     52.9047   4.4491051344e+01   6.5696672562e+01      0.46852    0.2746093   9.60  0.002044905    2.190    0.543
       167 -11.7168    243.4116     51.2245   3.5445915641e+02   2.1993351270e+01    0.3892221    0.1888384 -81.24   0.00143105    2.978    0.664
       168 -10.1351     55.5126     50.0747   3.1058112543e+01   6.2507417102e+01    0.3098143    0.2144542  -8.85  0.001241966    2.138    0.532
       169 -10.6585     59.8091     50.2227   2.9187560772e+01   6.1667004606e+01    0.5534549    0.3763505 -69.16  0.002497965    2.080    0.519
       170 -10.3949     61.5295     46.4763   2.6887275939e+01   6.2057019038e+01    0.3953301     0.245197 -27.10  0.001748086    2.046    0.511
       171  -9.4218    202.2080     52.5566   3.5832730329e+02   2.9313438938e+01    0.1551403    0.1149077  57.27 0.0008545408    1.630    0.386
       172  -9.8891    146.3561     47.9899   4.3555042104e+00   4.2187129873e+01    0.3256211    0.1862598  -7.98  0.001123642    4.153    0.759
       173  -9.0682    137.3236     49.3335   6.3315292569e+00   4.4129135787e+01     0.139396    0.1111539  25.93 0.0007050657    1.708    0.414
       174 -12.4663     41.6259     44.2356   3.5528680960e+01   6.6109998505e+01     1.147506      0.39141  38.38  0.003507803    2.846    0.649
       175 -10.2460     28.5653     46.2737   4.3836756798e+01   6.7584943901e+01    0.2778803    0.2157091 -27.09 0.0006507108    1.307    0.235
       176 -10.9186     26.3367     43.0105   4.3922880053e+01   6.8583214188e+01    0.3394552    0.2950784  67.93  0.001298061    1.432    0.302
       177  -9.6857      2.4637     48.7978   6.1581683203e+01   6.9399204236e+01    0.2039747     0.150084  -3.24 0.0005691383    1.397    0.284
       178 -10.0745     23.2809     37.1732   4.3472678367e+01   7.0214036034e+01    0.4794554    0.2528801  43.45  0.001972545    2.185    0.542
       179 -10.3512     13.3372     46.4113   5.3595181945e+01   6.9200970343e+01    0.3982442     0.189702 -35.20  0.001710089    2.253    0.556
       180 -10.6902     18.1967     40.5222   4.8251077616e+01   7.0073925741e+01    0.2993092    0.2082089 -35.15  0.001064115    1.392    0.282
       181 -10.3984     20.5969     45.6767   4.8585396440e+01   6.8662753382e+01    0.2529806    0.2037742 -19.93 0.0005971048    1.230    0.187
       182  -8.9481    197.5207     43.5356   3.5664661534e+02   3.1469084776e+01    0.1288756    0.1018284 -58.43 0.0004004025    1.033    0.032
       183 -10.0279    155.9351     42.3091   1.2108188200e+00   4.0754640323e+01    0.2496532    0.1946325 -33.58 0.0008189241    1.351    0.260
       184 -10.5039    144.9703     43.0443   3.0779305340e+00   4.3232505608e+01    0.2199879    0.1691318  29.63  0.001141183    1.805    0.446
       185 -10.2664     56.8953     41.8825   2.6942414630e+01   6.3828419556e+01    0.2796607     0.188427  47.51 0.0007528125    1.462    0.316
       186 -11.1790    249.5219     38.6488   3.5154748826e+02   2.2522281440e+01    0.2370119    0.1413136 -60.20  0.000561061    1.412    0.292
       187 -10.7153     78.7027     37.3480   1.6405547786e+01   5.9970342847e+01     0.477498     0.306801 -79.15  0.001850458    2.659    0.624
       188 -10.8866     78.6966     34.1837   1.5034220286e+01   6.0463772402e+01     0.550058    0.3638879  28.03  0.002551307    1.960    0.490
       189 -11.0489      3.6518     36.4276   5.7265921007e+01   7.2242967613e+01    0.4648036    0.3367513 -51.16   0.00170313    1.244    0.196
       190 -10.5846    228.6139     37.0058   3.5258610113e+02   2.6314646667e+01    0.2730491    0.1401569  59.56  0.001558884    2.426    0.588
       191 -10.8261     81.6935     47.8440   1.9741274491e+01   5.7536198409e+01    0.5885556    0.4214304  24.25  0.002771515    1.814    0.449
       192 -10.0729     60.5086     36.9444   2.3122918472e+01   6.3985587689e+01    0.2633198    0.2223649 -37.63 0.0006614684    1.238    0.192
       193 -10.6882     63.1749     33.4111   2.0367418628e+01   6.4018523246e+01    0.5100279    0.1891183  45.73  0.001237853    2.562    0.610
       194 -10.6436    153.1833     35.7005   3.5965267439e+02   4.2292146038e+01    0.2282644    0.2100509 -77.29  0.000437102    1.091    0.083
       195 -10.2720    175.8367     34.4559   3.5656470116e+02   3.7266876337e+01    0.2987835    0.1718201 -67.28 0.0009446506    1.753    0.430
       196 -11.7619    125.7177    240.4874   4.9478883005e+01   8.1719397508e+00    0.3338216    0.1982449  27.60  0.001942371    1.403    0.287
       197 -10.8201     72.8699    237.8817   6.1011858104e+01   1.4698286528e+01    0.3237219    0.1938249   0.98  0.001563785    2.262    0.558
       198 -11.7320    107.3403     31.0753   6.0196435603e+00   5.4051302271e+01    0.6172341    0.3527398  38.39  0.002687958    2.259    0.557
       199 -12.3867    112.7685     25.0891   2.6406395627e+00   5.3478706391e+01    0.7248549    0.3232788  60.17  0.003111265    2.024    0.506
       200 -10.3979    146.5999    237.4052   4.4737444402e+01   6.2728017906e+00    0.2005506    0.1170076 -68.23  0.000958083    3.470    0.712
       201 -11.1977    240.1980     32.3909   3.5086970219e+02   2.4823231434e+01    0.2295869    0.1996078 -16.92  0.001419324    1.577    0.366
       202  -9.9490    233.6675    234.6754   2.8779864675e+01  -2.3180243994e+00    0.1104515   0.05973968  -9.79 0.0007050794    1.708    0.414
       203 -10.6340    169.3807     23.2685   3.5420580334e+02   4.0077433781e+01    0.2455589    0.2081702 -54.89   0.00102427    1.106    0.096
       204  -9.2750    216.9849     32.0145   3.5233361152e+02   2.9073206339e+01     0.144401    0.1090647 -54.01 0.0003431316    1.020    0.019
       205  -9.1821    199.6721    234.6499   3.4315410292e+01   9.1567693671e-01    0.1193283   0.06785026  -9.56 0.0007048543    1.762    0.433
       206 -11.1472     47.8840     30.4328   2.5814970992e+01   6.7592365007e+01    0.6997072    0.2693284  38.23  0.002644518    2.730    0.634
       207 -10.6956      9.7086     30.3173   5.0339543938e+01   7.3126814945e+01    0.4163708    0.3137069  13.79  0.002275371    1.305    0.233
       208 -10.3072    177.5627     29.0164   3.5494471543e+02   3.7560687812e+01    0.2947624    0.1863598 -31.24  0.001619295    1.616    0.381
       209 -10.7714    170.9472     30.0656   3.5590532055e+02   3.8909782290e+01    0.3526644    0.1704885  84.61  0.001605541    2.293    0.564
       210 -11.7745     26.4452     27.4066   3.6737804207e+01   7.1742462385e+01    0.4772523    0.3358401 -55.96  0.001808571    1.646    0.393
       211  -9.3500     15.4846    233.5462   7.4054343969e+01   2.1317743875e+01    0.1205691   0.09701069  46.93 0.0001442955    1.027    0.027
       212 -10.4115    189.1009     27.4801   3.5347976683e+02   3.5241984245e+01    0.2606167    0.1998147  42.96  0.001579027    1.825    0.452
       213 -10.7781    183.4449     26.2429   3.5366693120e+02   3.6604696070e+01    0.3824064    0.1490607 -44.68  0.001770371    2.074    0.518
       214 -10.8109    143.1359     25.3142   3.5783764906e+02   4.5993918166e+01    0.4062234    0.1804896  70.26  0.001780729    2.134    0.531
       215 -10.8785    131.6860    240.5540   4.8222099279e+01   7.4734825357e+00    0.2299784    0.1022402  23.01  0.001123131    2.021    0.505
       216  -9.6822    151.3430     27.2959   3.5738183531e+02   4.3790767253e+01    0.2064748    0.1797384  65.27 0.0008955402    1.248    0.199
       217  -9.4348     23.5405    231.5322   7.2103697309e+01   2.1012854251e+01    0.1229708   0.09894735  46.90 0.0003194119    1.007    0.007
       218  -9.8947     97.0043     25.9285   6.3502841371e+00   5.7259731584e+01    0.2201497    0.1965598  74.76  0.001289144    1.033    0.032
       219  -9.8405    206.1786     25.2512   3.5158410495e+02   3.1980628568e+01    0.1638893    0.1402364 -63.24 0.0004610514    1.128    0.114
       220 -10.5693     46.4217     24.0346   2.3205138441e+01   6.8917371504e+01    0.3393742    0.2360781  22.37 0.0007003109    1.637    0.389
       221  -9.9191     46.6216     19.8142   2.0773246423e+01   6.9518089808e+01    0.2093923    0.1871836 -79.01 0.0009277165    1.414    0.293
       222 -10.6113    247.4803    230.4311   2.6119015370e+01  -3.0094223417e+00    0.2377318   0.08459579  23.13  0.001321171    2.996    0.666
       223 -10.5174    177.0327     22.0062   3.5314113765e+02   3.8505909943e+01    0.2825713    0.2022738 -30.67  0.001016397    1.481    0.325
       224 -10.9097    181.6143     19.0914   3.5198191520e+02   3.7826888343e+01     0.390668    0.1933152  59.16  0.001364569    2.254    0.556
       225  -9.4547     10.2986    217.6709   7.4654292150e+01   2.5126694903e+01    0.1364449   0.06933006  53.91 0.0007029052    1.639    0.390
       226 -10.9551      5.5119    200.9786   7.5192865284e+01   2.9290176460e+01    0.2514723    0.1001912 -70.77  0.001124603    2.518    0.603
       227  -9.4462    233.6220    196.1765   2.2915708034e+01   2.6923878855e+00    0.1621492   0.08000913 -29.16 0.0007374179    1.671    0.402
       228 -10.7212     68.6941     20.6396   1.2081227517e+01   6.4666404237e+01    0.3457899    0.2485925 -52.88  0.001823918    1.619    0.383
       229  -9.0609    135.3171    196.3294   4.1381270453e+01   1.4997295166e+01    0.1388899   0.09636214 -12.65 0.0007046468    1.682    0.405
       230 -11.3143    230.0155     26.8405   3.5034576741e+02   2.7262151836e+01    0.2226395    0.2120926  -4.44 0.0009527681    1.531    0.347
       231 -11.5015      6.0660    185.7395   7.4398515672e+01   3.2894919587e+01    0.5141127    0.1878549  34.11  0.002237005    2.218    0.549
       232  -9.5418     53.2447     21.5769   1.8640999701e+01   6.7915467129e+01    0.1933999    0.1154022  40.74  0.000831905    1.607    0.378
       233  -8.8831     34.6895    180.2807   6.5928482001e+01   3.1716856418e+01    0.1474131   0.08925889  54.96 0.0002376712    1.565    0.361
       234  -9.5218    216.5392     19.9976   3.4969911080e+02   3.0549179554e+01    0.1718942   0.09447262 -37.05 0.0004467974    1.538    0.350
       235  -9.9519     50.9852    171.5498   6.0257912667e+01   3.2153961122e+01    0.3829376    0.1709228  88.98  0.001304566    3.367    0.703
       236  -9.6523     74.9586     19.0636   9.2659138221e+00   6.3415996277e+01    0.2242387    0.1503624  31.57 0.0007877101    1.743    0.426
       237  -9.3766     39.6592    173.3215   6.3832401528e+01   3.2968535310e+01    0.1576206   0.09136269  56.73 0.0006501212    1.721    0.419
       238 -11.3607      9.4920    166.6436   7.2412976809e+01   3.7462132309e+01    0.2753513    0.2267764 -33.34  0.001226491    1.470    0.320
       239 -12.2219     13.2504    160.1854   7.0839189413e+01   3.8863999055e+01    0.4795926    0.3288164 -41.86  0.002453519    1.722    0.419
       240 -11.6176    228.5523     15.5093   3.4804845589e+02   2.8790906291e+01    0.2518071    0.1807372  87.06  0.001449188    1.458    0.314
       241  -9.9127    205.0298    163.1708   2.1698894558e+01   1.1136429382e+01    0.2195987    0.1523121 -35.00 0.0007424913    1.224    0.183
       242  -9.7628    147.7386     28.2094   3.5812428264e+02   4.4537575145e+01    0.2390484    0.1824135  78.95  0.000578785    1.236    0.191
       243  -9.4652    214.8129    161.2047   1.9756945246e+01   1.0123489022e+01    0.1671658    0.1208096 -17.64 0.0005798436    1.297    0.229
       244  -9.8334    111.7661     14.6204   3.5885934444e+02   5.4920516468e+01     0.188567    0.1175198  83.57  0.000390672    1.576    0.366
       245 -10.3757     28.5190    160.5055   6.6041494709e+01   3.7446074411e+01    0.2586372    0.1262727  86.36 0.0009674428    2.289    0.563
       246  -9.5174    195.9440     14.0000   3.4964013308e+02   3.5327022650e+01    0.1802709   0.06255718  77.27 0.0007958123    2.897    0.655
       247  -9.6015    155.7263     13.4272   3.5275724954e+02   4.4323220381e+01    0.1779946    0.1077699  65.96 0.0009496251    1.627    0.385
       248 -10.5071    104.4410    154.1871   4.1948315564e+01   2.8899439055e+01    0.3135888    0.2853075 -63.24  0.001704478    1.128    0.114
       249 -10.3028     18.2919    165.0104   6.9614319573e+01   3.7180811370e+01     0.247671     0.190311 -29.12  0.001324784    1.608    0.378
       250 -10.1017     55.1629    153.1548   5.6642200705e+01   3.6444344040e+01      0.34065    0.1347482 -47.53  0.001175949    2.887    0.654
       251 -11.2147     16.4433    147.6877   6.8847643753e+01   4.1957953631e+01    0.6359274    0.1641377 -78.73  0.001954395    3.779    0.735
       252 -11.6453     21.2226    150.5464   6.7499348380e+01   4.0783245088e+01    0.4199835    0.2773223 -31.19 0.0003835825    1.902    0.474
       253 -11.4781     24.3372    147.5164   6.6171514571e+01   4.1328582452e+01    0.3838236    0.2506445 -54.70  0.001189968    1.573    0.364
       254 -10.4803      4.2459    153.3984   7.3265954823e+01   4.1322918267e+01    0.1987337    0.1114292  35.15 0.0009536393    1.680    0.405
       255 -10.8307     47.1682    145.5117   5.8210675734e+01   3.9475930034e+01    0.4960267    0.2767927 -55.18  0.001732968    1.780    0.438
       256 -11.8103      4.0465    142.1907   7.2635266902e+01   4.4346337713e+01    0.6561764    0.3395437  39.51  0.002933291    1.823    0.452
       257 -10.8853     32.9352    143.8353   6.2844123915e+01   4.1506474947e+01    0.2964228    0.2688594  60.07 0.0006285584    1.055    0.052
       258  -8.9857    105.4583    142.5038   3.9389113968e+01   3.1532853703e+01    0.1488786     0.146426  83.62 0.0002646582    1.027    0.026
       259 -11.4372     13.8743    141.1978   6.9176184384e+01   4.3927081609e+01    0.3477519    0.2158049  -0.91  0.001614956    2.020    0.505
       260 -11.5738     12.1157    135.5259   6.9307886848e+01   4.5613326738e+01    0.6190761    0.2637237 -52.96  0.002471226    2.365    0.577
       261 -10.5064     40.3476    137.4821   5.9451631792e+01   4.2454368436e+01    0.2985454    0.2212735  71.31 0.0004750392    1.397    0.284
       262 -11.0520     25.4506    136.0648   6.4579503709e+01   4.4365554752e+01     0.337786    0.2804758  43.91  0.001828798    1.191    0.160
       263 -10.6210     30.2523    132.6212   6.2430545032e+01   4.4859581479e+01    0.3419372    0.2683383 -35.23 0.0008538195    1.440    0.306
       264  -9.6070     26.2883    131.3151   6.3721809704e+01   4.5600984294e+01    0.2053856    0.1887472  51.05 0.0004223241    1.091    0.084
       265 -10.2014     20.6085    133.8671   6.6086459774e+01   4.5400007084e+01    0.2359904    0.2054902  -9.38 0.0008732959    1.327    0.246
       266  -9.8972     39.7938    133.1976   5.9046379618e+01   4.3693661215e+01    0.2014129    0.1706379 -27.53 0.0004204871    1.347    0.258
       267  -9.1179     93.4924    129.4885   4.0179261408e+01   3.6808547617e+01    0.1521109    0.1500147 -77.85 0.0001678071    1.012    0.012
       268 -11.0082     10.9854    125.5306   6.8815928536e+01   4.8451087224e+01    0.6717507    0.2511628 -47.05  0.002429592    2.922    0.658
       269  -9.2173     26.5537    127.4443   6.3146025226e+01   4.6649126487e+01     0.145218    0.1354809 -86.70 4.730141e-05    1.017    0.017
       270  -9.3620     33.3037    125.6309   6.0358416511e+01   4.6485802737e+01    0.1630344     0.102525  63.74 0.0007033789    1.748    0.428
       271  -9.7905      1.9281    124.6930   7.2164576936e+01   4.9252932124e+01    0.1965858    0.1781351  70.59  0.001161168    1.062    0.059
       272 -10.8428    104.2005    122.5100   3.5397805390e+01   3.6582394091e+01    0.3422079    0.2847314  40.74  0.001450617    1.219    0.180
       273  -9.6301     78.5573    122.8664   4.3530053360e+01   4.1043830270e+01    0.2381241    0.1483001 -56.41  0.001016096    1.573    0.364
       274  -9.9703     49.1695    122.4512   5.3882387718e+01   4.5516258921e+01    0.2759756    0.1545661  20.76 0.0007953704    1.999    0.500
       275 -10.5787     43.8929    117.0313   5.4922050137e+01   4.7662403916e+01    0.5135766    0.2779366 -77.87  0.002050162    2.038    0.509
       276 -10.4400     79.0961    114.7201   4.1521686403e+01   4.3048589541e+01    0.2997849    0.2736428   3.79 0.0006381956    1.224    0.183
       277  -9.8208     58.5860    115.2266   4.8973989977e+01   4.6182332235e+01    0.2137419    0.1373113 -52.30  0.000476771    1.527    0.345
       278 -11.0872     35.2709    102.9210   5.5822294696e+01   5.2536166053e+01    0.4190049    0.2519046  -2.66 0.0003181665    2.293    0.564
