#   1 NUMBER                 Running object number                                     
#   2 MAG_AUTO               Kron-like elliptical aperture magnitude                    [mag]
#   3 X_IMAGE                Object position along x                                    [pixel]
#   4 Y_IMAGE                Object position along y                                    [pixel]
#   5 X_WORLD                Barycenter position along world x axis                     [deg]
#   6 Y_WORLD                Barycenter position along world y axis                     [deg]
#   7 A_WORLD                Profile RMS along major axis (world units)                 [deg]
#   8 B_WORLD                Profile RMS along minor axis (world units)                 [deg]
#   9 THETA_WORLD            Position angle (CCW/world-x)                               [deg]
#  10 FWHM_WORLD             FWHM assuming a gaussian core                              [deg]
#  11 ELONGATION             A_IMAGE/B_IMAGE                                           
#  12 ELLIPTICITY            1 - B_IMAGE/A_IMAGE                                       
         1 -11.1803     79.0337     31.2533   7.5702889049e+01   6.0536469302e+01    0.5746756    0.3467687   1.50  0.002396278    2.566    0.610
         2 -11.2256    177.3659     30.2287   5.2334415916e+01   3.6960127955e+01    0.5057187    0.2550897 -33.58  0.002092661    1.873    0.466
         3 -11.7724     60.3912     23.6094   7.9117171644e+01   6.5070691347e+01    0.8647957    0.4363647 -42.15  0.004068472    1.950    0.487
         4 -10.6004     66.3094     13.4334   7.1615407609e+01   6.5534404156e+01    0.3702554    0.2297982  30.00  0.001313427    1.657    0.396
         5 -11.0778     77.4146     10.7331   6.6295016756e+01   6.3740273855e+01    0.4604473    0.2134276 -24.74  0.001301649    2.063    0.515
         6 -12.0637     81.3768      6.6537   6.2923763439e+01   6.3389110489e+01    0.5262808    0.3588898  22.33  0.002827935    1.454    0.312
         7 -11.6974     74.0574      7.1657   6.5532371101e+01   6.4826978164e+01     0.320616    0.2191482 -13.76 0.0003186201    1.375    0.273
         8 -11.2399     75.2701     16.0655   6.9747204419e+01   6.3493894783e+01    0.3650103    0.2631517  44.57  0.002025247    1.433    0.302
         9 -11.2812     70.5459     14.4535   7.0590431592e+01   6.4612411929e+01    0.4463764    0.2242683 -20.50  0.001755102    2.053    0.513
        10 -10.1591     24.6288     26.7918   9.7073833098e+01   6.9174881815e+01    0.9989311    0.1848287 -53.61  0.002994891    5.238    0.809
        11 -10.5541     18.9852     16.0091   9.5216056905e+01   7.1723920304e+01    0.3418576    0.2701915   0.44  0.001177594    1.322    0.244
        12 -12.2849     84.8650     20.2211   6.8601322750e+01   6.1017205803e+01    0.5131492    0.4173231 -46.60 0.0009690321    1.448    0.309
        13 -11.4454      4.8257     18.5516   1.0436435140e+02   7.2334508963e+01    0.3985969    0.2878699  35.41  0.002243878    1.877    0.467
        14 -10.1273     55.0813     13.5664   7.6151685852e+01   6.7463601145e+01    0.3045218    0.1571601 -40.02   0.00098853    1.955    0.489
        15 -10.3688     58.4900     10.4007   7.3021426782e+01   6.7326742997e+01    0.3192317    0.2006275  37.34 0.0006005918    1.608    0.378
        16 -11.4174    235.5511     10.1591   4.0237497845e+01   2.4584134758e+01    0.3489288    0.2384467  15.43  0.001378917    2.148    0.535
        17 -10.0032    158.3609     13.4240   4.9421065518e+01   4.3910508019e+01     0.319696      0.12936 -43.32  0.001176615    2.609    0.617
        18 -10.6513    100.2642     12.8083   6.0619527470e+01   5.8574914426e+01    0.3228286    0.2286424  -9.57  0.000933037    1.422    0.297
        19 -11.1678     26.6886     13.9376   8.9967459912e+01   7.1310151532e+01    0.2089745    0.1506574 -18.87 0.0003424119    1.222    0.182
        20 -10.1603     30.7083     13.0277   8.7359085208e+01   7.1003456258e+01    0.2178508    0.1584146 -16.27 0.0004031722    1.217    0.178
        21 -11.7161    117.0019      8.6593   5.4825876478e+01   5.5027890387e+01     0.614915    0.2865079 -34.45  0.001794084    2.179    0.541
        22 -10.2336    138.3964     12.1030   5.2137928696e+01   4.9277575026e+01    0.2591116    0.2042338  79.60 0.0005127639    1.342    0.255
        23 -10.1257    133.0195     11.2276   5.2755362768e+01   5.0749660979e+01    0.3057854    0.1631233  15.26  0.001178616    2.666    0.625
        24  -9.9270     50.5160     11.4584   7.6961272617e+01   6.8498666582e+01    0.2757606    0.1617647   3.10  0.001192005    2.267    0.559
        25 -10.9983     16.7550      3.4271   8.9815103291e+01   7.4091825946e+01    0.3661592    0.1577009 -43.37  0.001045306    1.948    0.487
        26 -11.8961     11.4701      2.9138   9.2776388988e+01   7.4676324857e+01    0.3285532    0.1975059 -15.48  0.001352095    1.660    0.398
        27 -13.0069     32.0203      2.0870   8.0353132032e+01   7.2510354954e+01    0.2960143    0.2097482  20.01 0.0005924348    1.412    0.292
        28 -10.6707     27.4822      3.4331   8.3623223037e+01   7.2896005652e+01     0.189466     0.181011   2.08 0.0007290364    1.463    0.317
        29 -10.0623      5.5066     11.4692   1.0091495669e+02   7.3640071726e+01    0.2122978    0.1102831 -39.50 0.0005681928    1.464    0.317
        30 -10.2331      6.3593      8.0112   9.8726203485e+01   7.4210959834e+01    0.1778499     0.159784 -56.71 0.0004112309    1.446    0.308
        31 -10.3031     38.9388      9.8044   8.1408079747e+01   7.0454113406e+01    0.2984178     0.223418 -64.56  0.001207197    2.549    0.608
        32  -9.8834    183.9502     10.2823   4.5057462264e+01   3.7467995905e+01     0.353688    0.1743126  84.18   0.00104683    2.282    0.562
        33  -9.5524    107.8149      9.6074   5.7282686071e+01   5.7154789103e+01    0.1909449    0.1616936   8.02 0.0005564858    1.144    0.126
        34 -10.9489    149.5896      6.5184   4.8215158400e+01   4.6895760003e+01    0.5239603    0.2168864  57.64  0.001767956    2.134    0.531
        35  -9.3902    145.5570      4.4738   4.8052323741e+01   4.8137248044e+01    0.2020827    0.1368988   4.41 0.0005146175    1.710    0.415
        36 -10.6214    127.0776      8.3051   5.2671295349e+01   5.2548285800e+01    0.1951281    0.1775073  55.45 0.0003943169    1.066    0.062
        37 -11.0416     91.9927      6.4710   5.9777106390e+01   6.1116255668e+01    0.4277213    0.2697658  12.82  0.001225765    1.742    0.426
        38  -9.4519     43.4235      7.9192   7.8178132241e+01   7.0086272926e+01    0.1617952   0.09781929 -49.85 0.0008038908    2.404    0.584
        39 -10.1586    228.3423      5.0348   3.9459020105e+01   2.6813045094e+01    0.1907516    0.1602432 -48.67  0.001155154    1.067    0.063
        40  -9.7538    131.9180      5.1811   5.0522507107e+01   5.1606041781e+01    0.2892967     0.164413 -84.16  0.001176015    2.525    0.604
        41 -11.8027     22.8827      7.1444   8.8376668898e+01   7.2853428104e+01    0.5563043    0.3867544 -51.65    0.0023532    1.775    0.437
        42  -9.7164    243.5115      3.7484   3.8073512834e+01   2.3415118856e+01    0.1842007   0.09709553 -41.35  0.000825598    1.577    0.366
        43 -12.0059    167.9695      2.3300   4.4312524781e+01   4.2424966061e+01    0.2508107     0.228241 -68.46 0.0002637775    1.088    0.081
        44 -10.9624    169.0553     13.3072   4.7880134242e+01   4.1090566539e+01    0.2529421    0.2212361  38.64 0.0003539173    1.201    0.167
        45 -10.0296    125.9237      2.0597   5.0293986547e+01   5.3403190757e+01    0.3057859     0.171662 -73.42  0.001225033    2.758    0.637
        46  -9.1949    155.3698      1.2830   4.5510414427e+01   4.5837637591e+01    0.1529544   0.09346363  41.93 0.0007016073    1.698    0.411
        47  -9.7143    194.5221    215.4706   9.4723512172e+01   2.9505275451e+00    0.1217699    0.0986064  25.86 -5.387669e-05    1.007    0.007
        48 -10.7136    250.3058    245.6681   9.0113075830e+01  -8.4574191662e+00    0.3500414     0.162304 -19.54  0.002138536    2.340    0.573
        49  -9.8523     72.6110    250.0953   1.2022874989e+02   1.5945505000e+01    0.1557413    0.1340326  33.32  0.001254295    1.573    0.364
        50 -10.1707      5.7535    235.2535   1.3030599866e+02   2.5773697515e+01    0.2260527    0.1404043  58.77  0.001431443    1.148    0.129
        51 -12.8451     20.2979    248.6743   1.2853474067e+02   2.2138801725e+01    0.9424453    0.2484589  37.57  0.004972335    3.178    0.685
        52 -13.1019      7.1274    244.4118   1.3040168104e+02   2.4127029348e+01     1.050997    0.6598654  25.92  0.007221101    2.510    0.602
        53 -10.1810    208.9704    212.0847   9.1644562827e+01   1.0829021093e+00    0.1839615    0.1458797  19.99 0.0004880648    1.035    0.034
        54  -9.1446     76.3438    212.2980   1.1658412188e+02   2.1838114394e+01    0.1003236   0.09261022  -0.27 0.0007034905    1.671    0.402
        55  -9.5491      2.2843    212.3384   1.3004490951e+02   3.0125542571e+01    0.1463992    0.1121498  77.48 0.0006250606    1.184    0.156
        56 -11.5974      4.5867    207.3400   1.2945008044e+02   3.0844069605e+01    0.4717742    0.1956385  79.56  0.002791482    2.003    0.501
        57  -9.8374     10.8555    208.1768   1.2838660058e+02   3.0109752241e+01    0.1322671    0.1071722 -85.93  0.000485109    1.363    0.267
        58 -10.3567     30.7636    215.7833   1.2525084823e+02   2.6695421548e+01    0.2441792    0.1491554  44.82  0.001695917    1.477    0.323
        59  -9.8032    124.0243    205.9632   1.0661553196e+02   1.5934758412e+01     0.176357    0.1491119  50.45  0.001161928    1.026    0.025
        60  -9.3169     67.9564    203.9457   1.1744323619e+02   2.4516038146e+01    0.1413322    0.1113383  66.05 0.0003688659    1.015    0.015
        61 -11.2321     18.9425    202.9059   1.2667502923e+02   3.0331156818e+01    0.3173412    0.2196455  87.36  0.001256772    1.194    0.162
        62 -10.3496    175.3813    202.6719   9.6206616030e+01   7.9246901200e+00    0.2198377    0.1719825  43.28 0.0005622749    1.171    0.146
        63  -9.6170    223.4076    201.5881   8.7384554444e+01   1.1112294722e-01     0.189866    0.1456923 -58.73 0.0009103543    2.334    0.572
        64  -9.8491    174.1462    219.5439   9.8994378969e+01   5.6729669579e+00    0.2469822   0.09921162  39.33  0.001168312    2.071    0.517
        65  -9.5865     34.7026    201.2460   1.2364075775e+02   2.9020504816e+01    0.1313739    0.1164633  86.39 0.0006147528    1.324    0.245
        66  -9.3093     44.3232    199.3012   1.2166066779e+02   2.8324425532e+01   0.09754727   0.08741945 -51.70 0.0007027888    1.632    0.387
        67  -9.4147    227.1589    196.8783   8.5914121788e+01   1.0467420816e-01    0.1759243    0.1218391  11.20 0.0007118417    1.360    0.265
        68  -9.4863    136.8029    216.1559   1.0546300602e+02   1.2188695181e+01    0.1650668    0.1310141  27.01  0.001063799    1.344    0.256
        69 -10.2451    215.6644    194.6398   8.7496744767e+01   2.2682819282e+00    0.2117272    0.1411069 -14.97 0.0006764239    1.590    0.371
        70 -10.4537    162.8364    190.1873   9.6594342600e+01   1.2084416556e+01    0.1805296    0.1489697  11.90 0.0006958165    1.336    0.251
        71  -9.6512    211.2132    188.7854   8.7225135457e+01   3.8162714874e+00    0.1866813    0.1343952   7.57  0.001076766    1.417    0.294
        72  -9.4245      1.5871    188.2099   1.2916730932e+02   3.4798217286e+01    0.1386978   0.07951774 -77.48 0.0005015991    1.539    0.350
        73  -9.8998    218.0000    186.9402   8.5683952271e+01   2.9177562749e+00    0.1960081   0.06910602 -35.02 0.0008031715    2.948    0.661
        74 -11.3586     15.8869    182.6893   1.2611824413e+02   3.4642258549e+01    0.4024675    0.1803392  80.50   0.00220662    1.992    0.498
        75 -10.1923    167.1868    183.5951   9.4609090512e+01   1.2414769054e+01    0.1908996    0.1150383  33.15  0.000608393    1.630    0.387
        76  -9.4600     58.5086    182.4458   1.1733613834e+02   3.0035317370e+01    0.1220611   0.09956396  74.93 0.0002250879    1.023    0.023
        77  -9.6546      2.0177    180.3128   1.2871409501e+02   3.6351623539e+01      0.15145    0.1090961  69.25  0.000535357    1.100    0.091
        78 -10.1108    244.2683    178.3948   7.9612100336e+01  -3.0885678455e-01    0.2274574    0.1322761 -16.12  0.001220551    1.710    0.415
        79 -10.9662    224.1341    178.5151   8.3015770491e+01   3.0295867940e+00    0.2345521    0.2137552  16.48  0.000432186    1.187    0.157
        80  -9.5484     70.1824    177.7308   1.1433186978e+02   2.9504705146e+01    0.1476305    0.1467693 -49.54 0.0005803912    1.373    0.272
        81  -9.9875     46.6073    177.3275   1.1938015925e+02   3.2554082672e+01    0.2491082    0.1584421  57.36  0.001518753    1.370    0.270
        82  -9.2183     36.4547    178.4631   1.2162567518e+02   3.3452658010e+01    0.1191442   0.09202408  77.94 0.0001922152    1.003    0.003
        83  -9.9278    200.2261    176.5918   8.6941938139e+01   7.5339392737e+00     0.185528     0.113164  31.73 0.0004945635    1.576    0.365
        84 -11.1604     17.9394    173.2365   1.2510514013e+02   3.6421732875e+01    0.3626494    0.2036553  64.97  0.002239295    1.491    0.329
        85  -9.3238     75.2382    170.7666   1.1238699994e+02   3.0297361927e+01    0.1615112    0.1512431 -42.12  0.001052496    1.409    0.290
        86 -10.6260     12.7848    170.0890   1.2597367651e+02   3.7557092803e+01    0.3140062    0.1200847  87.71  0.001514546    2.448    0.592
        87  -9.5512      4.6242    168.2050   1.2755594192e+02   3.8651318965e+01    0.1636748   0.07913645 -72.68  0.000960783    1.761    0.432
        88 -10.9479     50.5294    165.1989   1.1732718485e+02   3.4721649303e+01    0.4239863    0.2260765 -53.99  0.001224438    2.120    0.528
        89 -11.2313     44.4096    162.6720   1.1845588553e+02   3.5992968789e+01    0.3399252    0.2208356 -87.35   0.00145928    1.342    0.255
        90 -10.2321     48.1695    159.3501   1.1724354386e+02   3.6302147832e+01    0.3054358    0.2175784  46.58  0.001589959    1.405    0.288
        91  -9.3385    200.2630    162.6146   8.4156280575e+01   9.7213935146e+00    0.1838817     0.120446  33.81 0.0005282213    1.474    0.322
        92 -12.2018     37.0184    158.9118   1.1977374321e+02   3.7644191411e+01    0.5632607    0.1870568 -72.05 0.0005931667    2.600    0.615
        93 -11.3814     22.8197    156.5172   1.2280209263e+02   3.9598410608e+01    0.4574439     0.303282  62.62  0.002931384    1.335    0.251
        94 -10.1076    247.4632    158.4943   7.5088708765e+01   1.7620475334e+00    0.1289024    0.1093834  -5.96 0.0001367739    1.065    0.061
        95  -9.0444    147.6674    156.3261   9.3632888022e+01   2.1081914571e+01    0.1456974    0.1114245  80.81 0.0007051261    1.712    0.416
        96 -10.3653     11.9736    153.4401   1.2501874155e+02   4.1242612027e+01    0.2274889    0.1930201   2.55  0.001495208    1.822    0.451
        97 -10.3194    178.0629    151.4408   8.6165758989e+01   1.5981568261e+01    0.2558928    0.2383353 -64.26 0.0009333434    1.236    0.191
        98  -9.3514    210.0021    166.0000   8.3043913841e+01   7.3649001314e+00    0.2146574    0.0722595  44.71 0.0006950264    2.878    0.653
        99 -10.2012    207.0316    146.0938   7.9354644474e+01   1.1085290977e+01    0.2161712    0.1986561   5.22 0.0007518224    1.027    0.026
       100  -9.5966     67.1897    165.2005   1.1352715673e+02   3.2615080069e+01    0.1872377    0.1287859  69.27  0.001053521    1.370    0.270
       101 -11.6081     10.8635    145.4408   1.2467490682e+02   4.3121073104e+01    0.3941584    0.2402351  40.76  0.002489698    1.736    0.424
       102  -9.5606    220.6140    144.2865   7.6507584619e+01   8.7063649229e+00    0.1313523    0.1123092 -80.03  0.000231348    1.747    0.428
       103  -9.6151     30.5608    144.5076   1.1987169569e+02   4.1577666880e+01    0.1255902   0.09793615  87.55 3.606134e-05    1.025    0.024
       104 -11.5560     20.1571    141.7482   1.2214189193e+02   4.3179416937e+01    0.3952948    0.1848176  77.93  0.001305492    2.209    0.547
       105 -10.4891     15.8965    139.8128   1.2300668247e+02   4.3987655343e+01    0.2438167     0.171359   4.04     0.001374    2.292    0.564
       106 -10.5817      2.8453    143.8839   1.2643275930e+02   4.4086118437e+01    0.1768284    0.1308197 -69.02  0.001230164    1.335    0.251
       107 -10.6491     55.2555    135.9663   1.1257168157e+02   4.0856253790e+01    0.2200421    0.1648178  65.22 0.0002215739    1.305    0.234
       108 -10.4817     54.2213    133.1999   1.1244233187e+02   4.1638721291e+01    0.3360282    0.2265644  32.41  0.001848179    1.730    0.422
       109 -11.6133      3.5421    136.4101   1.2573296120e+02   4.5718388433e+01    0.5506871    0.1816615 -61.08  0.002021683    2.639    0.621
       110 -11.3007      9.1183    136.7950   1.2440661345e+02   4.5219214457e+01    0.2117434    0.1472693 -82.33 0.0002604502    1.122    0.108
       111  -8.7747    143.6789    137.3106   9.0559429815e+01   2.5734819308e+01    0.1500445    0.1170774  85.73 0.0007036602    1.648    0.393
       112 -10.4082     21.4049    135.9609   1.2128195835e+02   4.4405539179e+01    0.2339384    0.1719258  70.23  0.001067519    1.237    0.192
       113  -9.4042    137.8254    135.4069   9.1504971396e+01   2.7317337579e+01    0.2116098    0.1397534  33.35 0.0009475591    1.690    0.408
       114  -9.3561    122.7039    135.6531   9.5195117217e+01   3.0230209217e+01    0.1460347    0.1172974 -14.77 0.0007033416    1.674    0.403
       115  -9.2392    250.0078    134.2315   6.9441658110e+01   4.6602956874e+00    0.1627331    0.1092649  43.52 0.0008737062    1.620    0.383
       116 -10.1724    106.9585    133.2037   9.8618927302e+01   3.3689032444e+01    0.2471114     0.208995 -59.58  0.001009776    1.148    0.129
       117  -9.3295    227.0336    131.9665   7.2602505704e+01   9.3600818225e+00     0.168579    0.1515262  -1.84 0.0004517153    1.032    0.031
       118 -11.5569     37.6222    130.5324   1.1647627728e+02   4.4137570928e+01    0.4133735    0.2448953 -70.91   0.00153068    1.411    0.291
       119 -11.0764     33.1897    125.8659   1.1706933111e+02   4.5691743604e+01    0.2647909    0.1797373  75.94  0.001112101    1.423    0.297
       120 -10.3776     73.9771    129.4969   1.0656588454e+02   3.9895641276e+01    0.2644699    0.1923596 -66.53 0.0006728734    1.249    0.199
       121 -10.3053     82.0235    125.2367   1.0360060779e+02   3.9706667154e+01    0.2297728    0.1840218 -64.73    0.0005766    1.147    0.129
       122 -10.6741     14.4927    125.0907   1.2198116669e+02   4.7512881202e+01    0.2283848    0.1632951 -87.46  0.001470487    1.103    0.093
       123 -11.1281     10.6887    122.5102   1.2273357598e+02   4.8404387113e+01    0.3074662     0.190632  71.30  0.001288776    1.520    0.342
       124 -11.4418      2.2683    124.1265   1.2508488783e+02   4.8615790417e+01    0.4742436    0.1329838 -68.91  0.001454439    2.544    0.607
       125 -10.0559    219.9579    124.3241   7.2004436341e+01   1.1996668814e+01     0.195394    0.1807068  12.50  0.000624508    1.081    0.075
       126  -9.7307    244.3035    123.6595   6.7901060976e+01   7.2442471858e+00    0.1347112    0.1019162 -53.62 0.0003611596    1.676    0.403
       127  -9.8509    226.0186    124.0000   7.0901137852e+01   1.0805609474e+01    0.2176109   0.08083556  50.37 0.0007698294    2.890    0.654
       128 -10.6637     21.2539    121.2861   1.1975841052e+02   4.7862515411e+01    0.2133783     0.163536 -45.74  0.000942289    1.544    0.352
       129  -9.8957     32.9507    118.5477   1.1617041795e+02   4.7464214553e+01    0.2528719    0.1367414 -60.08  0.001008024    1.596    0.373
       130 -11.1211     17.4829    115.5116   1.2013483440e+02   4.9537844906e+01    0.3133283    0.2427409 -52.05  0.001705977    1.405    0.288
       131  -9.6699    220.3038    116.9569   7.0159654401e+01   1.3109516983e+01    0.2105687    0.1681014 -28.77 0.0004747709    1.153    0.133
       132 -10.8091     51.0785    116.5858   1.1070542074e+02   4.6002725935e+01    0.2954245    0.1585927 -61.88            0    1.588    0.370
       133  -9.5769    166.1801    115.6749   8.0280334769e+01   2.5304055256e+01    0.2145704    0.1860887 -48.59 0.0004783086    1.169    0.144
       134  -9.1899    214.1837    115.5928   7.0872832989e+01   1.4635702043e+01    0.1973104    0.1327045  36.20 0.0005449221    1.594    0.372
       135  -9.7358     35.2285    114.0363   1.1487952132e+02   4.8327851780e+01    0.2571886    0.1361445 -73.13  0.001292545    1.604    0.376
       136 -11.9009     35.4967    108.4389   1.1394882163e+02   4.9652565865e+01    0.4351743    0.2513272  81.44  0.001790922    2.020    0.505
       137 -10.9414    249.0591    112.1629   6.4498312324e+01   8.0033769683e+00    0.2484953    0.1778114 -27.10 0.0007399163    1.210    0.173
       138  -8.7437    212.6580    112.6932   7.0414232543e+01   1.5445316012e+01    0.1532027    0.1105606  11.90 0.0004860248    1.688    0.407
       139 -12.6124     15.6302    109.4514   1.1994512778e+02   5.1119770894e+01    0.5248888     0.423372  69.76 0.0007654189    1.256    0.204
       140 -11.5440     23.3278    106.9481   1.1735973255e+02   5.1110819263e+01    0.3820067    0.2429343  59.90  0.001508026    1.706    0.414
       141 -10.0777     86.0710    116.6396   1.0073378995e+02   4.1109405790e+01    0.1906368    0.1812857  87.45 0.0004395412    1.072    0.067
       142 -11.4410     54.8939    110.1159   1.0844667975e+02   4.7111363881e+01    0.2966826    0.2394737 -61.85 0.0005131955    1.114    0.103
       143  -9.5162     29.3228    109.3197   1.1591715542e+02   5.0021080648e+01    0.1295743   0.08329906 -46.65 0.0006409403    1.672    0.402
       144 -12.6007      2.6657     99.4581   1.2261208562e+02   5.4346065436e+01    0.7422442    0.2665301 -87.26  0.001896049    2.836    0.647
       145 -11.7323      2.5721    106.0184   1.2333619210e+02   5.2811204438e+01    0.3213449    0.1764636 -67.25 0.0004211412    1.422    0.297
       146 -10.2190      6.2861    105.6636   1.2222329444e+02   5.2664448429e+01    0.1679664   0.09986311  89.29 0.0005238285    1.448    0.309
       147 -11.0233     62.9556    106.7870   1.0538537247e+02   4.6885812255e+01    0.2951027    0.2510614  55.87 0.0009816324    1.269    0.212
       148 -10.5327    243.2397    104.7609   6.3567615079e+01   1.0243782263e+01    0.1930587     0.152122   3.47 0.0006311065    1.353    0.261
       149  -9.8849    223.3018    104.0267   6.6440298833e+01   1.4539770358e+01    0.2106022    0.1711164 -29.29 0.0004422637    1.119    0.106
       150 -10.2140     90.0427    102.4364   9.6324445249e+01   4.3806487154e+01    0.4194961    0.2485459 -21.41 0.0009704065    3.567    0.720
       151 -10.7149     92.8577     97.2785   9.4182983983e+01   4.4520824422e+01    0.4423618    0.1909641 -44.97  0.001027788    2.261    0.558
       152 -10.6925     94.2819     91.5707   9.2223375913e+01   4.5580250710e+01    0.5406911    0.3415941   9.14  0.002006909    3.163    0.684
       153 -10.9213    247.4986    102.2002   6.2337487308e+01   9.7626910367e+00    0.2351912    0.2023403  48.23 0.0007914919    1.331    0.249
       154 -10.5004     36.3912    101.5973   1.1255333710e+02   5.1219126124e+01    0.3366713     0.217148  44.63  0.001341857    1.739    0.425
       155  -9.4641    119.5124    101.4958   8.7805508437e+01   3.8460675147e+01    0.1531917    0.1462528 -36.15  2.63402e-06    1.064    0.060
       156 -11.2604     62.3892     98.4781   1.0379057487e+02   4.8964854774e+01    0.3420505    0.2911828 -39.28 0.0005209731    1.264    0.209
       157 -10.5145     66.8180     98.2083   1.0234495152e+02   4.8423328986e+01    0.2745979    0.1721094 -55.62 0.0007710672    1.401    0.286
       158  -9.8735    145.4835    100.0628   8.0822570903e+01   3.3133315715e+01    0.2491181    0.1511654 -41.57  0.001036334    1.602    0.376
       159  -9.6828     85.2235     98.7675   9.6839104237e+01   4.5477443109e+01    0.2036743     0.158663 -38.86 0.0007095246    1.339    0.253
       160 -11.6096     20.2418     96.9959   1.1687574906e+02   5.3744763548e+01    0.4195836    0.2300593 -79.93  0.002217299    1.602    0.376
       161  -9.8288     57.1042     96.5217   1.0502929823e+02   5.0123510028e+01      0.21447    0.1613744 -63.92 0.0003312043    1.152    0.132
       162  -9.5616     40.8721     97.1357   1.1033779544e+02   5.1844973397e+01    0.1830876    0.1383516 -47.61 0.0005210954    1.322    0.244
       163 -10.3461     13.9386     96.7171   1.1881552552e+02   5.4275218795e+01    0.1690771    0.1410191 -77.60 0.0007017592    1.076    0.070
       164  -9.1042     27.9872     95.9602   1.1425171880e+02   5.3357552967e+01    0.1505221    0.1205121 -71.68            0    1.005    0.005
       165  -9.7545    249.9402     95.3380   6.0335314732e+01   1.0268516442e+01    0.1854578    0.1702803 -11.51 0.0004330559    1.087    0.080
       166  -9.9443     31.5302     92.7257   1.1254467132e+02   5.3820489896e+01    0.3174332    0.1403506 -71.56  0.001426158    2.017    0.504
       167 -11.0861     25.7020     91.4940   1.1423870286e+02   5.4625349212e+01     0.260221    0.2313881 -59.99 0.0009320139    1.158    0.136
       168 -10.4180     23.0789     86.5947   1.1426300607e+02   5.6011616080e+01    0.2759186    0.1579241 -52.83  0.001252375    1.514    0.339
       169  -8.8380     67.3022     93.3178   1.0104249085e+02   4.9523157311e+01    0.1422039    0.1023242 -32.72 0.0006105851    1.622    0.384
       170 -11.0867    158.0287     90.6463   7.5215831632e+01   3.2095393593e+01    0.3756142    0.2293348 -36.80  0.001569537    1.596    0.373
       171 -10.2038    103.9810     92.0235   8.9498524873e+01   4.3668132802e+01    0.2229457    0.2083073 -42.18            0    1.049    0.046
       172 -11.4617     10.2884     90.8548   1.1916549132e+02   5.5913440448e+01    0.2449569    0.2198316  56.58  0.001188042    1.325    0.245
       173 -10.9447      4.6124     86.3902   1.2040478071e+02   5.7311021175e+01     0.428693    0.1995459 -74.37  0.002254803    1.653    0.395
       174 -11.9223     13.5948     77.2228   1.1591066877e+02   5.8923705744e+01       0.6298    0.2382068 -45.47  0.002231265    2.572    0.611
       175 -11.0127     14.8123     83.3668   1.1652660368e+02   5.7390255353e+01    0.4623157    0.1706637 -53.32  0.002141983    2.188    0.543
       176 -10.8208     21.0754     81.2242   1.1398648862e+02   5.7446191825e+01    0.3383079    0.2278827 -10.89  0.001931222    2.076    0.518
       177 -11.9679     21.2026     77.0432   1.1315133384e+02   5.8426246447e+01    0.3727067     0.237172 -47.54 0.0002358791    1.441    0.306
       178 -11.2750      3.6119     77.7268   1.1951888169e+02   5.9399363802e+01     0.517598    0.1850042 -67.63  0.002342012    1.987    0.497
       179 -11.3634      7.8071     73.9476   1.1742913220e+02   6.0050171813e+01    0.3349577    0.2746322  -8.93    0.0019272    1.572    0.364
       180  -9.3441     21.2855     91.3432   1.1566148878e+02   5.5017372567e+01    0.1314933   0.07644904 -48.81 0.0003590085    1.642    0.391
       181  -9.5917    139.0266     87.6743   7.8804322364e+01   3.7141905355e+01    0.2115113    0.1977479  50.97  0.001090063    1.109    0.098
       182 -11.0444     47.5927     84.9266   1.0556300354e+02   5.4046631230e+01    0.5728553    0.3974062 -82.79   0.00193153    1.595    0.373
       183  -9.9742     42.2080     82.4257   1.0684585317e+02   5.5235285696e+01    0.2248175    0.1729695  60.79   0.00110362    1.539    0.350
       184  -9.1020    120.6967     87.2681   8.3427786307e+01   4.1304220653e+01    0.1496825    0.1218167 -85.54  0.000270682    1.529    0.346
       185 -10.7270     67.1728     84.8479   9.8947993748e+01   5.1542232838e+01    0.3482967    0.2187593 -31.14  0.001433036    1.994    0.498
       186 -11.2112    167.2926     84.5760   7.1415565357e+01   3.1007905098e+01    0.5052205     0.313425  65.18  0.002060706    1.938    0.484
       187 -10.2246     29.8966     82.6932   1.1118993241e+02   5.6370324084e+01    0.3726282    0.1392683 -59.00  0.001645093    2.028    0.507
       188 -10.3110     87.9463     83.3302   9.1821923814e+01   4.8578763365e+01    0.2351822    0.1856594 -59.02 0.0003200775    1.233    0.189
       189  -9.8689    117.9035     83.3333   8.2995387227e+01   4.2735441864e+01    0.2140672    0.2060579 -15.79  0.001144899    1.067    0.063
       190  -9.6473    130.4814     82.5236   7.9390586228e+01   4.0137952504e+01    0.1559519    0.1498956 -38.73 -2.59066e-05    1.000    0.000
       191 -10.5414     74.9629     81.2508   9.5391348084e+01   5.1206808214e+01    0.1992121    0.1837883 -57.47 0.0005942346    1.045    0.043
       192 -10.0964     71.0448     79.5061   9.6196648433e+01   5.2210514463e+01    0.2372082    0.1860861  83.67 0.0008622336    1.634    0.388
       193 -11.3246     58.6668     75.2664   9.9257121338e+01   5.4947414166e+01     0.522092    0.3567652 -77.75  0.002097137    1.808    0.447
       194 -11.2266     62.0553     72.0082   9.7126707944e+01   5.5230750110e+01    0.3799474    0.2485671 -45.71  0.001148196    1.353    0.261
       195 -10.0468     92.8872     77.6630   8.8571286911e+01   4.8951655518e+01    0.2307998    0.1917856   7.95 0.0007838328    1.452    0.311
       196  -9.4465    150.7781     77.3667   7.2836221027e+01   3.6377669215e+01    0.2169436     0.144669  42.30  0.000391909    1.590    0.371
       197  -9.8175    122.1054     76.2813   7.9626980291e+01   4.3282275716e+01    0.2160358    0.1998976  56.75 0.0009072134    1.147    0.128
       198  -9.8096     75.0554     76.2136   9.3894330213e+01   5.2338584562e+01    0.2576237    0.2005998  61.29   0.00133802    1.574    0.365
       199 -12.1799     44.6287     75.2114   1.0425846216e+02   5.6673831243e+01    0.2474662    0.2249753  42.02  0.000275091    1.298    0.230
       200 -10.8176     37.3747     70.2045   1.0566401826e+02   5.8607516109e+01    0.6108065    0.3705143  70.46  0.002565668    2.700    0.630
       201 -10.5389     31.0916     66.0541   1.0701197842e+02   6.0169886210e+01    0.4487882    0.2063244 -53.35  0.001231389    1.705    0.413
       202 -10.3681     27.9969     68.2123   1.0873003368e+02   5.9945267144e+01    0.2168595    0.1536466 -57.18  0.001289219    1.128    0.113
       203  -9.4876     33.0965     75.8415   1.0859333741e+02   5.7703355791e+01    0.1702601    0.1291802 -43.38  0.001014939    1.272    0.214
       204  -9.7711    145.4474     73.6763   7.2899521480e+01   3.8362521330e+01    0.2935336    0.1466262 -40.45 0.0009586896    1.922    0.480
       205 -12.0528    102.7410     72.4690   8.3894591001e+01   4.8165225458e+01     0.496832    0.2785881 -38.65  0.000613535    1.725    0.420
       206 -10.3991    150.5472     72.1038   7.1219300884e+01   3.7411392245e+01    0.2569604    0.2162986  68.15 0.0003663833    1.299    0.230
       207 -11.4170     77.2352     71.2478   9.1635989011e+01   5.3094333965e+01    0.4955596    0.3519886  72.76  0.001382919    2.140    0.533
       208 -11.0900     77.2650     64.0190   8.9260762144e+01   5.4655467157e+01    0.4233702    0.2973562 -48.81  0.001612341    1.308    0.235
       209  -9.9840    116.3523     71.4285   7.9613552226e+01   4.5526042384e+01    0.2832079    0.1486172  43.19 0.0007404035    2.027    0.507
       210 -12.2655     94.3328     68.3357   8.5100218439e+01   5.0678319044e+01    0.4471451    0.2600522 -38.06  0.001951577    1.657    0.396
       211 -10.5898     68.7914     67.7350   9.3436589934e+01   5.5204727554e+01    0.4678865    0.1653306 -47.68  0.001135381    2.462    0.594
       212 -11.4579     50.8318     67.7956   9.9973593264e+01   5.7660455838e+01     0.466372    0.2842239 -34.20  0.001760382    1.780    0.438
       213 -10.4655     51.2133     62.8731   9.8362433171e+01   5.8721177715e+01    0.3594677    0.2118691 -41.57  0.001793611    1.548    0.354
       214  -9.0408    167.9272     69.8097   6.6781143830e+01   3.3489524965e+01    0.2014314    0.1216613  54.80 0.0004385484    1.698    0.411
       215 -10.0431    146.0076     68.8819   7.1212816328e+01   3.9112941750e+01    0.2470647    0.1882502  12.39 0.0005543639    1.665    0.399
       216 -10.6040    140.1248     69.0131   7.2643081265e+01   4.0517451983e+01    0.2322416    0.2246322 -27.43 0.0003413887    1.004    0.004
       217  -9.9727    123.0197     68.4509   7.6793681949e+01   4.4631027020e+01    0.2450998    0.1921079 -38.16 0.0005805267    1.221    0.181
       218 -10.6254     18.0264     60.3461   1.1079173374e+02   6.2544105698e+01    0.7431696    0.3698118  73.88  0.002639688    5.096    0.804
       219 -11.7405     16.8082     67.6316   1.1288705105e+02   6.0951039367e+01    0.4133855    0.2626729 -26.81  0.000715256    1.893    0.472
       220 -10.1305     22.3690     65.3143   1.1022609337e+02   6.1078027311e+01    0.2982833    0.1552163 -43.37  0.001544114    1.784    0.439
       221 -10.5364    128.9528     71.8281   7.6362237890e+01   4.2618555929e+01    0.2457767    0.2124107 -38.70 0.0002384146    1.112    0.100
       222 -12.4936      4.3587     65.1892   1.1719508908e+02   6.2273470912e+01    0.4118046    0.2712772  76.28  0.001294732    1.770    0.435
       223 -11.3143     56.4856     65.5364   9.7200036658e+01   5.7447227102e+01    0.5275322    0.1637241 -42.26  0.001745391    3.437    0.709
       224 -11.4718     64.2626     60.1115   9.2571722997e+01   5.7544030129e+01    0.5705956    0.3215153  24.02  0.001614824    2.335    0.572
       225 -10.1928     56.3013     59.0002   9.5186280259e+01   5.8911563483e+01    0.3311999    0.2136171 -43.51  0.001717463    1.346    0.257
       226 -10.1360     99.6635     64.8774   8.2260483657e+01   5.0344793477e+01    0.2461301    0.1773484 -25.34  0.001158009    1.493    0.330
       227  -9.3486    216.2173     64.4072   5.6977401525e+01   2.2324219141e+01    0.2010818    0.1432074  83.83 0.0009446167    1.722    0.419
       228  -9.0384    150.4630     64.5302   6.8768800459e+01   3.8791045166e+01    0.1556924    0.1511117 -24.19 4.898373e-05    1.009    0.009
       229  -9.2775    106.2570     64.6297   8.0190316699e+01   4.9042187574e+01    0.1526996    0.1155326 -65.73 0.0004544526    1.644    0.392
       230  -9.2339     41.5083     64.3914   1.0253557928e+02   5.9511458737e+01    0.1303421     0.112615 -55.72 0.0002015549    1.058    0.055
       231 -11.3834     87.0448     52.0900   8.1630793730e+01   5.5328024397e+01    0.3991157    0.2624809 -53.18  0.001441126    1.688    0.408
       232 -10.9217     83.1200     61.2428   8.6306864218e+01   5.4225114701e+01    0.4096393    0.2915346  56.94 0.0009864519    1.763    0.433
       233 -10.6680     86.3835     57.6958   8.3943566579e+01   5.4353256414e+01     0.380373    0.2545925 -35.69  0.001837025    1.404    0.288
       234 -10.7565     11.1199     62.6012   1.1405513789e+02   6.2485976322e+01    0.2114411    0.1613656 -65.06 0.0002903266    1.041    0.039
       235 -10.2577    201.1203     62.0102   5.8535247242e+01   2.6380494793e+01    0.2209723    0.2092195 -25.30 0.0003533741    1.049    0.047
       236  -9.1026    186.2420     61.0323   6.0663839641e+01   3.0283200349e+01    0.1955844    0.1264293 -30.32 0.0002797421    1.495    0.331
       237 -10.4767     59.3253     59.3108   9.4142845719e+01   5.8428068542e+01    0.2949661    0.1589749 -30.13  0.001251617    2.315    0.568
       238 -10.9185     45.1642     49.9102   9.6525462973e+01   6.2281426080e+01    0.5541018    0.1991941 -50.39  0.002273151    2.286    0.563
       239  -9.9049     47.4409     58.2471   9.8378017470e+01   6.0207874044e+01    0.3284241    0.1781993 -68.06  0.001361049    2.373    0.579
       240 -10.0832     43.9809     57.0218   9.9363478842e+01   6.0884161243e+01    0.2069161    0.1882645 -10.13 0.0003346743    1.209    0.173
       241 -11.3167     29.4995     60.8326   1.0628891089e+02   6.1508959331e+01    0.6158425    0.2629553  13.75  0.002562413    3.697    0.730
       242 -12.7983     37.3923     50.8986   1.0010318094e+02   6.2946823775e+01    0.7733773    0.5778353 -23.89  0.003330465    1.404    0.288
       243 -10.7041      6.1488     58.6420   1.1523288078e+02   6.3679331212e+01    0.3679698    0.2005996 -80.61  0.001989329    1.804    0.446
       244 -11.2382      5.4016     51.8353   1.1408789351e+02   6.5258575223e+01    0.3314535    0.2089776 -45.71 0.0009747262    1.359    0.264
       245 -10.6499    103.4953     57.5123   7.8465734246e+01   5.1004850161e+01    0.5890471     0.225189 -31.11  0.001848051    3.311    0.698
       246 -10.6097    146.9728     56.9246   6.6978247174e+01   4.0969843832e+01    0.2618152    0.2206226 -49.21  0.001295356    1.214    0.176
       247 -10.6283    129.8139     55.9089   7.0659055734e+01   4.5358876144e+01    0.5084835    0.2676765  37.69  0.001931818    2.256    0.557
       248  -9.9500    123.2259     56.0610   7.2398294024e+01   4.6889975410e+01    0.2360573    0.2222305 -32.40 0.0005725304    1.037    0.035
       249 -12.7872    128.6429     50.5494   6.9005029536e+01   4.6556138127e+01    0.4974065    0.3719046   8.18  0.002287028    1.652    0.395
       250 -11.5842     75.4311     56.0147   8.7090159155e+01   5.6631987011e+01    0.2443316     0.221844 -31.06 0.0002003156    1.022    0.021
       251 -10.1951     61.4506     54.1073   9.1539172462e+01   5.9229318724e+01    0.2537133    0.2278656  77.90 0.0009390272    1.432    0.302
       252 -11.0620     12.5685     51.6049   1.1095021185e+02   6.4890505617e+01    0.2733599    0.2011101 -79.44  0.001320492    1.400    0.286
       253  -9.6066    143.3333     53.0623   6.6447595106e+01   4.2524120110e+01    0.2233609     0.195521 -31.41 0.0007614785    1.116    0.104
       254  -9.8502    109.4859     52.0302   7.4666942289e+01   5.0729318853e+01    0.2277629    0.1429175 -33.38 0.0005054927    1.535    0.348
       255 -10.8341     69.9748     50.3181   8.6941729171e+01   5.8684598574e+01    0.4166589     0.323613 -85.07  0.002097782    2.019    0.505
       256  -9.9984    186.8179     50.1459   5.7220233385e+01   3.1783240216e+01    0.2272279    0.1947661 -59.83 0.0003499921    1.189    0.159
       257 -11.3315    103.4179     48.5664   7.5107949081e+01   5.2665648319e+01    0.4442272    0.4207632 -50.92  0.002494253    1.146    0.128
       258 -11.0700     78.1693     48.5908   8.3317389240e+01   5.7627187818e+01    0.4782807    0.2273731 -32.97   0.00147543    2.198    0.545
       259 -10.6034     82.3993     46.7963   8.1135987893e+01   5.7199087035e+01    0.2205868    0.1320004 -39.42 0.0003831321    1.535    0.348
       260  -9.9864    220.6667     48.9549   5.2098250559e+01   2.3452504872e+01    0.2068326    0.1656958 -35.33 0.0002676745    1.141    0.123
       261  -9.6707    166.7812     49.1767   6.0345353155e+01   3.7127852875e+01    0.2059996    0.1731976  32.25 0.0003970398    1.286    0.223
       262 -11.5487    152.5162     47.6476   6.2589164022e+01   4.1052230508e+01    0.5761967    0.3293522  44.49   0.00155941    1.841    0.457
       263  -9.8309    115.7302     48.3963   7.1545172367e+01   4.9959548161e+01     0.237392    0.1791561  -1.91 0.0002136713    1.566    0.361
       264  -9.7755     95.2937     49.0716   7.7791068383e+01   5.4272763498e+01    0.2462509    0.1942187  25.53 0.0008905122    1.373    0.271
       265 -10.4535    120.1186     47.3660   6.9983685263e+01   4.9114906758e+01    0.2593268    0.2062369 -37.98 0.0005538565    1.233    0.189
       266 -11.0680     11.2456     44.3455   1.0963217008e+02   6.6579668480e+01    0.4795081    0.2027476 -43.95  0.001669082    1.964    0.491
       267 -10.0013      4.2148     47.1859   1.1353335360e+02   6.6357255298e+01    0.3046071     0.152722 -29.04  0.001632216    2.264    0.558
       268 -10.7313      7.0058     41.2443   1.1074317926e+02   6.7509526323e+01    0.3540189    0.1139255 -59.19 0.0009933166    2.152    0.535
       269 -10.0131    142.7821     45.9295   6.4031276257e+01   4.3800866684e+01    0.2548956    0.2302017 -89.18 0.0004549705    1.223    0.183
       270 -10.0636     86.2096     45.6301   7.9376494609e+01   5.6695311374e+01     0.240979     0.181137 -42.09  0.000607699    1.284    0.221
       271  -8.9763     18.3252     46.2711   1.0697201611e+02   6.5671563253e+01    0.1258979   0.07517517 -36.46 0.0002916362    1.576    0.366
       272  -8.9226    233.4504     45.5126   4.9665481237e+01   2.0878443783e+01    0.1402228    0.1262947 -39.40 4.887721e-05    1.036    0.035
       273  -8.6326     59.3084     45.2962   8.9080046508e+01   6.1337747479e+01    0.1374799   0.09712554 -16.98 0.0002450765    1.590    0.371
       274  -9.7474     51.1350     44.8874   9.2225647347e+01   6.2566862558e+01    0.1885842    0.1651438 -44.25 0.0003411134    1.121    0.108
       275 -10.7930    100.0400     55.5566   7.8789891936e+01   5.2094940231e+01    0.4160801    0.2358418  49.68  0.001232562    1.917    0.478
       276  -9.7841    165.4836     42.5705   5.8372310954e+01   3.8436301459e+01    0.2940701     0.184528 -77.05 0.0008173222    2.308    0.567
       277  -9.3031     25.6594     48.3066   1.0432714001e+02   6.4637321848e+01    0.1181246    0.0940726  81.70 0.0007042242    1.684    0.406
       278 -10.9074     89.4228     39.1336   7.5639421492e+01   5.7206011229e+01    0.5655307    0.2473093 -47.25  0.001637693    2.697    0.629
       279  -9.9748    110.6068     41.8621   7.0397949423e+01   5.2214736967e+01    0.2229627    0.2040839 -87.80 0.0003148499    1.304    0.233
       280 -11.4739     97.2628     40.9357   7.3913257287e+01   5.5289942741e+01    0.6701668     0.381363 -38.42  0.003000796    1.678    0.404
       281 -11.1072    101.8005     36.8542   7.0858584075e+01   5.4979592147e+01    0.2890858    0.2038898  27.88 0.0006477564    1.556    0.357
       282 -11.3169     98.0491     31.6981   6.9768924034e+01   5.6591719715e+01     0.523564    0.2992361  21.10  0.001562034    2.546    0.607
       283 -11.1853    101.0967     28.5752   6.7522187438e+01   5.6380009686e+01    0.2728232    0.2527303 -40.01 0.0003879743    1.180    0.153
       284 -10.3544     66.3570     41.2951   8.4723183224e+01   6.1017758793e+01    0.3319265     0.233419  -7.93  0.001137108    1.711    0.415
       285 -10.5502     69.8575     37.4528   8.1772847412e+01   6.1138537169e+01    0.2810382    0.2039804 -15.31  0.000707179    1.442    0.306
       286 -11.0200     34.4863     34.0707   9.5283004929e+01   6.6746086025e+01    0.4951105    0.1933811  40.14  0.002138552    3.330    0.700
       287 -10.7705     23.3181     41.0547   1.0306514994e+02   6.6396422622e+01    0.2359216    0.2050731  63.01 0.0007392818    1.554    0.356
       288 -12.8708     25.6424     36.2994   1.0031154325e+02   6.7183539085e+01    0.5055818    0.4054175  71.90   0.00264848    1.892    0.472
       289 -11.0829     19.9019     38.0465   1.0365826450e+02   6.7312679546e+01    0.3229409    0.1947142 -34.98  0.001457761    1.518    0.341
       290  -9.5051    193.3883     41.2307   5.3483024846e+01   3.1339989593e+01    0.2287502    0.1219576 -39.99  0.000950186    1.756    0.431
       291  -9.8793    172.7579     41.5682   5.6780261340e+01   3.6671846644e+01    0.1933497    0.1472705  82.79 0.0002271345    1.455    0.313
       292 -12.0236     81.4118     35.8558   7.6917791347e+01   5.9326167123e+01    0.5560217    0.3030851 -41.67  0.002338636    1.787    0.440
       293 -12.3438    226.2023    246.1717   9.3954982700e+01  -5.2937571225e+00    0.5511447    0.3541088  21.78  0.003911761    1.221    0.181
       294 -10.3472     42.3102     37.1479   9.2964953267e+01   6.5236325002e+01     0.384816    0.2705105 -89.31  0.001780796    3.101    0.678
       295  -9.5803    226.4427     40.4484   4.9086581758e+01   2.3192600041e+01    0.1415704    0.1269613 -46.82 0.0001429782    1.002    0.002
       296  -9.2712    215.5260     40.5089   5.0368177476e+01   2.5837882453e+01    0.1445977    0.1324538 -48.49 7.967886e-05    1.002    0.002
       297 -10.2481     51.6645     40.5096   9.0290778058e+01   6.3366957598e+01    0.2594923    0.1966431 -68.38 0.0009052483    1.797    0.443
       298  -9.8996     61.8666     37.8331   8.5021696924e+01   6.2378566773e+01    0.1938366    0.1593229 -19.29 0.0003001431    1.119    0.106
       299  -9.2646    199.5704     37.5435   5.1519635877e+01   3.0240532925e+01    0.1439825    0.1387178 -43.56 0.0005393916    1.043    0.041
       300 -10.2725    166.6512     36.8578   5.6239023549e+01   3.8923729689e+01    0.2564888    0.1970064  52.49 0.0004807428    1.306    0.234
       301  -9.9940      2.9613     36.8239   1.1145681385e+02   6.8681456842e+01    0.3667438    0.1205841 -45.94   0.00174538    2.275    0.560
       302 -10.8617     10.5741     34.2929   1.0695158815e+02   6.8777398605e+01    0.4360825    0.2176887  19.99  0.002417081    2.440    0.590
       303 -10.6125     17.4167     31.1617   1.0244576447e+02   6.8933612256e+01     0.345293    0.1838534  37.95  0.001870148    2.482    0.597
       304  -9.9712     14.4435     28.0778   1.0281666041e+02   6.9786384616e+01    0.3560188    0.1809179 -13.54  0.001702499    2.758    0.637
       305 -10.8339      7.3127     30.0707   1.0721629580e+02   6.9862576793e+01    0.3385034    0.1659115 -46.07   0.00074716    1.535    0.349
       306 -10.6272     10.0993     25.3239   1.0406932535e+02   7.0650603401e+01    0.3099939    0.2106753 -32.49  0.000734214    1.285    0.222
       307 -10.2045    155.4339     36.0587   5.7953275463e+01   4.1975746002e+01    0.2824149    0.1966451  41.83 0.0007702539    1.506    0.336
       308 -10.1378    127.4266     36.4334   6.3949033052e+01   4.9062652182e+01    0.2338921    0.1812169 -33.15  0.000119696    1.272    0.214
       309  -9.7698    125.7103     33.0205   6.3010859869e+01   4.9972055601e+01    0.2395786    0.1929454  55.13 0.0007460396    1.252    0.202
       310  -9.6755    110.5240     34.5326   6.7441666944e+01   5.3375110096e+01    0.2594403    0.1219301 -41.56 0.0001262695    2.211    0.548
       311  -9.6972     57.2740     35.0074   8.5659612324e+01   6.3604277528e+01    0.1953771    0.1731252 -47.13  0.001197242    1.260    0.206
       312 -10.0866     56.0870     31.1213   8.4427411364e+01   6.4483954058e+01    0.2730513    0.1666048 -30.15 0.0009968182    1.506    0.336
       313  -9.5384    150.9736     34.5060   5.8236579030e+01   4.3350062069e+01     0.224584    0.1461457  60.00 0.0004375244    1.522    0.343
       314  -9.3294     60.4696     33.5076   8.3701058773e+01   6.3383372727e+01    0.1346342    0.1176426 -27.48 3.161141e-05    1.072    0.067
       315  -9.5433    194.2960     32.3148   5.0634880964e+01   3.2268977043e+01    0.1470677    0.1109039  27.89 0.0003106821    1.603    0.376
       316 -11.0318     35.5172    239.4992   1.2570738134e+02   2.2028887120e+01    0.2969453    0.1841249 -54.63  0.002028405    2.537    0.606
       317 -10.9689     48.9075     30.9629   8.7421986836e+01   6.5552180268e+01    0.4508829    0.2402193 -28.82  0.002146583    1.929    0.482
       318 -10.1129     42.9434     31.8819   9.0478626569e+01   6.6171688678e+01    0.1939619    0.1598983 -26.17  0.000489629    1.037    0.035
       319  -9.8486    139.5018     30.4388   5.8992662727e+01   4.6856810795e+01    0.2480251    0.1465268  -9.91 0.0009120847    2.083    0.520
       320  -9.6840    168.7284     30.0867   5.3607580376e+01   3.9258806620e+01    0.2025695    0.1876555 -23.11 0.0003426466    1.097    0.089
       321 -10.2059    109.3361     28.8924   6.5394161808e+01   5.4463795364e+01    0.2102003    0.1991207  62.10 0.0003598524    1.168    0.144
       322 -10.6070    107.9533     24.4606   6.3853737635e+01   5.5384982108e+01    0.4058439    0.1933018 -40.67 0.0009685801    2.235    0.553
       323 -10.6142    156.4966    241.0848   1.0497447886e+02   5.4744387984e+00    0.1411364     0.114789 -47.39  0.001031174    1.585    0.369
       324 -10.3161     88.9891    240.9951   1.1677252523e+02   1.5237696984e+01    0.1461713    0.1325676   6.15   0.00106966    1.716    0.417
       325  -9.2959     50.4593    240.4464   1.2329231166e+02   2.0179709866e+01    0.1051395     0.076095  62.56 0.0005977581    1.033    0.032
       326 -10.2424    195.5747    238.4515   9.7908409931e+01  -7.1730461390e-02    0.2391887    0.1587384  22.68  0.001583763    1.351    0.260
       327  -9.5075    156.6486    245.7239   1.0549544673e+02   4.8410641222e+00    0.1105307    0.0746898  22.03 0.0003266486    1.641    0.391
       328 -11.0176    177.1369    235.2573   1.0064043816e+02   3.1018318032e+00    0.3468882    0.2023755  12.72  0.001796644    2.655    0.623
       329  -9.3913    135.3425    237.3204   1.0826063812e+02   9.1779663378e+00     0.109898   0.08238355  16.87 0.0007049948    1.722    0.419
       330 -11.0787    214.5278     27.0990   4.6698086120e+01   2.7763505392e+01    0.3422604     0.246541 -29.13  0.001037161    1.335    0.251
       331  -9.8861     21.0153     27.4242   9.9174599181e+01   6.9382093278e+01    0.3559267   0.09721204 -48.30  0.001125833    2.637    0.621
       332  -9.4111    247.6859     27.3394   4.3596882096e+01   1.9885357597e+01    0.1468842   0.08245762 -54.77 0.0005556672    1.699    0.411
       333  -9.3763    233.6241     27.7172   4.4949529172e+01   2.3066440648e+01    0.1357371    0.1009855  34.42 0.0007013312    1.713    0.416
       334 -10.5757    135.0837     22.6936   5.6901086223e+01   4.8960561976e+01    0.3611741    0.2316904  36.84 0.0009869999    1.653    0.395
       335 -10.8497    130.2383     20.0076   5.6816299022e+01   5.0508879386e+01    0.4090674    0.3004469 -73.17  0.001273131    1.746    0.427
       336  -9.6503    130.7357     26.4732   5.9289457655e+01   4.9596755517e+01    0.3033803    0.1775711  47.19 0.0008004009    1.669    0.401
       337 -10.4729    127.0171     23.1962   5.8779492821e+01   5.0938770824e+01     0.459164    0.2621108  73.26 0.0009669636    2.145    0.534
       338 -11.7154     70.5613     25.6412   7.6151359364e+01   6.2994798287e+01     0.310284    0.2640177  18.71  0.001855308    1.164    0.141
       339 -11.2332     29.8044    233.5822   1.2635235398e+02   2.3643930338e+01    0.3696343    0.2012583  76.79  0.002238064    1.515    0.340
       340  -9.4578     15.2884     13.7033   9.6188042659e+01   7.2471993103e+01    0.1838353    0.1208448 -49.66 0.0005239828    1.388    0.280
       341 -11.1647     20.6702     18.6919   9.5561662994e+01   7.1077387251e+01    0.3358006    0.2147436  19.18  0.001415844    1.786    0.440
       342  -9.7230     24.1186    232.3286   1.2723151837e+02   2.4456197792e+01    0.1556712    0.1115682  89.21 0.0005395781    1.308    0.236
       343  -9.2440    243.2842     26.3119   4.3716072918e+01   2.0998550062e+01    0.1249507    0.1023078  20.17 0.0001742164    1.574    0.365
       344 -11.2382    237.4081     25.4425   4.4010448660e+01   2.2450568505e+01    0.2586779    0.2246069 -52.81 0.0002473445    1.013    0.013
       345  -8.9419    146.2719     26.2819   5.6112268255e+01   4.5638005981e+01    0.1474153    0.1090014  28.13  0.000690266    1.497    0.332
       346 -10.4326    197.2073     24.8865   4.8015175719e+01   3.2419666946e+01    0.2150247    0.1780506 -58.07 0.0003151932    1.168    0.144
       347 -10.6568    112.4704     24.4467   6.2691004560e+01   5.4327183706e+01    0.4187603    0.2541423  16.94  0.001073792    2.173    0.540
       348 -10.1711    159.9252    235.8854   1.0373808194e+02   5.6528977537e+00     0.178145    0.1350216  25.94 0.0008078348    1.276    0.216
       349 -10.4376     95.2011     24.1185   6.7245662179e+01   5.8299830508e+01    0.4291861    0.1959741  53.78  0.001772854    2.261    0.558
       350  -9.8438     54.3970     23.9323   8.1763557003e+01   6.5973210389e+01    0.1941514     0.164939  13.60 0.0006537437    1.194    0.163
       351 -11.2175    120.2680     21.3591   5.9522212816e+01   5.2833620366e+01    0.2819819    0.2360556   6.89 0.0002826028    1.216    0.177
       352  -9.0581     35.2407     22.8330   9.0000925848e+01   6.8778145909e+01    0.2980667    0.1406238  19.15   0.00132994    3.004    0.667
       353  -9.3963     28.6188     21.7340   9.2796585464e+01   6.9723806164e+01     0.329947    0.1321695 -31.83  0.001385356    2.801    0.643
       354 -10.2429    191.1673     21.1419   4.7599925080e+01   3.4419045956e+01    0.2057427    0.1577335 -59.95  0.000440088    1.306    0.234
       355  -9.4747    185.5117     21.4839   4.8407268617e+01   3.5859105684e+01    0.1448618    0.1359171 -67.30 2.130431e-05    1.022    0.021
       356 -10.0832     65.6475     20.7141   7.5607509367e+01   6.4622893762e+01    0.2735076    0.2140053  64.48 0.0009505509    1.873    0.466
       357 -10.3732     45.0629     20.5735   8.4231310427e+01   6.7899520402e+01    0.2966199    0.1984256  43.66  0.001628881    1.872    0.466
       358  -9.2946     47.2438    241.3836   1.2388033381e+02   2.0398833025e+01   0.08527656    0.0751342 -68.18 0.0006937561    1.647    0.393
       359  -9.7689    162.0138     19.9611   5.1174065489e+01   4.2241223757e+01    0.2131802    0.2081653  61.68            0    1.019    0.019
       360  -9.8771    217.7685     16.4205   4.3394503611e+01   2.8182290115e+01     0.238715    0.1282023  73.49 0.0009081756    1.892    0.471
       361 -10.0310    108.2316     16.9683   6.0488283983e+01   5.6250185552e+01    0.2465599    0.1867146 -13.14  0.001293793    1.315    0.240
       362 -10.1828     35.0567     15.3268   8.6348694838e+01   7.0093707886e+01    0.2800149    0.1734675  -2.86 0.0007571844    1.964    0.491
       363 -10.7146     10.2063     15.5558   9.9989223295e+01   7.2541045844e+01    0.2114486    0.1408045 -34.21 0.0005534611    1.193    0.162
       364 -10.6200    249.1743     15.1665   4.0473161230e+01   2.0936699050e+01    0.1896596    0.1265417 -54.36 0.0003373947    1.320    0.242
       365 -11.0351    178.8801    243.6815   1.0143897791e+02   1.7901182828e+00    0.2369888     0.116198  55.09  0.001158667    2.919    0.657
       366 -10.9910     37.3335    242.6870   1.2557278463e+02   2.1302631947e+01    0.2476489    0.1155341  46.72  0.001367437    1.600    0.375
       367  -9.5042     50.2725     15.3985   7.9206247841e+01   6.7958039667e+01     0.233769    0.1168192  35.76  0.001144621    2.140    0.533
       368 -11.1767    153.5671    233.8061   1.0460640305e+02   6.9134687151e+00    0.2119152    0.1808138  -3.90 0.0009096329    1.462    0.316
       369 -10.1446     86.0409    232.8361   1.1660746940e+02   1.6951539442e+01    0.1805098    0.1164677  60.24 0.0006368847    1.274    0.215
       370  -9.3249    115.5253    244.5182   1.1248464081e+02   1.1020130995e+01     0.111641   0.08575568  49.28 0.0002600382    1.030    0.029
       371  -9.7148    142.3409    232.2861   1.0643125751e+02   8.8518925347e+00    0.1121359   0.08216412  19.77 0.0002779482    1.639    0.390
       372  -9.8461     79.9062    231.5108   1.1758779834e+02   1.7992885659e+01    0.1658603   0.08701205  44.88 0.0004798508    1.518    0.341
       373  -9.6401    170.2947    213.3248   9.8791869861e+01   7.1890160787e+00     0.120442   0.08785307  11.35 0.0003563165    1.622    0.383
       374  -9.5737     90.2385     13.0253   6.3481808768e+01   6.0786195539e+01    0.1839244    0.1609239   2.18 0.0002686398    1.043    0.042
       375 -12.1620     74.3739    238.6310   1.1911345064e+02   1.7539794701e+01      0.46505    0.3082575  89.69  0.003308709    1.542    0.352
       376 -10.1171    190.5230    227.3434   9.7207831183e+01   2.0464407705e+00    0.3066527    0.1153942 -40.10  0.001477993    3.204    0.688
       377  -9.8607    248.8773    227.8024   8.7591866920e+01  -6.5802528456e+00    0.1803635    0.1150159  11.38 0.0008625808    1.322    0.244
       378  -9.9062    167.1230    233.6800   1.0218763595e+02   4.8446481937e+00    0.1650542    0.1590293  76.71 0.0008032444    1.324    0.245
       379  -9.9151    130.0270    226.6282   1.0800460363e+02   1.1589077688e+01    0.2607603    0.1204091  53.88  0.001297505    2.181    0.542
       380 -10.8538    120.1815    226.7947   1.0983229795e+02   1.3054684033e+01    0.1796807    0.1327709  59.03 0.0006999109    1.214    0.176
       381 -10.0625     88.1334    227.1223   1.1573209824e+02   1.7620395707e+01    0.1634009    0.1409997  53.04  0.001099948    1.207    0.171
       382 -10.1705      4.7747    226.1722   1.3014307109e+02   2.7422846831e+01    0.2702056   0.07807061  52.59  0.001545064    2.272    0.560
       383 -10.3322     66.4397    226.2348   1.1957449338e+02   2.0640753004e+01    0.2583899    0.1209655  47.23 0.0009638219    1.660    0.398
       384 -10.0322     25.8007    225.5364   1.2662666047e+02   2.5463130171e+01     0.194039    0.1440751 -57.67  0.001457217    1.981    0.495
       385  -9.8929    115.6560    225.3510   1.1050804892e+02   1.3963710637e+01    0.1250884   0.07570918  65.16 -9.811824e-05    1.811    0.448
       386 -10.7836     21.2166    212.2340   1.2675206380e+02   2.8342676969e+01    0.3118217    0.1203497  56.87  0.001786491    1.994    0.498
       387 -10.5915    123.4340    222.2518   1.0871783130e+02   1.3290930025e+01    0.2133812    0.1737345 -64.64 0.0007491464    1.456    0.313
       388 -10.2611    109.5991    243.0719   1.1337683712e+02   1.2075224198e+01    0.2422123    0.1481143  66.89 0.0009965607    1.740    0.425
       389 -10.2751    141.2897    221.3610   1.0528455762e+02   1.0657230229e+01    0.2375415    0.1754962  18.79  0.001468196    1.658    0.397
       390 -10.3373     13.5691    221.8328   1.2852011365e+02   2.7352999483e+01    0.1525829    0.1182618  57.76 0.0009278291    1.271    0.213
       391 -10.2812     21.9692    220.5009   1.2703316244e+02   2.6755380099e+01    0.1562651     0.107087  76.44 0.0004393715    1.109    0.098
       392  -9.2453     41.6740    220.7126   1.2360767582e+02   2.4596800130e+01   0.08718415   0.08448271 -68.86 0.0007010077    1.609    0.379
       393  -9.3813    250.4910    219.4482   8.5983414732e+01  -5.9581590554e+00    0.1150501   0.08373211  12.43 0.0001466859    1.035    0.034
       394 -11.6708    240.6421    211.9811   8.6305556394e+01  -3.7524174649e+00    0.3847046    0.2601657   8.44  0.002519329    1.306    0.234
       395  -9.2492     63.2044    243.6155   1.2136083779e+02   1.8135954151e+01    0.1346966   0.08556992  37.64 0.0003719591    1.610    0.379
       396 -10.7889      9.5896    216.9416   1.2898604883e+02   2.8613761739e+01    0.2791205    0.1359751  57.68  0.001140194    1.497    0.332
       397  -9.7190     37.9950    217.4891   1.2406404445e+02   2.5594537108e+01    0.1539426   0.09015859  42.71 0.0006553853    1.558    0.358
       398  -9.9588     24.2920    216.8002   1.2644561872e+02   2.7188176584e+01    0.2464402   0.06256959  48.33  0.001232303    2.653    0.623
       399  -9.5583    129.5256     32.5010   6.1929112897e+01   4.9100312115e+01    0.1482014    0.1419381  12.40 0.0001438183    1.011    0.011
