#   1 NUMBER                 Running object number                                     
#   2 MAG_AUTO               Kron-like elliptical aperture magnitude                    [mag]
#   3 X_IMAGE                Object position along x                                    [pixel]
#   4 Y_IMAGE                Object position along y                                    [pixel]
#   5 X_WORLD                Barycenter position along world x axis                     [deg]
#   6 Y_WORLD                Barycenter position along world y axis                     [deg]
#   7 A_WORLD                Profile RMS along major axis (world units)                 [deg]
#   8 B_WORLD                Profile RMS along minor axis (world units)                 [deg]
#   9 THETA_WORLD            Position angle (CCW/world-x)                               [deg]
#  10 FWHM_WORLD             FWHM assuming a gaussian core                              [deg]
#  11 ELONGATION             A_IMAGE/B_IMAGE                                           
#  12 ELLIPTICITY            1 - B_IMAGE/A_IMAGE                                       
         1 -16.5349     31.6137    132.2091   1.3122959655e+02   4.5579244832e+01     5.150024     3.782338  31.31   0.02972398    1.535    0.349
         2 -11.2194    178.0278     36.1271   6.4928800112e+01   3.6164574558e+01    0.7458906    0.5936075 -60.63  0.003312419    1.244    0.196
         3 -12.2642     26.5939      7.3094   9.7067571489e+01   7.2003511729e+01    0.8608239    0.5112786  -5.28  0.005113872    1.710    0.415
         4 -12.4349      7.2076      4.8026   1.0718754772e+02   7.4379665460e+01     1.191068    0.8415554  10.44  0.008684264    1.315    0.239
         5 -10.2762    197.2818      4.5862   5.4460076929e+01   3.4935103635e+01    0.5050265    0.2955345  52.81  0.002669351    1.895    0.472
         6  -8.2880     70.0832     14.3459   8.1466816585e+01   6.4227090259e+01    0.1774925    0.1396744  35.61 0.0003655519    1.115    0.103
         7 -14.1067    242.0136    230.6138   9.7964716724e+01  -8.8399811324e+00     3.689717     1.166939 -33.31   0.01617215    3.167    0.684
         8 -15.2465    105.5047    229.9607   1.2528977207e+02   1.2843024020e+01     1.542234     1.101328  -4.26  0.007039163    2.558    0.609
         9  99.0000     31.7415    208.7089   1.3908908767e+02   2.7421950420e+01    0.8599423    0.7305457 -75.92  0.005940321    1.303    0.232
        10 -15.0656     94.4172    220.7794   1.2660729257e+02   1.6404392522e+01     1.712554    0.8610685 -34.73  0.005773351    5.307    0.812
        11 -14.7567     86.1168    213.8875   1.2764013979e+02   1.9113405853e+01    0.8494458    0.5780126  69.93  0.004611402    1.493    0.330
        12 -14.8409     91.0725    236.5438   1.2907298825e+02   1.3786352534e+01    0.7160735    0.5680038 -12.06  0.003958383    2.078    0.519
        13 -17.5863     63.4138    238.9036   1.3494925503e+02   1.7249885491e+01      6.45828     2.817131  34.72   0.02844089    2.196    0.545
        14 -12.2679     62.4531    194.7533   1.3089057163e+02   2.6764407020e+01    0.3231355    0.2096734  72.33  0.001342416    1.538    0.350
        15 -10.7284     51.0279    192.4468   1.3333418423e+02   2.8787924347e+01    0.1648398    0.1224534  43.45 0.0002036879    1.318    0.241
        16  -9.8674     45.2705    190.5629   1.3449569675e+02   2.9930611592e+01    0.6396046    0.4059994  19.84  0.003319028    2.152    0.535
        17 -11.5194     70.1583    199.0786   1.2957186898e+02   2.4709684914e+01    0.2927427    0.2176117  16.08 0.0009763033    1.857    0.461
        18  99.0000     40.3875    199.1711   1.3642277096e+02   2.8545912017e+01     0.425243    0.2637756 -85.12  0.002394543    1.481    0.325
        19 -12.0014     53.5367    197.5334   1.3327082583e+02   2.7305448610e+01    0.2548088    0.2116691  12.97  0.001526418    1.660    0.398
        20 -12.1362     49.4409    197.0862   1.3417018369e+02   2.7924381108e+01    0.3257587     0.256108   0.25  0.001503857    1.998    0.499
        21 -11.9971     44.4973    197.5091   1.3534224391e+02   2.8433582927e+01    0.2121061    0.1546259  44.26  0.001269311    1.327    0.246
        22 -12.9608     63.1954    210.7229   1.3241709035e+02   2.3093535455e+01    0.4093187    0.1473711 -57.13  0.001704266    2.972    0.663
        23 -11.5875     59.6932    210.3367   1.3315564604e+02   2.3648690590e+01    0.3817566    0.2002665 -52.90  0.001520425    2.310    0.567
        24 -12.7632     61.2831    202.3939   1.3199216064e+02   2.5191082783e+01    0.8624611    0.5068394  66.78  0.004400737    1.704    0.413
        25 -10.0971     53.7682    208.2503   1.3426741833e+02   2.4880830684e+01    0.1407508    0.1192895 -86.94 0.0002741033    1.166    0.142
        26 -12.0247     82.8947    197.9184   1.2642947281e+02   2.3097643177e+01    0.7533096     0.157644 -58.41  0.002354939    4.402    0.773
        27 -12.9805     76.5139    205.4513   1.2883640895e+02   2.2370612304e+01    0.4825586    0.2540489 -83.79  0.002153385    2.359    0.576
        28 -12.8114     78.6815    202.6883   1.2800961584e+02   2.2663171165e+01    0.3583206    0.2112882  42.41 0.0007740846    1.526    0.345
        29 -11.0155     17.5277    206.1160   1.4189700554e+02   2.9485126512e+01    0.1472523   0.09560061 -70.88 0.0008838473    1.509    0.338
        30  99.0000      5.2201    206.6427   1.4444450585e+02   3.0544529026e+01    0.1117174   0.07248361  80.23 0.0007145471    1.205    0.170
        31  -8.0909    163.6341    201.5507   1.0828988546e+02   8.3644723566e+00    0.2040858    0.1363932 -47.58 0.0006891058    1.661    0.398
        32  -9.7471     19.8439    193.7244   1.4055557144e+02   3.1988866267e+01     0.134551    0.0993519  79.25 0.0003371898    1.087    0.080
        33  99.0000     21.9718    197.8555   1.4038939742e+02   3.0851852033e+01    0.4779222    0.2901805 -53.63  0.002716999    2.012    0.503
        34 -10.3552     26.8109    194.6091   1.3907976359e+02   3.1080661855e+01    0.2184457    0.1478711 -69.46  0.001320373    1.435    0.303
        35  99.0000     76.0215    197.8994   1.2805342436e+02   2.4129617631e+01    0.3163276    0.1459117  23.17  0.000968795    3.545    0.718
        36 -14.0601     47.9057    216.7000   1.3629034815e+02   2.3793846715e+01      1.17178     0.584298  44.39  0.006210414    1.703    0.413
        37 -11.4917     76.8639    192.4029   1.2716708958e+02   2.5258968179e+01    0.2139734     0.181372 -83.63 0.0002856639    1.145    0.127
        38 -11.7371     42.8503    183.2855   1.3433868012e+02   3.1915045575e+01      0.19566    0.1620564  72.05 0.0004415996    1.048    0.045
        39  -8.8102     35.3365    189.9515   1.3675268022e+02   3.1221700088e+01    0.2863221    0.1964383  82.15  0.001681996    1.283    0.220
        40 -13.1533     36.4068    184.2075   1.3597141726e+02   3.2434600598e+01    0.6427973    0.2553967  36.21  0.002936438    2.380    0.580
        41 -12.1515     61.8484    188.2316   1.3028741369e+02   2.8355648367e+01    0.2254686    0.1966976  87.17 0.0004767521    1.068    0.064
        42 -12.3338     63.0097    184.5009   1.2955828606e+02   2.9073580451e+01    0.2346668    0.2077822 -83.84 0.0004024053    1.111    0.100
        43  -8.3725     92.9773    187.6428   1.2258371921e+02   2.3855473096e+01    0.2365759    0.1746523  84.50 0.0005983283    1.476    0.322
        44 -10.9459     82.6515    185.1707   1.2478402572e+02   2.6062217658e+01    0.2380807    0.1937996  59.77 0.0003335176    1.125    0.111
        45 -12.1791     53.1621    182.5011   1.3174449047e+02   3.0842246040e+01    0.2171549    0.1908931  76.26 0.0005664992    1.048    0.046
        46 -10.9316     50.3019    180.2770   1.3219718308e+02   3.1728494182e+01    0.2359283    0.2087646 -66.51  0.001104061    1.233    0.189
        47 -11.2770     16.6444    182.4534   1.4043680427e+02   3.4858347740e+01     0.132368    0.1140479  84.70 0.0003064699    1.125    0.111
        48  -8.9531     63.2417    179.9182   1.2893257232e+02   3.0128797658e+01    0.1268839    0.1027176  82.31 0.0007105845    1.130    0.115
        49  -7.9579     86.1822    178.6546   1.2295315115e+02   2.7045734936e+01    0.1371336   0.09868769  88.21 0.0002565434    1.516    0.340
        50  -7.4272     89.9513    175.3804   1.2148692673e+02   2.7219853466e+01    0.2598176    0.1840874 -45.86 0.0008694084    1.610    0.379
        51  -8.9086     92.8366    171.0005   1.2003588647e+02   2.7792984418e+01    0.3090428    0.2368552 -41.30  0.001170113    1.529    0.346
        52 -11.9705     38.9279    172.4483   1.3416872932e+02   3.4940008025e+01    0.3446628    0.3077088  20.15  0.001664444    1.417    0.294
        53  -9.5026    175.3009    172.1700   1.0010672044e+02   1.1878171438e+01    0.3058462    0.2745711  32.20 0.0006370121    1.069    0.064
        54  -8.0330    196.8846    171.3208   9.5356543140e+01   7.8293372864e+00    0.2316837    0.1881179 -44.82  0.000579061    1.305    0.234
        55  -9.7383    243.1719    168.6968   8.6221142768e+01  -5.2799615451e-04    0.2273527    0.1610343 -39.55 0.0007348448    1.373    0.272
        56  -8.9169     23.6862    168.8027   1.3760782757e+02   3.7391051824e+01    0.2824882    0.1541934  36.69  0.001181467    1.872    0.466
        57  -7.6708    155.4102    168.5047   1.0387605274e+02   1.6614201880e+01    0.1484389    0.1444998  41.73 0.0001858408    1.031    0.030
        58  -7.2864     76.6138    167.5372   1.2375339156e+02   3.1200724032e+01    0.1440952    0.1261996  81.73 0.0001906785    1.062    0.058
        59  -9.1091     38.2891    166.0881   1.3363374612e+02   3.6546033913e+01    0.1730889    0.1414764 -81.25 0.0003110156    1.084    0.077
        60 -10.0207     99.0482    163.4825   1.1710784980e+02   2.8547277859e+01    0.4592746    0.3504565 -74.87 0.0009345859    1.380    0.276
        61  -9.1122    244.4850    163.7738   8.5004055259e+01   5.7143155136e-01    0.2150744    0.1785374  28.27 0.0005404628    1.278    0.217
        62  99.0000     10.3593    215.4433   1.4389869879e+02   2.8205270041e+01    0.2832038    0.2034481 -50.43  0.001854495    1.976    0.494
        63  -7.9237    133.8767    145.3339   1.0421244494e+02   2.6189118933e+01    0.2630354    0.1705689 -45.53 0.0009368373    1.581    0.368
        64  -7.8620    231.8848    139.0821   8.1893733672e+01   6.9333940953e+00    0.1947287    0.1692351 -47.62 0.0003059933    1.179    0.152
        65  -9.0663    161.6151    128.2587   9.3308843486e+01   2.3941699640e+01    0.4176032    0.2900707  84.05  0.001646827    2.279    0.561
        66  -7.9976    105.1026    127.0182   1.0788840826e+02   3.6295994498e+01    0.2394174    0.1845923  75.41 0.0009499844    1.587    0.370
        67  -8.0973    244.6175    158.7837   8.3960939202e+01   1.3546242721e+00    0.1797754    0.1114853 -41.97 0.0004906638    1.542    0.351
        68  -9.0961    196.6165    107.0378   8.0641893240e+01   2.0139926397e+01    0.2753611    0.2224583  54.12 0.0005194907    1.282    0.220
        69  -8.0614    169.8680    158.3615   9.8395107439e+01   1.5789614118e+01    0.2099325     0.138057  32.16 0.0003404949    1.617    0.381
        70  -8.5922    212.6018    157.1182   8.9253664053e+01   7.4204338101e+00    0.2343191    0.1937647  31.19 0.0004054477    1.233    0.189
        71  -7.5065    181.0008    104.7695   8.3095753630e+01   2.4210725247e+01    0.1949409    0.1280833  53.10 0.0003189007    1.544    0.352
        72  -7.8548    110.4756    157.5003   1.1294069455e+02   2.7933644840e+01    0.1521558    0.1448192  71.95  0.000105258    1.005    0.005
        73  -8.2672    101.5471    156.5276   1.1515337534e+02   2.9790274993e+01    0.3032752    0.2435894  54.15  0.000718538    1.227    0.185
        74  -7.4457    173.2623     92.2903   8.1371524696e+01   2.8439441653e+01    0.1460621    0.1225807  10.50 0.0001900611    1.496    0.332
        75  -8.7392    105.0207    154.5010   1.1382082621e+02   2.9656430892e+01    0.3312608    0.2910135  82.14  0.001101105    1.169    0.144
        76  -8.1642    228.5112     84.0570   6.9937349432e+01   1.6977056341e+01    0.1964431    0.1809776 -82.73  0.000436169    1.098    0.089
        77  -7.9847    104.1848     82.4951   9.6034070702e+01   4.6530140392e+01    0.2225163    0.1478665  43.49 0.0008967753    1.497    0.332
        78  -7.9124     71.2815    163.4240   1.2454924243e+02   3.2997232961e+01    0.1845632    0.1260144  49.34 0.0003670269    1.431    0.301
        79  -7.8978     81.7029     76.9301   1.0166902767e+02   5.2028919737e+01    0.2071189    0.1790141 -42.49 0.0007441571    1.146    0.127
        80  -7.5626    136.7065    154.3336   1.0546152087e+02   2.3544869974e+01    0.1576919    0.1227107  83.36 0.0003645993    1.638    0.390
        81  -8.4552    155.2837     65.0370   7.7339966196e+01   3.7733587678e+01    0.2106835    0.1987242 -56.10 0.0005963424    1.087    0.080
        82 -11.6970    163.7042     51.7113   7.1729571269e+01   3.7672266306e+01     0.843312    0.5495616  42.23  0.002856051    1.702    0.412
        83  -9.9282    172.4474     48.2290   6.9200136560e+01   3.5949362153e+01    0.3329571    0.1929484  55.29  0.001024227    1.643    0.391
        84 -10.1324    182.8848     29.1652   6.2354001757e+01   3.5804597117e+01    0.4153476    0.3420399  14.54  0.001150648    1.656    0.396
        85 -11.3789    173.8361     41.5509   6.7079691822e+01   3.6517424443e+01    0.9469277    0.6415044 -81.49  0.004566718    1.659    0.397
        86 -10.8109     68.1291    213.4494   1.3160073316e+02   2.1824823835e+01    0.1869404    0.1488745 -78.86  0.001144301    1.267    0.211
        87  -8.7295     98.3187    149.3667   1.1465359720e+02   3.2107229539e+01    0.2794463    0.2320527  24.55 0.0006228752    1.355    0.262
        88  -7.8779    129.1203     52.1339   7.9143379623e+01   4.6291768360e+01    0.1934267    0.1692352  88.68 0.0003652543    1.271    0.213
        89  -7.7137    224.7929     34.5632   5.8911417541e+01   2.5048801325e+01    0.1852951    0.1121771 -89.89 0.0009507189    1.663    0.399
        90  -8.4343     43.4990     22.4952   9.6174100708e+01   6.7699914250e+01    0.1245711    0.1014707   0.06 0.0008106765    1.003    0.003
        91 -12.4031     69.5422    208.5599   1.3077098286e+02   2.2688049280e+01    0.2238055    0.1978012  85.71   0.00142294    1.125    0.111
        92 -11.8121     76.8603    211.6041   1.2945686847e+02   2.0978192976e+01    0.2506559    0.1843659 -70.84 0.0007119396    1.411    0.291
        93 -11.8453     56.5717    192.1894   1.3199872163e+02   2.8137393930e+01    0.3611091    0.1978908  82.83  0.001352883    2.092    0.522
