#   1 NUMBER                 Running object number                                     
#   2 MAG_AUTO               Kron-like elliptical aperture magnitude                    [mag]
#   3 X_IMAGE                Object position along x                                    [pixel]
#   4 Y_IMAGE                Object position along y                                    [pixel]
#   5 X_WORLD                Barycenter position along world x axis                     [deg]
#   6 Y_WORLD                Barycenter position along world y axis                     [deg]
#   7 A_WORLD                Profile RMS along major axis (world units)                 [deg]
#   8 B_WORLD                Profile RMS along minor axis (world units)                 [deg]
#   9 THETA_WORLD            Position angle (CCW/world-x)                               [deg]
#  10 FWHM_WORLD             FWHM assuming a gaussian core                              [deg]
#  11 ELONGATION             A_IMAGE/B_IMAGE                                           
#  12 ELLIPTICITY            1 - B_IMAGE/A_IMAGE                                       
         1 -14.3996    159.0306     53.2915   8.0167856581e+01   3.8338767742e+01      1.57772     1.314268  44.89  0.003952031    1.193    0.162
         2 -14.5480    171.4473     37.5775   7.3112722680e+01   3.7306941023e+01      1.17016     1.040061  16.13  0.004128257    1.308    0.236
         3 -14.3572    187.9410      6.6182   6.1956069109e+01   3.6503602203e+01     1.036044    0.8776706  78.19  0.004879545    1.050    0.048
         4 -12.1052    154.2089    196.0479   1.1595270774e+02   1.2213598108e+01    0.3259215     0.255758  87.95  0.001321482    1.699    0.411
         5 -19.0975     69.5872    238.6754   1.3835405077e+02   1.8221807960e+01     6.974758     5.715518  83.31   0.04822084    1.218    0.179
         6 -11.7460    207.7976    195.8191   1.0510990705e+02   2.2680022278e+00    0.2418493    0.2059488  15.44  0.001142803    1.049    0.047
         7 -13.1193    135.8668    196.8535   1.2000512013e+02   1.5455942686e+01    0.5275941    0.3685705 -15.47  0.002474804    2.482    0.597
         8 -10.8788    175.0349    193.4654   1.1115982666e+02   8.7369247629e+00    0.2397455    0.1944302 -67.57 0.0007237995    1.629    0.386
         9 -10.2502    180.1547    192.6623   1.0996941778e+02   7.9030723905e+00    0.2107775    0.1841057  61.74  0.001044042    1.309    0.236
        10 -11.5129    175.5649    186.6027   1.0980520399e+02   9.8287916679e+00    0.5967402    0.3742571 -72.16   0.00237488    3.294    0.696
        11 -12.6120    167.6119    188.6347   1.1183582782e+02   1.1004210686e+01    0.5342682    0.3932558   3.00  0.002678629    1.835    0.455
        12 -11.3317    163.4689    188.4701   1.1268013285e+02   1.1831721879e+01    0.2474551    0.2300584  59.03  0.000594511    1.132    0.117
        13 -12.0934    146.1272    189.2374   1.1653756115e+02   1.5001949177e+01    0.2764022    0.2082362   9.38 0.0009490327    1.822    0.451
        14 -13.1039    153.1445    185.2677   1.1432374889e+02   1.4415654899e+01    0.5863088    0.3633996 -67.88  0.002590735    2.403    0.584
        15 -12.3562    168.0274    233.1134   1.1889483476e+02   3.6271887376e+00    0.3428753    0.2154953  48.25 0.0009913471    1.427    0.299
        16 -12.1614     38.7674    183.5983   1.3975029803e+02   3.3005274719e+01    0.2233518    0.1675067 -83.10 0.0003751692    1.183    0.155
        17 -11.4901    134.1193    183.9192   1.1828489825e+02   1.8299133686e+01    0.2163485    0.1807523  69.03  0.000509464    1.230    0.187
        18 -11.7319    205.5003    179.5229   1.0244523813e+02   5.2516634041e+00    0.2900057    0.2478167 -65.47  0.001640474    1.598    0.374
        19 -11.5242    209.7581    176.5156   1.0103268360e+02   4.9261277774e+00    0.6478129    0.3603644 -19.32  0.002782426    2.437    0.590
        20  99.0000      9.1900    216.8735   1.4788703038e+02   2.9356521851e+01    0.2637344    0.1037763 -53.12  0.001196484    4.615    0.783
        21  -9.8217    228.0020    233.0311   1.0784809020e+02  -6.1259891103e+00     0.144308    0.1156214  10.25 0.0007150326    1.088    0.081
        22 -10.2299    170.5744    176.7224   1.0899072421e+02   1.2589014524e+01    0.2402201    0.1652326  60.02 0.0006607878    1.691    0.409
        23 -12.5237    195.8004    170.8442   1.0261494706e+02   8.5914271627e+00    0.6010765    0.4148852 -45.72  0.002289583    1.618    0.382
        24 -11.3596    193.8127    164.9617   1.0180563205e+02   1.0014202714e+01    0.3299521    0.2888811 -45.35  0.001153092    1.265    0.209
        25 -10.0393    203.0259    172.0648   1.0143647812e+02   6.9568684887e+00    0.2057683    0.1768197  87.92 0.0007747112    1.640    0.390
        26  -9.7620    165.6202    172.2886   1.0919505145e+02   1.4411877837e+01    0.1903918     0.138397 -33.12 0.0009408117    1.560    0.359
        27 -11.3879    229.9966    165.8027   9.5128792971e+01   2.7996068021e+00    0.1770731    0.1685352 -52.05 0.0008347412    1.318    0.241
        28 -19.1772     52.4870    102.8575   1.2476385177e+02   4.9890391634e+01      17.1621    0.9139946 -59.89   0.02592973   17.203    0.942
        29 -10.4242     33.0237    206.4842   1.4279955761e+02   2.8904627531e+01    0.1473726    0.1067916  34.53 0.0009800397    1.632    0.387
        30 -10.4209    200.8748    164.7356   1.0035238462e+02   8.6247907076e+00    0.3574291    0.1913506 -55.32  0.001394101    2.874    0.652
        31 -11.5973    122.6566    165.7913   1.1775829330e+02   2.4209121524e+01    0.2677782    0.2245593  57.41 0.0002868114    1.119    0.106
        32 -10.2581     25.4487    165.4937   1.4106322814e+02   3.8360343696e+01    0.2040468    0.1178482  29.29  0.001161965    2.045    0.511
        33 -10.1428    222.7390    162.0118   9.5643362693e+01   4.7659401543e+00    0.3069223    0.1487314 -48.34  0.001177182    2.669    0.625
        34 -11.8644    163.2241    203.3904   1.1529162940e+02   9.2389419273e+00     0.307859    0.2251009 -41.89  0.001247256    1.585    0.369
        35 -13.6124    133.9962    146.0133   1.1111966165e+02   2.6241218253e+01       1.3845    0.3901432 -55.00  0.003559149    5.232    0.809
        36  -9.8731     17.0025    151.0769   1.4171139863e+02   4.2344680726e+01    0.2023474    0.1450257 -29.06  0.001155371    2.091    0.522
        37 -11.4146     14.5900    146.8802   1.4190212562e+02   4.3488129394e+01    0.3319341    0.1230513 -79.60  0.001508973    2.438    0.590
        38 -10.0983    198.9997    222.5224   1.1139664833e+02  -9.6874482013e-02    0.1766507    0.1511585  20.23 0.0003329996    1.069    0.065
        39 -11.3129    174.3967    148.6329   1.0236046171e+02   1.7110688687e+01    0.3483157    0.2902375 -81.85  0.001329858    1.524    0.344
        40 -12.7352    144.4159    145.7216   1.0854155317e+02   2.4137924807e+01     0.487637    0.3740773 -88.14  0.002280164    1.707    0.414
        41 -12.1823    142.4547    139.1546   1.0756145543e+02   2.5942162379e+01     0.466645     0.266115 -56.68  0.001895858    2.028    0.507
        42 -13.2781     12.3660    116.1454   1.3918150536e+02   5.0616972470e+01    0.5024617     0.416559 -33.84   0.00281884    1.443    0.307
        43 -12.7313      5.5465    138.8279   1.4339052194e+02   4.5987737762e+01     1.295192    0.5495399 -51.71  0.006569215    2.491    0.599
        44 -13.7016      2.9731    125.5017   1.4279818479e+02   4.9143329375e+01     1.382488    0.7249352 -77.59   0.00801365    1.526    0.345
        45 -11.8002    151.7406    139.3753   1.0539666791e+02   2.3896163061e+01    0.4093579    0.2743092  30.50  0.001792415    1.707    0.414
        46 -12.8710    135.8147    127.7698   1.0656877214e+02   2.9799187817e+01    0.9947161     0.252344 -49.82  0.002643321    4.462    0.776
        47  -9.7776    170.3073    136.6586   1.0053742680e+02   2.0346159164e+01    0.1549478    0.1223754 -85.74 0.0005820105    1.688    0.407
        48 -12.6314    105.9542    130.8709   1.1506354712e+02   3.5118834428e+01    0.4525083    0.3766406 -70.65  0.001184139    1.236    0.191
        49 -11.6275    107.9307    125.2043   1.1327162629e+02   3.6033743469e+01    0.3075188    0.2736873 -22.52 0.0007143324    1.298    0.230
        50 -12.0253    161.0685    127.8497   1.0052441893e+02   2.4185886577e+01    0.4822472     0.379141  47.13  0.002341714    1.233    0.189
        51 -12.9051      6.3199    111.8856   1.4040243934e+02   5.1989338511e+01    0.5671904    0.3263033   7.83  0.003196684    2.449    0.592
        52 -11.3937    156.8068    202.3424   1.1644678636e+02   1.0604608630e+01    0.2652649    0.2050204  82.34 0.0009420395    1.755    0.430
        53 -11.0832    113.5974    118.5538   1.1017209913e+02   3.6427060733e+01    0.2718186    0.2476009  73.83 0.0005864418    1.131    0.115
        54 -10.9775    168.3340    113.2052   9.5233327855e+01   2.5414693964e+01    0.4234696    0.3012645 -81.90  0.001217599    2.109    0.526
        55 -11.9024    134.7846    112.5391   1.0306112831e+02   3.3280531174e+01    0.5203452    0.1355485 -45.10   0.00144081    3.909    0.744
        56 -11.1094    134.5612    105.2839   1.0121136669e+02   3.4853985759e+01    0.4683618    0.1510296 -45.28  0.001437884    3.165    0.684
        57 -10.8112    205.5031    110.2512   8.6998090224e+01   1.7207089039e+01    0.3190715    0.2343166  43.65 0.0009554297    1.395    0.283
        58 -11.7813    117.8369    107.8745   1.0633809526e+02   3.7916726197e+01    0.4152099    0.2026952 -36.94  0.001521471    2.426    0.588
        59 -11.9061     25.1823    108.9067   1.3440128566e+02   5.1276127349e+01    0.2052402       0.1753 -36.44 0.0006833547    1.311    0.237
        60 -12.2830     21.8081    141.0822   1.3951024459e+02   4.4180916969e+01    0.3554401    0.1892219  19.31  0.001229355    2.564    0.610
        61 -10.1656     20.8120    236.2084   1.4685155655e+02   2.4596903678e+01    0.1209393   0.09634585  88.29 0.0009613644    1.303    0.232
        62 -10.1697    147.4875     80.0065   9.0833418392e+01   3.6786539033e+01    0.2328278    0.1542956 -37.66 0.0005274126    1.553    0.356
        63 -11.1975     92.6057     79.0993   1.0567382233e+02   4.8992070559e+01    0.2597413    0.2271788  41.89 0.0003418299    1.178    0.151
        64 -13.0357    139.3978    200.8028   1.1986500338e+02   1.4071982987e+01    0.4035193    0.3848061 -39.18  0.001390441    1.234    0.190
        65 -10.4071      5.0997    199.2792   1.4771508616e+02   3.3162945565e+01   0.09209737   0.05067187 -77.10 0.0005728371    1.580    0.367
        66 -11.3095     14.1340     58.9305   1.2867029396e+02   6.3113916571e+01    0.2978134    0.1924722 -35.25  0.001862363    1.422    0.297
        67 -12.9439    175.3520     30.6646   7.0438500226e+01   3.7154649274e+01    0.4456164    0.3659061  42.42  0.001024434    1.302    0.232
        68 -10.7432    129.3181     28.0639   7.8024646874e+01   4.9280469778e+01    0.2713289    0.1969308  68.63 0.0005987774    1.407    0.289
