#   1 NUMBER                 Running object number                                     
#   2 MAG_AUTO               Kron-like elliptical aperture magnitude                    [mag]
#   3 X_IMAGE                Object position along x                                    [pixel]
#   4 Y_IMAGE                Object position along y                                    [pixel]
#   5 X_WORLD                Barycenter position along world x axis                     [deg]
#   6 Y_WORLD                Barycenter position along world y axis                     [deg]
#   7 A_WORLD                Profile RMS along major axis (world units)                 [deg]
#   8 B_WORLD                Profile RMS along minor axis (world units)                 [deg]
#   9 THETA_WORLD            Position angle (CCW/world-x)                               [deg]
#  10 FWHM_WORLD             FWHM assuming a gaussian core                              [deg]
#  11 ELONGATION             A_IMAGE/B_IMAGE                                           
#  12 ELLIPTICITY            1 - B_IMAGE/A_IMAGE                                       
         1 -11.7649    247.3394     40.5073   3.7570909629e+01   1.9986847302e+01    0.5148516    0.1888067 -33.93  0.002255909    2.610    0.617
         2 -11.1372    242.8909     40.8047   3.8035198901e+01   2.0855890879e+01    0.3269463    0.1264279 -42.30  0.001513902    2.112    0.527
         3  -9.7158     79.1252     20.5363   6.0007445809e+01   6.1044062849e+01    0.3291496    0.1710985  31.53  0.001558187    2.009    0.502
         4  -9.6297     41.0671     13.7430   7.1229200188e+01   6.8460521138e+01    0.2128843     0.153024   0.64  0.000358896    1.225    0.184
         5  -8.8057     97.5715     12.2099   5.1442603825e+01   5.8032707263e+01     0.174822    0.1177068   3.06 0.0009462205    1.714    0.417
         6  -8.9291     79.6025     11.7668   5.6104944445e+01   6.1873566195e+01    0.1667166    0.1127039 -33.06 0.0009486555    1.677    0.404
         7  -9.5371     59.7864      9.1578   6.1420005188e+01   6.5918175089e+01    0.2964957    0.1586989  14.16  0.001436193    2.340    0.573
         8  -9.8574     73.8619      6.2250   5.5384034154e+01   6.3541367646e+01    0.2887427    0.1622941  22.62  0.001497247    1.912    0.477
         9 -11.2582    164.5182    226.3257   9.1358868717e+01   3.6145559337e+00    0.5116895    0.3604274  24.50  0.002863612    1.348    0.258
        10 -11.4701    160.4778    243.3565   9.4730188010e+01   1.4104887647e+00    0.4664342    0.4272545 -86.39  0.001824001    1.446    0.308
        11 -11.5175    165.9081    248.6130   9.4397573541e+01  -2.4883204447e-01    0.6532353    0.3025078  35.76   0.00325527    1.810    0.448
        12 -11.2886    167.8164    242.6380   9.3162331865e+01   3.9479462462e-01    0.3640946    0.2913874  35.81  0.001556714    1.129    0.114
        13 -10.4168    160.5296    227.4601   9.2360359385e+01   4.0644814151e+00     0.381633    0.2458518  24.81  0.001808642    1.543    0.352
        14  -8.4812    237.0076    231.9881   7.8382488575e+01  -8.1020000239e+00    0.1463909    0.1138703   2.71 0.0006702743    1.011    0.011
        15 -10.6273     99.3177    226.1296   1.0517511858e+02   1.4073021741e+01    0.3920266    0.2899681  35.40  0.001419106    1.304    0.233
        16  -9.7662    128.8988    226.4364   9.8875519034e+01   9.3800564694e+00    0.3664784    0.2422994  69.76   0.00182215    2.080    0.519
        17  -9.7376    123.4284    224.2556   9.9746668259e+01   1.0676118216e+01     0.361506    0.2450089 -87.51  0.001817384    2.128    0.530
        18 -10.7711    126.0557    220.8283   9.8698762532e+01   1.0917740123e+01    0.3266278    0.2491993  50.99 0.0006752475    1.233    0.189
        19 -10.8995    184.7346    226.1069   8.7216154530e+01   4.1013323329e-01    0.3856761    0.2570945 -62.99  0.001921749    2.519    0.603
        20  -9.3562    181.1397    226.6939   8.8031982674e+01   8.8349077233e-01    0.2380318    0.1840941  45.68  0.001406584    1.401    0.286
        21  -9.0801    116.9590    227.0163   1.0150736934e+02   1.1170681096e+01    0.2000185    0.1780321  46.49 0.0005635147    1.026    0.026
        22 -10.3588     88.7583    222.9776   1.0707217594e+02   1.6287861761e+01    0.2614924    0.1285975 -57.33 0.0009825514    2.191    0.544
        23 -11.8826    191.9971    216.6875   8.4176474607e+01   7.9785034084e-01    0.4824365    0.3425138 -14.27  0.002405996    1.525    0.344
        24  -9.2998    148.8973    220.7243   9.3762519530e+01   7.1796074746e+00    0.2668704    0.1761116 -39.20 0.0006936651    1.720    0.419
        25  -9.3267    132.4914    220.8506   9.7306781560e+01   9.8629871363e+00    0.3538153    0.2286457  68.30  0.001645354    2.201    0.546
        26  -9.1318     19.5100    222.5084   1.2135309276e+02   2.5090570765e+01    0.1179565   0.08985067  73.07 0.0008105528    1.000    0.000
        27  -8.9258    114.7870    221.1780   1.0119904052e+02   1.2661193916e+01    0.1714966    0.1517747   9.42 0.0003979557    1.332    0.249
        28  -8.4905     83.6533    220.3311   1.0787244426e+02   1.7580674484e+01    0.1420884   0.08567613  64.72 0.0007049605    1.762    0.432
        29  -9.1579    175.5227    216.6102   8.7502456376e+01   3.4980627124e+00    0.3036788     0.130149 -43.78  0.001116641    2.512    0.602
        30  -9.4101    108.2503    223.1160   1.0287474547e+02   1.3303708136e+01    0.2852593    0.1962066 -34.94  0.001490987    1.997    0.499
        31  -9.0622    143.5261    216.5591   9.4270206550e+01   8.8566551150e+00    0.2472884    0.1356409 -50.90 0.0007099971    2.027    0.507
        32  -9.4142    131.0358    215.0664   9.6768378090e+01   1.1231476348e+01    0.2239134    0.2000089 -46.70 0.0008935953    1.242    0.195
        33  -9.1346    157.7651    221.8308   9.2057816059e+01   5.5109619570e+00    0.1976499    0.1687599  12.56 0.0005629457    1.163    0.140
        34 -12.0603    201.6970    209.3234   8.0957607299e+01   4.5597414896e-01    0.6645597    0.3591747  41.34  0.003260142    1.864    0.463
        35  -9.7537     99.4141    217.5523   1.0409252607e+02   1.5805665568e+01     0.298743    0.2358514  75.53  0.001290229    1.306    0.234
        36  -8.8372    135.8003    208.8342   9.4753665095e+01   1.1671748363e+01    0.1815849    0.1526434  63.12  0.000393301    1.279    0.218
        37  -8.4059    219.6865    208.7195   7.7416086204e+01  -2.2678765855e+00    0.1306459    0.0882678   1.56 0.0002522183    1.570    0.363
        38  -9.3842     79.4800    211.3352   1.0775299607e+02   2.0097439257e+01    0.2194057    0.1126087  37.71 0.0006277399    1.819    0.450
        39  -8.4665     12.3200    207.3095   1.2182226767e+02   2.9030822781e+01    0.1072467   0.08333727 -54.18 0.0004512447    1.643    0.391
        40 -10.3617    124.0070    205.9862   9.6957152281e+01   1.4248545734e+01    0.1951406    0.1784455  48.41            0    1.007    0.007
        41  -8.1852    161.2481    205.5961   8.8629917977e+01   7.9224571525e+00    0.1324618     0.108986  88.12  0.000693895    1.700    0.412
        42  -8.5546     56.5202    205.5551   1.1223819060e+02   2.4497458858e+01    0.1311354    0.1079112  71.31 0.0003816372    1.037    0.036
        43  -9.1108    185.8935    203.5735   8.3079468737e+01   4.0546074604e+00     0.314782    0.1470095 -30.01  0.001249295    2.749    0.636
        44 -10.3116    212.1142    202.4672   7.7687286652e+01  -8.6448241118e-02    0.2519216    0.1728162 -52.45   0.00117467    1.946    0.486
        45  -9.4650    164.8183    199.5714   8.6795896174e+01   8.4490001697e+00    0.4063146    0.2218227 -32.22  0.001753782    2.233    0.552
        46  -9.2515     89.2655    199.7767   1.0406499501e+02   2.1196972258e+01    0.2720324    0.1815665  60.65 0.0009837146    1.523    0.343
        47  -9.3606    126.8972    197.2199   9.4901726109e+01   1.5601476845e+01    0.2493183     0.202655 -45.86 0.0009055931    1.326    0.246
        48 -10.5466    173.0644    194.5000   8.4092782577e+01   7.9577821320e+00     0.590012    0.2912501 -43.93  0.002033108    2.098    0.523
        49  -8.3931    131.4660    195.5415   9.3566522880e+01   1.5163416560e+01    0.1414453    0.1328533  42.84  7.57065e-05    1.005    0.005
        50  -8.9827     66.8729    195.2527   1.0872966091e+02   2.5465392127e+01     0.250347    0.1180877  65.81 0.0009618068    2.944    0.660
        51  -8.3561     78.3370    193.6775   1.0582612761e+02   2.4211385001e+01    0.1478144   0.09425168  67.43 0.0007050685    1.714    0.417
        52  -8.1306    124.6017    192.2795   9.4617676720e+01   1.7063446377e+01    0.1523942    0.1048355  64.75 0.0006991719    1.761    0.432
        53  -9.2202    203.6410    188.6236   7.6684049416e+01   3.6694110132e+00    0.4755902    0.2068572  45.90  0.001936872    2.575    0.612
        54 -10.1099     94.9030    187.1219   1.0090893968e+02   2.3199521114e+01    0.4924206     0.224219  57.40  0.001777355    2.987    0.665
        55 -10.0636    109.0105    185.8136   9.7269657689e+01   2.1183286355e+01    0.4495525    0.2106594  57.72   0.00157938    3.072    0.674
        56 -10.5125     15.3880    184.5116   1.1955102962e+02   3.3849053565e+01    0.4199262    0.2591145 -36.24  0.002227136    2.541    0.606
        57  -8.9591    227.6848    185.6792   7.1579664018e+01   1.7582859407e-01     0.137612   0.09320846  -3.40 0.0004080638    1.657    0.397
        58  -9.8757    211.2790    182.7952   7.4053147540e+01   3.3833953369e+00    0.4080957    0.2800403  -7.92  0.002061437    1.685    0.406
        59  -8.8747    203.7811    184.0326   7.5751796564e+01   4.4591885814e+00     0.255895    0.1509886 -31.88  0.001007397    1.684    0.406
        60 -10.0726    204.9645    176.4803   7.3999859400e+01   5.6089920656e+00    0.4818544    0.2539397 -38.50  0.001610086    1.819    0.450
        61  -8.6257    165.1518    183.3694   8.3694652332e+01   1.1581130057e+01    0.2307748     0.171701 -48.46 0.0007544381    1.416    0.294
        62  -8.5409     74.4895    184.5161   1.0552770281e+02   2.6905348425e+01    0.1414817    0.1218856  75.04 0.0004114247    1.070    0.065
        63  -8.2653    218.6673    183.3169   7.2763798532e+01   2.0452182343e+00     0.124487    0.1102664 -79.79 0.0007047447    1.689    0.408
        64  -9.4264    174.7646    181.2465   8.1177237549e+01   1.0219568673e+01    0.4651485    0.1868568 -37.06  0.001667113    2.827    0.646
        65  -8.5818    197.4072    181.7897   7.6569428518e+01   5.9876976949e+00    0.1958429    0.1245835 -27.86 0.0007460833    1.635    0.388
        66  -8.6797     44.3200    182.6707   1.1263975316e+02   3.1273369079e+01    0.1415658   0.08565939  68.37 0.0004564156    1.689    0.408
        67  -8.4595    183.2143    181.3761   7.9403097002e+01   8.6345459826e+00    0.1935046     0.131557  46.53 0.0007305131    1.559    0.359
        68  -8.2320    148.2890    181.6627   8.7179572715e+01   1.5072562561e+01    0.1454462    0.1164658  81.50 0.0003535208    1.637    0.389
        69  -8.8794     14.5200    178.0136   1.1922703990e+02   3.5436518189e+01    0.1866849    0.1024203 -80.22 0.0004985447    1.533    0.347
        70  -9.9121    106.1875    175.9398   9.6305053555e+01   2.3943705830e+01    0.2831393    0.1760622  52.84  0.001275541    1.681    0.405
        71  -9.3395     76.6764    176.0783   1.0378439416e+02   2.8602179294e+01    0.3283411    0.1678365  49.30  0.001099855    1.983    0.496
        72  -8.4856    182.5362    175.4919   7.8358141856e+01   9.8990108419e+00    0.2158419    0.1330504 -33.01 0.0007774513    1.690    0.408
        73  -8.4057    184.3028    172.3685   7.7343468268e+01   1.0176640911e+01    0.2273688    0.1335514 -36.29 0.0005309232    1.715    0.417
        74  -8.7523    148.9984    175.2708   8.5776697832e+01   1.6304448471e+01    0.2169118      0.18695  30.17  0.000955936    1.149    0.130
        75  -8.8554    193.2291    173.4824   7.5725816577e+01   8.2946353388e+00    0.2615036    0.1712397  -6.20 0.0007756115    2.158    0.537
        76  -8.7549     93.4489    174.4946   9.9277333663e+01   2.6400092180e+01    0.1430392    0.1354675  84.71 0.0001207063    1.024    0.023
        77  -8.4236     45.3256    172.6421   1.1125060089e+02   3.3562735685e+01      0.14637   0.08833156  69.72 0.0007044311    1.777    0.437
        78  -9.1906    177.1640    169.4051   7.8247730881e+01   1.2123394450e+01    0.4896604    0.2096795 -31.44  0.001610923    3.310    0.698
        79 -10.3016    208.9791    168.5407   7.1584637400e+01   6.3306420339e+00    0.5050145    0.3342831  10.78  0.001503631    1.981    0.495
        80  -9.1246    213.4963    168.5044   7.0719627553e+01   5.5268267454e+00     0.244609     0.122766 -29.50  0.001019692    2.139    0.532
        81  -8.8536    122.2177    170.1286   9.1239989474e+01   2.2461798958e+01    0.2940972    0.1851053  63.15  0.001073792    2.077    0.519
        82  -8.6415     55.4788    170.0230   1.0834488274e+02   3.2968672582e+01    0.2010427    0.1066694  83.82 0.0007867063    2.540    0.606
        83  -9.0541    111.8890    166.4583   9.3152812601e+01   2.5182193052e+01    0.3700452    0.1654595 -58.40  0.001374632    2.376    0.579
        84  -9.3593    219.2612    166.2415   6.9177720902e+01   4.9080454619e+00    0.3317965    0.1909518  51.94  0.001313189    2.199    0.545
        85  -8.5060    139.9587    165.9587   8.6057672653e+01   2.0075359467e+01    0.3104541    0.1883928  80.19 0.0009596021    4.138    0.758
        86  -8.9805     98.9750    166.4636   9.6482513318e+01   2.7415259986e+01    0.2224761     0.140856  41.00 0.0005573069    1.563    0.360
        87  -8.4464    192.4133    163.9702   7.3895508815e+01   1.0268838194e+01    0.4106184    0.1212161 -33.15 0.0009550521    6.372    0.843
        88  -9.0776    148.6757    164.1075   8.3588645621e+01   1.8792372568e+01    0.2668699    0.2039851  51.75 0.0009515641    1.370    0.270
        89  -9.0832     79.2663    163.8269   1.0120699056e+02   3.1200104948e+01    0.2469917    0.1390243  71.62 0.0009398678    2.694    0.629
        90  -8.4971     37.3874    164.7215   1.1232688230e+02   3.6381352301e+01    0.1416717   0.08590397  63.89 0.0007001011    1.731    0.422
        91  -8.5139      9.5103    161.9721   1.1905964219e+02   3.9650451181e+01    0.1839226     0.082853  77.71 0.0008084987    2.479    0.597
        92  -8.5376    205.5127    160.0022   7.0443451472e+01   8.5414395704e+00    0.2017376    0.1181564 -17.86 0.0007606159    2.386    0.581
        93  -8.5031     92.6589    160.3315   9.7043040057e+01   2.9950564973e+01    0.1578126    0.1104092  73.00 0.0003988326    1.748    0.428
        94  -8.6861    144.6791    159.4737   8.3568767019e+01   2.0602909659e+01    0.1974554     0.147765  29.39 0.0009219172    1.426    0.299
        95  -9.1788    105.4532    158.2412   9.3257819386e+01   2.8282282571e+01    0.2666946    0.1757132  59.70  0.001097319    1.766    0.434
        96  -9.9767    219.0167    156.0516   6.7068804509e+01   6.7670038314e+00    0.2557632    0.1835708 -32.84 0.0003545234    1.270    0.213
        97  -8.6965    119.9457    155.8084   8.8983364150e+01   2.6226115191e+01    0.2603701    0.1709135  65.62  0.001075739    2.023    0.506
        98  -9.0198    213.1249    155.2071   6.7968073081e+01   8.0050459821e+00    0.2418736    0.1965535  45.95  0.001324085    1.367    0.268
        99  -9.0151     49.7801    155.2073   1.0781364228e+02   3.7328240153e+01    0.2405719    0.1231072  67.62 0.0009462998    2.744    0.636
       100  -9.1192    133.3827    153.3171   8.5032014138e+01   2.4223916775e+01    0.3084509    0.2224632  84.09  0.001308148    2.027    0.507
       101  -8.7679     81.7053    154.3684   9.8931051100e+01   3.3163685460e+01    0.1547988    0.1088438  77.97  0.000702858    1.723    0.420
       102  -9.2710    189.6947    148.7552   7.1115896346e+01   1.3782277488e+01      0.45536    0.1618846 -44.86  0.001545458    2.765    0.638
       103  -8.1520    221.3681    148.2866   6.4972235329e+01   7.7293852429e+00     0.143444    0.1048629   3.02 0.0004305766    1.703    0.413
       104  -9.1111     39.7965    147.9724   1.0954017947e+02   4.0263980113e+01    0.3630032    0.1081158  50.44  0.001095539    4.900    0.796
       105  -9.6089    149.4595    145.5674   7.9349583435e+01   2.2733853642e+01    0.4893015    0.3222023  85.01  0.001757184    2.974    0.664
       106  -9.6305     56.3306    146.0108   1.0459352961e+02   3.8824194812e+01    0.4865208    0.2203215  60.07  0.001683025    3.543    0.718
       107  -9.5044    107.1480    145.0896   9.0137214791e+01   3.1157670215e+01    0.4743168    0.2787071  72.53  0.001610734    3.244    0.692
       108  -8.4263     13.3207    146.6702   1.1661086931e+02   4.3039124680e+01    0.1335181   0.08176624  69.71 0.0004376869    1.692    0.409
       109 -10.9607    196.9835    142.9932   6.8348055687e+01   1.3442701120e+01     0.321526    0.2924343 -30.04 0.0005754902    1.030    0.029
       110  -9.0167     23.9030    138.5050   1.1274125534e+02   4.4166172290e+01    0.4569785    0.1717277  62.66  0.001350673    5.717    0.825
       111  -9.2341    125.4748    143.4819   8.4894866348e+01   2.8063612008e+01    0.3459053    0.2346658  82.63  0.001348963    2.393    0.582
       112  -9.1094     57.9845    136.3433   1.0247269331e+02   4.1041115461e+01    0.2181346    0.1198931  -2.34 0.0007050972    4.433    0.774
       113  -8.4862     39.4797    136.5324   1.0796290951e+02   4.3155947672e+01    0.1377866    0.1181059 -86.22 0.0008077418    1.093    0.085
       114  -8.5026     88.4131    143.9285   9.5094991188e+01   3.4685335656e+01    0.2113373     0.128512 -84.68 0.0008033551    2.481    0.597
       115  -9.5473    132.2036    131.6725   8.0392772742e+01   2.9444180449e+01    0.3401686    0.2500102 -81.14  0.001456712    1.877    0.467
       116  -9.5071     83.2937    131.7447   9.4062446888e+01   3.8532128085e+01    0.3451833    0.2400157  71.67  0.001500526    1.899    0.473
       117  -8.5151    143.0137    131.5374   7.7617362069e+01   2.7211014803e+01    0.2144696    0.1373011  68.69 0.0006705858    2.347    0.574
       118  -9.0803    152.8839    129.3816   7.4687489423e+01   2.5573136989e+01    0.3087327      0.21107 -67.23  0.001280354    1.925    0.480
       119  -8.8644     13.2589    129.7400   1.1469755609e+02   4.7179585905e+01    0.3130294    0.1296805  64.28  0.001148507    3.910    0.744
       120  -9.2000     98.9749    127.5826   8.8543584139e+01   3.6879010767e+01    0.4085479    0.2413735 -75.58  0.001397365    2.683    0.627
       121  -9.7216     60.2832    125.1608   9.9674466209e+01   4.3539958512e+01    0.3788119    0.2229753  77.59  0.001466186    2.865    0.651
       122  -8.5104    180.0199    125.4769   6.7660928994e+01   2.0478900630e+01    0.2137895    0.1373977  75.10 0.0008085657    2.573    0.611
       123  -9.0069    117.6378    125.2877   8.2723017321e+01   3.3881087464e+01    0.2470414    0.1884816  87.46  0.001090321    1.762    0.433
       124  -9.6399     44.5105    123.5418   1.0428205052e+02   4.5856941687e+01    0.4321725    0.2362888  67.77  0.001731984    2.884    0.653
       125  -9.2191     30.1910    124.4075   1.0887510929e+02   4.7094507879e+01    0.3461536    0.1949949  72.14   0.00154354    2.435    0.589
       126  -8.7528    158.7592    121.9501   7.1456031491e+01   2.5884735318e+01    0.2612535    0.1803381 -71.14  0.001066476    2.034    0.508
       127  -9.5683    142.2323    120.0269   7.4937042190e+01   2.9929943163e+01    0.3884172    0.2470134 -62.07   0.00130281    1.961    0.490
       128  -9.1758    130.8605    118.7241   7.7513350212e+01   3.2663350226e+01    0.3481287    0.1836732 -65.90  0.001076881    3.450    0.710
       129  -9.2265    248.9915    118.5064   5.4106909937e+01   7.8145731759e+00    0.1680392    0.1109088  21.41 0.0008071218    2.339    0.572
       130  -8.8008      3.5034    118.0096   1.1615639475e+02   5.0675038691e+01    0.1785115   0.08873735  80.31  0.000809599    2.460    0.594
       131  -8.4506    193.1848    116.3794   6.2804153959e+01   1.9395864826e+01    0.2035252    0.1438748  65.02  0.000936276    1.682    0.405
       132  -8.4026    186.3377    116.6416   6.4202102170e+01   2.0847106842e+01    0.1602777    0.1178971 -74.50 0.0007039145    1.814    0.449
       133  -9.0555    109.1552    114.2165   8.2314825519e+01   3.8131082853e+01    0.2939337    0.2049013 -77.26  0.001218875    2.043    0.511
       134  -9.2415     79.7148    113.5386   9.1028078918e+01   4.3556684989e+01    0.3168195    0.2118057  85.58  0.001124449    2.435    0.589
       135  -9.1076     92.8021    112.9002   8.6818584144e+01   4.1496326249e+01    0.2857036    0.2105184 -75.38  0.001057415    1.686    0.407
       136  -8.3832    174.8078    112.2245   6.5443934533e+01   2.4291862852e+01     0.253785    0.1640229 -77.45 0.0009347282    2.700    0.630
       137  -8.3278    159.3074    112.6288   6.8938921458e+01   2.7714194976e+01    0.1637992    0.1228883 -76.69 0.0007033592    1.763    0.433
       138  -8.5755    122.0015    112.5057   7.8262686437e+01   3.5922431091e+01     0.214099    0.1369113  68.17 0.0005335165    2.353    0.575
       139  -9.8559    133.4107    108.7675   7.4220991929e+01   3.4311012772e+01    0.4838336    0.2108065 -46.49  0.001711326    2.280    0.561
       140 -10.8423     14.1209    109.6617   1.1167951642e+02   5.2006018701e+01    0.4299048    0.2620234 -85.81  0.001777211    1.690    0.408
       141  -9.5340     17.3362    103.7020   1.0965909442e+02   5.3211796971e+01    0.2954571     0.159497 -15.00   0.00138318    2.673    0.626
       142  -9.4218    110.4821    106.5021   7.9887993606e+01   3.9627992208e+01    0.2799124    0.1489564  30.51   0.00103537    2.352    0.575
       143  -9.2338     61.0894    106.4759   9.5382998918e+01   4.8013647888e+01    0.2062644    0.1429798  30.27  0.001028696    1.581    0.367
       144 -10.1194     22.9507    103.0177   1.0763128874e+02   5.2946631173e+01    0.5485998    0.3120651  69.32  0.002482599    2.676    0.626
       145  -8.9725    139.4815    104.5147   7.1514322646e+01   3.3877787810e+01    0.2730736    0.2144487 -85.00 0.0009638738    1.661    0.398
       146  -8.5240    166.5093    103.9994   6.5071565307e+01   2.7817470068e+01    0.2271828    0.1268352 -60.67  0.000810219    2.530    0.605
       147  -9.8190    150.0118    103.0811   6.8555252218e+01   3.1793291540e+01    0.4739343    0.2384152 -54.48  0.001694459    2.425    0.588
       148  -8.7577     93.7881    103.8045   8.4144154310e+01   4.3437164299e+01    0.2580698    0.1630536 -12.67 0.0009484273    2.793    0.642
       149  -9.5306     44.9026    101.7696   9.9811400178e+01   5.1144291478e+01     0.438334    0.2510661  73.03  0.001653847    3.515    0.715
       150  -8.9240    128.3911    102.1453   7.3722857619e+01   3.6830790093e+01    0.2290063     0.143739 -54.95 0.0009426521    1.756    0.430
       151  -8.4129    159.5168    101.0266   6.5811947427e+01   3.0021385087e+01    0.2269036    0.1281591 -61.15 0.0008099661    2.518    0.603
       152  -9.1272    108.3439     98.5029   7.8291753298e+01   4.1832240546e+01    0.3145617    0.2380487  80.91 0.0009140484    1.884    0.469
       153  -9.1634    130.1476     97.4415   7.1936144154e+01   3.7437701652e+01    0.3724583    0.2225268  24.32  0.001368407    2.553    0.608
       154  -8.9754     63.6484     96.2720   9.2002004555e+01   5.0071736576e+01    0.2204466    0.1678831  84.10  0.001078938    1.837    0.456
       155  -8.3689    164.7070     94.3606   6.2871225743e+01   3.0112557654e+01    0.1606076     0.118202 -71.42 0.0007029767    1.700    0.412
       156  -8.5130    176.7054     93.3832   6.0149132754e+01   2.7486453620e+01    0.1616635    0.1141684 -68.80 0.0007018014    1.761    0.432
       157  -9.4383     22.4644     91.5341   1.0561052531e+02   5.5710539475e+01    0.3916076    0.1439425 -35.58  0.001443194    3.518    0.716
       158  -9.2226    248.5247     92.4762   4.8557159401e+01   1.2135863964e+01    0.1326697    0.1123803 -46.09 0.0001400842    1.021    0.020
       159  -9.8723     45.6441     91.8018   9.7234044286e+01   5.3413043445e+01    0.5819744    0.1881478  23.64     0.001988    4.029    0.752
       160  -8.9085    124.1481     90.8760   7.1635723508e+01   4.0115014148e+01    0.2392338    0.2087278 -82.93 0.0007624783    1.344    0.256
       161  -8.7291     35.0193     90.0330   1.0068839264e+02   5.4951338267e+01    0.2303411     0.138224 -86.50  0.001005466    2.591    0.614
       162  -8.5685     97.6473     89.6704   7.8953413673e+01   4.5849780408e+01    0.1585057    0.1172613  -5.09 0.0007046898    1.774    0.436
       163  -9.6958    138.6163     90.4142   6.7760762690e+01   3.6957272141e+01    0.5962674    0.2073845 -36.87  0.001849518    3.151    0.683
       164  -8.6624    179.5211     86.0074   5.7644658801e+01   2.8169410921e+01    0.2252587    0.1153171 -57.24 0.0008100519    2.566    0.610
       165  -9.2004    126.4740     84.3485   6.9075571613e+01   4.0905538155e+01    0.5742303    0.3320156  14.18  0.001676362    4.533    0.779
       166  -8.6489     86.0447     86.5311   8.1714489659e+01   4.8672909216e+01    0.1943259    0.1277052  63.74 0.0008056337    2.318    0.569
       167  -9.6660      8.2994     84.0714   1.0938486194e+02   5.8414745340e+01    0.2224948    0.1729706   4.55 0.0008558934    1.521    0.342
       168  -8.8492    157.9974     83.0030   6.1151629307e+01   3.3825773151e+01    0.1875978    0.1750658 -46.04 0.0005580305    1.064    0.060
       169  -8.6638    104.4977     82.9869   7.4846128010e+01   4.5887274927e+01    0.2106042    0.1312295 -65.57  0.000755291    2.488    0.598
       170  -9.6646     36.5417     80.6889   9.7846205067e+01   5.6934951378e+01    0.2763746    0.1909623 -36.56  0.001360686    1.330    0.248
       171  -8.6982    150.3000     79.8525   6.1934665914e+01   3.6232787609e+01    0.3088557    0.1243822 -44.60  0.001071727    2.536    0.606
       172  -9.5209    184.1565     77.4608   5.4524706724e+01   2.8562345165e+01    0.3049006      0.16915 -51.45 0.0007224292    1.891    0.471
       173  -8.8368    174.6556     77.8735   5.6366335290e+01   3.0754330971e+01    0.2295088    0.1259245 -46.85 0.0009519763    1.824    0.452
       174  -8.6042    105.5383     76.7292   7.2577969824e+01   4.6917673867e+01    0.3613796    0.1864247  18.75 0.0009011233    6.146    0.837
       175  -8.7704     24.6446     81.2946   1.0257826954e+02   5.7895926768e+01    0.1936941    0.1462234  74.28  0.001092123    1.812    0.448
       176 -10.1784    219.3184     70.4907   4.7361258782e+01   2.1627462640e+01    0.3318253    0.1187184 -33.66   0.00121932    2.819    0.645
       177  -9.3325    109.5966     91.4758   7.5895543387e+01   4.3087164363e+01    0.5941985    0.2541185  30.28  0.001751101    3.961    0.748
       178  -8.5666    127.9767     75.4980   6.5982317453e+01   4.2248998855e+01    0.2059438    0.1355948  77.93 0.0008079138    2.387    0.581
       179  -8.6603    248.5469     74.5030   4.4673777495e+01   1.4923640713e+01    0.1313518    0.1084264 -53.34 0.0001858512    1.009    0.009
       180  -8.6664    206.6584     74.3352   5.0077211081e+01   2.3847778224e+01    0.1531488    0.1008367 -68.06 -4.972461e-05    1.759    0.432
       181  -8.8461      9.9784     74.5341   1.0682125268e+02   6.0471117281e+01    0.1559166    0.1203509   7.31 -1.591797e-05    1.500    0.333
       182  -8.3453    185.3171     73.6680   5.3316004490e+01   2.8923463542e+01    0.1549366    0.1078386 -69.49  0.000704737    1.688    0.408
       183  -9.0575    167.3920     77.2260   5.7587797451e+01   3.2608219766e+01    0.2253536    0.1315978 -48.01 0.0009542419    1.747    0.428
       184  -8.0429     82.3016     72.6603   7.8640189888e+01   5.2210704246e+01    0.1392117    0.1166272 -84.92 0.0007037521    1.670    0.401
       185  -8.7337    170.0000     70.9597   5.5332918805e+01   3.3047748356e+01    0.2432327   0.08315416 -35.88 0.0007741603    2.928    0.658
       186  -8.6615    162.4990     71.5015   5.6940453140e+01   3.4770533655e+01    0.1497506    0.1409221 -79.50 0.0008101533    1.052    0.049
       187  -9.0311    129.1681     69.6642   6.3858605955e+01   4.3027188037e+01    0.3351392    0.1727329  30.61  0.001156581    2.995    0.666
       188  -9.1111    193.8602     68.1649   5.0471273642e+01   2.7797326858e+01    0.2304205    0.1845815 -66.32  0.001133953    1.246    0.197
       189 -10.0164    203.6106     67.0904   4.8723851690e+01   2.5695937358e+01    0.2365818     0.190089 -85.29 0.0009465799    1.278    0.217
       190  -8.5952     32.0110     68.0000   9.6226708226e+01   6.0162856688e+01    0.1923585    0.0729932  24.44 0.0008012616    2.934    0.659
       191  -8.9222    138.4197     64.8367   6.0119236319e+01   4.1685642575e+01    0.4220873    0.1323643 -39.55  0.001366806    3.150    0.683
       192  -9.0479    158.5210     64.5407   5.5720150151e+01   3.6888413242e+01    0.1458995    0.1408643  80.00  0.000114068    1.009    0.009
       193  -8.6301    147.3253     64.3458   5.7980643031e+01   3.9633637343e+01    0.1543789     0.115175  19.56 0.0005940651    1.744    0.427
       194  -8.5810    146.7038     68.3439   5.9324297956e+01   3.9116322191e+01    0.1542222     0.115005 -71.37 0.0007032955    1.668    0.400
       195 -10.6316    234.4813     60.0044   4.3082265252e+01   1.9943402544e+01    0.3073066   0.09626063 -41.51  0.001199971    2.612    0.617
       196  -8.4630     73.3996     60.2428   7.7541769157e+01   5.6146083130e+01    0.1911708     0.127848 -49.48 0.0009443239    1.640    0.390
       197  -9.5116    240.6648     58.3160   4.2030764687e+01   1.8900563011e+01      0.13897   0.08371065 -64.45 0.0005113634    1.693    0.409
       198 -11.3941    231.6981     65.1148   4.4554714638e+01   1.9776342203e+01    0.4413112    0.1659559 -42.27  0.001841717    2.248    0.555
       199  -9.0509    193.5913     55.8060   4.7312322468e+01   2.9755021383e+01    0.2107678      0.11486 -47.58 0.0009460091    1.775    0.437
       200  -8.7653    212.3105     55.6700   4.4728853222e+01   2.5427618900e+01    0.1458956    0.0924561 -65.31 0.0003691607    1.668    0.400
       201  -9.1063    100.7527     54.3307   6.6482765590e+01   5.1932923455e+01    0.2181263    0.1964083 -10.64 0.0003339846    1.100    0.091
       202  -9.4648    207.2365     54.4275   4.5080456860e+01   2.6766982057e+01    0.1883779    0.1245743  84.96 0.0008338392    1.641    0.391
       203  -9.3124     25.4618     54.3660   9.4951685022e+01   6.3594995088e+01    0.2781048     0.105509  28.83  0.001254281    2.823    0.646
       204 -10.4054    232.7813     50.9566   4.1247458259e+01   2.1595016463e+01    0.2328927    0.1151129 -56.95  0.001077903    2.020    0.505
       205  -9.3874    240.6249     50.3060   4.0291797601e+01   2.0039069097e+01    0.1395969   0.08113105 -66.16 0.0007029983    1.770    0.435
       206  -8.5147     76.5114     49.4859   7.2527466820e+01   5.7486281279e+01    0.1378587    0.1228339   2.07 0.0006619889    1.011    0.010
       207  -8.7647     45.7860     49.1892   8.4316193091e+01   6.2337831543e+01    0.1813987    0.1337783  -4.10 0.0007047671    1.358    0.264
       208  -9.2018     22.5573     46.4182   9.3677663994e+01   6.5411046114e+01    0.2385322     0.137519  28.99  0.001338183    1.937    0.484
       209 -10.2621    237.5446     44.2555   3.9283794516e+01   2.1507252107e+01    0.2474016   0.09952831 -40.99  0.001128078    2.086    0.521
       210  -8.9799    130.4717     46.0520   5.5913150108e+01   4.6483374579e+01    0.1988031    0.1423483 -28.65  0.000337656    1.493    0.330
       211  -9.7408    195.2768    249.0959   8.8792635999e+01  -4.6616323361e+00    0.2959171    0.1501754  22.21  0.001489158    2.032    0.508
       212  -8.9762    247.1951    247.7184   7.9227705030e+01  -1.1389700184e+01    0.1641367    0.1290428  30.07 0.0008838694    1.531    0.347
       213  -9.1093    113.8589     41.6914   5.8395848061e+01   5.0962827174e+01    0.2106918     0.172413  35.90 0.0005096195    1.171    0.146
       214 -10.5747    228.4963     37.4819   3.8680129179e+01   2.4333659906e+01    0.2744507    0.1232752 -47.91  0.001298992    1.943    0.485
       215  -8.3713    123.6685     40.6463   5.5653529695e+01   4.8838749474e+01    0.1510554    0.1025138  24.96 0.0007045796    1.782    0.439
       216  -9.0647     84.0382     39.8010   6.6273277494e+01   5.7576602861e+01    0.2081944    0.1612705  18.97 0.0004675074    1.272    0.214
       217  -8.8573    106.2222     36.8467   5.8630083160e+01   5.3335116480e+01    0.1924862    0.1481364  25.01 0.0003759867    1.336    0.252
       218 -11.1100    216.5996     35.0311   3.9330666829e+01   2.7276261071e+01    0.2996255    0.1988148  54.12  0.001645328    1.705    0.413
       219  -8.3476    201.7645     35.9969   4.1213772860e+01   3.0554336506e+01    0.1714758    0.1064216 -35.88 0.0008779641    1.616    0.381
       220  -9.0998     55.1745     33.0033   7.3993265120e+01   6.3685704499e+01    0.2209254    0.1330283  -8.14  0.001085293    2.042    0.510
       221 -10.8081    221.4774     31.7956   3.8090725138e+01   2.6597132806e+01    0.5886679     0.127175 -48.43   0.00188464    4.407    0.773
       222  -9.5899    232.5648     33.0292   3.7310529283e+01   2.4028806223e+01      0.18764     0.110446 -38.50 0.0006392272    1.585    0.369
       223  -8.3762      6.2738     43.6294   1.0053842428e+02   6.7181647486e+01    0.1046979    0.0895796 -89.44 0.0002921604    1.679    0.404
       224  -8.4570     44.1734     25.4376   7.5340875524e+01   6.6443150703e+01    0.1532961    0.1117588  39.72 0.0003933765    1.572    0.364
       225  -8.5836    224.6608     23.8023   3.5998152348e+01   2.6871834656e+01    0.1842309    0.0929773 -44.93 0.0009459757    1.733    0.423
       226  -8.1827    118.3340     24.7342   5.1317995639e+01   5.2044036743e+01    0.1305457    0.1026716 -81.34 0.0002689987    1.584    0.369
       227  -8.2201    110.4559     24.5425   5.3042040661e+01   5.3883230863e+01    0.1340638    0.1203875  43.18 0.0001527435    1.009    0.008
       228  -9.8487     67.9042     21.9100   6.4343524117e+01   6.3023637306e+01    0.3504757    0.2174298   8.59  0.001806712    1.897    0.473
       229  -9.8395     56.3701     21.8424   6.8622380371e+01   6.5045417546e+01    0.4397028    0.1946096  38.74  0.002106935    2.107    0.525
       230  -9.1539    188.4815     21.0131   3.8985654412e+01   3.5490756287e+01    0.1833638    0.1259983 -34.36  0.001015093    1.539    0.350
       231  -8.5482     84.6315     21.2686   5.8627919222e+01   5.9852368627e+01    0.1670699    0.1181121  -9.82 0.0008072756    1.502    0.334
       232  -8.1200    107.4978    248.5638   1.0606241980e+02   8.6054077157e+00    0.1239309    0.1024776  46.21 0.0003790281    1.030    0.029
       233  -8.9394     12.9953     21.3101   8.8871009491e+01   7.0688679136e+01    0.1602948    0.1201749  -2.84 0.0006933086    1.180    0.152
       234  -9.3591     29.6069     18.0790   7.8738367346e+01   6.9429317491e+01    0.3631322    0.1325735  36.03  0.001271196    2.800    0.643
       235 -11.1963    174.7071    244.9612   9.2141420980e+01  -1.0178405766e+00    0.4066653     0.315636  69.12  0.002388951    2.031    0.508
       236  -9.7118     41.1427     20.8706   7.4603447290e+01   6.7516307726e+01    0.2243614    0.1566499  -1.13 0.0005079769    1.335    0.251
       237  -9.2995    236.7802    239.9907   7.9761001837e+01  -9.1232691139e+00     0.325405    0.1287204  26.87  0.001548196    2.524    0.604
       238 -11.3608    168.6250    232.6561   9.1503110424e+01   1.8856469493e+00    0.5914673    0.3050691  26.61  0.002790758    2.005    0.501
       239  -9.9109    171.0380    225.5220   8.9890928691e+01   2.6969937273e+00    0.2462375    0.1996879  41.58 2.870681e-05    1.227    0.185
