#   1 NUMBER                 Running object number                                     
#   2 MAG_AUTO               Kron-like elliptical aperture magnitude                    [mag]
#   3 X_IMAGE                Object position along x                                    [pixel]
#   4 Y_IMAGE                Object position along y                                    [pixel]
#   5 X_WORLD                Barycenter position along world x axis                     [deg]
#   6 Y_WORLD                Barycenter position along world y axis                     [deg]
#   7 A_WORLD                Profile RMS along major axis (world units)                 [deg]
#   8 B_WORLD                Profile RMS along minor axis (world units)                 [deg]
#   9 THETA_WORLD            Position angle (CCW/world-x)                               [deg]
#  10 FWHM_WORLD             FWHM assuming a gaussian core                              [deg]
#  11 ELONGATION             A_IMAGE/B_IMAGE                                           
#  12 ELLIPTICITY            1 - B_IMAGE/A_IMAGE                                       
         1 -12.1799      5.1166     43.8007   7.5334092039e+01   7.1205169304e+01     1.134978    0.5927078 -30.29  0.005086138    2.005    0.501
         2 -11.6124     55.3654     40.7015   4.2022217456e+01   6.4420234885e+01    0.8376673    0.2554169 -42.25  0.002771743    3.519    0.716
         3 -12.3224    232.1470     26.8189   7.4381637578e+00   2.7714476877e+01    0.3108752    0.1703815 -71.51  0.001289506    1.779    0.438
         4 -12.2549    249.1344     20.7701   5.4693834213e+00   2.5646560854e+01    0.3112784    0.1532185 -37.23 0.0003215659    1.495    0.331
         5 -11.5578     14.7869     18.0803   5.5589538123e+01   7.5786139362e+01    0.4297974     0.315365  25.33  0.001003619    1.244    0.196
         6 -10.6490      8.8956     15.5319   5.9536602110e+01   7.7037709666e+01    0.3512071    0.2704046 -54.37  0.001735625    1.484    0.326
         7 -12.4829      3.3645     13.1512   6.3860004422e+01   7.8119973146e+01    0.6904127    0.3702305 -55.82  0.002779231    1.998    0.499
         8 -11.5902      9.7934     10.3528   5.5158374155e+01   7.7872611010e+01    0.4725674     0.388503  73.25   0.00276829    1.870    0.465
         9 -11.1382    216.9026     15.9744   5.9929763977e+00   3.1456489952e+01    0.3525456    0.1514306  60.91  0.001955264    2.922    0.658
        10 -11.0802    131.8905     16.4106   1.2674584538e+01   4.9329845610e+01    0.3006463    0.1833052 -54.82 0.0002600926    1.534    0.348
        11 -12.4644    240.1917     14.9843   4.7442882869e+00   2.7625690826e+01    0.2580731    0.1653884 -42.84 0.0004328422    1.168    0.144
        12 -10.9426    137.3828     15.2003   1.1660441783e+01   4.8143051315e+01    0.2731553    0.1746297 -57.32 0.0004397068    1.430    0.301
        13 -12.4856     76.1177     10.5646   1.9892973177e+01   6.3782556624e+01    0.5199346    0.3225399  35.68  0.001250831    1.918    0.479
        14 -10.9077     59.6681     12.0704   2.5512899652e+01   6.7649337845e+01    0.3926184    0.1993475 -32.30  0.001591117    2.157    0.536
        15 -10.6431     26.5054     12.8837   4.2721585217e+01   7.4741517656e+01    0.3673412    0.2108549 -24.49  0.001255089    2.207    0.547
        16 -12.5377     65.4258     11.8298   2.3499714848e+01   6.6286834106e+01     0.274584    0.2451239  66.94 0.0003300383    1.021    0.021
        17 -10.9567    118.2190     10.4598   1.2330302393e+01   5.3254105175e+01    0.5905523    0.2641009 -81.62  0.002389102    2.723    0.633
        18 -11.1358    139.6931     10.8904   1.0069989905e+01   4.8026298659e+01    0.2562359    0.1614555 -87.77  0.001417261    1.452    0.311
        19 -12.1097    249.1648      8.3357   3.1597341104e+00   2.6864302501e+01    0.3394627    0.1808924 -24.96  0.002256366    2.045    0.511
        20 -11.9275    234.6366      9.4394   3.8879486577e+00   2.9071072025e+01     0.205685    0.1198447 -46.84  0.001474336    1.199    0.166
        21  -9.2925    100.2192      9.9774   1.4757240191e+01   5.7786507372e+01      0.15677    0.1086535 -29.53 0.0003671776    1.592    0.372
        22 -10.7047    177.6870     12.1211   7.3546197732e+00   3.9432538063e+01    0.2074852    0.1543644  82.85 0.0006450627    1.334    0.251
        23 -10.9701    160.2767      8.6330   7.6521902979e+00   4.3528227515e+01    0.1927369     0.154197 -24.24  0.000680753    1.468    0.319
        24 -11.2952    154.7480      8.2245   7.9578852627e+00   4.4805293963e+01    0.3289624    0.1535963  83.18  0.001191076    2.021    0.505
        25 -11.1982    146.2554      7.4552   8.4233362344e+00   4.6820154029e+01    0.3285062     0.180861  66.93  0.001373467    1.764    0.433
        26  -9.5183     19.8206      8.5866   4.4670679738e+01   7.6594685562e+01    0.1682762    0.1137537  47.76 0.0003808086    1.486    0.327
        27 -10.3101     82.1065      6.9345   1.6783184663e+01   6.2630532804e+01    0.1951859    0.1681187  71.60  0.000342714    1.033    0.032
        28 -10.1285    223.0146      5.2494   3.4941434170e+00   3.1436832464e+01    0.1792431    0.1141447 -43.08  0.001292671    1.212    0.175
        29 -10.3323     68.3850      5.5071   1.9282118505e+01   6.6189889803e+01    0.2286094    0.1945926  67.09 0.0005452461    1.020    0.020
        30  -9.9534     36.7811      5.8936   3.1395171258e+01   7.3593357121e+01    0.2788073    0.1239409  36.76  0.001139624    2.591    0.614
        31 -11.5099    180.1917      3.7818   5.1144622954e+00   3.9714729854e+01    0.3655212     0.209257  57.70  0.002126419    2.149    0.535
        32 -10.8534    164.3552      4.6526   6.2817380354e+00   4.3003759948e+01    0.2071448    0.1499303 -54.14 0.0002520372    1.153    0.133
        33 -12.1481    242.3860      3.3487   2.4482923014e+00   2.8395853465e+01    0.2841737    0.1580575  80.63  0.001330639    2.019    0.505
        34 -10.7807     21.5367      2.5382   3.8474310038e+01   7.7128263676e+01    0.6024538    0.2379295  33.32  0.002246057    3.340    0.701
        35 -12.1201     31.6341      2.0209   3.1360142498e+01   7.5141313368e+01    0.4231848    0.1651115  51.87 0.0003498146    2.142    0.533
        36  -9.9574     90.9877      2.4237   1.3084280061e+01   6.0781979640e+01    0.1807323    0.1714974 -89.40 0.0005081264    1.124    0.110
        37 -10.8883    229.9873      1.6017   2.5115184733e+00   3.0587485992e+01    0.1429202    0.1031753 -65.22 0.0005393848    1.152    0.132
        38 -10.4964     97.9832      2.8680   1.2187114951e+01   5.8981957731e+01      0.20153    0.1862312 -57.98  0.000481248    1.165    0.141
        39 -10.1384     73.7572      1.4137   1.5859195971e+01   6.5205157983e+01    0.2322593    0.1151514  73.44 0.0004866123    1.792    0.442
        40 -10.0576    125.9519      2.3535   8.6405137130e+00   5.2093116718e+01    0.2057501    0.1518623 -53.88 0.0006054449    1.256    0.204
        41  -9.7879    238.3724    200.7573   3.8677498188e+01   4.1853231438e+00     0.145684   0.07128339 -29.17 0.0004784736    1.553    0.356
        42 -11.8706    224.0979    248.8224   4.7628203899e+01  -5.3065631684e-01    0.2986071    0.1995905  -2.25  0.002442868    1.114    0.102
        43  -9.8684    109.8555    249.8391   6.9206036576e+01   9.5916637512e+00    0.1634759    0.1189941  32.41 0.0007192793    1.324    0.245
        44 -11.3497     21.8951    248.7571   8.9551256418e+01   1.7901953475e+01    0.5377668    0.1387058  35.59  0.002375269    2.446    0.591
        45  -9.6087    120.3638    200.2752   6.0666474937e+01   1.7380186077e+01    0.1586322    0.1272858 -57.77 0.0006115413    1.485    0.327
        46  -9.9847    134.8445    196.3600   5.6699459831e+01   1.6307697386e+01    0.1973817     0.168501 -45.51 0.0004909256    1.311    0.237
        47 -10.1639     51.1863    197.3573   7.8661263449e+01   2.6192912115e+01    0.2582798    0.1557675  32.63  0.001276571    1.434    0.303
        48 -12.4519     15.5648    192.0425   8.8608535665e+01   3.0712630118e+01    0.4440996    0.3824647 -26.37   0.00189394    1.348    0.258
        49 -12.5731     15.2742    182.0804   8.8141948360e+01   3.3199720758e+01    0.5824571    0.2944947  48.89  0.002660679    1.808    0.447
        50  -9.0496    209.6981    193.2829   4.1781019384e+01   7.9914252692e+00   0.09320611   0.08568707 -36.05 0.0002373902    1.552    0.356
        51  -9.5239    186.4553    193.4829   4.5748577154e+01   1.0516940877e+01    0.1201042   0.09502476 -14.21 0.0008087271    1.007    0.007
        52  -9.9060      2.3033    187.3455   9.2289653005e+01   3.2808943473e+01    0.1338971   0.09448703 -41.30 0.0005901889    1.688    0.408
        53  -9.6884     61.9660    184.6854   7.4209580914e+01   2.8019378135e+01    0.2005554    0.1749667  24.20  0.000771028    1.058    0.055
        54 -11.0590     23.5278    180.6030   8.5506812911e+01   3.2907778286e+01    0.3221353    0.1903383  46.25 0.0001042902    1.548    0.354
        55  -9.8612      1.5131    180.4877   9.2262838055e+01   3.4564707044e+01    0.1330207    0.1219155  51.22 0.0001985766    1.041    0.039
        56 -11.9598      7.8171    172.5098   8.9942836358e+01   3.6182614859e+01    0.2643631    0.1941474 -87.27  0.001423768    1.362    0.266
        57  -9.5229     67.5190    165.5229   7.0055171711e+01   3.2056906662e+01    0.1471507    0.1384916  32.23 5.424287e-05    1.011    0.011
        58 -10.1439      1.5186    157.4982   9.1258071640e+01   4.0532124434e+01    0.1376963    0.1293696  65.00 0.0002480524    1.032    0.031
        59 -10.6262    216.4579    154.8116   3.4194765864e+01   1.2876499797e+01    0.1762909    0.1520094   7.51 0.0003016986    1.273    0.214
        60  -9.6164    158.4808    153.5129   4.3992694184e+01   2.1138580824e+01    0.1350915    0.1173966 -18.50 -9.701763e-05    1.049    0.046
        61 -11.2440      5.4975    145.3148   8.9174514456e+01   4.3594241492e+01    0.6546344    0.1777091  14.30  0.002080855    3.677    0.728
        62 -12.5653     13.7854    147.8959   8.6340930500e+01   4.2329299966e+01    0.5302256    0.3104166 -60.47 0.0003508183    1.703    0.413
        63 -12.8689     15.4948    141.3938   8.5172964411e+01   4.3995340059e+01    0.6528229    0.4305792  64.77  0.002212467    1.545    0.353
        64  -9.4992     35.1580    150.7996   7.8940286108e+01   3.9675250758e+01    0.1982931    0.1660203 -35.58 0.0003278212    1.301    0.232
        65 -10.5596    234.1513    146.6332   3.0338297329e+01   1.1919370259e+01    0.1904934   0.09931941 -33.39 0.0007007367    1.477    0.323
        66  -9.9674     40.2983    145.8599   7.6500441224e+01   4.0478988126e+01     0.391269    0.1092228  19.26  0.001105702    3.953    0.747
        67  -9.8532     30.2574    145.0145   8.0049625778e+01   4.1735293920e+01      0.19463    0.1263109 -74.17 0.0008864638    1.550    0.355
        68  -9.4296    218.4923    144.4766   3.2031326268e+01   1.4156219148e+01     0.116597   0.09126402 -30.35   0.00081007    1.023    0.022
        69 -10.5194     32.8845    141.8209   7.8706526280e+01   4.2357217229e+01    0.2176409    0.1643182  51.71  0.001065363    1.314    0.239
        70 -11.3234    239.7589    140.2957   2.8527497362e+01   1.2135306967e+01    0.2060594    0.1363863 -31.05 0.0005963679    1.137    0.121
        71 -10.4232    235.4791    138.0034   2.8639436986e+01   1.2965255947e+01    0.1572313    0.1251547 -29.43 0.0004145459    1.070    0.065
        72 -12.9678     37.5620    135.3057   7.6098106720e+01   4.3668445675e+01    0.3603624    0.3035565  89.31 0.0009368184    1.220    0.180
        73 -11.4731    241.5579    134.5316   2.7294806310e+01   1.2709884644e+01    0.1957511    0.1420881 -32.33 0.0005964632    1.016    0.015
        74 -11.4155     17.2746    130.9957   8.3500859205e+01   4.6759126695e+01    0.3942567    0.2334867  11.00  0.001165739    1.795    0.443
        75 -11.5030     57.9127    132.3079   6.8007959445e+01   4.1985373606e+01    0.4335951    0.2975948 -13.12 0.0008848256    1.902    0.474
        76 -10.7434     53.0543    133.0104   6.9914954424e+01   4.2446281885e+01    0.2263862    0.2190806 -21.53 0.0003094922    1.072    0.067
        77 -12.1310     81.4784    125.2270   5.8334995573e+01   4.0230188271e+01    0.7405322    0.5283471 -55.00    0.0025068    1.412    0.292
        78 -11.2696      4.7527    130.1364   8.8419806825e+01   4.7846497872e+01    0.2357755    0.2279373 -14.99 0.0002912954    1.106    0.096
        79 -10.1443    216.9860    129.2595   2.9388275094e+01   1.6619981054e+01    0.1577166    0.1306148 -30.90 0.0003766889    1.054    0.051
        80 -11.5460     24.6756    127.1009   8.0082901802e+01   4.7232262606e+01    0.4093473    0.2552221 -67.16  0.001654072    1.554    0.357
        81 -11.1094     46.6409    124.5324   7.0900592080e+01   4.5573366045e+01    0.3649078    0.2801932 -15.04 0.0006081778    1.522    0.343
        82 -11.4467     10.1548    122.1661   8.5538859039e+01   4.9752056041e+01    0.3620211    0.2244896  39.52 0.0006751907    1.580    0.367
        83 -10.8258      7.7040    119.3267   8.6310060564e+01   5.0707337528e+01    0.2642911    0.2135593 -76.60 0.0007752214    1.190    0.159
        84 -10.5038     61.1059    121.4768   6.4765811944e+01   4.4416792286e+01     0.230376    0.1514296  28.13 0.0006841319    1.514    0.340
        85 -11.1580     25.0482    118.0936   7.8742747158e+01   4.9727123961e+01     0.449175    0.2239398  80.13  0.001616852    2.671    0.626
        86 -12.8370    249.0161    116.0392   2.3176765303e+01   1.4281786416e+01      0.58358     0.153951 -36.40  0.002657484    2.814    0.645
        87 -10.6457     15.9866    115.4838   8.2321822763e+01   5.1224098893e+01     0.306444    0.2213489  74.60 0.0005650318    1.454    0.312
        88 -11.7429     12.9260    110.1754   8.3049478979e+01   5.2944998813e+01    0.4955281    0.3534679  34.91  0.001336646    1.398    0.285
        89  -9.4859    182.0771    114.7771   3.1576072788e+01   2.4251169391e+01    0.1784972    0.1229762 -55.59 0.0006576069    1.542    0.351
        90 -10.1800     71.3608    115.2915   5.9646061443e+01   4.4427000578e+01    0.1610955    0.1208633 -15.20 0.0007028198    1.697    0.411
        91 -11.3942     55.1529    109.8503   6.4631914791e+01   4.8381176626e+01    0.3156109    0.2790394 -56.98 0.0005652024    1.137    0.120
        92 -11.8148     31.0241    107.7522   7.4514201857e+01   5.2026676618e+01    0.5368028    0.3416254  68.40  0.002290997    1.891    0.471
        93 -11.3787     73.8579    128.8080   6.1674521441e+01   4.0554982018e+01    0.3813444    0.3213554   3.02 0.0008648396    1.315    0.239
        94 -11.7425     75.0867    103.8142   5.5519314444e+01   4.6680158343e+01    0.4371451    0.2880283 -61.56 0.0003877194    1.614    0.381
        95 -10.2417      4.1598    105.0834   8.6530041105e+01   5.4921626490e+01    0.3314958    0.1953915  19.54  0.001340793    1.720    0.419
        96  -9.2560     42.6404    103.7404   6.8584159080e+01   5.1756909954e+01    0.1577787    0.1152072 -20.81 0.0003380458    1.626    0.385
        97 -10.7832     20.1061    108.3268   7.9542362523e+01   5.2908254814e+01    0.3445482    0.2375167   2.76   0.00121527    1.588    0.370
        98 -10.7248      2.5448    117.0716   8.8329272693e+01   5.1633601100e+01    0.4839095    0.1852729 -38.53  0.001684486    3.037    0.671
        99 -11.0365     62.2376     98.5171   5.9080627171e+01   5.0222268804e+01    0.3093888    0.2850646 -46.43  0.001217399    1.103    0.093
       100 -10.1139     66.8666     97.8643   5.7075398589e+01   4.9602528305e+01    0.2056911    0.1769253  65.13  0.001019189    1.253    0.202
       101  -9.6071     52.4025     97.0079   6.2794748232e+01   5.2173644037e+01    0.2220336    0.1483943 -59.01 7.999603e-05    1.502    0.334
       102 -10.3435     16.0632     96.4435   7.9694016176e+01   5.6562046278e+01    0.4576652    0.1950435 -24.45  0.001476173    3.478    0.712
       103  -9.6992    226.3978     93.2450   2.1233358586e+01   2.0444509140e+01    0.1632915   0.08142966 -44.03 0.0004242553    1.574    0.365
       104  -9.9857     31.5234     92.5186   7.1347597929e+01   5.6155282710e+01     0.293435    0.1856341  18.76 0.0005005386    1.630    0.386
       105 -10.6926     35.3253     90.4706   6.9045453600e+01   5.6256221098e+01     0.265714    0.2479514  62.54 0.0004112066    1.114    0.102
       106 -11.8474     57.3403     90.8405   5.9082929261e+01   5.2974697976e+01    0.4030107      0.33683   2.87 0.0005922352    1.355    0.262
       107 -10.1742     14.7959     91.5797   7.9565065589e+01   5.8009749765e+01    0.3164552    0.1294118 -48.24  0.001169672    2.368    0.578
       108 -10.5043     95.9421     88.9795   4.4353763466e+01   4.6091367970e+01     0.415885    0.2292397  45.68  0.001718085    1.803    0.445
       109 -11.4295    239.5079     84.8750   1.8319873762e+01   1.9642369257e+01    0.1673613    0.1391204 -22.13  0.001286243    1.336    0.252
       110 -10.5353    184.8707     85.1598   2.4510647279e+01   2.8541690629e+01    0.1822022    0.1539838 -48.92  0.000337489    1.014    0.014
       111 -11.4533     64.6163     81.1756   5.3230053683e+01   5.4067619240e+01    0.6704705    0.2835431 -54.69  0.002391108    2.481    0.597
       112  -9.0760     34.2812     84.3464   6.8109441808e+01   5.8010999351e+01    0.1595111    0.1083908 -32.57 0.0004110195    1.640    0.390
       113  -9.3685     56.4319     83.4877   5.7404346661e+01   5.4956452522e+01     0.150078    0.1485799  43.58 0.0001334647    1.011    0.011
       114  -9.4694     42.4906     83.4701   6.3827680379e+01   5.7140813719e+01    0.1504095    0.1461385 -10.64 -4.820857e-06    1.030    0.029
       115 -10.0107     75.9128     81.8507   4.9012860607e+01   5.1752047049e+01    0.3076444    0.1822446  41.37  0.001239252    1.654    0.395
       116  -9.8574     68.6917     82.0070   5.1837728676e+01   5.3112677979e+01    0.2076071    0.1912519 -57.54 0.0002254539    1.110    0.099
       117  -9.6603    119.9765     80.1942   3.5136558374e+01   4.2710077187e+01    0.2399581    0.1707844  24.42  0.001083937    1.998    0.499
       118 -12.5367     88.4183     77.2240   4.3163768435e+01   5.0190903530e+01    0.3743966    0.3217178  39.38 0.0003825218    1.185    0.156
       119 -10.1766     50.0010     77.9989   5.8686603002e+01   5.7369611283e+01    0.2225662    0.2178588 -19.40 0.0003309049    1.032    0.031
       120 -10.5171     99.6255     75.9444   3.9270643448e+01   4.8024462632e+01    0.3940175    0.1779912 -51.30  0.001454028    2.412    0.585
       121 -10.9856     22.6727     76.2194   7.2313075074e+01   6.1470792858e+01    0.3995236    0.2845812  62.91   0.00181421    1.665    0.400
       122 -10.4402     73.6980     75.7302   4.7896904636e+01   5.3565018350e+01    0.3582663    0.2493059  11.34 0.0007758789    2.162    0.537
       123  -9.2868     36.5856     76.5284   6.4881387078e+01   5.9737819466e+01     0.146401    0.1436314 -20.47  0.000192627    1.013    0.013
       124  -9.8202     54.9620     75.0000   5.5467192504e+01   5.7259212377e+01    0.2570315    0.0846725  35.57  0.000805614    2.965    0.663
       125  -9.4162     44.4798     74.4670   6.0273449352e+01   5.9110651786e+01    0.1502568    0.1434146  52.74 9.214908e-05    1.077    0.072
       126 -11.2778    249.0013     73.0057   1.5275975625e+01   1.9788157541e+01    0.1557887    0.1182264 -13.25 0.0009074645    1.711    0.416
       127  -9.6324     61.6026     73.2461   5.1967274590e+01   5.6470463482e+01    0.2028244    0.1428629 -42.14  0.000448666    1.496    0.331
       128  -9.9583      6.9767     73.2319   8.0790615752e+01   6.3553839722e+01    0.2730033    0.1735533   1.82  0.001289593    1.649    0.394
       129 -11.3470    102.8801     69.9166   3.6409048266e+01   4.8473818812e+01    0.3976988    0.2275174 -43.32 0.0009848292    1.765    0.434
       130  -9.8388     45.0960     70.8066   5.8821987213e+01   5.9905237171e+01    0.2167151    0.1939054  57.26 0.0003159867    1.186    0.157
       131 -11.0603      6.3769     67.8025   8.0159329666e+01   6.5035478872e+01    0.2470753    0.2406105 -41.50 0.0002658576    1.040    0.038
       132 -13.7555     16.4597     67.4896   7.3848574642e+01   6.4350746502e+01    0.5004074    0.4488485 -78.89 0.0008022781    1.180    0.152
       133 -11.5862      4.2379     61.7803   8.0357849934e+01   6.6741954954e+01    0.9046389    0.4282519  -5.69  0.003667028    2.403    0.584
       134 -11.1819     92.6928     67.9272   3.8737887733e+01   5.1143310447e+01    0.2930762    0.2758746 -69.65 0.0005101186    1.067    0.063
       135 -11.2147    244.1606     69.1711   1.4928545311e+01   2.0951929875e+01    0.1526903    0.0960426 -51.91 0.0003334988    1.310    0.237
       136 -11.5697     50.4032     68.1409   5.5339230658e+01   5.9658926218e+01    0.3127694    0.2729431 -29.27 0.0004834748    1.214    0.176
       137  -9.5477    165.1642     68.1029   2.3160190214e+01   3.5015321888e+01    0.1744606    0.1329239 -61.28 0.0002543263    1.243    0.195
       138 -10.5311    110.5893     65.1578   3.2825873035e+01   4.7592449778e+01    0.3504306    0.2388592 -77.91  0.001102839    1.953    0.488
       139 -12.6528     30.1400     63.3533   6.4502031089e+01   6.3885372033e+01    0.4910363    0.3950844  48.39 0.0006032952    1.334    0.250
       140 -11.0147    159.9626     64.1751   2.2905826467e+01   3.6700031187e+01    0.2031439    0.1714921 -47.76 0.0002787393    1.093    0.085
       141  -9.4284    130.9773     65.0035   2.8186825343e+01   4.2949626993e+01    0.1714641    0.1515155 -54.51 0.0004056545    1.082    0.076
       142 -10.4164     81.7791     65.0813   4.1323860985e+01   5.4113422929e+01    0.2595203    0.2123162  51.23 0.0006202628    1.180    0.153
       143  -9.5953    155.0842     63.7358   2.3535872695e+01   3.7808958137e+01    0.1798869    0.1622211 -75.34 0.0004507931    1.054    0.051
       144 -11.5456     46.7852     60.1313   5.4294412500e+01   6.2111417580e+01    0.4132642    0.3205628  -2.16 0.0008028716    1.576    0.365
       145 -11.3171    209.7962     62.9041   1.6617183762e+01   2.7234644987e+01     0.187928    0.1500336 -56.61 0.0002811678    1.086    0.079
       146 -10.1593    123.0557     62.5375   2.9087351246e+01   4.5172222550e+01    0.2632962    0.1941088 -25.09  0.000774551    1.627    0.385
       147 -10.5379    246.4995     61.5184   1.3300654664e+01   2.1536927910e+01    0.1074105   0.07838257 -43.96 0.0008101732    1.034    0.033
       148 -10.4476     90.5541     61.0841   3.7030961858e+01   5.2929531633e+01    0.2916731    0.1990194  68.20  0.001070707    1.655    0.396
       149 -11.8629    233.8596     59.5726   1.3859893916e+01   2.3683427380e+01    0.2980635   0.08844761 -44.65  0.001445896    2.401    0.584
       150  -9.5162    189.0664     60.0112   1.8098645845e+01   3.1414546304e+01    0.1444065    0.1199414 -54.47 0.0003520046    1.009    0.009
       151 -10.1821     68.0222     57.9786   4.3835238078e+01   5.8479859345e+01    0.4520498    0.2313782 -29.39  0.001597739    3.064    0.674
       152 -10.3697    153.9877     58.7604   2.2346807468e+01   3.8797236419e+01    0.2129495    0.1704342 -48.70 0.0004309955    1.139    0.122
       153 -10.0812    135.5999     58.6645   2.5400899295e+01   4.2920169770e+01    0.3320637    0.1964466  87.85  0.001423101    2.333    0.571
       154  -9.6809     92.8302     57.8591   3.5189696455e+01   5.2999133421e+01    0.2352976    0.1757223 -86.28 0.0005982435    1.665    0.399
       155 -11.2725     89.0393     54.4942   3.5107999360e+01   5.4475051349e+01    0.4903657    0.2742203 -37.89  0.001585902    1.915    0.478
       156  -9.7159     15.6521     58.3867   7.1981521868e+01   6.6746273324e+01    0.1871332    0.1314674   2.02 0.0008108592    1.480    0.324
       157  -9.7780    177.3511     56.4741   1.8590029825e+01   3.4208613111e+01    0.1601834    0.1140227 -86.41 0.0007365785    1.507    0.337
       158 -10.9175    115.9047     55.3248   2.8347409815e+01   4.8027508923e+01    0.2863548    0.2258262 -89.23 0.0006073114    1.339    0.253
       159 -10.9372    247.5642    249.3831   4.4281455534e+01  -2.2759008938e+00    0.1646061   0.09146951   9.45 0.0007118148    1.551    0.355
       160 -10.8757     12.9598     53.1197   7.2289401887e+01   6.8301698984e+01     0.473741    0.2496082 -25.06  0.001492595    2.270    0.559
       161 -13.4490     12.5853     47.8644   7.0938293899e+01   6.9615112922e+01    0.6749753    0.4197031 -25.15 0.0006811864    1.738    0.425
       162 -11.2033      3.7992     53.0180   7.8760232466e+01   6.9013376824e+01    0.4530618    0.2315097  16.39  0.002041643    1.922    0.480
       163 -10.5456      8.1601     51.7903   7.5308805567e+01   6.9025773307e+01    0.2758304    0.2246701  49.20 0.0008983772    1.379    0.275
       164 -11.7950    149.8354     51.7794   2.1023081179e+01   4.0733319453e+01    0.4203873     0.221475 -52.63  0.001875645    1.856    0.461
       165 -10.1687    154.3906     52.4670   2.0546990436e+01   3.9624934918e+01    0.2036295    0.1844073 -55.09   8.9743e-05    1.091    0.083
       166  -9.3788    145.6532     54.6386   2.2490080055e+01   4.1254454348e+01    0.1356183    0.1060568  22.79 0.0007028355    1.851    0.460
       167 -11.4286    105.1870     52.5209   2.9923526562e+01   5.1019503461e+01    0.2913867    0.2491939  65.75 0.0002475758    1.117    0.105
       168 -10.3659     38.7647     51.9301   5.5450215409e+01   6.5277634271e+01    0.4047269    0.2686598 -56.82  0.001199537    1.637    0.389
       169  -9.7945    127.2683     51.0176   2.4607188581e+01   4.6025961624e+01    0.2017618    0.1679383 -49.84 0.0006001643    1.165    0.142
       170 -10.3072     62.4151     50.3125   4.3099046984e+01   6.1158240162e+01    0.2477234    0.1878104 -56.04 0.0006623205    1.465    0.317
       171 -10.9390     83.0270     47.3974   3.4272920680e+01   5.7099770939e+01    0.4406145    0.3791795 -69.25  0.001937081    1.243    0.195
       172  -9.8360     78.4835     47.4644   3.5800027282e+01   5.8138068168e+01    0.1457924     0.136244  48.73 7.704812e-05    1.063    0.059
       173  -9.7657     76.2327     50.4033   3.7761580623e+01   5.8131277720e+01    0.2104284     0.134836  61.74  0.000476216    1.655    0.396
       174 -11.6607     53.7398     48.4970   4.6233533374e+01   6.3278838416e+01    0.5925758    0.4480016  23.81  0.002968107    1.463    0.317
       175  -9.9043      6.9866    249.2887   9.3041964421e+01   1.8936527070e+01    0.1852168    0.1194249  43.60 0.0005305924    1.227    0.185
       176 -12.2048     44.7211     44.0784   4.8844241787e+01   6.5881378076e+01     0.607315    0.4041452 -57.19 0.0004249405    1.764    0.433
       177 -10.3681     50.2104     43.2480   4.5644668619e+01   6.4993312742e+01    0.3006125    0.2494787 -32.14  0.001624094    1.299    0.230
       178 -11.1024    247.9686     46.5117   1.0364668257e+01   2.3063227668e+01    0.2014812    0.1160454 -39.37 0.0007839245    1.270    0.213
       179 -12.1526    245.9829     40.7037   9.3812957695e+00   2.4012188572e+01    0.3637309   0.09896595 -45.38  0.001873009    2.380    0.580
       180 -10.1264    180.2930     47.0421   1.5910575677e+01   3.4875838444e+01    0.1740506    0.1319574 -50.52 0.0001994049    1.107    0.097
       181 -10.0212    222.1472     45.8536   1.1950361560e+01   2.7243714389e+01    0.1350611    0.1183822 -36.77  0.001032265    1.279    0.218
       182 -10.8068    121.8456     44.1871   2.3426110682e+01   4.8319074308e+01    0.4368327    0.3569351 -13.83  0.002394041    1.558    0.358
       183 -10.4407    237.0832     44.6965   1.0693114619e+01   2.4939246465e+01     0.144983    0.1135108 -56.48 0.0005076627    1.115    0.103
       184  -9.5015    112.4019     45.4817   2.5788001888e+01   5.0396503639e+01    0.1388638    0.1301678 -87.54 0.0001182588    1.038    0.036
       185 -11.4010     75.2052     43.8345   3.5439246051e+01   5.9509907410e+01     0.387432    0.1996816  57.88 0.0009233484    1.940    0.485
       186  -9.9337    126.8252     43.1804   2.2176184030e+01   4.7274170777e+01    0.2049048    0.1676054 -75.79 0.0004174967    1.169    0.145
       187 -11.5065    149.5181     40.8153   1.7922843288e+01   4.2311027623e+01    0.2388813    0.1998089 -64.20 0.0002751013    1.054    0.051
       188  -9.3328    143.9291     42.0234   1.9060284305e+01   4.3426966672e+01    0.1562858    0.1364182 -78.84 0.0003088581    1.036    0.035
       189  -9.8409    131.3851     41.8034   2.0947183277e+01   4.6383997135e+01    0.1870469    0.1321855 -21.44 0.0009540583    1.745    0.427
       190 -10.3078     97.2604     41.1255   2.7753089766e+01   5.4709924954e+01    0.3155846    0.1984431  72.23 0.0009845352    1.669    0.401
       191 -10.0217     89.5809     41.4531   2.9938189482e+01   5.6512307459e+01    0.2486145    0.1355668  63.12 0.0005093032    1.816    0.449
       192 -11.3954    233.9154     39.5501   9.8750288934e+00   2.6029659236e+01    0.2402179    0.1181366 -72.06  0.000992842    2.324    0.570
       193 -11.5220     83.3818     37.2381   3.0021096714e+01   5.8641705922e+01     0.466971     0.365923  58.62  0.001560524    1.181    0.153
       194 -10.9373     75.7776     33.2398   3.0660934987e+01   6.1052181537e+01    0.3960799    0.2096939  71.75  0.001575786    2.418    0.586
       195 -12.0210     27.7268     37.6752   5.6125830963e+01   7.0055303428e+01    0.2757978    0.2298315  32.30 0.0002398921    1.149    0.130
       196 -11.0442     24.3922     34.7955   5.7076755398e+01   7.1144505994e+01    0.3353278    0.2479398 -22.96  0.001044503    1.479    0.324
       197 -11.5024    248.1644     36.2557   8.4190398636e+00   2.4169628187e+01    0.1983278    0.1311782 -56.94 0.0002766762    1.206    0.171
       198 -10.8673    222.8346     37.1699   1.0096071376e+01   2.8135887208e+01    0.1382798     0.121804 -32.21 0.0004709405    1.347    0.257
       199  -9.7617    202.2905     37.3320   1.1598204442e+01   3.1786297108e+01    0.1017211   0.09007972   5.49 0.0004926325    1.628    0.386
       200 -10.7204    140.9758     36.6152   1.7857602789e+01   4.4821247197e+01    0.2342974    0.1806118 -44.85 0.0003098888    1.240    0.194
       201 -11.3910     65.0337     36.5536   3.6001821937e+01   6.3029866289e+01    0.2506037    0.2084069 -45.54 0.0006413241    1.298    0.229
       202 -11.5088    241.9509     35.4749   8.6071760909e+00   2.5208286252e+01    0.1833263    0.1280219 -27.25 0.0006983525    1.525    0.344
       203 -10.1440    110.8117     34.1079   2.2084711528e+01   5.2390123650e+01    0.2533482    0.1937674  58.56  0.001379917    1.279    0.218
       204  -9.4329    101.6838     34.2696   2.4074789379e+01   5.4610205430e+01    0.1419367    0.1013068 -76.80 0.0002959261    1.556    0.357
       205 -10.0056     34.3534     33.2257   4.9631695515e+01   6.9854020840e+01    0.2269477    0.1677344 -38.64  0.001201109    1.433    0.302
       206  -9.5328    116.6112     33.7530   2.0850511541e+01   5.1017869617e+01    0.2128391   0.09486537  46.48 0.0008247686    2.716    0.632
       207  -9.9864     88.1450     32.5515   2.6713432505e+01   5.8167445600e+01    0.2576782    0.1883169  -4.86 0.0008905077    1.935    0.483
       208 -10.3524      8.3092     31.6769   6.8392686836e+01   7.3758124553e+01    0.2953677    0.2262356 -76.05  0.001637708    1.595    0.373
       209 -11.4115      6.6357     28.1114   6.8350057236e+01   7.4698981692e+01    0.3006074    0.2282615 -70.59  0.001253998    1.554    0.357
       210  -9.9224     96.4953     32.0118   2.4392120137e+01   5.6192338343e+01    0.2117054    0.1386222 -34.64  0.000446608    1.634    0.388
       211 -10.4948     12.2162     29.3263   6.3973470490e+01   7.3864858530e+01    0.3041347    0.2367982  86.17  0.001643854    1.839    0.456
       212 -10.3223     15.7491     32.0094   6.2307008569e+01   7.2882030629e+01    0.2123716    0.1836164  -3.11 0.0003817813    1.081    0.075
       213 -10.3219     19.3787     31.1726   5.9037231335e+01   7.2592603198e+01    0.2363783    0.2067644   8.85 0.0007599959    1.052    0.050
       214 -11.8383    212.4799     27.4823   8.7040097792e+00   3.1033195898e+01    0.3692026    0.2337058  -9.81  0.002098815    2.600    0.615
       215 -10.0314     49.1908     28.5083   3.8930787493e+01   6.7793612678e+01    0.2546282    0.1787379  26.76  0.001033419    1.621    0.383
       216 -10.1817     10.5066    248.0497   9.2190417912e+01   1.8913735500e+01    0.4045642   0.08455946  38.59  0.001711993    2.746    0.636
       217 -11.7023    112.0961     27.1815   1.9323496874e+01   5.2955135353e+01    0.3049936    0.2733698 -16.91  0.001826597    1.344    0.256
       218 -10.1594     80.0203     27.7918   2.6923002311e+01   6.0798534809e+01    0.2409984    0.1923049   4.06  0.001279415    1.638    0.390
       219 -10.8605    176.7180     26.6861   1.1127168194e+01   3.8085862767e+01    0.2189895    0.1634229 -60.89 0.0002267915    1.107    0.097
       220 -10.6261    119.4816     27.1888   1.8058012884e+01   5.1138808291e+01     0.233198    0.1718875  71.69 0.0005481231    1.257    0.205
       221 -11.1229     57.8147     34.3744   3.7942661770e+01   6.4988030309e+01    0.6726834    0.2123832  45.64  0.002283979    2.977    0.664
       222 -10.9229    218.9443     25.4076   7.8742385486e+00   3.0109386184e+01    0.1922764    0.1333896 -38.93 0.0003920616    1.247    0.198
       223  -9.8167     98.6457     26.1335   2.1569280547e+01   5.6417614901e+01      0.17906    0.1741161 -62.04 0.0004940447    1.138    0.121
       224 -10.0802     71.2539     25.6984   2.8653275767e+01   6.3196001329e+01    0.3455328     0.154592  58.96  0.001428251    2.029    0.507
       225  -9.6035    128.9897     24.6932   1.5770414493e+01   4.9121225147e+01    0.1889531    0.1533332  87.18 0.0007126724    1.114    0.102
       226 -10.6783     91.8107     24.8377   2.2570930768e+01   5.8275545219e+01     0.326128    0.1833147  54.47  0.001053508    1.656    0.396
       227 -10.1742     11.1202     24.5356   6.2561361822e+01   7.4990746191e+01    0.2679277    0.1821404 -22.32 0.0008013143    1.563    0.360
       228 -11.4161     73.4911    244.4875   7.7028625786e+01   1.4109890710e+01     0.293302    0.1974544  19.59  0.001196794    1.212    0.175
       229 -10.7589    159.5181     23.1169   1.1737036703e+01   4.2200448701e+01    0.2852766     0.161787 -54.39 0.0009405016    1.556    0.357
       230  -9.8577    156.4755     21.4788   1.1572061728e+01   4.3061380716e+01    0.1890985    0.1136001  76.82 0.0001649385    1.598    0.374
       231 -11.4886     34.1726     22.6656   4.3915455026e+01   7.1758962378e+01    0.2503529    0.2041153  25.73 0.0002168395    1.175    0.149
       232 -11.9418    241.8240     21.9498   6.0117624181e+00   2.6662254544e+01    0.2031597    0.1289675 -80.88   0.00132436    1.603    0.376
       233 -10.1245    101.3916     17.8263   1.7710101902e+01   5.6694213975e+01     0.382466    0.1983034  51.26  0.001761843    1.952    0.488
       234 -10.4794     82.2372     21.5588   2.3509351476e+01   6.1048084098e+01    0.2384074    0.1631048 -49.14  0.001227887    1.574    0.365
       235 -10.7815    193.1432     20.7612   8.4338292691e+00   3.5403124197e+01     0.213145    0.1735714 -34.85 0.0003059307    1.309    0.236
       236 -10.0133    193.7467     16.5349   7.4021746673e+00   3.5728354910e+01    0.2321131    0.1316903 -74.98 0.0008577865    1.647    0.393
       237 -10.4423    122.1864     20.1892   1.5212382269e+01   5.1280666128e+01     0.328595    0.1807773  47.24  0.001211793    2.146    0.534
       238  -9.3030     74.4750     21.4039   2.5596176165e+01   6.2973302742e+01     0.138992    0.1225836  66.98 0.0001305914    1.019    0.019
       239 -10.7671     69.0416     21.2535   2.7208541009e+01   6.4307806232e+01    0.2582521    0.1866601  81.68  0.001331466    1.522    0.343
       240  -9.5358     58.9808     21.2531   3.0785677768e+01   6.6684555112e+01    0.1833856    0.1088199  56.88 0.0005812722    1.521    0.343
       241 -12.2030     28.5267     19.8846   4.5923383023e+01   7.3260533886e+01     0.349918    0.2184548  35.16 0.0002537324    1.482    0.325
       242 -12.7760     74.7279    239.9380   7.6347861087e+01   1.4829873421e+01    0.5587209     0.454877 -51.39  0.003706228    1.459    0.315
       243  -9.5284      4.4889    244.0033   9.3483353749e+01   2.0136997027e+01    0.1504253    0.1100937  80.45 0.0004605851    1.486    0.327
       244  -9.5659    102.3152    243.6743   7.0255685778e+01   1.1383721355e+01    0.1203816   0.08131403  44.65 0.0004204199    1.669    0.401
       245 -11.2568     88.6718    241.5101   7.3186987358e+01   1.3145825629e+01    0.2391562    0.1585453 -23.77  0.001151565    1.719    0.418
       246 -10.2081     89.5319     19.8474   2.0976512554e+01   5.9436500202e+01    0.3998707    0.1839509  72.54  0.001263782    2.184    0.542
       247 -10.8556    198.3729     28.3541   9.8407728697e+00   3.3558340433e+01    0.2379126     0.127934 -88.96  0.001352979    1.987    0.497
       248 -10.4035     59.6737    240.8432   8.0050718594e+01   1.6118903241e+01    0.1833589    0.1391445  15.05  0.001155405    1.160    0.138
       249  -9.2124     44.6034     19.3100   3.6055741701e+01   7.0165065504e+01    0.1390124    0.1058951  88.30  9.27911e-05    1.844    0.458
       250 -10.2407      3.7548    238.4904   9.3513430401e+01   2.1279914744e+01    0.1984847    0.1548425  82.93 0.0008155971    1.405    0.288
       251 -10.8767     64.0213     17.7217   2.7077668429e+01   6.5949729253e+01    0.2104047    0.1985662 -21.84 0.0006137588    1.195    0.163
       252  -9.8715    195.6845    238.0092   5.0771657790e+01   3.1345949642e+00    0.1524425    0.1100934 -15.95  0.001145107    1.113    0.101
       253 -10.0761    109.1665     16.6534   1.5913230796e+01   5.4877396801e+01    0.2287856    0.1499349  65.99 0.0008961959    1.388    0.280
       254  -9.7746     35.5629     17.1410   3.9672852741e+01   7.2355563647e+01    0.1973574    0.1589347  41.58 0.0002476709    1.112    0.101
       255 -10.2908     34.9936    237.6849   8.5881485914e+01   1.8976133027e+01    0.1862132    0.1362042  29.62  0.001049329    1.097    0.089
       256 -10.4960     39.4357    236.7027   8.4730341684e+01   1.8784310961e+01    0.3335815    0.1293737  45.72  0.001526881    2.288    0.563
       257  -9.2658    159.7108     15.3114   9.5485298200e+00   4.2990978664e+01    0.1322945   0.07432094 -60.01 0.0002109171    1.583    0.368
       258 -10.5098    151.5264     15.0229   1.0189221056e+01   4.4866438259e+01    0.1871975    0.1488459 -84.59 0.0003641992    1.114    0.102
       259 -10.5498     46.2763    244.4732   8.3532065107e+01   1.6660076994e+01    0.2690656   0.09767848  22.61   0.00121176    2.177    0.541
       260  -9.4321     54.2355     14.4033   2.8855897743e+01   6.8658101065e+01    0.1933152    0.1219717  69.67 0.0009408046    1.674    0.403
       261 -10.6478    182.9111    234.3583   5.2517676798e+01   4.7957324537e+00    0.1719728    0.1381147 -21.21 0.0007335391    1.267    0.211
       262 -10.6807    160.9676    234.8419   5.6710887310e+01   6.8491540767e+00    0.2018476    0.1081296  -3.62  0.001081735    2.052    0.513
       263  -9.9358    165.4919     12.5202   8.3221650476e+00   4.1999060845e+01    0.1234618   0.09962253 -66.33 0.0008102936    1.002    0.002
       264  -9.9645    116.0000    240.9631   6.6890592083e+01   1.0450002961e+01    0.1707574   0.06870716 -55.19 0.0008019424    2.939    0.660
       265 -10.5230     30.8261    234.2110   8.6727113855e+01   2.0031402244e+01    0.2891835    0.1543782  79.81   0.00110101    2.286    0.563
       266 -10.1934     54.8133    231.6967   8.0564796777e+01   1.8371844699e+01    0.2140279    0.1495327  81.13  0.001003093    1.788    0.441
       267  -9.9775    248.7470    229.0133   4.1363998792e+01  -9.0812428313e-02    0.1257692   0.06114261 -32.11 0.0008858196    1.566    0.361
       268  -9.7114     39.2108    229.3493   8.4341672089e+01   2.0296439825e+01    0.1956399   0.08798115  31.31 0.0009444871    1.720    0.419
       269 -10.1116      4.0136    225.8539   9.3100383717e+01   2.3865534215e+01    0.2197349    0.1607344  -6.44 0.0009953801    1.609    0.378
       270  -9.5375    169.6695     17.6740   9.3717123113e+00   4.0564859730e+01    0.1129704    0.0915141  40.36 0.0007050842    1.706    0.414
       271 -10.4120     79.0474    223.6211   7.3765902525e+01   1.7539294376e+01    0.2378137    0.1617544 -26.33  0.001182533    1.699    0.411
       272 -10.1340     16.0252    222.0163   8.9903838397e+01   2.3794063898e+01    0.1566697    0.1257946  34.54 0.0004339468    1.038    0.037
       273 -11.6395     48.9716    218.5220   8.1064336074e+01   2.1669445482e+01    0.5744749    0.2614094  24.88  0.002290601    1.820    0.450
       274  -9.7901    211.7132    218.3492   4.5317634031e+01   4.3083913290e+00   0.09020814   0.08130223 -30.59 0.0005197866    1.659    0.397
       275 -10.4629     38.6069    217.1283   8.3708009996e+01   2.2945804449e+01    0.2312824    0.1440444  32.98 0.0005879778    1.329    0.247
       276  -9.9493     23.8707    216.0726   8.7565766646e+01   2.4462484332e+01    0.1986295    0.1420609  46.79  0.001159208    1.226    0.184
       277 -10.3006     29.7592    214.4081   8.5898927497e+01   2.4332575222e+01    0.1830377    0.1153495   7.97   0.00083422    1.648    0.393
       278  -9.4889    169.6723    213.6585   5.2030402163e+01   9.2107291421e+00    0.1280357   0.07588969 -12.33 0.0007051346    1.739    0.425
       279 -10.0995     20.1257    211.8304   8.8351239083e+01   2.5715099881e+01    0.2168426    0.1457247  47.60  0.001220101    1.304    0.233
       280 -11.6022      5.1989    210.8815   9.2321623922e+01   2.7057640766e+01    0.2975155    0.1835307  86.83  0.001346576    1.700    0.412
       281 -11.5569      4.5912    204.7376   9.2273322228e+01   2.8503728163e+01    0.3597501    0.2344126 -40.89  0.001933447    1.915    0.478
       282 -10.7251    217.4388    209.3797   4.3073788129e+01   4.9795496669e+00    0.3628115    0.1200799 -35.55  0.001850356    2.478    0.597
       283 -12.0945     11.2444    209.1633   9.0631075576e+01   2.7008685381e+01    0.3424517    0.2462783  36.76  0.001528421    1.165    0.141
       284  -9.7128     71.7557    208.4775   7.4094555610e+01   2.1478556903e+01     0.192944    0.1198867   8.90 0.0009452824    1.668    0.401
       285 -10.5906     18.9671    204.8624   8.8312945844e+01   2.7400075953e+01    0.3314262    0.1670192 -68.27   0.00159444    2.135    0.532
       286 -11.3872     21.1805    199.3080   8.7388895448e+01   2.8522024909e+01    0.3959678    0.2333126  -6.81  0.001330339    2.137    0.532
       287  -9.7626    174.8172    202.1592   4.9286625600e+01   1.0468056690e+01    0.1681093    0.1166089  -8.42 0.0004698924    1.320    0.242
