#   1 NUMBER                 Running object number                                     
#   2 MAG_AUTO               Kron-like elliptical aperture magnitude                    [mag]
#   3 X_IMAGE                Object position along x                                    [pixel]
#   4 Y_IMAGE                Object position along y                                    [pixel]
#   5 X_WORLD                Barycenter position along world x axis                     [deg]
#   6 Y_WORLD                Barycenter position along world y axis                     [deg]
#   7 A_WORLD                Profile RMS along major axis (world units)                 [deg]
#   8 B_WORLD                Profile RMS along minor axis (world units)                 [deg]
#   9 THETA_WORLD            Position angle (CCW/world-x)                               [deg]
#  10 FWHM_WORLD             FWHM assuming a gaussian core                              [deg]
#  11 ELONGATION             A_IMAGE/B_IMAGE                                           
#  12 ELLIPTICITY            1 - B_IMAGE/A_IMAGE                                       
         1 -13.3006      5.1795    193.3183   1.2785595585e+02   3.2974680938e+01     1.731452    0.6150149 -79.67  0.008914115    2.299    0.565
         2 -13.3549    210.4657     80.5692   5.8622750659e+01   2.1407994112e+01     4.526989     2.348087 -68.89   0.01355291    4.431    0.774
         3 -13.5330    215.0595     65.3338   5.3924212348e+01   2.2774094611e+01      4.03382     1.908726 -33.73   0.01649991    2.028    0.507
         4  -9.5592    249.2957     12.4002   3.7382277869e+01   2.1962970953e+01    0.6981864    0.2451005 -41.37  0.001476264    2.285    0.562
         5 -13.1620    243.2299     72.7038   5.1884892721e+01   1.5199456216e+01     3.872695     1.416028 -52.25   0.01294842    3.556    0.719
         6 -11.8009    202.2732     59.7965   5.4385553908e+01   2.6741596040e+01      1.29409    0.4293764 -48.42  0.003990599    3.593    0.722
         7 -12.5178    247.4058     34.6052   4.2499868716e+01   1.9676789297e+01     1.638631     1.347591  13.52  0.005745155    1.757    0.431
         8 -12.2749    248.2701     55.1633   4.7149371917e+01   1.6694523072e+01     1.769523    0.8306259 -36.65  0.008100862    1.860    0.462
         9  -8.8017    241.3847     16.0450   3.8819529504e+01   2.3289927404e+01    0.2712854    0.1589236 -17.50  0.001339318    2.325    0.570
        10  -8.2344    243.0214      8.6965   3.7045065217e+01   2.3756679799e+01    0.1909627    0.1198572  23.62 0.0008787927    3.222    0.690
        11  -9.2008    245.2546      3.0317   3.5640903078e+01   2.3879145060e+01    0.1913666    0.1565289 -24.42 0.0003777609    1.485    0.327
        12  -9.8597     22.6985    169.2765   1.2257615117e+02   3.6594516078e+01    0.2725727    0.1513581  69.03   0.00142392    1.701    0.412
        13 -13.2182      8.2531    184.9621   1.2676050149e+02   3.4462979258e+01     1.050828    0.5747198  69.44   0.00647651    1.547    0.353
        14 -10.9201     14.9559    156.0542   1.2318356559e+02   4.0277193664e+01     0.360134    0.1691224  58.68  0.001866628    2.160    0.537
        15 -10.7410    245.3295    248.8018   8.7944959150e+01  -1.1051834598e+01    0.3545113    0.1689884  30.01  0.002068916    1.705    0.413
        16 -10.9187     28.7940    207.0006   1.2421209899e+02   2.7873840095e+01    0.2981718    0.1593395  71.95  0.001757383    1.635    0.388
        17  -9.5028    242.3354    107.9653   6.0370659769e+01   9.7625506639e+00    0.2626575    0.2331372 -60.33   0.00152123    1.224    0.183
        18  -9.1573    249.4535    105.5607   5.8753575426e+01   8.7171305207e+00    0.3954994    0.1908649 -49.30  0.001314485    2.255    0.557
        19  -8.4203    218.5643    105.2866   6.3567474337e+01   1.5292061686e+01     0.274358    0.1303089 -41.33 0.0009048155    1.964    0.491
        20 -10.0026    247.4605    236.9755   8.5682229249e+01  -1.0034405966e+01    0.1990366    0.1018237 -33.38  0.001054494    2.114    0.527
        21  -9.2584    190.2048    101.4486   6.7818760490e+01   2.2518774497e+01    0.4582734    0.1810462 -49.64  0.001436274    3.112    0.679
        22  -8.5250    198.9678    101.4803   6.6130350965e+01   2.0450961110e+01     0.228513    0.1528808  54.25 0.0006821148    1.567    0.362
        23  -9.1852    195.4100     96.2515   6.5431165772e+01   2.2246203628e+01    0.3118539    0.2267076 -64.20  0.001337567    1.661    0.398
        24  -9.1644    178.2026     96.8111   6.9017641863e+01   2.6260618608e+01    0.2744831    0.1726434 -74.94 0.0009577781    2.885    0.653
        25 -10.1131    182.2907     87.3753   6.5577796287e+01   2.7032794911e+01    0.3885137    0.2761954 -82.24  0.001639786    1.992    0.498
        26  -9.6224    186.3815     94.2214   6.6642003496e+01   2.4779817870e+01    0.3880151    0.1921949 -42.67  0.001123392    1.969    0.492
        27 -10.0324    210.2361     91.5533   6.1519432622e+01   1.9588173567e+01    0.5620452    0.2252578 -42.29  0.002033333    2.355    0.575
        28  -9.7321    204.4929     93.0317   6.2909531391e+01   2.0675326453e+01    0.3995383    0.1429534 -36.48  0.001341358    2.647    0.622
        29 -10.3627    194.5158     87.6869   6.3306763349e+01   2.4004554173e+01    0.3581663    0.2669794 -55.10  0.001195846    1.418    0.295
        30  -9.3916    203.8777     87.4155   6.1542433973e+01   2.1806173562e+01    0.2763357    0.2390382  20.31   0.00122664    1.330    0.248
        31 -10.0650    173.5007     84.9836   6.6701068549e+01   2.9625110353e+01    0.4305824    0.1520288 -37.05  0.001378523    2.789    0.641
        32  -9.9775    186.0796     82.3577   6.3439466429e+01   2.7007996273e+01     0.318768    0.2289395 -44.05  0.001037883    1.366    0.268
        33 -10.0464    181.6371     78.1631   6.3119419627e+01   2.8845051424e+01    0.3754136    0.2553389 -81.89  0.001472197    2.148    0.535
        34  -9.9085    167.9965     82.2480   6.7080127160e+01   3.1481961947e+01    0.3015395    0.1946452 -50.71   0.00123275    1.660    0.398
        35 -10.3970    193.5295     72.5451   5.9340124043e+01   2.6860422959e+01    0.5991048    0.2886143 -43.42  0.002338032    2.028    0.507
        36 -10.3534    176.4359     73.5878   6.2827246531e+01   3.0937468417e+01    0.4056612    0.2884036 -51.70  0.001856938    1.478    0.324
        37 -10.3802    171.2363     72.5084   6.3554925035e+01   3.2423642676e+01    0.5291423    0.2685309 -58.27  0.001652498    3.028    0.670
        38  -9.8688    183.2484     68.9090   6.0173253782e+01   3.0027841597e+01    0.3409141    0.1755612 -38.93 0.0009512385    1.883    0.469
        39  -9.9536    160.5801     65.7136   6.3731208439e+01   3.6256528542e+01    0.2948081    0.1534271 -29.57 0.0009870882    2.088    0.521
        40 -10.4166    173.8501     62.3126   6.0019247254e+01   3.3481112142e+01    0.5026071    0.2821004 -62.66  0.001837135    2.658    0.624
        41 -10.7503    142.2701     55.1604   6.4443544529e+01   4.2542487028e+01     0.536568    0.3119723 -61.53  0.002001066    2.704    0.630
        42  -9.1306    233.5254    243.4830   8.9123587745e+01  -8.8379279300e+00    0.1164323   0.08921149  16.41 0.0008095815    1.039    0.038
        43 -11.2296    160.1768     52.9046   5.9833077481e+01   3.8434729339e+01    0.7313473    0.3066997 -50.01  0.002422625    3.129    0.680
        44  -9.3662    151.9735     56.4835   6.2690840361e+01   3.9932536648e+01    0.2178571    0.1359709  85.69  0.000810363    2.597    0.615
        45 -10.8493    167.7578     51.9878   5.8062801639e+01   3.6650163003e+01    0.4299728    0.2974664 -17.27  0.001965555    1.713    0.416
        46  -8.2985    231.6624    234.6487   8.8028067365e+01  -7.5256051050e+00    0.1276387    0.0759795   8.23 0.0007044988    1.793    0.442
        47 -10.4155    196.4153     41.7749   5.0306954108e+01   3.0829151487e+01    0.4583835    0.2503775 -28.75  0.002008054    1.929    0.482
        48  -8.5839    250.5971    211.8142   8.0804098508e+01  -7.4531032615e+00    0.1562838    0.1050815 -34.62 0.0009461702    1.647    0.393
        49  -9.9328      9.6606     42.5568   1.0685694596e+02   6.6356462252e+01    0.2336998    0.1267635 -59.38  0.001350593    1.571    0.364
        50 -10.5880    228.0795     37.4940   4.5172286625e+01   2.3686266960e+01    0.3827447    0.2914865 -20.53  0.001838097    1.532    0.347
        51 -12.8428     17.7343    196.8521   1.2565957236e+02   3.1088767486e+01    0.9417544     0.280723 -73.32  0.004387262    2.776    0.640
        52 -12.2511    233.5916     90.9799   5.7631851588e+01   1.4402959011e+01     2.039824     1.173459  85.24  0.007633056    3.336    0.700
        53  -9.9079    190.4380     42.6136   5.1425961327e+01   3.2223736630e+01    0.4207213    0.1309121 -32.61   0.00141636    3.079    0.675
        54 -10.9507     25.9560    199.3740   1.2423069564e+02   2.9742616272e+01    0.2385313    0.1569784  75.89  0.001568431    1.218    0.179
        55  -9.5633      5.2428     33.9772   1.0636749533e+02   6.8295819998e+01    0.1566402   0.07726562 -56.09 0.0007261524    1.619    0.382
        56 -12.6515    238.7816     80.3880   5.4318816323e+01   1.4973918253e+01     2.225316     1.253087 -70.48  0.008716817    2.947    0.661
        57  -9.7521    151.8334     41.4768   5.7849363104e+01   4.2227686332e+01    0.6232162    0.2215011 -49.88  0.001755521    4.629    0.784
        58  -9.6487    241.2670     26.1254   4.1130593401e+01   2.2111195815e+01    0.4584233    0.2891184   2.43  0.002038821    3.137    0.681
        59  -9.1748    151.4764     31.0103   5.4468101729e+01   4.3708244635e+01    0.2143852    0.1442014 -26.32  0.001031578    1.590    0.371
        60 -10.1151    228.1468     28.6362   4.3000718756e+01   2.4808479593e+01    0.3821355     0.290265 -19.29  0.002139052    1.577    0.366
        61 -13.1233     16.8092    174.5619   1.2427989852e+02   3.5959652510e+01     1.200746    0.4603368  88.85  0.005363268    2.726    0.633
        62  -8.6261    236.0128     22.2732   4.0720072271e+01   2.3769339908e+01    0.2595869    0.1359562 -46.48  0.001291673    1.684    0.406
        63 -12.8389      3.8721    165.3595   1.2637336152e+02   3.9076286093e+01     1.350448    0.5009168 -88.42  0.006370398    2.456    0.593
        64  -7.3353    227.3371     12.2883   3.9152716321e+01   2.6927845216e+01    0.1237914   0.09479215  44.93 0.0003915286    1.635    0.388
        65 -10.6333     29.0663    179.9409   1.2209878667e+02   3.3595283059e+01    0.3213521    0.1708052  87.15  0.001747025    1.733    0.423
