#   1 NUMBER                 Running object number                                     
#   2 MAG_AUTO               Kron-like elliptical aperture magnitude                    [mag]
#   3 X_IMAGE                Object position along x                                    [pixel]
#   4 Y_IMAGE                Object position along y                                    [pixel]
#   5 X_WORLD                Barycenter position along world x axis                     [deg]
#   6 Y_WORLD                Barycenter position along world y axis                     [deg]
#   7 A_WORLD                Profile RMS along major axis (world units)                 [deg]
#   8 B_WORLD                Profile RMS along minor axis (world units)                 [deg]
#   9 THETA_WORLD            Position angle (CCW/world-x)                               [deg]
#  10 FWHM_WORLD             FWHM assuming a gaussian core                              [deg]
#  11 ELONGATION             A_IMAGE/B_IMAGE                                           
#  12 ELLIPTICITY            1 - B_IMAGE/A_IMAGE                                       
         1 -13.0375    198.7947     28.9181   7.3709242790e+01   3.1363040341e+01    0.6276736    0.4417317  22.70  0.002631884    1.723    0.420
         2  99.0000    212.9770     28.6064   7.1972381779e+01   2.7885003843e+01     1.790982    0.4047998 -36.13  0.005824639    3.401    0.706
         3 -16.0480    162.5012     57.0231   8.8316453680e+01   3.6862644195e+01     8.345052     3.100901 -42.84   0.02791387    2.856    0.650
         4 -14.1306    228.7752     35.2104   7.2110619208e+01   2.3421018480e+01     1.722596    0.4500856 -42.19   0.00570277    3.567    0.720
         5 -18.4009    228.9835     18.9726   6.7743791772e+01   2.5089496454e+01     11.11077     10.09803 -23.84   0.06963007    1.088    0.081
         6 -10.8214     91.1638      7.8532   8.5921155665e+01   6.1415440897e+01    0.2068425    0.1951061 -48.02 0.0005544629    1.215    0.177
         7 -11.8591     64.8058      4.7176   9.3386886801e+01   6.7427142591e+01    0.4049342    0.1986676  30.00  0.001694881    2.541    0.606
         8 -11.5486    183.0196      3.5529   6.7610342448e+01   3.8023383395e+01    0.2578927    0.2205916 -52.11 0.0003499441    1.151    0.131
         9 -10.5158    106.0638      2.3829   7.9273260139e+01   5.8440794592e+01    0.2957167    0.1667507 -40.33  0.001322744    1.945    0.486
        10 -11.2898    199.4227      2.0586   6.5564981444e+01   3.3909043051e+01    0.2456904    0.2175838  52.41  0.001444667    1.191    0.161
        11 -10.9217    171.5604      2.0602   6.8368126337e+01   4.1191478574e+01     0.245329    0.1972987  72.65 0.0003744957    1.199    0.166
        12 -10.2236     38.4190      2.7470   1.0489758381e+02   7.2228847285e+01    0.1816084    0.1048983 -28.11 0.0006397576    1.623    0.384
        13 -11.0019     60.4704      1.5073   9.3289821118e+01   6.8685516426e+01    0.2647677    0.1261379  49.21  0.001209324    2.159    0.537
        14 -13.5161    206.1392     41.6640   7.6532469010e+01   2.8041231369e+01    0.7741715     0.557813 -61.02  0.003257435    1.560    0.359
        15 -13.4922     57.7278    180.3834   1.3980627786e+02   3.1567834937e+01    0.4064046     0.373363   5.42  0.001473575    1.501    0.334
        16 -14.0906    180.0751     64.4492   8.7279524423e+01   3.1372630932e+01     1.649914    0.8235121  23.03  0.004775142    4.594    0.782
        17 -14.5599     63.4799    174.9656   1.3804791357e+02   3.1927984612e+01     1.360654    0.9863985 -41.15  0.002699235    1.964    0.491
        18 -12.8591    167.0839    114.1592   1.0337484243e+02   2.6169969936e+01    0.4915813    0.4564701 -36.91  0.001827413    1.139    0.122
        19 -11.4809    177.8237    109.9962   1.0013265348e+02   2.4584156293e+01    0.2546092    0.2070133  43.23 0.0005668458    1.204    0.169
        20 -11.3288    117.8670    110.0977   1.1414077431e+02   3.7031703988e+01    0.2320856    0.1993963  81.00  0.001241902    1.315    0.239
        21 -11.9857    120.5014    102.0471   1.1150339497e+02   3.8186396161e+01    0.4578266    0.2667435 -33.44  0.001928155    2.076    0.518
        22 -10.6619    139.0765    102.9293   1.0698500914e+02   3.4193699128e+01    0.2273536    0.2124477  19.43 0.0006347105    1.083    0.077
        23 -11.4662    144.3922     97.8332   1.0437749130e+02   3.4030129592e+01    0.3435727    0.2942336  -3.44 0.0008251278    1.307    0.235
        24 -10.9923    131.6281     95.2188   1.0683727001e+02   3.7280525945e+01    0.3102998     0.279464 -66.38 0.0005372906    1.209    0.173
        25  -9.5136    113.5679     95.2052   1.1164724752e+02   4.0981247130e+01    0.1932697    0.1391379 -35.89 0.0003699598    1.496    0.331
        26 -11.8617    137.1748     87.1496   1.0322091398e+02   3.7648733333e+01    0.3473037    0.3170336 -70.05 0.0009287155    1.210    0.174
        27 -10.6524    208.0075     77.7004   8.6303268361e+01   2.2839159903e+01    0.4929184    0.2069586 -17.28  0.001617208    3.472    0.712
        28 -10.1778    250.5454     86.0030   8.2397261449e+01   1.2808400514e+01    0.3247708    0.1122661 -27.34  0.001077199    2.514    0.602
        29 -10.6151    248.0066     77.1525   8.0601936164e+01   1.4370166659e+01     0.337402    0.2237744   7.62  0.001639553    1.771    0.435
        30  -9.8178    195.3858     74.5103   8.7496090131e+01   2.6207306556e+01    0.2471234      0.13674 -27.82  0.001058968    1.770    0.435
        31  -9.9536    187.4895     69.5662   8.7458436923e+01   2.8810495295e+01    0.2732066    0.1937634 -59.27  0.001262031    1.745    0.427
        32 -11.5996    130.7978     65.4582   9.8252742323e+01   4.3158739741e+01    0.4307697    0.3041491 -12.39  0.001904609    1.805    0.446
        33 -14.5777     10.5983    213.8834   1.5107672150e+02   3.0287477627e+01     1.365168    0.7660568  58.89  0.008998535    1.274    0.215
        34 -12.0215     69.3243    145.6577   1.3340242678e+02   3.7188661018e+01    0.3744577    0.2547221  53.93  0.001229834    1.361    0.265
        35 -12.1125     66.4871    144.4958   1.3397730735e+02   3.7806026623e+01    0.5021452    0.3229174 -82.48  0.001847879    1.617    0.382
        36 -10.7774    222.7570     53.1686   7.7621457408e+01   2.2702782754e+01    0.3039487    0.2000207 -71.84  0.001426949    2.070    0.517
        37 -11.4185    175.2292    138.8851   1.0724356931e+02   2.0335796060e+01     0.312678    0.1952048  57.74  0.001461133    1.982    0.495
        38 -10.9050    175.9719     51.5477   8.4070957776e+01   3.4277137008e+01    0.4147182    0.3357568 -52.64  0.002012818    1.318    0.241
        39 -11.5577    180.2130     50.0515   8.2879544577e+01   3.3415151481e+01      0.57566    0.3083201 -47.09  0.002340096    2.048    0.512
        40 -10.6429    124.1395     53.2137   9.5828651135e+01   4.6895326514e+01    0.2387245    0.2070034  21.54  0.001226734    1.218    0.179
        41 -11.1920    128.0612     45.8471   9.2167818604e+01   4.7195560515e+01    0.2678865    0.2405271 -48.24 0.0004406979    1.167    0.143
        42  -9.6579    101.1698    138.8460   1.2426621532e+02   3.3957959644e+01    0.1719183    0.1583883   2.49 0.0003993401    1.292    0.226
        43 -10.6581    133.8410    146.3000   1.1771503015e+02   2.6853312252e+01    0.6329451     0.152853 -54.10  0.001602816    7.069    0.859
        44  -9.7468    187.9697     36.5823   7.7489617161e+01   3.3205859219e+01    0.4031676    0.1683025  56.24  0.000935976    2.288    0.563
        45  -9.5629    174.8039     36.6995   7.9522606335e+01   3.6582099557e+01    0.1839044    0.1540334 -51.61 0.0004144001    1.235    0.190
        46 -11.3596     69.0313     35.9890   1.0713067053e+02   6.1507914919e+01    0.2286092    0.1653351  -7.33  0.001136079    1.720    0.419
        47 -10.8394    191.2466    192.1149   1.1393220866e+02   9.7154960125e+00    0.4667139    0.2605798 -60.63   0.00172169    6.152    0.837
        48  -9.9416     62.6709     24.6726   1.0476207064e+02   6.4688765564e+01     0.142118    0.1009882  -4.11 0.0007050917    1.706    0.414
        49 -11.6957     84.6625     22.8645   9.5382887715e+01   6.0783023723e+01    0.3302314    0.1890669  50.46  0.001512438    1.804    0.446
        50 -11.0579    192.1562     21.8023   7.2349670245e+01   3.3840761978e+01    0.1945576     0.184076  23.95 0.0003609419    1.117    0.105
        51 -10.3095    136.0000    129.5538   1.1390314345e+02   2.9640877999e+01    0.4301248    0.1618247 -47.83  0.001592937    2.850    0.649
        52 -10.8681    135.1779    121.2297   1.1229911960e+02   3.1417326658e+01     0.713138    0.1838432 -46.87  0.001839702    4.113    0.757
        53 -12.0238    134.6430    107.6869   1.0926566297e+02   3.4186954043e+01     1.081214    0.2682587 -45.22  0.003125806    4.164    0.760
        54 -10.6653     42.4809     10.4645   1.0716722798e+02   7.0362747458e+01    0.1290001    0.1110534 -19.66 2.755648e-05    1.020    0.019
        55 -14.8007     67.8908    168.3766   1.3639077652e+02   3.2678798356e+01     1.579158     1.099726  14.32  0.001788726    2.059    0.514
        56 -11.5960    160.5909    128.4752   1.0807692907e+02   2.4999420652e+01    0.3850049    0.3604566 -26.83  0.001529151    1.120    0.107
        57 -15.1498     31.7006    203.2984   1.4670232459e+02   3.0150071054e+01     1.781919     1.310737 -27.69  0.003649006    2.568    0.611
        58 -10.5314    225.7328    172.5879   1.0458308761e+02   6.5884157711e+00    0.1626297    0.1061629  45.31 0.0009508341    1.661    0.398
        59 -10.8667     89.1667    170.8975   1.3180746313e+02   2.9334356510e+01    0.1912049    0.1461986  64.43 0.0004305933    1.233    0.189
        60 -11.1870    230.1853    166.8757   1.0279628609e+02   6.5461101133e+00    0.2312659    0.1570671 -36.14  0.001055001    1.735    0.424
        61 -14.7633     45.4521    191.4316   1.4325383873e+02   3.0869057139e+01     1.647342      1.30041  78.14   0.01238119    1.153    0.132
        62 -13.6396    194.7108     51.8382   8.1108690963e+01   2.9551747857e+01     1.416991    0.6805206  48.86  0.005771846    2.121    0.528
