#   1 NUMBER                 Running object number                                     
#   2 MAG_AUTO               Kron-like elliptical aperture magnitude                    [mag]
#   3 X_IMAGE                Object position along x                                    [pixel]
#   4 Y_IMAGE                Object position along y                                    [pixel]
#   5 X_WORLD                Barycenter position along world x axis                     [deg]
#   6 Y_WORLD                Barycenter position along world y axis                     [deg]
#   7 A_WORLD                Profile RMS along major axis (world units)                 [deg]
#   8 B_WORLD                Profile RMS along minor axis (world units)                 [deg]
#   9 THETA_WORLD            Position angle (CCW/world-x)                               [deg]
#  10 FWHM_WORLD             FWHM assuming a gaussian core                              [deg]
#  11 ELONGATION             A_IMAGE/B_IMAGE                                           
#  12 ELLIPTICITY            1 - B_IMAGE/A_IMAGE                                       
         1  -8.9692     74.1247     19.5996   2.9112063788e+02   7.0863892693e+00    0.0157207   0.01020384 -89.92 0.0008656628    2.099    0.524
         2  -8.0720      7.4115     15.2882   2.9185940312e+02   7.5353834055e+00  0.009200004  0.006405113 -77.33 0.0009458567    1.637    0.389
         3  -8.5804     55.5561      9.9373   2.9127379827e+02   7.3080260267e+00   0.01237002  0.009636547  63.60 0.0007196319    1.468    0.319
         4  -8.0227     47.7075     10.1673   2.9136527049e+02   7.3524750320e+00   0.01048483  0.008167723  88.16  0.001149328    1.506    0.336
         5  -7.8402     90.8103      8.8499   2.9086272135e+02   7.1087161936e+00  0.009060166  0.007607833  64.60 0.0005152181    1.312    0.238
         6  -7.6846    101.3713      8.1882   2.9073754127e+02   7.0527570018e+00  0.009045507  0.006291379 -77.45 0.0004109474    1.643    0.391
         7  -8.0376     17.0278     14.2942   2.9174287850e+02   7.4891916094e+00  0.009325749  0.008454413  36.33 0.0005505827    1.110    0.099
         8  -8.7355     33.1577      4.8949   2.9149960259e+02   7.4998004996e+00   0.01497581  0.009471037 -86.35  0.001405407    2.135    0.532
         9  -8.4043     78.9939      3.5883   2.9096562449e+02   7.2397098164e+00   0.01276461   0.00914007 -88.38 0.0009171402    1.718    0.418
        10  -8.1112     27.9864     10.0165   2.9159064392e+02   7.4723730345e+00   0.01049407  0.007700533  64.88 0.0005787927    1.628    0.386
        11  -7.9336     16.2864      3.6134   2.9168532750e+02   7.6154312659e+00  0.006964791  0.004985136  69.88 0.0007009337    1.748    0.428
        12  -8.5198     62.3596      1.6276   2.9114428737e+02   7.3619463982e+00   0.01145377  0.007309326  40.81 0.0005855708    1.585    0.369
        13  -7.7818     39.4719      1.4998   2.9140612157e+02   7.5006747949e+00  0.006502361  0.006390196  71.54 2.973076e-05    1.041    0.039
        14  -9.1062    120.0707    245.5591   2.9198909683e+02   4.2298161456e+00    0.0197937   0.01206655  89.11  0.001522579    2.432    0.589
        15  -8.6627    249.0243    249.2522   2.9054003847e+02   3.4122756094e+00    0.0190216  0.008996183 -47.07  0.001665506    2.143    0.533
        16  -8.8096    232.6549    247.4388   2.9071551125e+02   3.5315153458e+00   0.01723537   0.01072092 -84.38  0.001606561    2.153    0.535
        17  -8.1710    235.0161    243.4852   2.9066420067e+02   3.5624259086e+00   0.01681481  0.008891205   9.29  0.001378809    2.749    0.636
        18  -8.4549     94.0746    249.7876   2.9231208313e+02   4.3374651303e+00   0.01472863  0.008822876  64.78  0.001311781    2.378    0.579
        19  -7.5937     13.3327    247.3235   2.9321971937e+02   4.8490265130e+00  0.007042068  0.004902066 -26.67 0.0007050503    1.706    0.414
        20  -8.8635     67.6265    245.0253   2.9258506093e+02   4.5504163630e+00   0.01447753  0.006178539 -61.20  0.001208793    2.306    0.566
        21  -8.4025     10.1840    245.7130   2.9324584426e+02   4.8862556230e+00   0.01484854  0.005522933 -69.76  0.001012737    3.642    0.725
        22  -8.7058     59.5004    245.3513   2.9267993431e+02   4.5953648570e+00   0.01367511  0.006944891  52.81  0.001144022    2.527    0.604
        23  -9.5588    248.7203    241.9047   2.9049817836e+02   3.4979504470e+00   0.02626689   0.01161508 -62.79  0.001564264    2.294    0.564
        24  -8.8784    247.5239    234.4177   2.9046562425e+02   3.5905962240e+00   0.01564545   0.01170213 -49.71  0.001025379    1.318    0.242
        25  -9.5213    246.4168    229.1413   2.9044568684e+02   3.6574806548e+00   0.02482523   0.01130343 -59.86  0.001478412    2.135    0.532
        26  -8.9234    201.9212    242.7706   2.9103734829e+02   3.7697574476e+00   0.01871006  0.009367132 -64.37  0.001168207    2.065    0.516
        27  -8.5374    169.0015    243.4664   2.9141739601e+02   3.9597900149e+00   0.01212408  0.009185696 -88.23  0.000577293    1.553    0.356
        28  -7.5572    139.3374    244.6524   2.9176344394e+02   4.1244906667e+00   0.00712115  0.004934667  64.17 0.0007047456    1.782    0.439
        29  -8.8760     78.1875    243.4588   2.9245474624e+02   4.5050371446e+00   0.01615596  0.009053303  70.05  0.001280635    3.088    0.676
        30  -9.0893    194.2083    239.5315   2.9110540872e+02   3.8531426308e+00   0.01210501  0.008905942 -63.24 0.0005693622    1.363    0.267
        31  -9.6058    182.9490    240.5459   2.9124017786e+02   3.9092809497e+00   0.02520514   0.01598373  49.88  0.002002112    1.743    0.426
        32  -9.5282    160.5030    240.7337   2.9149760602e+02   4.0420850747e+00   0.02173165   0.01310716  82.85  0.001494484    2.634    0.620
        33  -7.9938     49.5261    242.9970   2.9277948791e+02   4.6819978712e+00  0.009630719  0.005758864  84.84 0.0008093471    2.651    0.623
        34  -7.9454    213.8328    241.8074   2.9089549345e+02   3.7090812650e+00  0.009176579  0.007753079  65.87 0.0006029575    1.304    0.233
        35  -8.2602    153.6712    242.1856   2.9158456056e+02   4.0665578754e+00   0.01034922  0.008201099  83.65 0.0006790165    1.475    0.322
        36  -7.4561    133.6413    242.6904   2.9181643320e+02   4.1811157621e+00  0.007069661  0.004925699 -24.18 0.0007041933    1.736    0.424
        37  -8.2911     88.0853    242.0703   2.9233310584e+02   4.4615722749e+00   0.01043401  0.007722688  70.51 0.0006570124    1.644    0.392
        38  -8.9765    241.6043    238.7263   2.9055971164e+02   3.5770730925e+00   0.02965834   0.01037223 -44.12  0.002113124    3.328    0.700
        39  -9.1053    136.1024    239.2887   2.9176738915e+02   4.2051978887e+00   0.01477799  0.008813977  53.69  0.001392983    2.000    0.500
        40  -9.1121    231.0531    237.3767   2.9067172297e+02   3.6560048891e+00   0.01715087   0.01098237  73.14  0.001591298    2.234    0.552
        41  -8.2336    129.9042    239.1553   2.9183737149e+02   4.2439463875e+00   0.01159095  0.006942208  55.69  0.001078063    2.053    0.513
        42  -7.9518    208.8441    238.6056   2.9093267540e+02   3.7756561598e+00  0.009090496   0.00588233  39.79 0.0003593458    1.553    0.356
        43  -8.3147     25.7357    237.1512   2.9301558501e+02   4.8911687335e+00   0.01166781  0.006483113  63.97 0.0009519761    2.797    0.643
        44  -9.9184    214.8445    233.0905   2.9083020066e+02   3.8025065896e+00   0.03181751   0.01679702  67.70   0.00233888    3.650    0.726
        45  -9.0374    203.2713    235.0749   2.9097450310e+02   3.8495016246e+00   0.01620783    0.0107029  88.88  0.001052853    2.041    0.510
        46  -9.7594    175.6670    233.3053   2.9127870177e+02   4.0357650959e+00   0.02671069   0.01409365 -79.65  0.002193921    2.762    0.638
        47  -8.1075    170.3330    236.0679   2.9135662515e+02   4.0362855707e+00  0.009414973   0.00615388 -77.75 0.0006319475    1.805    0.446
        48  -9.3951    109.1053    234.6735   2.9204743623e+02   4.4200132646e+00   0.02573804   0.01189069  46.13  0.001568673    2.426    0.588
        49  -7.9963     58.0051    237.0000   2.9264576164e+02   4.6997774738e+00   0.01087103  0.003742544  27.67 0.0008000429    2.926    0.658
        50  -7.7217    153.3193    235.6659   2.9154843860e+02   4.1431480944e+00   0.00696965  0.004976074  64.64 0.0007049065    1.699    0.411
        51  -8.2749     99.6415    234.5807   2.9215501191e+02   4.4778568254e+00   0.01327852  0.008667978  64.53 0.0009489376    1.990    0.498
        52  -9.2950     78.9724    234.6965   2.9239194962e+02   4.6004785786e+00   0.01366667   0.01044662  82.00  0.001049285    1.573    0.364
        53  -9.1601      8.3026    234.6002   2.9319925709e+02   5.0245433195e+00   0.01212347  0.007206881 -43.05 0.0008817867    1.765    0.433
        54  -9.4529     68.2374    232.2547   2.9249965483e+02   4.6927222903e+00   0.02506703   0.01360568  66.92  0.001954067    3.212    0.689
        55  -7.6531     53.5816    234.5250   2.9268113287e+02   4.7545572669e+00  0.006525296   0.00629475  76.40 8.602921e-05    1.069    0.065
        56  -8.5772    194.4925    232.9374   2.9106152151e+02   3.9267296292e+00  0.009777614  0.006529522 -65.73 0.0008155825    1.536    0.349
        57  -8.5431    144.5770    233.0740   2.9163233351e+02   4.2252890762e+00   0.01422457  0.006661234  56.77      0.00103    3.465    0.711
        58  -8.5796    139.9083    230.1625   2.9166774034e+02   4.2866004358e+00   0.01207277  0.008496678  47.29  0.000765401    1.499    0.333
        59  -8.1366    132.7567    232.7889   2.9176560819e+02   4.2995527631e+00  0.009225574  0.007556798  64.29 0.0006595678    1.360    0.264
        60  -8.6562     93.0562    232.3990   2.9221685916e+02   4.5422904217e+00   0.01825842   0.01008903  55.30   0.00161223    2.329    0.571
        61  -9.0194    236.2261    230.8532   2.9057247530e+02   3.6993161396e+00   0.01715874    0.0112554 -69.37 0.0004326225    1.626    0.385
        62  -9.2064    186.5253    230.7091   2.9113873371e+02   4.0001067013e+00   0.01981892   0.01234646  83.26  0.001622882    2.414    0.586
        63  -7.9585    157.5361    232.4626   2.9148055273e+02   4.1543959718e+00  0.006485518  0.006403886 -35.41 7.951997e-05    1.004    0.004
        64  -7.8150     37.3456    232.6765   2.9285540351e+02   4.8728729188e+00  0.007064409  0.004917294  62.29 0.0007050094    1.738    0.425
        65  -8.9936    151.4113    229.2082   2.9153046530e+02   4.2283838535e+00   0.01664818   0.01196369  79.37  0.001720088    1.772    0.436
        66  -9.3696    148.8279    224.7010   2.9153221616e+02   4.2953980809e+00   0.01882192   0.01238507  72.73  0.001385344    2.093    0.522
        67  -8.9329      1.7848    230.8929   2.9325106164e+02   5.1058669112e+00   0.01245369   0.00916543  87.19  0.000930014    1.661    0.398
        68  -8.2349    229.6752    228.7390   2.9063415425e+02   3.7628962346e+00   0.01238984  0.007843091  88.46  0.001051359    2.248    0.555
        69  -8.9819    162.5339    228.0458   2.9139626764e+02   4.1748043349e+00   0.01837275    0.0106313  58.67  0.001094824    2.300    0.565
        70  -8.7155    128.0305    227.5707   2.9178748855e+02   4.3875577978e+00   0.01474855  0.009882807  56.66 0.0009873618    1.749    0.428
        71  -8.2276    119.9114    227.3473   2.9187888628e+02   4.4388641457e+00    0.0152064  0.008963588 -74.74  0.001421663    2.018    0.504
        72  -7.9211    123.0294    234.5023   2.9188728468e+02   4.3383891493e+00  0.009352135   0.00491569  50.91 0.0004939542    2.285    0.562
        73  -8.3322    223.7364    226.5004   2.9068809656e+02   3.8242090182e+00   0.01539417   0.00675318 -47.87   0.00126367    2.287    0.563
        74  -8.4106    206.1041    226.3577   2.9088842100e+02   3.9319851072e+00   0.01159956  0.008906851  75.46 0.0006503485    1.563    0.360
        75  -8.9242    180.3950    224.3100   2.9116928157e+02   4.1100631703e+00   0.01430228   0.01102467 -79.94  0.000559014    1.442    0.306
        76  -7.8028     59.6076    227.7287   2.9257051064e+02   4.7961539648e+00  0.006958541  0.004944125 -19.42 0.0006988148    1.725    0.420
        77  -9.0866     48.4074    224.8128   2.9268065934e+02   4.8965569443e+00   0.02103842    0.0126255  88.66  0.001664277    2.534    0.605
        78  -8.4050    199.8963    226.3578   2.9095927481e+02   3.9693440672e+00  0.009338891  0.008135292 -81.26 0.0005632248    1.219    0.180
        79  -8.3451    140.4496    222.9436   2.9161710853e+02   4.3658218182e+00   0.01435327  0.007694664  78.00 0.0009877781    4.118    0.757
        80  -9.0248     94.1649    224.4987   2.9215561211e+02   4.6259272074e+00   0.01983154   0.01204912  70.31  0.001552712    2.469    0.595
        81  -8.1786     38.5903    225.3645   2.9279629880e+02   4.9490128379e+00   0.01294767  0.007917521  80.72  0.001127713    2.539    0.606
        82  -8.8671    216.4672    223.3625   2.9075168121e+02   3.9037980404e+00   0.01514713   0.01045022 -87.19  0.001112154    1.820    0.450
        83  -8.5818    172.9345    223.1757   2.9124748235e+02   4.1678910558e+00   0.01503469  0.009360616 -76.87 0.0007609683    1.923    0.480
        84  -8.7634    104.7670    223.7198   2.9202964056e+02   4.5712182484e+00   0.01571376   0.01052453  66.71  0.001547868    1.935    0.483
        85  -9.2004    192.4283    221.3009   2.9101334225e+02   4.0720290969e+00   0.01800932   0.01234866  85.46  0.001010249    1.925    0.480
        86  -8.8837    238.8818    221.2791   2.9048309787e+02   3.7925980682e+00   0.01479047  0.009506978 -77.56 0.0008239805    1.851    0.460
        87  -9.0706    225.4013    221.7421   2.9063974073e+02   3.8685021335e+00   0.01213617  0.009558876  61.04 0.0005311967    1.424    0.298
        88  -9.1703    160.0660    221.1476   2.9138195487e+02   4.2684369745e+00   0.02320475  0.009415282  45.63  0.001807652    2.821    0.646
        89  -8.9194      7.8579    222.1244   2.9312786111e+02   5.1698323697e+00   0.01803724   0.00633293  36.79  0.001402096    2.690    0.628
        90  -8.2082    202.7875    220.4044   2.9088955772e+02   4.0199208180e+00   0.01181388  0.008220574 -79.87 0.0006347467    1.680    0.405
        91  -9.1212    120.3607    219.3753   2.9182468701e+02   4.5272573248e+00   0.02101076   0.01101924  59.94  0.001685869    2.923    0.658
        92  -8.6654     82.9661    220.7869   2.9226080581e+02   4.7355117150e+00   0.01495177   0.00895988  63.28  0.001343502    2.322    0.569
        93  -8.1822     73.1483    220.7534   2.9237284317e+02   4.7947505741e+00   0.01270887   0.00786237 -82.79 0.0008287333    2.116    0.527
        94  -9.2963    247.1907    216.1429   2.9035662076e+02   3.8011624956e+00   0.01293549  0.009389254 -73.86 0.0008156587    1.498    0.332
        95  -8.5622    209.9003    218.9684   2.9079951483e+02   3.9935009683e+00   0.01147856  0.009101208 -77.73 0.0007551982    1.368    0.269
        96  -9.2648    133.0095    216.2658   2.9166099532e+02   4.4868166421e+00   0.02419133   0.01392904  69.27   0.00201495    2.817    0.645
        97  -8.9118     51.4929    217.3153   2.9259933189e+02   4.9637865568e+00      0.01511   0.01056171  89.17 0.0009254951    1.813    0.448
        98  -7.6244    179.2731    217.6522   2.9114104930e+02   4.1928483562e+00  0.006757078  0.005031303  70.09 0.0006999096    1.627    0.385
        99  -8.8995    169.3150    216.3744   2.9124689788e+02   4.2673427109e+00   0.01496645   0.01115315  85.97 0.0009391577    1.637    0.389
       100  -8.6236    142.7796    216.4228   2.9155032462e+02   4.4263183606e+00   0.01257988   0.00867007 -88.95 0.0007396829    1.844    0.458
       101  -8.1826     61.7531    217.2212   2.9248142751e+02   4.9034085844e+00   0.01048605  0.008150129  78.50 0.0008452386    1.530    0.346
       102  -8.1328     19.0000    216.0623   2.9296324464e+02   5.1725389851e+00   0.01116575  0.003713614 -61.82 0.0008083793    2.984    0.665
       103  -8.6291    232.1298    214.3996   2.9051765741e+02   3.9117917973e+00   0.01267709  0.009621979 -75.12 0.0007352119    1.426    0.299
       104  -8.5034    185.6664    214.4838   2.9104850768e+02   4.1905682869e+00   0.01305704  0.009544573  78.51 0.0008090538    1.716    0.417
       105  -8.1302    154.4596    215.2618   2.9140972975e+02   4.3693779337e+00   0.01152544  0.007445441  51.70 0.0007604597    1.739    0.425
       106  -8.9316     93.2584    214.2772   2.9210310595e+02   4.7481810177e+00   0.01803134   0.01055191  62.65  0.001170156    2.418    0.586
       107  -7.7580     41.3495    215.6853   2.9270531946e+02   5.0431469956e+00  0.007047876  0.004908699  61.52 0.0007046948    1.726    0.421
       108  -9.5229    213.8432    212.0762   2.9071198701e+02   4.0484496554e+00   0.01896588   0.01482826  78.52   0.00142236    1.517    0.341
       109  -9.3250     73.3966    212.2127   2.9231750106e+02   4.8908807707e+00   0.03074102   0.01280572  51.84  0.002192927    3.549    0.718
       110  -7.9385    224.7862    212.9029   2.9059220849e+02   3.9731099636e+00   0.01075482  0.007409706  81.05  0.000899802    1.930    0.482
       111  -8.8069    161.6315    212.5819   2.9131128487e+02   4.3568691464e+00   0.01282248  0.009852152  88.04 0.0007756953    1.540    0.351
       112  -8.2586    106.6276    213.0682   2.9194283331e+02   4.6817747330e+00    0.0104336  0.008152134  85.18  0.001143236    1.506    0.336
       113  -8.8508    204.3551    210.8555   2.9081275528e+02   4.1195156227e+00   0.01400095   0.01027374  80.10 0.0007197429    1.704    0.413
       114  -9.4022    175.7508    210.3247   2.9113609465e+02   4.2977271959e+00    0.0210003   0.01238005  61.78  0.001421763    2.349    0.574
       115  -9.4963      6.6352    208.8796   2.9306060906e+02   5.3285633669e+00   0.03363844   0.01748472 -87.88   0.00244615    3.706    0.730
       116  -8.0775    192.3248    210.5153   2.9094800257e+02   4.1958178277e+00   0.01123017  0.006092593 -62.91 0.0007912385    1.858    0.462
       117  -8.7800    147.9957    210.6275   2.9145502263e+02   4.4611754405e+00   0.01377004   0.01049818  77.61  0.001189901    1.585    0.369
       118  -8.8695    116.4261    210.6602   2.9181600630e+02   4.6504672105e+00   0.01628032   0.01002156  57.10   0.00110226    2.009    0.502
       119  -8.2863     85.5249    209.5166   2.9216224057e+02   4.8489764309e+00    0.0150723  0.009165421  67.58  0.001275518    2.389    0.581
       120  -8.0854     46.4458    209.9319   2.9261169590e+02   5.0784083014e+00  0.009490999   0.00573752  84.58 0.0008079628    2.580    0.612
       121  -9.1229    236.3943    207.5812   2.9042690924e+02   3.9639291817e+00   0.01971035   0.01195617 -63.72  0.001903625    1.670    0.401
       122  -8.4912    139.2914    208.0333   2.9153849898e+02   4.5431282069e+00   0.01341001  0.009833703  82.44 0.0007866924    1.700    0.412
       123  -9.3437    124.5568    206.5291   2.9169763154e+02   4.6488417822e+00   0.01911759   0.01149885  65.82            0    2.396    0.583
       124  -9.3906    246.2580    207.3569   2.9031300443e+02   3.9070536217e+00   0.01511139    0.0110461 -60.64 0.0006216384    1.355    0.262
       125  -9.4015    250.1121    201.9413   2.9023559268e+02   3.9456307446e+00   0.01997406  0.009774826 -62.36  0.001346074    2.052    0.513
       126  -7.8344    156.3685    208.1754   2.9134424788e+02   4.4388507714e+00  0.009229896  0.006303188 -76.61 0.0006187641    1.669    0.401
       127  -9.0123     99.5470    206.2959   2.9198209850e+02   4.8016614246e+00   0.01924394   0.01198996  69.83   0.00175612    2.315    0.568
       128  -8.4984     11.9590    206.9720   2.9298800225e+02   5.3185553715e+00  0.007969879  0.007874383   1.64  0.001004241    1.016    0.016
       129  -8.4874     56.6082    205.5825   2.9246873607e+02   5.0672662656e+00   0.01344311  0.008750595  65.55 0.0008353175    2.021    0.505
       130  -9.1369    194.8731    204.0337   2.9087891835e+02   4.2544941660e+00   0.01754464    0.0112528  59.42  0.001265558    1.939    0.484
       131  -9.5878    192.7538    197.8178   2.9086476092e+02   4.3382328308e+00   0.02959425   0.01843303  76.02  0.001896628    2.421    0.587
       132  -9.1201    183.8369    204.0345   2.9100494999e+02   4.3209118184e+00   0.01690802   0.01115975  61.12 0.0009771241    1.884    0.469
       133  -8.5434    131.4522    204.2357   2.9160469243e+02   4.6336211198e+00   0.01458797  0.009513943  65.48 0.0009941446    2.015    0.504
       134  -7.8609    109.2915    205.6328   2.9186661113e+02   4.7507509266e+00  0.006940939  0.005002426  68.73 0.0007026315    1.712    0.416
       135  -7.8257     92.5002    205.4808   2.9205765293e+02   4.8532594910e+00  0.006588044    0.0063256  65.76 6.524757e-05    1.074    0.069
       136  -9.5532    163.8878    203.2105   2.9122773506e+02   4.4503453249e+00   0.02141966   0.01105233  48.82  0.001245186    2.239    0.553
       137  -8.4318    211.0952    202.1870   2.9068231782e+02   4.1779038358e+00   0.01222738  0.008296931  77.70 0.0006300155    1.992    0.498
       138  -9.0197    140.5019    201.3439   2.9148344550e+02   4.6122781364e+00   0.01829292   0.01184127  86.64  0.001402152    2.161    0.537
       139  -8.3889     49.0098    202.5506   2.9253701331e+02   5.1474319524e+00   0.01399995  0.007585191  70.14  0.001041917    3.480    0.713
       140  -7.9884     41.4640    202.9750   2.9262593648e+02   5.1877593563e+00  0.009634342  0.005759681  84.99 0.0008094302    2.652    0.623
       141  -9.2650    243.0377    200.5531   2.9030771439e+02   4.0041118068e+00   0.01802093    0.0100118 -65.57  0.001014606    1.877    0.467
       142  -8.2864     80.0423    201.4828   2.9217551239e+02   4.9736758599e+00   0.01519184  0.009344321  67.79  0.001372698    2.333    0.571
       143  -7.5998     72.7019    202.3135   2.9226457061e+02   5.0081904217e+00  0.006764218  0.005000041  64.97 0.0005000043    1.605    0.377
       144  -7.6721    221.7237    201.3390   2.9055576854e+02   4.1235669612e+00  0.006739297  0.005032102  69.27 0.0005770867    1.614    0.381
       145  -9.4937    149.4723    198.6065   2.9136405863e+02   4.5896255139e+00   0.02077407   0.01324389  83.86  0.001210111    2.273    0.560
       146  -8.8202    123.9940    199.2844   2.9165943830e+02   4.7350008076e+00   0.01545291   0.01024158  82.74  0.001354428    2.085    0.520
       147  -9.2198    113.1064    198.7800   2.9178079979e+02   4.8061541196e+00   0.02164851   0.01264132  58.68  0.001901028    2.261    0.558
       148  -9.0122     88.7737    198.5311   2.9205749671e+02   4.9550410762e+00   0.01850463   0.01194172  72.98  0.001528414    2.185    0.542
       149  -8.9620    236.7217    198.1426   2.9036488297e+02   4.0696876346e+00   0.01534238   0.01098958 -88.38  0.001147752    1.715    0.417
       150  -8.5013    177.1775    199.0774   2.9105042983e+02   4.4176000810e+00   0.01239521  0.007657784  54.34 0.0006827823    1.918    0.479
       151  -8.4614    202.3175    197.6364   2.9075443750e+02   4.2827221435e+00   0.01267923   0.01025361 -83.84 0.0009109044    1.372    0.271
       152  -9.0413     61.5317    197.0023   2.9235966845e+02   5.1358442700e+00   0.02170741   0.01313499  73.25  0.001573977    2.561    0.609
       153  -8.5198     12.5958    197.3316   2.9292154396e+02   5.4249629384e+00   0.01644447  0.008701918 -83.10  0.001298516    3.008    0.668
       154  -8.6252    216.0183    195.7086   2.9058612480e+02   4.2222141490e+00   0.01436079  0.009436791 -86.72 0.0008943331    1.986    0.496
       155  -7.9117     54.1328    196.7643   2.9244284126e+02   5.1828919533e+00    0.0119331  0.006419224  62.16 0.0009505523    2.916    0.657
       156  -7.9680    133.1226    196.1801   2.9153596330e+02   4.7156225284e+00  0.009228783  0.007663056  69.03   0.00055236    1.350    0.259
       157  -8.4979    224.5057    194.0362   2.9047892224e+02   4.1901730627e+00   0.01341487   0.01021267  86.36  0.001009511    1.575    0.365
       158  -7.4614    209.3195    195.6822   2.9066243175e+02   4.2628661584e+00  0.006902522  0.004976875  63.63  0.000704152    1.661    0.398
       159  -8.8935    185.1760    194.9026   2.9093331289e+02   4.4171401318e+00   0.01171308   0.01019408  82.39 0.0006697153    1.262    0.208
       160  -8.8200    160.6922    194.4101   2.9120997487e+02   4.5700894955e+00   0.01347758   0.01050095  74.74 0.0007285283    1.520    0.342
       161  -8.7210     43.5693    193.3449   2.9254266984e+02   5.2852383191e+00   0.01952712   0.01221026  80.98  0.001762052    2.396    0.583
       162  -9.4906    245.6129    192.2695   2.9022716237e+02   4.0831287588e+00   0.02199344   0.01074975 -59.32  0.001090004    1.986    0.496
       163  -8.1684    230.9707    194.0143   2.9040500624e+02   4.1514657663e+00   0.01073743  0.007829436  68.79 0.0009224611    1.680    0.405
       164  -8.5806     76.9942    193.7917   2.9216305171e+02   5.0798566319e+00   0.01108437  0.009477345 -71.92 0.0005936809    1.206    0.171
       165  -8.5762      7.0753    191.7329   2.9295033993e+02   5.5219651540e+00   0.01986932  0.009912811  73.52  0.001118288    6.232    0.840
       166  -7.9271    198.8428    191.8370   2.9075831296e+02   4.3698659360e+00  0.008940944  0.007642502  73.24 0.0004842866    1.298    0.229
       167  -8.0495    179.0105    191.9843   2.9098573021e+02   4.4875783332e+00   0.01069645  0.007727867  65.59 0.0008097498    1.676    0.403
       168  -8.5513    172.3187    191.7556   2.9106076414e+02   4.5304612817e+00   0.01250001  0.009637509  75.33  0.001131495    1.550    0.355
       169  -9.1302    139.5862    190.6171   2.9142779207e+02   4.7403311828e+00    0.0180943   0.01204089  71.75  0.001037797    2.033    0.508
       170  -7.6060    205.3091    191.6643   2.9068341255e+02   4.3328953083e+00  0.006917612  0.004995921  65.62 0.0004583226    1.678    0.404
       171 -10.2369     91.9367    188.2792   2.9195821178e+02   5.0532261574e+00   0.04626556   0.02203068  47.01  0.003254279    2.386    0.581
       172  -8.0723     20.8486    190.8815   2.9278750206e+02   5.4493571314e+00   0.01579116  0.008401836  83.52  0.001086545    4.136    0.758
       173  -8.3764    148.4496    189.1495   2.9131743663e+02   4.7038100069e+00   0.01421969  0.009116261  88.96  0.001110199    2.171    0.539
       174  -8.9326    129.3579    188.7178   2.9153300611e+02   4.8235048210e+00   0.01536833    0.0103305  67.68  0.001074423    1.938    0.484
       175  -8.3916    237.2254    188.1888   2.9029764499e+02   4.1802624389e+00   0.01318906  0.009264004 -54.50 0.0009573478    1.390    0.280
       176  -9.2835    155.9741    187.4384   2.9122088799e+02   4.6781042124e+00   0.01847739   0.01081383 -74.11  0.001050582    2.020    0.505
       177  -9.9019    120.9571    186.8665   2.9161764274e+02   4.8951308901e+00   0.02640597   0.01477712 -86.34  0.002178729    2.828    0.646
       178  -8.3914     34.3862    188.4355   2.9261756481e+02   5.3963279312e+00   0.01487984  0.009054079  65.92 0.0007889978    2.333    0.571
       179  -8.7323    216.3005    187.6784   2.9053331204e+02   4.3121909211e+00   0.01245562   0.01039662 -89.24 0.0006966231    1.332    0.249
       180  -8.8345    191.4636    187.5273   2.9081597999e+02   4.4635107408e+00   0.01432639   0.01030927  78.96 0.0009857246    1.769    0.435
       181  -9.0586     54.7161    186.9226   2.9237564732e+02   5.2918926830e+00    0.0217319   0.01314025  69.33  0.001924802    2.472    0.595
       182  -7.9476    230.4017    187.2514   2.9036972210e+02   4.2320913555e+00  0.009254785  0.006389448 -77.46 0.0009440237    1.660    0.398
       183  -8.7948    164.8216    186.7670   2.9111564338e+02   4.6325497854e+00   0.01447552   0.01060786  68.68  0.001150886    1.663    0.399
       184  -9.0815    109.6273    186.1693   2.9174289764e+02   4.9711461363e+00   0.01767232   0.01160527  64.10  0.001245386    1.961    0.490
       185  -8.7699    249.2868    185.4131   2.9014288079e+02   4.1392273784e+00   0.01491548  0.008809634 -57.85  0.001473462    1.646    0.392
       186  -8.7647    210.3057    184.5036   2.9058214396e+02   4.3845532881e+00   0.01140103  0.009985956 -74.24 0.0006372244    1.182    0.154
       187  -8.6455    202.8855    184.7657   2.9066848928e+02   4.4262586497e+00   0.01223349  0.008355175  75.45 0.0006689296    1.957    0.489
       188  -8.9898    182.9959    184.8733   2.9089631613e+02   4.5447995050e+00   0.01151467  0.009428818 -67.33 0.0005901776    1.243    0.195
       189  -8.9689     66.8468    184.5679   2.9222237169e+02   5.2461147731e+00   0.02083138   0.01192216  52.22  0.001240293    2.072    0.517
       190  -8.2333    224.1790    183.8704   2.9041985607e+02   4.3081881383e+00  0.009816686   0.00866725  73.42 0.0005260735    1.232    0.188
       191  -8.4899    197.3111    183.3047   2.9072312580e+02   4.4765150588e+00   0.01809687  0.009772242 -50.37  0.001128209    1.808    0.447
       192  -8.9449    174.2175    183.6773   2.9098922122e+02   4.6112980852e+00     0.012863  0.009637206  79.55 0.0006526388    1.638    0.390
       193  -7.9035      1.8336    183.8392   2.9296186245e+02   5.6435284138e+00  0.009537705   0.00741463  51.79  0.001059321    1.374    0.272
       194  -8.9460    241.0694    181.8183   2.9021441656e+02   4.2297983222e+00    0.0180465   0.01091874  73.42   0.00156901    2.580    0.612
       195  -8.8721     44.3904    182.4778   2.9246646083e+02   5.4045421561e+00   0.01747729   0.01165145  70.87   0.00108947    2.011    0.503
       196  -9.0699    147.6039    180.8283   2.9127578017e+02   4.8039525095e+00   0.01648877   0.01134846  67.26  0.001160428    1.848    0.459
       197  -9.6267     25.6246    179.0933   2.9266041079e+02   5.5555471457e+00    0.0308137   0.01693355  82.25  0.002296215    3.605    0.723
       198  -8.5342    137.5383    179.2232   2.9138094494e+02   4.8828106190e+00   0.01495106   0.01014056  79.96 0.0009865356    1.993    0.498
       199  -9.6076    191.4753    177.9097   2.9075646491e+02   4.5732650739e+00    0.0188997   0.01358449 -89.88  0.001239137    1.719    0.418
       200  -8.1870    169.4841    178.5580   2.9101170896e+02   4.6982538761e+00   0.01127318  0.006562497 -77.76 0.0007256009    2.181    0.541
       201  -9.0764     35.8788    176.8787   2.9252943535e+02   5.5195009011e+00   0.02702027    0.0140346  87.51  0.001828971    4.334    0.769
       202  -9.5474    248.4623    176.7277   2.9009860098e+02   4.2433146645e+00   0.02205729   0.01450309 -78.48  0.001899384    1.808    0.447
       203  -8.5659    250.5182    172.9054   2.9005151454e+02   4.2745339138e+00   0.01244642  0.007975413 -68.06 0.0005902762    1.648    0.393
       204  -8.4318    231.3427    177.2370   2.9029710278e+02   4.3407260571e+00   0.01128472  0.008184689 -75.74 0.0005175068    1.523    0.344
       205  -8.6336    205.0475    177.4341   2.9059851891e+02   4.4969439756e+00    0.0148673  0.009160076 -73.57  0.001073295    1.861    0.463
       206  -8.5612    129.1522    177.5780   2.9146668062e+02   4.9520141514e+00   0.01384655  0.009832287  75.65 0.0008269208    1.807    0.447
       207  -8.2316    217.5998    177.3109   2.9045443454e+02   4.4227168761e+00   0.01015325  0.007459808  66.93 0.0005812526    1.642    0.391
       208  -9.2945    183.0123    176.2169   2.9084268780e+02   4.6435559983e+00   0.01456733   0.01077453 -73.31 0.0005707036    1.454    0.312
       209  -9.2486    159.1124    175.3209   2.9111026018e+02   4.7976369210e+00   0.02098764   0.01261179  65.70  0.001275258    2.400    0.583
       210  -9.3075    104.3378    174.8459   2.9173361927e+02   5.1322980167e+00   0.02583579   0.01271773  58.29  0.001696422    3.243    0.692
       211  -7.7868     97.4965    177.5259   2.9182838628e+02   5.1427451261e+00  0.006549644  0.006364764 -29.68 0.0004158008    1.028    0.027
       212  -8.4713     89.0352    177.1531   2.9192287978e+02   5.1977856974e+00   0.01243571  0.008563042  51.53 0.0008657327    1.598    0.374
       213  -9.9284     57.2437    173.2269   2.9226246085e+02   5.4332890972e+00   0.03827745   0.02042725  79.45   0.00264965    4.209    0.762
       214  -8.5100     12.8488    176.5910   2.9279126149e+02   5.6605554852e+00   0.01529207  0.009333534  89.07  0.001360403    2.418    0.586
       215  -8.0361    211.5456    176.4955   2.9051851997e+02   4.4685091888e+00  0.006475542  0.006422845 -77.62 0.0001537377    1.019    0.019
       216  -8.3836     79.2172    158.5962   2.9192089255e+02   5.4687520803e+00   0.01365165  0.006649686  22.97  0.001106632    2.227    0.551
       217 -10.5148     76.0377    171.2596   2.9203528618e+02   5.3431083262e+00   0.04933713   0.02242695 -80.92  0.003175383    4.605    0.783
       218  -8.7871     74.7296    160.4076   2.9198341073e+02   5.4749706598e+00   0.01290566  0.008614091 -13.01 0.0008651069    1.996    0.499
       219  -7.8672    224.4356    174.4890   2.9035895972e+02   4.4137297360e+00   0.00648869  0.006380488  85.63 0.0001816868    1.037    0.036
       220  -9.6237    175.8822    172.1972   2.9089933422e+02   4.7323877216e+00   0.01771045   0.01197865 -65.30  0.001005156    1.509    0.337
       221  -8.2635    143.0745    172.8593   2.9127839862e+02   4.9222241627e+00   0.01035152  0.008566375  63.37  0.000558647    1.335    0.251
       222  -8.4620    134.8743    171.6507   2.9136469801e+02   4.9853352035e+00   0.01268863  0.008766145 -89.64 0.0007785953    1.845    0.458
       223  -9.4579    121.5158    170.6544   2.9151131005e+02   5.0770074569e+00   0.01835329   0.01227926  78.45  0.001097033    2.052    0.513
       224  -9.1102     45.0892    170.9544   2.9238758023e+02   5.5320730605e+00    0.0188732   0.01162708 -83.90   0.00119749    2.168    0.539
       225  -9.3069    230.4738    170.0901   2.9026284710e+02   4.4275385167e+00   0.01533286   0.01214462 -72.69  0.001737153    1.329    0.248
       226  -8.0255    205.9649    170.5029   2.9054522297e+02   4.5705509037e+00   0.01188646  0.008362477  62.60 0.0008182164    1.716    0.417
       227  -8.2982    198.6294    170.5911   2.9062954671e+02   4.6137393792e+00   0.01311396  0.008630603  65.50  0.001081929    1.983    0.496
       228  -7.8119     68.6768    170.9710   2.9211773877e+02   5.3905455216e+00   0.01048453   0.00544325  89.23 0.0007018461    4.138    0.758
       229  -8.1898    237.1389    169.6587   2.9018410815e+02   4.3922740429e+00   0.01053036  0.007621206  49.92 0.0007411901    1.481    0.325
       230  -9.1018    167.1181    168.8003   2.9097851403e+02   4.8239369119e+00   0.01670597   0.01100837  63.41 0.0008032154    1.937    0.484
       231  -8.6127    149.9150    169.5515   2.9117978617e+02   4.9188682178e+00   0.01222412  0.009205172 -89.81 0.0007140145    1.581    0.368
       232  -8.1336    244.4104    169.2595   2.9009866128e+02   4.3529777398e+00  0.008933806    0.0063993 -77.58 0.0005074223    1.576    0.365
       233  -8.3333    218.6761    168.5316   2.9038789501e+02   4.5164501081e+00   0.01178651  0.008217788 -66.62 0.0004950326    1.477    0.323
       234  -8.6391    111.9840    167.7716   2.9160255321e+02   5.1672103814e+00   0.01726983    0.0104419  65.49   0.00155082    2.358    0.576
       235  -8.0161     88.7655    168.8338   2.9187471466e+02   5.2944740037e+00  0.009422732  0.007582724  66.30  0.001055058    1.408    0.290
       236  -7.8843    211.4543    168.0340   2.9046728042e+02   4.5656582863e+00   0.01010815  0.006444388 -62.46 0.0006469564    1.570    0.363
       237  -9.1470    185.1502    167.0278   2.9076151619e+02   4.7356159897e+00   0.01402484  0.009219408 -75.38 0.0009225358    1.740    0.425
       238  -8.9066    192.0671    166.7722   2.9068091523e+02   4.6968739870e+00   0.01293413   0.01040659  85.26 0.0007595282    1.434    0.303
       239  -8.3120    140.6498    166.3393   2.9126589249e+02   5.0112851464e+00   0.01100244  0.009026901  65.23 0.0007718287    1.361    0.265
       240  -9.6568    135.7001    163.9012   2.9130744557e+02   5.0688990922e+00   0.02053205   0.01176071  50.55 0.0009312478    2.010    0.503
       241  -8.9766     20.5644    166.3269   2.9263984924e+02   5.7317474125e+00   0.01835881   0.01003565  56.27  0.001346741    2.427    0.588
       242  -9.9458     95.1583    163.1656   2.9176664228e+02   5.3208753311e+00   0.03737365    0.0186096  64.29  0.002593658    4.058    0.754
       243  -8.4504    233.8651    165.1170   2.9019339552e+02   4.4638506741e+00   0.01015862   0.00875114  69.85   0.00057846    1.276    0.216
       244  -8.7763    159.3883    164.4716   2.9104013879e+02   4.9198957207e+00   0.01340944   0.01060661  70.08 0.0008391665    1.466    0.318
       245  -9.3383     33.5948    163.4078   2.9247272257e+02   5.6871476231e+00    0.0293441   0.01261621  51.83  0.002164329    3.318    0.699
       246  -9.2099    245.8433    162.1897   2.9003859264e+02   4.4250129199e+00   0.02367002   0.01008324 -68.54  0.001853996    2.800    0.643
       247  -8.2861    240.1205    164.1824   2.9011622246e+02   4.4367919989e+00  0.009863937  0.008875167 -31.11  0.000515051    1.140    0.123
       248  -8.3881    213.0124    163.6001   2.9042208671e+02   4.6068831997e+00   0.01104075  0.008913236 -79.32 0.0006018272    1.346    0.257
       249  -7.6145     55.6338    164.6896   2.9222833500e+02   5.5405106888e+00  0.007102366  0.004914904 -24.01 0.0007038068    1.758    0.431
       250  -8.5774    204.8038    163.0186   2.9051223712e+02   4.6629936171e+00   0.01013134  0.008837692  74.57 0.0005343447    1.257    0.204
       251  -9.3126      3.4279    162.4249   2.9281206004e+02   5.8788009889e+00   0.02265182   0.01157075  49.54  0.001795752    2.307    0.567
       252  -9.1513    177.4919    160.7032   2.9080995797e+02   4.8539562794e+00   0.01461433   0.01076343  74.89 0.0008263076    1.684    0.406
       253  -8.8771    151.6752    161.1484   2.9110779826e+02   5.0042616443e+00   0.01395351   0.01033078  78.03 0.0008819294    1.674    0.403
       254  -8.5297     60.8735    160.5756   2.9214303220e+02   5.5561284867e+00   0.01537284   0.00979025  64.12  0.001459009    2.079    0.519
       255  -8.3454    227.1735    159.1864   2.9023311245e+02   4.5718910216e+00   0.01224893  0.008296583  78.97 0.0007916933    2.003    0.501
       256  -9.5263    250.2021    157.7080   2.8996113520e+02   4.4498569967e+00   0.01630945  0.009303998 -64.00 0.0008544455    1.788    0.441
       257  -8.2083    236.9807    158.9884   2.9011993813e+02   4.5150042283e+00    0.0116872  0.007056534  87.13 0.0008365756    2.558    0.609
       258  -8.7355    196.6699    158.2261   2.9057553126e+02   4.7667216475e+00    0.0134585  0.009846599  64.99 0.0008632819    1.635    0.388
       259  -9.2198    167.6505    157.4366   2.9090225814e+02   4.9505121249e+00   0.01682256   0.01171692  68.43  0.001259557    1.822    0.451
       260  -8.2130    128.0024    159.0340   2.9136544600e+02   5.1707799764e+00   0.01067797  0.007707021  65.01 0.0007209614    1.672    0.402
       261  -9.4561    105.9192    158.0495   2.9161198394e+02   5.3147185946e+00   0.02040583   0.01272387  61.79  0.001233746    2.103    0.524
       262  -8.3335    188.1605    157.7069   2.9066954023e+02   4.8239153929e+00   0.01149491  0.008809696 -77.73 0.0006228338    1.433    0.302
       263  -8.3758    217.8954    156.5693   2.9032286523e+02   4.6577047130e+00    0.0132118  0.008665591 -86.25 0.0008756244    1.984    0.496
       264  -9.2405    157.5714    156.1622   2.9100960367e+02   5.0257335266e+00   0.01447852   0.01055193  77.22  0.001025061    1.724    0.420
       265  -9.2959    119.4953    155.1170   2.9143858490e+02   5.2666599234e+00   0.01976149   0.01296159  85.44  0.001752289    2.113    0.527
       266  -9.1449     81.7108    155.1125   2.9187088606e+02   5.4936009248e+00    0.0207176   0.01152942  55.21  0.001558481    2.298    0.565
       267  -9.0841     49.5369    155.1883   2.9223962897e+02   5.6856278355e+00   0.01821128   0.01110556  70.38  0.001532215    2.449    0.592
       268  -9.0822    242.7936    154.8149   2.9002778206e+02   4.5275671382e+00   0.01307278  0.009875604  53.65 0.0003383762    1.443    0.307
       269  -8.6876    237.4454    150.4862   2.9006204866e+02   4.6092280961e+00   0.01817347  0.008978163   9.71  0.001380594    3.215    0.689
       270  -7.4990    204.6042    155.5129   2.9046812777e+02   4.7498836210e+00  0.006471514  0.006310431 -77.24 0.0001045384    1.039    0.038
       271  -8.6788    144.4463    154.9963   2.9115247312e+02   5.1180197963e+00   0.01038387  0.008936469  63.35 0.0005951528    1.259    0.206
       272 -10.0025    133.2443    151.7348   2.9126044725e+02   5.2226459436e+00    0.0325171   0.01698996 -64.93  0.001855218    1.987    0.497
       273  -9.4411     68.1173    153.8861   2.9201891346e+02   5.5891497936e+00   0.02142051   0.01291606  61.23  0.001190944    2.223    0.550
       274  -7.7672    232.6482    153.8443   2.9013757934e+02   4.5998431122e+00    0.0092942  0.006246353 -76.28 0.0005975729    1.705    0.413
       275  -8.6768    151.8658    153.1176   2.9105603610e+02   5.0948407594e+00   0.01038061  0.008812947  67.97 0.0006503963    1.300    0.231
       276  -8.9931     19.8424    152.3999   2.9256246009e+02   5.8952529877e+00    0.0162951  0.008219476  47.36 0.0009897921    2.235    0.553
       277  -8.2450    182.7820    151.6513   2.9069358001e+02   4.9254577848e+00    0.0127162  0.008390542  78.25  0.001142979    2.119    0.528
       278  -9.4743     29.4148    150.7969   2.9244298378e+02   5.8563013172e+00   0.02230405   0.01268329  66.71  0.001640433    2.790    0.642
       279  -8.7865      3.1480    151.0513   2.9274534678e+02   6.0104773734e+00   0.01765083  0.006137716 -53.66  0.001370498    2.641    0.621
       280  -9.4353    248.8474    149.4070   2.8992524104e+02   4.5527482442e+00   0.01652396   0.01017777 -64.89   0.00084937    1.663    0.399
       281  -8.9127    189.4026    150.3572   2.9060992981e+02   4.9003493738e+00   0.01445274   0.01084219  89.17 0.0009136026    1.600    0.375
       282  -8.2749    162.5754    150.7927   2.9091923586e+02   5.0569382100e+00  0.009095163  0.006405721 -79.65 0.0009354184    1.645    0.392
       283  -8.6219     98.1894    150.6772   2.9165496295e+02   5.4453715433e+00   0.01375305  0.009881774  75.34  0.001035661    1.765    0.433
       284  -8.1870    243.1702    150.1710   2.8999475725e+02   4.5782873912e+00   0.01208234  0.007770429 -71.78 0.0007768797    1.715    0.417
       285 -10.4318    241.2926    143.1566   2.8997278969e+02   4.6696564168e+00   0.04176029   0.01497842 -54.60  0.003313638    2.567    0.610
       286  -9.7300     39.8720    147.9017   2.9230542084e+02   5.8267899898e+00   0.02684796    0.0146616  62.07  0.001794126    2.804    0.643
       287  -8.2962    198.8657    149.0967   2.9049401899e+02   4.8577175319e+00  0.009934718  0.008680449  70.47 0.0004087797    1.248    0.199
       288  -9.8774     89.2487    146.3520   2.9173060833e+02   5.5484646066e+00   0.03092165   0.01744821  78.55  0.002409816    3.291    0.696
       289  -8.7706    233.2645    147.6335   2.9009212772e+02   4.6670047493e+00   0.01230069  0.008950233 -62.66 0.0006944641    1.375    0.273
       290  -8.8083     78.0380    147.3528   2.9186509430e+02   5.6043042401e+00   0.01214879  0.008965467  76.23 0.0007338225    1.680    0.405
       291 -10.2054     54.8785    144.4609   2.9211240307e+02   5.7762154540e+00   0.04205006   0.02361881  76.44  0.003014276    3.314    0.698
       292  -8.8142     57.0042    135.5001   2.9203284666e+02   5.8658705018e+00   0.01319738  0.006742682  20.72  0.001160794    2.195    0.544
       293 -10.1909    149.0005    145.0030   2.9103868787e+02   5.2047597986e+00   0.02473871   0.01564113  69.74  0.001672546    2.241    0.554
       294  -9.7431    139.2301    144.8011   2.9114917877e+02   5.2658463719e+00   0.02366079   0.01434302 -87.25  0.001568511    2.362    0.577
       295 -10.1979    106.6191    144.2420   2.9151880610e+02   5.4682652045e+00    0.0338763   0.02007052  76.00      0.00224    2.774    0.640
       296  -9.3555     13.4738    146.4015   2.9259849065e+02   6.0018987777e+00   0.01973001   0.01249152  64.21  0.001623911    2.104    0.525
       297  -7.7716    223.2966    146.7197   2.9020028121e+02   4.7375582990e+00  0.006612265  0.004972112  62.22 0.0002061471    1.538    0.350
       298  -7.9796    206.6934    146.5536   2.9038887534e+02   4.8395665304e+00  0.008753062  0.006074928  39.94 0.0005267973    1.450    0.310
       299  -8.4516    175.5163    146.1616   2.9074269574e+02   5.0319032157e+00   0.01077646  0.008734937  56.81 0.0007011295    1.338    0.253
       300  -9.7746    125.0658    142.7366   2.9129845529e+02   5.3746040833e+00   0.02912353   0.01711617  85.54  0.001768174    2.790    0.642
       301  -8.8807    165.5585    144.1919   2.9084435383e+02   5.1143587428e+00    0.0131711  0.009625524  48.42 0.0006836348    1.448    0.309
       302 -10.8324     68.7474    140.1315   2.9192693472e+02   5.7425440807e+00   0.04424603   0.02331487 -63.25  0.004118351    1.921    0.479
       303  -8.5817    247.0021    143.9912   2.8991279003e+02   4.6256782632e+00  0.009801764  0.009428285 -76.79 0.0004876483    1.057    0.054
       304  -7.8984    194.2193    144.0383   2.9051583247e+02   4.9434679696e+00   0.01074331  0.007307711  77.83 0.0006111016    1.983    0.496
       305  -9.3669      2.6956    141.7372   2.9269324890e+02   6.1196369264e+00   0.01976512   0.01302356  73.33  0.001674664    2.089    0.521
       306  -8.3676    182.1071    141.7518   2.9064011122e+02   5.0425534981e+00   0.01107564  0.008937185 -81.77 0.0005608269    1.363    0.266
       307  -7.9935    250.4893    141.0166   2.8985458537e+02   4.6385712922e+00  0.009733131  0.006470752 -62.65 0.0004767308    1.507    0.336
       308  -9.6989    134.4156    138.1505   2.9116318025e+02   5.3707653791e+00   0.02063288   0.01124483 -61.45  0.001476516    1.821    0.451
       309  -9.8083     23.4497    138.1311   2.9243333585e+02   6.0367485309e+00   0.02752405   0.01616565  70.11  0.002216019    2.692    0.629
       310  -7.8627    218.5828    138.8219   2.9020525931e+02   4.8561262994e+00  0.008932399  0.006397789 -78.91 0.0004068103    1.595    0.373
       311  -8.5991    172.4747    138.3551   2.9072921772e+02   5.1393592802e+00   0.01423089    0.0096367  72.17 0.0008630267    1.967    0.492
       312  -8.3625    207.3444    138.0338   2.9032875159e+02   4.9328933960e+00   0.01223457  0.008496155  54.64 0.0006795912    1.629    0.386
       313  -8.7741    197.5076    137.5734   2.9043828710e+02   4.9974504979e+00   0.01250777   0.01034397  81.09 0.0008304912    1.375    0.273
       314  -8.9324    150.8455    136.3221   2.9096396378e+02   5.2927966602e+00   0.02082912   0.01175254 -11.94  0.001650878    3.121    0.680
       315  -8.1884     80.7114    137.9790   2.9177669590e+02   5.6953680436e+00  0.009335591  0.008764667 -71.53 0.0007424381    1.079    0.073
       316  -8.4333    162.6122    136.7304   2.9083193301e+02   5.2173017789e+00   0.01125751  0.008400074 -75.45 0.0005318812    1.462    0.316
       317  -8.9742    140.5950    136.8699   2.9108458734e+02   5.3482207006e+00   0.01297579  0.008822926 -11.37  0.001279009    1.927    0.481
       318  -8.7665    250.7237    130.1953   2.8978492853e+02   4.7606123422e+00   0.01978649  0.005960997 -60.26  0.001410585    3.170    0.685
       319  -8.9499    248.2858    135.3758   2.8984482130e+02   4.7162270060e+00   0.01450131   0.01069859 -64.76 0.0006973475    1.372    0.271
       320  -8.3598    246.9990    130.5176   2.8982943533e+02   4.7794215261e+00   0.01104433  0.008955496 -79.11 0.0004502748    1.336    0.252
       321  -9.0066     39.1041    136.2528   2.9224247586e+02   5.9645100447e+00   0.01263445  0.008468587  47.89 0.0008577851    1.595    0.373
       322  -7.6392    187.7141    135.6824   2.9053850796e+02   5.0780634914e+00   0.00681946  0.004894047 -29.48 0.0002861098    1.589    0.371
       323  -8.7909    179.5855    134.2658   2.9062265511e+02   5.1432145897e+00   0.01374506  0.009890098  64.89 0.0007516849    1.680    0.405
       324 -10.2010     83.4148    132.5846   2.9171247517e+02   5.7407754814e+00   0.02974495   0.01604244 -74.61  0.001309076    2.315    0.568
       325  -8.1183     84.3359    123.3071   2.9164469076e+02   5.8412343470e+00   0.01338874   0.00684268 -27.84  0.001017242    3.183    0.686
       326  -7.6455    231.4436    134.4148   2.9003113154e+02   4.8288365054e+00  0.006442074  0.006345115  56.33 7.683954e-05    1.033    0.032
       327  -9.0371    112.7723    133.2310   2.9138043638e+02   5.5570789794e+00   0.01566677   0.01058602  67.63 0.0009854692    1.919    0.479
       328  -8.2026    212.9825    149.9619   2.9033811661e+02   4.7627469650e+00   0.01033725  0.007695906  65.11 0.0004576454    1.590    0.371
       329  -9.0871    143.1282    131.8399   2.9102453872e+02   5.3904250738e+00   0.01515353   0.01078053  81.23 0.0007989352    1.807    0.446
       330 -10.0861    132.1957    131.4725   2.9114733132e+02   5.4603889448e+00   0.02397103   0.01628975  82.95  0.001016584    1.977    0.494
       331 -10.3205    131.9277    120.0500   2.9107983212e+02   5.5924509285e+00   0.03516378   0.01973533  70.28   0.00280755    3.103    0.678
       332 -10.5819     98.5414    130.8569   2.9152865671e+02   5.6696956456e+00   0.03050297   0.01506751 -69.05  0.001672642    2.305    0.566
       333  -8.5793     99.0159    120.7369   2.9146075686e+02   5.7824450586e+00   0.02007238   0.01058228 -27.27  0.001594745    2.974    0.664
       334  -8.1226    204.7773    130.7388   2.9031295498e+02   5.0316384537e+00   0.00911358  0.007555249  65.81 0.0006689271    1.342    0.255
       335  -9.5522    152.8158    128.4238   2.9089262475e+02   5.3711324996e+00   0.02491625   0.01306675 -68.60  0.001557769    2.115    0.527
       336 -10.0372     12.9160    128.8824   2.9249706482e+02   6.2054475015e+00   0.02965347   0.01725006 -89.23  0.002354568    2.678    0.627
       337  -7.9110    220.5906    129.8246   2.9012666189e+02   4.9466968547e+00  0.008717591  0.006381628 -78.50 0.0003256482    1.539    0.350
       338  -8.2850    211.7992    129.4728   2.9022490353e+02   5.0037414603e+00   0.01295318   0.00874411 -89.89 0.0009180885    1.937    0.484
       339  -8.0062    192.8108    130.5498   2.9044852154e+02   5.1059395072e+00  0.009267505  0.005882855  41.48 0.0005359387    1.599    0.375
       340  -9.2389    168.3638    129.5072   2.9072152424e+02   5.2651424849e+00   0.01360204   0.01043794  71.95 0.0008572709    1.553    0.356
       341  -8.8987    161.4983    130.0400   2.9080332096e+02   5.3004041286e+00   0.01021155  0.006409845 -60.47 0.0008874787    1.572    0.364
       342  -9.5398     72.9930    129.0708   2.9181012380e+02   5.8434536704e+00   0.01792105   0.01166756  86.82  0.001020508    2.130    0.530
       343  -8.1902     25.3543    130.0161   2.9236155309e+02   6.1180869016e+00   0.01404042  0.007482186  12.37  0.001194675    2.485    0.598
       344  -7.9891      1.7592    130.5840   2.9263535775e+02   6.2526973102e+00  0.009537055  0.005847076  39.71 0.0008488513    1.638    0.389
       345 -10.6117     44.8934    123.7830   2.9209933030e+02   6.0723216482e+00   0.04894337   0.02678942  72.35  0.003700481    3.501    0.714
       346 -10.3334     59.8319    125.1179   2.9193646097e+02   5.9675448011e+00   0.03211706   0.01885926  74.28  0.002695082    2.815    0.645
       347  -9.8351    117.7143    125.1943   2.9127425787e+02   5.6191717764e+00   0.02128583   0.01363988  65.61  0.001507439    2.091    0.522
       348  -8.6329    228.4495    125.4559   2.9000987542e+02   4.9491310690e+00   0.01157643  0.006560336 -76.95  0.001025856    2.253    0.556
       349  -8.1326    199.2115    126.0034   2.9034725574e+02   5.1192467548e+00  0.008922119  0.008543082 -46.84 0.0003797687    1.034    0.033
       350  -9.1049    179.1092    124.8068   2.9056961142e+02   5.2540741196e+00   0.01360542   0.01098157  52.10 0.0007283384    1.314    0.239
       351 -10.1543     28.1677    122.1097   2.9228062231e+02   6.1915933960e+00   0.03987714   0.02160191  82.92  0.002887269    3.836    0.739
       352  -8.4453     27.0529    114.0000   2.9224342452e+02   6.2909232382e+00   0.01799598  0.006629115  25.15  0.001360207    2.923    0.658
       353  -7.8578    188.6295    123.8342   2.9045477145e+02   5.2078013390e+00  0.009205821  0.006304165 -76.93 0.0005987404    1.670    0.401
       354  -9.4476    158.7515    121.6125   2.9078263643e+02   5.4131692623e+00   0.01897142   0.01309289  85.73  0.001329717    1.898    0.473
       355  -7.7677    203.1523    122.1630   2.9027846459e+02   5.1393164435e+00   0.00903637  0.007588163  64.01 0.0004408142    1.309    0.236
       356  -7.9752    194.9888    122.0632   2.9037113400e+02   5.1896804732e+00   0.01058415  0.007605627  65.29 0.0005017391    1.689    0.408
       357  -8.7938    172.0052    121.5781   2.9063086390e+02   5.3337341983e+00   0.01202863  0.009150517 -88.02 0.0005177658    1.542    0.352
       358  -9.5039     71.1537    120.0287   2.9177541016e+02   5.9577891746e+00   0.01748106   0.01136077  82.34 0.0009095182    2.183    0.542
       359  -9.8961    141.5334    118.4501   2.9096004113e+02   5.5529265345e+00   0.02311661     0.014644 -83.39  0.001066828    2.049    0.512
       360  -9.8398    244.9942    117.1988   2.8976985630e+02   4.9434659898e+00   0.01323936   0.01211807  31.61 0.0004756607    1.097    0.089
       361  -9.7188      3.0833    117.5406   2.9253990130e+02   6.3938308311e+00     0.026196   0.01574107  78.79  0.002253565    2.674    0.626
       362  -8.9781    109.6672    107.3853   2.9125635903e+02   5.8709341673e+00    0.0194004   0.01136839 -19.75  0.001619713    2.602    0.616
       363  -7.9133    250.2748    115.0182   2.8969607448e+02   4.9364518366e+00  0.009006211  0.008770569 -55.46 0.0007257086    1.020    0.019
       364  -8.0821    193.0112    115.2667   2.9035168540e+02   5.2791771385e+00  0.008910637  0.008675823  55.53  0.000419439    1.048    0.046
       365  -7.8574    153.2685    115.6189   2.9080829314e+02   5.5146161611e+00  0.006854017  0.005014871  72.04 0.0006990989    1.692    0.409
       366  -9.8693     78.7050    112.4572   2.9164220890e+02   5.9989699800e+00    0.0259512   0.01656864  73.30  0.001904799    2.247    0.555
       367  -8.5565     78.9165    104.8768   2.9159299072e+02   6.0842844462e+00   0.01851942   0.01028417 -21.78  0.001498387    2.924    0.658
       368  -8.7101     59.2916    115.2210   2.9188161236e+02   6.0838515376e+00   0.01454841  0.007976416   6.50  0.001208283    2.696    0.629
       369  -7.9678    167.4472    114.5076   2.9063925652e+02   5.4419113242e+00  0.006497586  0.006389624  79.98 0.0001583814    1.038    0.037
       370  -9.9616     92.7309    112.4604   2.9148161387e+02   5.9147280189e+00   0.02310724   0.01492587 -84.24  0.001263548    1.994    0.499
       371  -8.6904     92.7542    105.4717   2.9143818860e+02   5.9944071677e+00   0.02169566   0.01172225 -22.93  0.001706497    3.101    0.678
       372  -8.8336    159.2501    112.0219   2.9071763109e+02   5.5196628249e+00     0.012914   0.01049454  88.56 0.0008028485    1.400    0.285
       373  -9.8475    133.5653    109.5185   2.9099600667e+02   5.7028590648e+00    0.0280315   0.01358406 -66.50  0.001905676    2.231    0.552
       374 -10.1948    121.7290    112.1385   2.9114765862e+02   5.7441378525e+00   0.02127563    0.0153843  79.63  0.001032812    1.752    0.429
       375  -8.5570    174.6296    111.8415   2.9054063322e+02   5.4290718943e+00   0.01207871  0.009326925  74.70 0.0007110499    1.545    0.353
       376  -9.8599     66.6757    109.6616   2.9176273211e+02   6.1030770538e+00   0.03190555   0.01641294 -56.91  0.002412097    1.865    0.464
       377  -9.8121     14.1562    111.1991   2.9237395159e+02   6.4000850487e+00   0.01797326   0.01281829  86.61   0.00127711    1.770    0.435
       378  -8.5771     42.8502    109.4105   2.9203412804e+02   6.2487634786e+00   0.01699364   0.00942998   1.83  0.001383468    2.881    0.653
       379  -9.5263    248.2574    108.2996   2.8967748849e+02   5.0252698232e+00   0.01651111   0.01289916 -68.18   0.00163112    1.316    0.240
       380 -10.6043    248.6612    102.3466   2.8963600001e+02   5.0907277500e+00   0.02958446   0.01705812 -70.19   0.00280538    1.931    0.482
       381  -8.0805    189.2513    108.0033   2.9034971479e+02   5.3847459798e+00  0.009461781  0.008247091 -62.80 0.0004954546    1.146    0.127
       382  -9.7895    109.1977    114.2646   2.9130423111e+02   5.7951924654e+00   0.02185861   0.01437391  75.81   0.00133277    2.124    0.529
       383  -9.2397    139.9272    104.6583   2.9089315820e+02   5.7200682165e+00   0.01528423   0.01176031  69.70 0.0008079257    1.535    0.349
       384 -10.5213     45.6565    102.4044   2.9195876183e+02   6.3119829475e+00   0.04021203   0.02192803  67.34  0.003150358    3.208    0.688
       385  -8.7985     45.8294     92.6228   2.9189642796e+02   6.4226725256e+00   0.01968727  0.008358268  22.68  0.001577952    2.653    0.623
       386 -10.6834     22.9723    102.8814   2.9222165618e+02   6.4423663653e+00    0.0363859   0.02150854  71.69  0.002818702    2.696    0.629
       387  -8.5731    166.7319    104.5390   2.9058577236e+02   5.5600163064e+00   0.01245421   0.01024754  88.73  0.000643335    1.371    0.270
       388  -9.4669    150.5658    103.2443   2.9076268771e+02   5.6721660740e+00   0.01850979   0.01260263  80.30   0.00138981    1.979    0.495
       389  -8.6706      6.9573    103.2688   2.9240760031e+02   6.5337323878e+00   0.01200838  0.009145024  76.21 0.0008401987    1.586    0.369
       390 -10.0072    128.7071    101.3946   2.9100138474e+02   5.8248463777e+00   0.02496943    0.0144376 -53.45  0.001880024    1.671    0.402
       391 -10.3687    108.4349     98.3696   2.9121475697e+02   5.9812933809e+00   0.03986656   0.01807321  53.49 0.0006692799    3.217    0.689
       392  -8.7629    107.6453     92.6805   2.9118863543e+02   6.0509998146e+00   0.02342298   0.01281969   5.22  0.001932127    2.795    0.642
       393  -7.7859    175.5073    102.4921   2.9047274923e+02   5.5304987671e+00  0.006568191  0.006351406  66.78  0.000313021    1.064    0.060
       394  -8.3787    159.8612    101.1508   2.9064339882e+02   5.6400823900e+00   0.01012084  0.008732685  67.92 0.0004622359    1.268    0.211
       395  -9.0397     82.1212    100.0554   2.9152651355e+02   6.1201120556e+00   0.01599056   0.01134872  79.18 0.0007865313    1.817    0.450
       396  -9.1150     95.0307     97.0530   2.9136011313e+02   6.0768753272e+00   0.01393022   0.01052546 -85.60 0.0005370987    1.539    0.350
       397  -9.9243     64.1280     96.0087   2.9170764920e+02   6.2742995363e+00   0.02658571   0.01565881  70.25  0.001762751    2.683    0.627
       398  -8.1417    151.1591     95.6542   2.9070894925e+02   5.7552375939e+00   0.01414075  0.008131069  -9.73  0.001145326    2.939    0.660
       399  -8.1676    164.9241     94.1874   2.9054239669e+02   5.6890619311e+00   0.01000735  0.008666466  71.93 0.0005015372    1.269    0.212
       400 -10.3344    124.0689     90.7972   2.9098895096e+02   5.9737392537e+00    0.0376562    0.0230408 -36.49  0.001536916    1.861    0.463
       401  -7.9199    188.5164     93.5056   2.9026837498e+02   5.5546232566e+00  0.006517828  0.006400519  70.44 0.0008101072    1.040    0.039
       402  -8.2712    176.1954     92.9914   2.9040607817e+02   5.6347803809e+00   0.01027584  0.008647954  75.73 0.0007121303    1.335    0.251
       403  -9.2027    138.9714     92.3394   2.9082790891e+02   5.8664568383e+00   0.01597559   0.01062427  62.77 0.0007258697    1.893    0.472
       404  -9.5912      5.3598     92.3064   2.9235835893e+02   6.6685083863e+00   0.01938942   0.01208481  60.36  0.001256804    2.064    0.515
       405  -9.6266     34.7710     89.8605   2.9200612495e+02   6.5204653175e+00   0.02335576    0.0138282 -87.29  0.001453065    2.492    0.599
       406  -7.6945    157.5489     91.5289   2.9061031605e+02   5.7638391083e+00  0.006591727   0.00628453  67.53 0.0001148563    1.087    0.080
       407  -9.0298     23.1259     90.3040   2.9214234419e+02   6.5851138074e+00   0.01455885   0.01180624  19.70  0.001320128    1.272    0.214
       408  -8.0225    150.9842     89.3216   2.9067176887e+02   5.8285735381e+00  0.009042267   0.00860386  40.64 0.0005131641    1.063    0.059
       409  -9.8473     86.2328     86.3249   2.9139459620e+02   6.2522184430e+00    0.0242437   0.01599842 -84.00  0.001505343    1.913    0.477
       410  -8.5730     64.8788     87.6598   2.9164749560e+02   6.3651416132e+00   0.01423075  0.008474181  10.28  0.001314183    2.124    0.529
       411  -7.5004    188.2793     87.3153   2.9023275444e+02   5.6266873411e+00  0.006776219  0.004887346 -29.92 0.0002679301    1.572    0.364
       412  -9.7551     48.5027     84.0628   2.9181295485e+02   6.5044108579e+00   0.02882045   0.01855406  85.11  0.002372558    2.207    0.547
       413  -9.7484    104.8229     83.2324   2.9116254841e+02   6.1758341011e+00   0.02018783   0.01368985  87.51  0.001001893    1.950    0.487
       414  -8.5356    157.9862     83.8419   2.9055773759e+02   5.8489347176e+00   0.01154653  0.009307014 -60.24  0.000579013    1.230    0.187
       415  -9.6508     24.7056     80.7111   2.9206505848e+02   6.6852182779e+00    0.0214546   0.01343256  82.71  0.001435784    2.385    0.581
       416  -9.4658     10.1567     81.4106   2.9223618378e+02   6.7642731846e+00   0.02303793   0.01188966  59.22  0.001621249    2.978    0.664
       417  -8.3679    150.1616     80.7430   2.9062809071e+02   5.9314372949e+00   0.01124218  0.008914181 -80.01 0.0006255468    1.386    0.278
       418  -8.7392    119.3388     80.3728   2.9097863415e+02   6.1211940035e+00   0.01453684   0.01080047 -88.44 0.0009859023    1.609    0.378
       419  -8.8249     74.4374     80.4267   2.9149328874e+02   6.3903796880e+00    0.0147598   0.01082164 -86.84  0.000920663    1.630    0.387
       420  -8.0824    166.5794     79.8924   2.9043497369e+02   5.8422218401e+00  0.009661014  0.006336168 -60.55 0.0004632447    1.508    0.337
       421  -9.3550     65.3284     77.6789   2.9158069378e+02   6.4764131434e+00   0.01288738    0.0113166  77.74  0.001024158    1.246    0.197
       422  -9.8730     63.4028     73.6506   2.9157787472e+02   6.5339573391e+00   0.02242729   0.01345035 -79.80  0.001691223    2.145    0.534
       423  -8.3248    183.6685     78.2275   2.9022919636e+02   5.7581827286e+00  0.009604493   0.00566153 -52.60 0.0009366365    1.645    0.392
       424  -9.3357    128.1711     74.8896   2.9084358232e+02   6.1306383557e+00    0.0275508   0.01259675 -58.19  0.001144261    2.095    0.523
       425  -9.0941    140.8974     82.8558   2.9074719251e+02   5.9631127450e+00   0.01537199  0.009638959 -74.00 0.0005018205    1.827    0.453
       426  -8.7952    140.6256     75.0676   2.9070210539e+02   6.0536349938e+00   0.01468821  0.008027537 -68.89   0.00104587    2.020    0.505
       427  -9.6152     82.4529     72.8904   2.9135486998e+02   6.4283000941e+00   0.01972391   0.01299602  86.98 0.0009750588    2.077    0.518
       428  -8.1075    151.4632     73.4804   2.9056823757e+02   6.0064760361e+00  0.006519907  0.006377694  70.83 8.866825e-05    1.047    0.045
       429  -8.5677    115.7140     72.6075   2.9097210592e+02   6.2316316897e+00   0.01490195  0.008794468 -66.57  0.001092742    1.777    0.437
       430  -8.1219     42.4266     72.7452   2.9181272534e+02   6.6700543053e+00   0.01251574  0.006621177 -68.94  0.001119898    2.102    0.524
       431  -7.6715    175.5013     72.5791   2.9028762194e+02   5.8718789557e+00  0.006483437   0.00635684 -14.46 8.533233e-05    1.022    0.022
       432  -8.5668    105.9945     71.9960   2.9107964216e+02   6.2970597542e+00   0.01019753  0.009558937  73.04 0.0006717898    1.120    0.107
       433  -9.1940     95.1112     71.1799   2.9119926492e+02   6.3717875421e+00   0.01607662   0.01143158  85.56 0.0009615443    1.791    0.442
       434  -9.4233     51.4877     69.7521   2.9169036475e+02   6.6499203561e+00   0.02337883   0.01306004 -82.50  0.001373893    2.610    0.617
       435  -9.0631     28.4182     70.7928   2.9196128026e+02   6.7762498103e+00   0.01586337  0.009896308 -11.71  0.001174115    2.327    0.570
       436  -8.2610     32.0414     68.2327   2.9190393081e+02   6.7837848384e+00   0.01206864   0.01002476   7.37 0.0009235423    1.294    0.227
       437  -8.8501     16.6487     70.1715   2.9209240694e+02   6.8537836411e+00    0.0145262   0.01039222  74.27 0.0009093743    1.776    0.437
       438  -8.8398    147.0997     68.1378   2.9058510022e+02   6.0937244925e+00   0.01590356  0.009109928 -66.18  0.001070846    1.830    0.453
       439  -8.4758    138.6911     66.3957   2.9067056945e+02   6.1642436230e+00   0.01139465  0.008029995 -79.48 0.0005953293    1.642    0.391
       440  -8.6978    121.7213     66.1752   2.9086350922e+02   6.2689046326e+00    0.0141918  0.009914067  86.78 0.0008084875    1.845    0.458
       441  -8.3564    163.3244     73.6605   2.9043362497e+02   5.9329495892e+00   0.01155532  0.007898543 -76.58 0.0007160165    1.669    0.401
       442  -8.7794     64.4957     63.8853   2.9150500348e+02   6.6388829828e+00   0.02781023   0.01395128 -26.44   0.00204106    3.543    0.718
       443  -8.7359     37.2812     64.2639   2.9181934209e+02   6.7977140175e+00   0.01651575    0.0106955  83.09  0.001018259    2.197    0.545
       444  -8.8542    110.0953     63.7516   2.9098166612e+02   6.3664989432e+00   0.01292419    0.0102799  82.86 0.0007323594    1.469    0.319
       445  -8.2448    158.2387     61.9445   2.9041925930e+02   6.0972715956e+00  0.009171113  0.008342122 -62.54 0.0003554918    1.097    0.089
       446  -9.5691     73.3824     59.7005   2.9137727286e+02   6.6333189643e+00   0.01828122   0.01238837 -83.10  0.001046475    1.810    0.448
       447  -7.5971    147.2497     59.6136   2.9053059798e+02   6.1900788107e+00  0.006757834  0.005011472  75.00 0.0006951634    1.664    0.399
       448  -9.7900     23.4565     56.4391   2.9192955834e+02   6.9698227451e+00   0.02415247   0.01435978  78.69  0.001961248    2.768    0.639
       449  -9.6353      7.6487     57.5507   2.9211774083e+02   7.0517075482e+00   0.01962308   0.01285285  78.47  0.001180451    2.153    0.535
       450  -8.1827    130.7914     58.0072   2.9070908180e+02   6.3075221111e+00   0.01012038  0.008569786  71.58 0.0005292419    1.315    0.240
       451  -8.4792    140.0261     56.3431   2.9059303944e+02   6.2709019423e+00   0.01165787  0.008972843  76.95 0.0006068007    1.559    0.359
       452  -9.1524    119.0983     55.7327   2.9082891405e+02   6.4038485759e+00   0.02076018   0.01179146 -77.42  0.001706116    2.264    0.558
       453  -9.5085     54.3434     55.7561   2.9157114344e+02   6.7925683251e+00   0.01715105   0.01170163 -84.02  0.001041942    1.805    0.446
       454  -8.4400    197.0173     55.5218   2.8993584628e+02   5.9366197908e+00  0.009473821  0.008779009 -62.51 2.425555e-05    1.077    0.072
       455  -8.6407     44.0319     55.5857   2.9168832270e+02   6.8563299793e+00     0.012399  0.009246817 -86.55 0.0008254937    1.582    0.368
       456  -8.4477    105.9561     53.5153   2.9096573564e+02   6.5082015919e+00   0.01209424  0.009215881  87.64 0.0005987603    1.566    0.362
       457  -9.5149     92.3338     50.5986   2.9110377437e+02   6.6233706468e+00   0.01870514   0.01172741 -77.11  0.001155282    1.911    0.477
       458  -9.3643     97.3954     60.7672   2.9110868965e+02   6.4769098815e+00   0.01315074   0.01228038 -21.66 0.0008892067    1.096    0.088
       459  -8.1511    129.8307     49.5417   2.9066766130e+02   6.4098880420e+00   0.01055941  0.007919467 -70.70 0.0004991295    1.403    0.287
       460  -8.1573    158.4733     49.5188   2.9033959213e+02   6.2375971833e+00  0.006507946  0.006397548 -33.99 7.865077e-05    1.010    0.009
       461  -8.0786    144.6340     48.8706   2.9049399734e+02   6.3283905199e+00  0.009285369  0.006280575 -77.56 0.0005419762    1.714    0.416
       462  -7.9792    149.7393     48.9450   2.9043601147e+02   6.2967813493e+00  0.008302539  0.005595277 -58.87 0.0003574036    1.457    0.314
       463  -8.7407    120.8330     47.5023   2.9075808539e+02   6.4873133093e+00   0.01151508  0.008958381 -60.61 0.0004900215    1.275    0.216
       464  -8.4005    112.0148     47.1378   2.9085684493e+02   6.5445282137e+00   0.01027641  0.008482969  63.81 0.0005967491    1.343    0.255
       465  -8.8530     82.0146     46.6245   2.9119745212e+02   6.7307138801e+00   0.01190041  0.009622347 -78.98 0.0005636115    1.341    0.254
       466  -8.4886     45.0221     44.6091   2.9160912731e+02   6.9756723381e+00   0.01205801  0.009091835 -86.44  0.000572042    1.553    0.356
       467  -8.7870     16.7702     44.6930   2.9193371075e+02   7.1439081739e+00   0.01269506  0.009024261 -77.54 0.0007265831    1.591    0.371
       468  -8.5993    132.9430     43.4792   2.9059446696e+02   6.4603053873e+00   0.01230753  0.009303291  87.04 0.0008443425    1.592    0.372
       469  -8.9210     58.1968     42.8061   2.9144689452e+02   6.9172490194e+00   0.01444658  0.009327107 -83.43  0.001270732    1.979    0.495
       470  -8.0591     32.5179     44.4823   2.9175176061e+02   7.0520396955e+00   0.01180601  0.006568397  11.15 0.0008993062    2.359    0.576
       471  -8.4685     93.0643     42.5804   2.9104577923e+02   6.7104684676e+00   0.01244166   0.01016118 -22.68  0.000957562    1.345    0.257
       472  -9.2542     69.5106     41.5472   2.9130938277e+02   6.8637258059e+00   0.01764026   0.01199297  87.95  0.001088519    1.936    0.483
       473  -9.4910      5.1258     41.8144   2.9204953207e+02   7.2464096800e+00   0.02050095   0.01195809 -80.80  0.001711055    2.299    0.565
       474  -8.7198    105.9988     41.5661   2.9089127592e+02   6.6442773491e+00   0.01205041  0.009221297 -88.10   0.00058798    1.529    0.346
       475  -8.0603    250.6904     41.1586   2.8923341018e+02   5.7759963613e+00  0.009316644  0.005516964 -51.63 0.0002528589    1.644    0.392
       476  -7.5708    140.2989     41.6341   2.9049879920e+02   6.4370479973e+00  0.006972454  0.004995364  68.03 0.0002824428    1.727    0.421
       477  -8.2984     36.8908     41.0966   2.9168067647e+02   7.0644819285e+00   0.01023749  0.008693852  65.60  0.000490698    1.294    0.227
       478  -8.7200     95.6198     38.0038   2.9098815940e+02   6.7473206754e+00   0.01242681  0.008409539 -83.86 0.0009589106    1.830    0.453
       479  -8.0949     80.5518     36.9764   2.9115451662e+02   6.8495796875e+00   0.01000217   0.00647611 -64.44 0.0004361931    1.570    0.363
       480  -7.7783    133.4804     36.4941   2.9054503623e+02   6.5367392396e+00  0.006499562  0.006411146  72.45 4.915351e-05    1.034    0.033
       481  -8.0174    125.8270     35.7548   2.9062811773e+02   6.5912559277e+00  0.008937228  0.007472267  60.81 0.0004069405    1.304    0.233
       482  -8.7843    111.7655     34.7004   2.9078268107e+02   6.6879078575e+00   0.01276082   0.00912787 -80.01  0.000615523    1.614    0.380
       483  -8.5308    119.3222     33.3393   2.9068767001e+02   6.6579606213e+00   0.01274269  0.008592702  65.78 0.0003525802    1.900    0.474
       484  -7.8677     88.5409     34.5252   2.9104776155e+02   6.8295478016e+00  0.006498404  0.006384629  72.55 0.0001287808    1.041    0.039
       485  -8.8946     48.3961     33.5195   2.9150185873e+02   7.0819839227e+00   0.01305047   0.01045558  72.72 0.0006913383    1.446    0.308
       486  -9.0486     72.0381     31.2670   2.9121679232e+02   6.9658382494e+00   0.01163041  0.008958713  76.75 0.0006013887    1.557    0.358
       487  -7.3586    139.2994     31.6901   2.9044862189e+02   6.5564752554e+00  0.006750475  0.004999241  64.67 0.0004052545    1.600    0.375
       488  -9.1991     12.9122     30.4244   2.9188982316e+02   7.3298121744e+00   0.01598167  0.009834892 -73.56  0.001088983    1.862    0.463
       489  -8.7835     60.7636     32.6487   2.9135462835e+02   7.0177432274e+00   0.01246812   0.01034283  81.86 0.0006370293    1.369    0.269
       490  -7.4382    192.4192     29.4291   2.8982661565e+02   6.2618559476e+00  0.006428753   0.00633681  77.04 0.0001020306    1.034    0.033
       491  -8.1021    101.4294     29.2612   2.9086743865e+02   6.8121153063e+00  0.009006507   0.00642391 -78.69 0.0005433357    1.602    0.376
       492  -8.7554     81.4265     27.6581   2.9108680704e+02   6.9506239372e+00   0.01361575  0.009853689  66.71 0.0008288255    1.684    0.406
       493  -9.0636      3.5519     27.7030   2.9198042893e+02   7.4168415236e+00   0.01287068   0.01075839  77.19 0.0007509319    1.352    0.261
       494  -8.5678     91.7040     26.4704   2.9096162915e+02   6.9024154697e+00   0.01317825   0.01006807 -89.75 0.0007387273    1.545    0.353
       495 -10.2356    145.5458     22.5046   2.9032014598e+02   6.6235688510e+00   0.01460574   0.01125543 -58.33 0.0002798006    1.279    0.218
       496  -8.3121    104.4872     23.0065   2.9079364872e+02   6.8650579850e+00  0.009755927  0.006492238 -63.84 0.0004843852    1.519    0.342
       497  -8.9210     63.5534     21.2157   2.9125188125e+02   7.1314186465e+00    0.0155649    0.0111164  83.76 0.0009960709    1.787    0.440
       498  -8.9082     48.3686     21.7817   2.9142956289e+02   7.2160518336e+00    0.0120696   0.01102542  82.54 0.0006618695    1.168    0.144
       499  -8.3264     19.7974     21.8146   2.9175759329e+02   7.3868359103e+00  0.009249342  0.007648866  63.51 0.0005319599    1.339    0.253
       500  -7.6956    120.5549     21.0607   2.9059746297e+02   6.7905623884e+00  0.009159719   0.00571488  83.23 0.0008063546    2.411    0.585
       501  -7.9893    191.6950    249.7439   2.9119701784e+02   3.7516488200e+00   0.01058786  0.004573899  40.35 0.0005940212    2.323    0.570
       502  -8.6814     11.9915     20.8009   2.9184091158e+02   7.4451088527e+00   0.01125436  0.006768893  53.29 0.0006311968    1.967    0.492
       503  -7.9977     39.0408     18.6967   2.9151749173e+02   7.3071524202e+00  0.009126219  0.008299836  31.53 0.0003866068    1.104    0.094
       504  -8.0239     87.8405     17.7962   2.9095219671e+02   7.0245590622e+00  0.009030489  0.007615851  68.06 0.0004280734    1.316    0.240
       505  -7.8896    112.7699     17.0109   2.9066157197e+02   6.8835939089e+00  0.008409436   0.00542634 -61.69  0.000310492    1.543    0.352
       506  -8.0018     30.1399     16.2063   2.9160422181e+02   7.3888824836e+00  0.009218526  0.007641677  69.24 0.0005400648    1.357    0.263
       507  -9.0262    175.6485    247.7530   2.9136790963e+02   3.8708729864e+00   0.01664617   0.01113533  66.34  0.001143455    1.935    0.483
       508  -8.5803    156.5605    248.5561   2.9159078158e+02   3.9764287808e+00   0.01313029  0.008700367  66.41 0.0008676508    1.972    0.493
       509  -8.8922    132.3012    248.1655   2.9186542138e+02   4.1266115301e+00   0.01461657   0.01099062  74.65 0.0007986976    1.618    0.382
       510  -8.1099    113.1137    248.6342   2.9208747940e+02   4.2364330951e+00   0.01142497  0.008792476 -79.13 0.0007909295    1.436    0.304
       511  -9.3144    103.8366    246.8976   2.9218279089e+02   4.3119387574e+00   0.02357196   0.01345722 -85.54  0.001895401    2.636    0.621
       512  -7.5275    119.6965     11.3250   2.9054695024e+02   6.9067257468e+00  0.006834506  0.004999246  65.39 0.0006228203    1.641    0.391
       513  -9.1246    242.8693    246.7206   2.9059460050e+02   3.4782218749e+00   0.02253022   0.01040363 -52.81  0.001630618    2.064    0.515
       514  -8.5100    218.5591    247.4221   2.9087618706e+02   3.6165417102e+00   0.01566235  0.006187474 -59.75   0.00115027    2.437    0.590
       515  -9.3268    147.4508    246.2597   2.9168067289e+02   4.0573933289e+00   0.02218115    0.0119241  59.57  0.001839715    2.730    0.634
       516  -8.4572    146.1471    239.7279   2.9165536058e+02   4.1398417545e+00   0.02065409   0.01075833  78.63  0.001315598    4.907    0.796
       517 -10.0566    223.9754    244.2095   2.9079459489e+02   3.6206171389e+00   0.02738189   0.01439327 -74.04  0.002293118    2.389    0.581
       518  -8.8269    210.9443    246.5752   2.9095784033e+02   3.6720318322e+00   0.01252176  0.009196448 -88.44 0.0008175735    1.641    0.391
