#   1 NUMBER                 Running object number                                     
#   2 MAG_AUTO               Kron-like elliptical aperture magnitude                    [mag]
#   3 X_IMAGE                Object position along x                                    [pixel]
#   4 Y_IMAGE                Object position along y                                    [pixel]
#   5 X_WORLD                Barycenter position along world x axis                     [deg]
#   6 Y_WORLD                Barycenter position along world y axis                     [deg]
#   7 A_WORLD                Profile RMS along major axis (world units)                 [deg]
#   8 B_WORLD                Profile RMS along minor axis (world units)                 [deg]
#   9 THETA_WORLD            Position angle (CCW/world-x)                               [deg]
#  10 FWHM_WORLD             FWHM assuming a gaussian core                              [deg]
#  11 ELONGATION             A_IMAGE/B_IMAGE                                           
#  12 ELLIPTICITY            1 - B_IMAGE/A_IMAGE                                       
         1 -11.9585    201.8177     36.3809   5.6242438332e+01   2.9872422430e+01     1.386373     1.187518 -43.84  0.007427567    1.154    0.133
         2 -10.7720    203.8982     25.8965   5.2889390524e+01   3.0648262443e+01     3.082679          nan  55.97  0.006890938    6.826    0.854
         3  -8.7828    163.7745     33.9890   6.1737440557e+01   4.0191862792e+01    0.4152235    0.2144133 -20.05  0.001633445    2.210    0.548
         4 -10.2451    110.2533     31.1229   7.2834853602e+01   5.3520633226e+01      0.42889    0.2339255 -33.56  0.001940465    1.787    0.440
         5  -8.8615    241.4712     18.9654   4.6794294592e+01   2.1984287887e+01    0.3882348    0.2678763   7.59   0.00191001    2.106    0.525
         6  -9.5214    238.0958     15.6266   4.6271296247e+01   2.3181855387e+01    0.3611092    0.1957411 -43.19  0.001121808    1.679    0.404
         7  -9.5817    230.8272     15.2898   4.6886984656e+01   2.5003017740e+01    0.2787268     0.228869 -46.56 0.0009082537    1.148    0.129
         8 -10.6197    221.4186     14.3532   4.7595686655e+01   2.7464187944e+01    0.6722507    0.3155263 -30.45  0.002924289    2.048    0.512
         9  -9.2654    198.1669     10.8132   4.9201031697e+01   3.3847805610e+01    0.2618115     0.199237 -23.18 0.0008287175    1.408    0.290
        10  -9.6350    199.9390     15.0079   5.0215259487e+01   3.2935807701e+01    0.3109033    0.2709753  57.03  0.001042599    1.146    0.128
        11  -8.8275    201.6973     11.6933   4.9038990113e+01   3.2831695507e+01    0.2345936    0.1606053  47.28 0.0005726185    1.533    0.348
        12 -10.2760    212.6451      8.4972   4.6918761292e+01   3.0330132323e+01     0.558041    0.3269942 -31.86  0.002697203    1.688    0.408
        13  -9.8322    112.2874     10.4662   6.3885432619e+01   5.5651388110e+01    0.3266013    0.1350979 -35.61  0.001327822    2.537    0.606
        14  -9.2165    155.1870      9.2717   5.4769233719e+01   4.5291569836e+01    0.3049961    0.1914993 -22.69  0.001459292    1.680    0.405
        15 -10.2110    117.5166      6.5116   6.1018219261e+01   5.4858865930e+01    0.6816273    0.2467602 -19.63  0.002571332    2.957    0.662
        16  -8.6082    239.4626      9.0524   4.4493599019e+01   2.3576626411e+01      0.19951    0.1213114 -33.35 0.0008121312    1.563    0.360
        17  -9.9025    171.7355      5.2782   5.0901566879e+01   4.1357052420e+01    0.3375887    0.2276289  50.24  0.001090263    1.406    0.289
        18  -9.0308    165.1366      3.1691   5.1140507237e+01   4.3282022281e+01    0.3493561    0.0835216 -23.75  0.001092579    4.020    0.751
        19  -8.4689     55.6356      4.6874   7.8835789154e+01   6.7110865681e+01    0.1307679   0.08036846   6.73 0.0006722236    1.759    0.432
        20  -9.5251    231.7606      2.7396   4.3574004067e+01   2.6115202458e+01    0.2670475    0.1643405 -88.84 0.0009354698    1.631    0.387
        21  -9.1784    240.7325      2.3926   4.2739536983e+01   2.3973489992e+01    0.2357731    0.1201285  81.83 0.0008208236    1.977    0.494
        22  -8.9744    194.9236      1.9363   4.6971215449e+01   3.5578317340e+01    0.2812461    0.1592093 -73.48  0.001223963    2.103    0.524
        23  -8.8539    190.3069      1.9659   4.7505583517e+01   3.6784181762e+01    0.2343719    0.1747312  50.59 0.0009271521    1.335    0.251
        24  -9.5723    187.1796      9.4791   5.0162701921e+01   3.6875061871e+01    0.4270932    0.2536706 -48.37  0.001971736    1.783    0.439
        25  -8.2789     63.6645      1.6747   7.4282897942e+01   6.6195301807e+01    0.1326077   0.08094059  11.61 0.0007051354    1.717    0.418
        26  -9.1310    163.2118    193.4441   1.0231600086e+02   1.1517904664e+01    0.1899071    0.1110584  52.86 0.0008831929    1.630    0.386
        27 -10.0895    193.8567    188.3028   9.5572279710e+01   6.5947654124e+00    0.2113604    0.1547471  55.31 0.0008833429    1.463    0.316
        28  -9.8567    121.9639    188.4827   1.0971193891e+02   1.9776503124e+01    0.2064797    0.1131128  46.15  0.001039315    1.617    0.382
        29  -9.2772    225.8331    184.8875   8.9092259085e+01   1.1287031294e+00    0.2098939    0.1573852  13.61  0.001162645    1.287    0.223
        30  -9.4574    106.3242    184.6687   1.1234008596e+02   2.3104661368e+01    0.1358547   0.08736493  72.99 9.156209e-05    1.704    0.413
        31  -9.5008    198.4256    182.2135   9.3595815890e+01   6.6608712621e+00    0.1785461    0.1285696 -49.88 0.0009569509    1.715    0.417
        32 -10.3256    158.1016    178.6326   1.0083763858e+02   1.5036745558e+01    0.2543448    0.2047505 -37.33 0.0009000945    1.431    0.301
        33  -9.1018    151.8264    179.1188   1.0219402758e+02   1.6140084870e+01    0.1847821    0.1620424  16.22   0.00108575    1.336    0.251
        34  -8.8347    219.9406    179.0000   8.9011296782e+01   3.0460903566e+00    0.2202851    0.0689745  45.43 0.0008008332    2.931    0.659
        35  -9.0884    183.6679    176.3150   9.5324082326e+01   1.0472413270e+01    0.1348313    0.1074152  78.26 0.0005938701    1.683    0.406
        36  -8.7267    234.8372    175.3801   8.5657672044e+01   7.8343852588e-01     0.200598    0.1060504  34.19 0.0009572722    1.798    0.444
        37  -9.3942    193.8149    173.8309   9.2879935423e+01   8.8826367691e+00    0.1832756    0.1671544  79.82  0.001080406    1.350    0.259
        38  -9.6655    213.0669    169.9921   8.8483689213e+01   5.6983093858e+00    0.2147153    0.1917733  22.01 0.0006942173    1.022    0.022
        39  -8.8874    147.4989    168.4183   1.0121459320e+02   1.8957853698e+01    0.1390678    0.1248975  56.76 9.195237e-05    1.022    0.022
        40 -10.3503    193.0127    166.5529   9.1601303539e+01   1.0237473873e+01    0.2562019    0.2399939  46.96  0.001529726    1.118    0.106
        41  -8.3178    247.5533    158.4757   8.0006398500e+01   7.6294167490e-01    0.1368827    0.1128848   6.36 0.0002852787    1.076    0.071
        42 -11.3520    197.8657    150.8360   8.7367707216e+01   1.1890187414e+01    0.8674436    0.2740807 -46.82  0.002650767    4.167    0.760
        43  -9.1093    222.3694    153.1893   8.3259383205e+01   6.4339025542e+00    0.2009947    0.1246012 -42.96 0.0009530575    1.793    0.442
        44  -9.6840    230.1986    148.4060   8.0811186218e+01   5.5888106162e+00    0.2282216    0.1646788 -34.54  0.001112316    1.404    0.288
        45 -10.4440    206.2028    147.4069   8.5002179656e+01   1.0710220945e+01    0.3175725    0.2498156  15.85  0.001653677    1.354    0.261
        46  -8.9184    224.7288    146.6259   8.1391679614e+01   6.9748272390e+00    0.2653454    0.1730704 -17.52  0.001269811    1.681    0.405
        47  -8.6468    111.7017    147.3862   1.0530596955e+02   2.9885618010e+01    0.1480895    0.1026438  84.07 0.0007016639    1.779    0.438
        48 -10.2398    187.9516    140.6613   8.7085051714e+01   1.5804876654e+01    0.2804692    0.2062094 -38.11    0.0013824    1.403    0.287
        49 -10.1268    146.0334    157.9397   9.9582868949e+01   2.1275523222e+01    0.2208143    0.2041593  58.18 0.0007928441    1.009    0.008
        50  -8.8189    182.3227    142.6805   8.8690021585e+01   1.6659013447e+01    0.1470592    0.1185159 -88.24  0.000704471    1.672    0.402
        51  -9.7866    124.6231    141.7922   1.0123581135e+02   2.8732175946e+01    0.3279094    0.1521088  61.01  0.001096922    3.433    0.709
        52 -10.1626    216.2128    135.6373   8.0447529711e+01   1.0528761784e+01    0.2901888    0.2596407  87.44  0.001031556    1.431    0.301
        53 -12.2705    141.2296    135.3694   9.6041782012e+01   2.6822764244e+01    0.6663717    0.4356435  26.61  0.002907082    2.032    0.508
        54  -8.7763    249.5291    135.9539   7.4744038388e+01   3.5894698456e+00    0.2013557    0.1257364 -27.35 0.0004655311    1.498    0.333
        55 -10.3391    164.8586    136.1577   9.0919097860e+01   2.1680627790e+01    0.2280501    0.2080635  78.86 0.0008560207    1.184    0.155
        56 -12.1475    169.4647    132.2552   8.9023430778e+01   2.1435390937e+01    0.7006617    0.4183538 -50.70  0.002411352    1.838    0.456
        57 -10.8872    171.0092    124.5561   8.6859243013e+01   2.2584547233e+01    0.3467953    0.2108573 -49.63  0.001264161    1.773    0.436
        58  -8.8246    206.3072    137.6481   8.2775109761e+01   1.2334661722e+01    0.1455401    0.1176872 -73.88   0.00070428    1.713    0.416
        59 -10.7618    179.3305    133.4362   8.7200742904e+01   1.9030612666e+01    0.3536226    0.2512037  61.82  0.001639266    1.602    0.376
        60 -10.2435    131.7068    130.7523   9.7257745424e+01   2.9715456771e+01    0.2859554    0.2496534  60.66  0.001544558    1.138    0.121
        61  -9.5674     86.7387    131.0030   1.0831320859e+02   3.7626571119e+01    0.2935724    0.1513781  62.67  0.001185968    2.723    0.633
        62 -11.1600    193.3769    127.8770   8.3004022226e+01   1.6911627729e+01    0.3992212    0.3265618 -72.40  0.001928564    1.570    0.363
        63 -10.5903    188.9934    123.9726   8.2941716476e+01   1.8614871201e+01    0.4120383    0.3049078  82.16  0.001524938    1.952    0.488
        64 -10.8798    211.9160    124.2735   7.8549581440e+01   1.3372375845e+01    0.6103337    0.3430643  30.68  0.002456146    2.205    0.546
        65  -8.7340    221.9849    129.4908   7.7955562146e+01   1.0289199037e+01    0.1971607    0.1338203  78.83 0.0008105015    2.569    0.611
        66  -9.1148    242.7662    124.4435   7.3193516841e+01   6.6700761273e+00    0.2589818    0.1409519  53.98  0.001146174    2.051    0.512
        67 -10.0926    161.6442    124.2026   8.8830756730e+01   2.4746415093e+01    0.2550681    0.2079937  61.55 0.0006817759    1.295    0.228
        68  -8.8648    153.3443    122.6615   9.0333979522e+01   2.6883226885e+01    0.1589503    0.1206904 -88.18   0.00070487    1.776    0.437
        69  -8.7990    221.8024    121.1035   7.5978526631e+01   1.1700315351e+01    0.2078242     0.168775   6.65  0.001064595    1.314    0.239
        70 -10.7761    196.6750    121.6136   8.0822695844e+01   1.7287442559e+01    0.4614293     0.288367  41.77   0.00204028    1.607    0.378
        71  -9.2199    235.9986    117.3648   7.2625970944e+01   9.1944380238e+00     0.294986    0.1997893 -36.52  0.001446689    1.421    0.297
        72 -10.7134    182.8359    116.4220   8.2330730744e+01   2.1430264691e+01    0.4549772    0.3855251  -0.18  0.001477266    1.328    0.247
        73  -9.1844    230.4291    116.3645   7.3321395467e+01   1.0564758523e+01    0.3963592    0.1890605  59.86  0.001506055    2.674    0.626
        74 -10.4595    211.3180    115.8470   7.6588976497e+01   1.4940785423e+01    0.3245324    0.2031356  39.92  0.001440241    1.650    0.394
        75  -9.7450    204.0012    116.2883   7.8075094695e+01   1.6545576825e+01    0.2189336    0.1943917  38.23  0.001148686    1.120    0.107
        76  -9.6409    194.3977    115.2096   7.9673723939e+01   1.8963552126e+01    0.2890773    0.1952327 -43.52     0.001306    1.515    0.340
        77  -9.1881    219.8922    115.6274   7.4976853917e+01   1.3030022557e+01    0.4313799    0.1375426  50.98  0.001409355    3.147    0.682
        78 -11.1663    155.1660    114.9170   8.8006132743e+01   2.8054097953e+01    0.4551277    0.1950566  40.63  0.001583636    2.560    0.609
        79  -8.5700    248.9843    113.2504   6.9547512512e+01   7.0662976046e+00    0.1701425     0.121109  50.05 0.0008670432    1.514    0.339
        80  -8.4986     52.3017    113.6365   1.1414623391e+02   4.6190854871e+01    0.1336007   0.08851338  81.57 0.0007035801    1.729    0.421
        81 -11.7119    165.8841    111.1666   8.4627023047e+01   2.6367074022e+01    0.5688222    0.2664119  51.25  0.002114524    2.170    0.539
        82 -10.1392    104.6441    111.7300   9.9722096509e+01   3.9001376329e+01    0.2347793    0.2127728 -27.38  0.000473953    1.243    0.196
        83  -9.4943     15.2538    111.8700   1.2365068704e+02   5.0036429430e+01    0.1762763    0.1403365  71.01 0.0004714901    1.291    0.225
        84 -11.9083    165.3003     87.4163   7.8256634790e+01   3.1079236256e+01    0.6341704    0.4383009 -60.14  0.002528578    1.778    0.438
        85 -10.6256    183.9410    109.8038   8.0404910909e+01   2.2406131854e+01    0.4075378    0.3492173 -35.03  0.001392707    1.165    0.142
        86 -12.3439    185.0468    103.5311   7.8526951644e+01   2.3303329790e+01    0.8521315    0.4876967 -45.72  0.003483148    1.820    0.451
        87 -11.9407    177.2358     96.5138   7.8248254900e+01   2.6483691136e+01     0.567465     0.475614  68.89  0.002687389    1.314    0.239
        88  -9.6802    177.9848    111.0333   8.1969709205e+01   2.3576463769e+01    0.2504986     0.189852  13.82  0.001033849    1.669    0.401
        89  -9.9681    173.6762    110.9471   8.2867269686e+01   2.4600840474e+01    0.2229683    0.2034251 -42.30 0.0007859584    1.105    0.095
        90 -10.7839    151.3213    110.5088   8.7772900339e+01   2.9807873887e+01    0.3136945    0.2705289  77.82  0.001578654    1.302    0.232
        91 -10.9322    190.5204    109.0240   7.8861955328e+01   2.0994594957e+01    0.3663309    0.2633993  32.95  0.001673924    1.515    0.340
        92 -10.0221    215.7628    107.7121   7.3729233197e+01   1.5293460336e+01    0.3271528     0.303904 -62.93  0.001209342    1.201    0.168
        93 -10.1519    122.7386    109.0000   9.4376635858e+01   3.6187771100e+01    0.3137685    0.1884182  69.47  0.001189215    2.662    0.624
        94  -8.7846    249.2430    106.4207   6.7866720797e+01   8.0383032984e+00    0.2585666    0.1311962  47.89  0.001123721    2.069    0.517
        95 -11.7454    140.6912    102.7667   8.8281211494e+01   3.3749941062e+01    0.5244696    0.3664972 -44.13  0.002423949    1.410    0.291
        96 -11.6706    171.5603     92.6897   7.8393160353e+01   2.8572627346e+01    0.7133687    0.3790453 -35.51  0.002795541    1.894    0.472
        97 -10.7165    195.1629    102.3710   7.6195758829e+01   2.1086266427e+01    0.5436095    0.3490242  86.73  0.001976402    2.903    0.656
        98  -9.7348    150.4671    103.0321   8.6007666071e+01   3.1517623957e+01     0.238818    0.1508688 -42.14 0.0007635034    1.570    0.363
        99  -8.5827    248.4548    102.4880   6.7031698876e+01   8.7985533688e+00     0.142672    0.1291123 -20.28 0.0001445374    1.008    0.008
       100 -12.1877    167.5034    100.4844   8.1432686077e+01   2.8065772234e+01    0.5089808    0.4810803  71.80     0.002677    1.109    0.098
       101  -9.0070    102.3157    102.6531   9.8174079186e+01   4.1431521160e+01    0.1492969     0.111822 -89.49 0.0007047825    1.722    0.419
       102  -9.9425    219.2423    100.2020   7.1190451444e+01   1.5732543593e+01    0.6257279    0.2901292  63.74    0.0021996    2.933    0.659
       103  -8.4277    211.6201    100.7021   7.2667647664e+01   1.7444809199e+01    0.1617673    0.1147057  19.85 0.0007022787    1.761    0.432
       104 -11.2712    160.6115     99.0959   8.2593486177e+01   2.9960832656e+01    0.3692631    0.2737018 -35.25  0.001713922    1.363    0.266
       105 -11.1692    198.5400     89.3733   7.2039236019e+01   2.2543693435e+01    0.5624111    0.5040045 -41.57    0.0029181    1.110    0.099
       106 -11.6620    193.0746     94.3902   7.4457038639e+01   2.3009442889e+01    0.6557589    0.3828364 -28.62  0.002685766    1.807    0.447
       107 -11.3403    128.6040     97.7411   8.9948923026e+01   3.7391081958e+01    0.4787216    0.2997358  72.55  0.001831477    2.612    0.617
       108  -9.9341    121.9736     97.9728   9.1724596663e+01   3.8709250890e+01    0.2427951    0.1867196 -84.49 0.0008365083    1.697    0.411
       109 -10.6418    146.2520     96.0431   8.5102143864e+01   3.3882824368e+01    0.2889933    0.2123909 -58.13 0.0005816832    1.515    0.340
       110 -10.2066    102.2211     94.2491   9.6058795814e+01   4.3295456155e+01    0.4973375    0.2351062 -31.36  0.001623964    3.625    0.724
       111  -9.9678     51.0921     95.4332   1.1111245549e+02   5.0467567397e+01    0.2414392    0.1623717 -63.76 0.0004133975    1.261    0.207
       112  -9.7272    216.5260     94.9820   7.0302482216e+01   1.7235438713e+01    0.2397361    0.1435515 -34.06 0.0006473936    1.600    0.375
       113  -9.0335    208.2057     95.1832   7.1829886566e+01   1.9194954704e+01    0.2078874    0.1804557 -62.92 0.0005632218    1.287    0.223
       114  -8.7409    243.9560     92.9972   6.5367295295e+01   1.1218563901e+01    0.1701056    0.1635298  35.04  0.000894385    1.114    0.102
       115 -11.2652    151.6158     92.1270   8.2725888816e+01   3.3430317991e+01    0.4644884    0.3054717 -22.41  0.001936038    1.881    0.468
       116 -11.8607    178.6223     86.4268   7.5130940503e+01   2.7992199225e+01    0.6931108    0.5569454  68.53  0.002822163    1.375    0.273
       117  -8.7782    108.5392     91.0120   9.3440566637e+01   4.2829659214e+01    0.2350889    0.1378969 -46.35 0.0008714257    1.608    0.378
       118 -10.4886    215.1586     88.6313   6.8856673906e+01   1.8608804740e+01    0.3582688    0.2591721 -45.31  0.001373427    1.397    0.284
       119 -10.0022    146.8172     89.7835   8.3196783429e+01   3.5002271185e+01    0.2184501    0.1882779 -82.86 0.0007249796    1.359    0.264
       120  -9.1052    131.3321     89.3050   8.6898475534e+01   3.8558421796e+01    0.1548286    0.1214263   4.21 0.0004291915    1.660    0.398
       121 -10.2634    225.4987     86.3119   6.6522636221e+01   1.6504920797e+01    0.5439812      0.36298   5.03  0.002307389    2.133    0.531
       122 -10.1493    139.9081     86.6178   8.3963184333e+01   3.7204354395e+01    0.3949724    0.2499594 -25.86  0.001072304    1.886    0.470
       123 -11.4728    143.0617     82.2024   8.1883941918e+01   3.7352042006e+01    0.5232915    0.3252302 -51.02  0.002208621    1.742    0.426
       124  -8.7765    232.9770     85.4557   6.5120139157e+01   1.4878743919e+01     0.235239     0.171999 -70.11 0.0005472123    1.780    0.438
       125  -9.0220    232.0444     81.7164   6.4292970823e+01   1.5675624825e+01    0.2988286    0.2104213 -40.88  0.001047173    1.355    0.262
       126 -10.4983    117.2583     84.6943   8.9271549483e+01   4.2454422579e+01    0.2815826     0.258919 -15.76 0.0008298628    1.136    0.119
       127  -8.8075    134.5173     84.0054   8.4544271198e+01   3.8930138868e+01    0.2135761    0.1295189 -62.63 0.0006522113    2.352    0.575
       128 -10.0453    183.9145     82.5028   7.2935862079e+01   2.7373269599e+01    0.2626975    0.2172302 -60.49 0.0009165316    1.340    0.254
       129  -9.5600    111.7610     82.7719   9.0216813915e+01   4.3948118084e+01    0.2042641    0.1776566 -83.02 0.0005401358    1.347    0.258
       130  -9.5597    211.0139     80.8042   6.7451164318e+01   2.0899633074e+01    0.2941924    0.2063795 -53.35  0.001336096    1.570    0.363
       131 -10.7970    214.5640     76.4276   6.5657236408e+01   2.0726785072e+01    0.7476862    0.3393421 -30.74  0.002814621    2.167    0.538
       132 -11.7423    176.4768     77.9088   7.3103191275e+01   3.0044113579e+01    0.6129899    0.4090801 -56.02  0.002602613    1.770    0.435
       133 -10.6382    152.7814     80.4033   7.9029171868e+01   3.5414012763e+01    0.2979946     0.217126 -39.10  0.001368197    1.354    0.261
       134 -12.2907    192.9002     77.5155   6.9771513178e+01   2.5972158341e+01    0.8601217    0.4734568  65.59  0.003329687    2.145    0.534
       135 -10.8971    160.1935     79.8597   7.7174182753e+01   3.3726619021e+01    0.5065185    0.2294089  46.74  0.001834049    2.227    0.551
       136 -10.4443    131.2341     78.9211   8.3856638797e+01   4.0662277722e+01    0.3542987    0.2000656 -34.06  0.001187821    1.835    0.455
       137 -10.6552    119.4851     78.8631   8.6938414123e+01   4.3189089556e+01    0.3128866    0.2783976 -28.35  0.001189151    1.110    0.099
       138 -11.1481    136.9617     77.9177   8.2096409477e+01   3.9576484217e+01    0.5382472    0.3017873  57.18  0.002158244    2.026    0.506
       139  -9.2484    243.7963     77.6376   6.1518849200e+01   1.3564116227e+01    0.3480078    0.1212891 -47.53  0.001094404    3.551    0.718
       140  -9.8543    113.1515     78.1787   8.8465982189e+01   4.4616754051e+01    0.2060452    0.1813556 -86.98  0.001082764    1.348    0.258
       141  -9.2228    224.4731     75.4962   6.3818226129e+01   1.8446559900e+01     0.288292    0.1158634 -42.02    0.0010286    2.416    0.586
       142 -11.3270    156.9466     69.0562   7.4599114535e+01   3.6473704021e+01    0.6831067    0.4005326 -61.99  0.002480106    2.643    0.622
       143 -10.6628    127.0198     74.9763   8.3737853937e+01   4.2357652944e+01    0.4491441    0.2416976 -23.58  0.001613431    2.684    0.627
       144 -10.8809    151.6372     73.0230   7.7044279727e+01   3.7056853544e+01    0.5205035    0.2448373 -47.59  0.001868265    2.363    0.577
       145  -9.9459    181.7363     65.4516   6.8343700959e+01   3.0823371889e+01    0.4659978    0.2658164  27.93   0.00167675    2.626    0.619
       146  -9.1364     97.6507     74.3291   9.1739155168e+01   4.8352175982e+01    0.1454918    0.1142691 -85.68 0.0007048796    1.763    0.433
       147  -9.1496    235.3131     72.5780   6.1424093204e+01   1.6292535891e+01     0.222181    0.1630854 -63.95 0.0007135744    1.588    0.370
       148 -10.8560    202.4071     72.1151   6.6516198368e+01   2.4458814335e+01    0.5309404    0.3657263  81.73  0.002300566    1.873    0.466
       149 -11.3441    175.5822     71.3184   7.1324425954e+01   3.1412596406e+01    0.5176504    0.3318289  57.31  0.002233853    1.588    0.370
       150  -9.9129    162.9573     70.4845   7.3717963254e+01   3.4732878918e+01     0.239137    0.1548103  55.83  0.001023873    1.571    0.364
       151  -9.1659      6.0201     70.0035   1.2029039509e+02   5.9812914358e+01    0.1441994    0.1065886 -64.20 0.0008250902    1.005    0.005
       152 -10.2054    213.8598     57.9052   6.0634729401e+01   2.3750016946e+01    0.5866832    0.3817002  71.05  0.002462702    1.691    0.409
       153 -10.1181    225.3363     66.4881   6.1268444314e+01   1.9608847804e+01    0.6348144    0.3708624  76.05   0.00262697    2.210    0.548
       154  -9.3705    221.0946     61.3194   6.0493791776e+01   2.1427070394e+01    0.2959077     0.235497 -50.72  0.000841671    1.253    0.202
       155  -9.2931    218.2863     68.0340   6.2760560904e+01   2.1114362210e+01    0.3480447    0.2122761  83.80  0.001386986    2.362    0.577
       156  -9.4751    139.7055     67.2460   7.8065114555e+01   4.0945994460e+01    0.3397485    0.2100707 -42.16  0.001466428    1.608    0.378
       157 -10.0487    189.8822     67.0083   6.7278904733e+01   2.8478123937e+01    0.3608942    0.2511321  45.38  0.001633056    1.473    0.321
       158  -8.9310    250.1208     65.4911   5.7597133980e+01   1.3883805207e+01     0.190296     0.141617  66.06 0.0006366056    1.476    0.323
       159  -9.7810    198.5242    248.5205   1.0408382541e+02  -2.1732725053e+00    0.1145212   0.08541387  36.09 0.0001380998    1.007    0.007
       160 -10.9954    191.8172     32.4724   5.6547815743e+01   3.3007792518e+01    0.7072302    0.3551478  34.54  0.002565986    2.812    0.644
       161 -10.9866    189.5141     44.5407   6.0591361874e+01   3.1990281027e+01    0.6842829    0.3440608 -26.69  0.002700221    2.070    0.517
       162 -11.8257    186.6563     39.3551   5.9469711496e+01   3.3461108411e+01     1.092551    0.5273085 -58.70  0.003650994    3.220    0.689
       163 -12.2266    199.8083     58.4226   6.3020691239e+01   2.7269373375e+01     1.132753     0.827627  61.74  0.005398648    1.387    0.279
       164 -12.1300    199.5440     51.4303   6.1017025551e+01   2.8379108208e+01     1.039134    0.8429615 -68.36   0.00519898    1.350    0.259
       165 -11.1534    164.8045     63.2209   7.1060917337e+01   3.5514849734e+01    0.6472893    0.2349579 -35.34  0.002144393    2.669    0.625
       166  -9.8007    158.6651     62.2391   7.2065449835e+01   3.7223969934e+01    0.4572421    0.2074544 -31.13  0.001347597    2.279    0.561
       167  -9.9056    149.0044     60.6569   7.3717110612e+01   3.9881726685e+01    0.3864445    0.3052603  54.96  0.001603873    1.287    0.223
       168 -11.2816    126.9789     59.2291   7.8636346613e+01   4.5304512520e+01    0.5224146    0.2651206 -45.84  0.002064196    2.092    0.522
       169  -8.5263     95.3095     60.6177   8.8072339651e+01   5.1510985508e+01    0.1441439    0.1119716 -73.69 0.0007022889    1.800    0.444
       170  -8.7108     47.8053     60.6046   1.0380897810e+02   5.8453439916e+01    0.1588661     0.118099  43.86 0.0009460012    1.671    0.402
       171 -10.7218    172.3160     57.4807   6.7724389757e+01   3.4534463375e+01    0.6116975    0.4354527  16.26  0.002370944    1.824    0.452
       172  -8.9203    235.3198     59.9685   5.8118848137e+01   1.8139943912e+01    0.2286101    0.1582888  64.78 0.0006346087    1.534    0.348
       173  -9.1918    115.5170     57.5131   8.1128716630e+01   4.8108524720e+01    0.1476129    0.1384502 -12.54  0.000810288    1.009    0.009
       174  -9.3588     99.5277     56.5049   8.5395299978e+01   5.1503975589e+01    0.1435792    0.1315231 -21.33  0.000143025    1.002    0.002
       175 -10.1699    228.8784     51.6400   5.6770802534e+01   2.0890586857e+01    0.5158115    0.4579638  30.31  0.002850609    1.262    0.207
       176  -9.3276    221.1952     53.4513   5.8320446076e+01   2.2546602265e+01    0.3632485    0.2666246  44.14  0.001783275    1.478    0.323
       177 -10.8564    162.8593     52.5762   6.8062510522e+01   3.7735433306e+01    0.5107279     0.373384 -66.04  0.001848127    1.724    0.420
       178  -9.6084    158.4725     47.9751   6.7457434478e+01   3.9564555241e+01    0.3808748    0.1812052 -33.41  0.001014443    2.072    0.517
       179  -9.0814     41.9942     55.0534   1.0428487949e+02   6.0217364021e+01    0.1573921    0.1203503 -47.26 0.0004588522    1.065    0.061
       180  -9.1295    236.8635     53.8688   5.6314173912e+01   1.8631854101e+01    0.2514814    0.2006041  79.94  0.001330589    1.354    0.261
       181  -9.5438    245.1152     51.7603   5.4738552872e+01   1.6958799223e+01    0.3571318    0.2535884 -77.44   0.00163512    1.653    0.395
       182 -10.7478    145.6956     48.9710   7.0568306988e+01   4.2611251360e+01    0.3150809    0.2319342 -26.44  0.001447405    1.376    0.273
       183  -9.1391    118.3242     60.3027   8.1307943511e+01   4.7006378221e+01    0.1519308    0.1144527   7.71 0.0005533716    1.637    0.389
       184  -9.5072    162.6378     46.3721   6.6076803125e+01   3.8740110446e+01    0.3753569    0.2453384 -68.15  0.001376526    2.192    0.544
       185 -10.4247    113.9627     44.4003   7.6884554237e+01   5.0690203211e+01    0.5544547    0.3125872  -2.03  0.001897497    3.512    0.715
       186 -10.1311    215.7702     42.3109   5.5983688323e+01   2.5470668298e+01    0.5216811    0.3172725  -3.34  0.002118284    2.421    0.587
       187  -9.4794    169.0671     44.7972   6.4304751157e+01   3.7309426214e+01    0.3018188    0.1990432  11.91  0.001238063    2.123    0.529
       188 -11.0996    131.5395     54.5190   7.5861921457e+01   4.5084439183e+01    0.3944265    0.2303415 -33.49  0.001338387    1.687    0.407
       189  -9.5585    222.0255     42.2370   5.5125135364e+01   2.3891616379e+01    0.5632144    0.2256282 -52.62  0.001872518    3.237    0.691
       190  -9.6494    244.6429     41.8512   5.2266014117e+01   1.8397516554e+01    0.3621568    0.3049742   9.15  0.002017227    1.443    0.307
       191 -11.0948    176.7640     41.0644   6.1689806550e+01   3.5829519340e+01    0.7875129    0.5020841  84.99  0.003283146    2.047    0.512
       192  -9.1036    153.7062     40.1674   6.5813080312e+01   4.1930210553e+01    0.3011648     0.189126 -51.10 0.0007813399    1.871    0.466
       193  -9.3553    134.0439     42.4877   7.1017948870e+01   4.6435311216e+01    0.2346151    0.1450405  54.01  0.001042826    1.621    0.383
       194  -9.9440    178.0159    248.3357   1.0745760978e+02   1.1001767719e+00    0.2583363    0.1096115  47.73  0.001368275    1.905    0.475
       195  -8.9441    187.2910    247.3486   1.0578970096e+02  -2.5931845916e-01    0.1113612   0.07548393  19.71 0.0003142465    1.667    0.400
       196  -9.3530    161.3288     38.9985   6.3883701461e+01   4.0142888048e+01    0.3172952    0.2471099 -43.11 0.0008409102    1.337    0.252
       197  -9.3061    238.4526     38.3357   5.2067329577e+01   2.0339556048e+01    0.2665362    0.2245394 -68.14 0.0009397515    1.166    0.142
       198  -9.0130     85.8397     38.9623   8.3243507252e+01   5.7122309509e+01    0.2184044    0.1499501 -55.76  0.000791789    1.939    0.484
       199 -10.1339    227.4148     33.4764   5.2072169949e+01   2.3680591647e+01    0.5201584     0.263855 -38.48  0.002274681    1.815    0.449
       200  -8.8914     76.7767     43.9775   8.8166584557e+01   5.7789947941e+01    0.1807507    0.1001964 -39.34 0.0005680076    1.621    0.383
       201  -9.6150    105.5385     34.2508   7.5382042067e+01   5.4061182075e+01    0.2641948    0.1283397 -35.89 0.0007673517    1.989    0.497
       202  -8.6927    242.5362     34.4744   5.0618495376e+01   1.9849947158e+01    0.1434786    0.1213899 -58.24 0.0003051966    1.101    0.092
       203  -9.8521    248.0621     31.4529   4.9274610481e+01   1.8915861746e+01    0.4364318    0.2577755 -71.42  0.002026333    1.996    0.499
       204  -9.5796    169.5878     32.8006   6.0286105546e+01   3.8829515523e+01    0.2811377    0.2452974  86.24 0.0007130893    1.217    0.178
       205 -10.6069    170.6394     29.2375   5.8931213575e+01   3.9009633553e+01    0.3367983    0.2379854 -28.77  0.001152376    1.449    0.310
       206 -10.0065    183.7835    246.3998   1.0625172789e+02   4.1305775355e-01      0.16999   0.08362208  36.88  0.000606183    1.668    0.401
       207  -8.8440    209.3355     31.7010   5.3846209888e+01   2.8515810701e+01    0.2450465    0.1325527  66.72 0.0007721577    1.825    0.452
       208  -9.3746    221.2820     30.8834   5.2104268863e+01   2.5552014790e+01    0.4610619    0.3243977 -54.18  0.002312643    1.418    0.295
       209  -9.7903    216.3366     30.3180   5.2556073254e+01   2.6883838646e+01    0.4500482    0.2697786  23.75  0.001831114    2.583    0.613
       210  -9.1317    212.5033     29.5251   5.2816702273e+01   2.7968398218e+01    0.3328667     0.292299  65.58  0.001073185    1.135    0.119
       211 -10.0110    117.1838     32.4601   7.1506188687e+01   5.1807736100e+01    0.2785698    0.1975343 -27.25  0.001401965    1.384    0.277
       212  -8.0510    138.6622     30.7035   6.5681718893e+01   4.6999412283e+01    0.1565047    0.1057182  27.24 0.0007031269    1.654    0.396
       213 -10.0474    145.7786     25.0390   6.2119665164e+01   4.5952927436e+01    0.3202589    0.2328162 -58.78  0.001312645    1.694    0.410
       214 -10.0160    165.8280     39.8352   6.3296137665e+01   3.8860136959e+01    0.3194457    0.2811455  49.29 0.0008517447    1.107    0.097
       215  -8.8187    132.0000     22.0312   6.3921203550e+01   4.9725151560e+01     0.266463    0.1481471 -24.55  0.001091908    1.836    0.455
       216 -10.1370    118.4895     24.7116   6.8144752073e+01   5.2566301224e+01    0.3541895    0.2462169 -39.52  0.001251759    1.547    0.354
       217  -9.0009    234.5679     31.6376   5.0761581833e+01   2.2139622440e+01    0.4565836    0.2785752  63.90  0.002213703    1.652    0.395
       218  -9.3814     25.7756     26.0073   1.0115265900e+02   6.7362033422e+01    0.1647267   0.07761519 -48.58 0.0008863013    1.702    0.412
       219 -10.1480    225.2942     23.3426   4.9594539641e+01   2.5456196785e+01    0.4457952    0.3157882 -63.22  0.002286353    1.435    0.303
       220  -9.1593    127.7033     25.0041   6.6033008319e+01   5.0386234045e+01    0.2049734    0.1863953   2.57  0.001158828    1.065    0.061
       221  -8.9108     85.4980     22.5170   7.6606157990e+01   5.9715084700e+01    0.1365995    0.1154352   1.10 -1.78032e-05    1.051    0.048
       222  -9.7715    208.5336    237.2527   1.0085693334e+02  -2.4932371561e+00    0.2759169    0.1814826  28.80  0.001791154    1.284    0.221
       223  -9.1859    219.7524    235.4271   9.8715238531e+01  -4.0825455154e+00    0.2252297   0.09153552  44.67  0.001137154    2.070    0.517
       224 -10.1053    174.0472     19.9400   5.5332113641e+01   3.9223132527e+01    0.7698755    0.2325284  59.50  0.002606906    2.805    0.644
       225  -9.4158    165.6688     19.3220   5.6476465165e+01   4.1497980649e+01    0.2813682    0.2354071 -51.92  0.001132709    1.283    0.221
       226  -9.1172    234.3195     19.2477   4.7565399636e+01   2.3690998724e+01     0.324403    0.1762252  -9.15  0.001341286    2.675    0.626
       227  -8.6933    250.7014     18.4498   4.5815212627e+01   1.9854285577e+01    0.3119338    0.1130928 -27.65  0.001134755    2.656    0.624
       228  -9.0619    226.6657     17.7738   4.7961844533e+01   2.5759003900e+01    0.1996952    0.1741388  -5.74  0.000788105    1.337    0.252
       229  -8.7975    175.4783    230.4464   1.0555907884e+02   3.7982648495e+00    0.1207092   0.09467119  41.84 0.0002719362    1.007    0.007
       230  -8.6669    158.3213    230.3435   1.0854951252e+02   6.6770699165e+00    0.1155014   0.08556467  19.00 0.0007050092    1.727    0.421
       231  -9.4013    148.7954     17.8239   5.8934475831e+01   4.6034108706e+01    0.3588156    0.2579952  76.62   0.00176283    1.535    0.349
       232  -8.9782     57.5169     17.4791   8.4255610709e+01   6.5081535925e+01    0.1259948    0.1034993 -13.59 0.0001884019    1.026    0.025
       233  -9.2271    164.9387    228.5381   1.0715026116e+02   5.8276927912e+00    0.1963738   0.09584957  44.20  0.001041092    1.624    0.384
       234 -11.1211    194.2738    219.9702   1.0074456752e+02   2.0032599268e+00    0.3867165    0.2661473  50.17  0.002363334    1.392    0.281
       235  -9.2309    205.1368    219.5343   9.8771100133e+01   2.0213900080e-01    0.2337389    0.1410616  11.30  0.001193785    2.344    0.573
       236  -9.2063    162.8287     15.0897   5.5515392494e+01   4.2706573768e+01    0.2341569    0.1899248 -67.76  0.001223521    1.387    0.279
       237  -8.7071    105.0000     14.9301   6.7622623975e+01   5.6761668730e+01    0.2178603   0.07456642 -25.96 0.0005386026    2.896    0.655
       238  -9.4186    244.5211     13.7955   4.5224789109e+01   2.1841970696e+01    0.2324713    0.1789725  86.47  0.000803575    1.270    0.213
       239  -8.4217    169.5486     13.4958   5.3916426145e+01   4.1113120255e+01    0.1434883    0.1345951  56.18 0.0001594184    1.018    0.018
       240  -8.7405    160.1023    219.0000   1.0672357396e+02   8.0317504378e+00    0.2072367   0.05829661  43.85 0.0007951162    2.892    0.654
       241 -10.5526    218.1308    215.1133   9.5804647585e+01  -1.4511815532e+00    0.5245384     0.212696  34.81  0.002418589    2.259    0.557
       242  -9.0556    133.3365    214.6723   1.1104466088e+02   1.3245124769e+01    0.1278635   0.08268018  68.80 0.0007051822    1.726    0.420
       243  -9.0011    229.7278    210.1426   9.2979014651e+01  -2.8004931601e+00    0.2437338    0.1286477  23.36  0.001221786    2.061    0.515
       244  -9.5248    207.0238    209.0050   9.6740791717e+01   1.2419129284e+00    0.1845981    0.1515106  68.90  0.001133807    1.706    0.414
       245  -8.6900     65.0417    203.0016   1.2238207486e+02   2.5580032344e+01    0.1411263    0.1078903  80.70 0.0006832405    1.077    0.072
       246  -9.7275    165.8575    202.1483   1.0319041040e+02   9.6188666636e+00    0.2032731    0.1657116  59.18  0.001256421    1.222    0.182
       247  -8.8846     16.0788    201.6659   1.3089430813e+02   3.1371586553e+01    0.1435237    0.1038419  70.69 0.0007835195    1.102    0.092
       248  -9.8827    204.4428    197.5026   9.5245498703e+01   3.2775721859e+00    0.2433596    0.1997021  29.44  0.001524201    1.036    0.035
       249  -8.7718    192.5124    198.4645   9.7599690155e+01   5.3188818242e+00    0.1309321    0.1103478  33.02 0.0004161761    1.016    0.016
       250  -9.7936    185.1642    196.1863   9.8582262883e+01   7.0140736890e+00    0.2371818    0.2021987  34.56  0.001485773    1.026    0.025
       251  -8.6118    249.5398    194.4662   8.6834849096e+01  -4.2363664107e+00    0.1275611    0.0981237  13.81 0.0001095391    1.080    0.074
       252  -9.4105    238.6143    192.6574   8.8335803875e+01  -2.1619514424e+00    0.2335548    0.1647003  28.80 0.0007781252    1.215    0.177
