#   1 NUMBER                 Running object number                                     
#   2 MAG_AUTO               Kron-like elliptical aperture magnitude                    [mag]
#   3 X_IMAGE                Object position along x                                    [pixel]
#   4 Y_IMAGE                Object position along y                                    [pixel]
#   5 X_WORLD                Barycenter position along world x axis                     [deg]
#   6 Y_WORLD                Barycenter position along world y axis                     [deg]
#   7 A_WORLD                Profile RMS along major axis (world units)                 [deg]
#   8 B_WORLD                Profile RMS along minor axis (world units)                 [deg]
#   9 THETA_WORLD            Position angle (CCW/world-x)                               [deg]
#  10 FWHM_WORLD             FWHM assuming a gaussian core                              [deg]
#  11 ELONGATION             A_IMAGE/B_IMAGE                                           
#  12 ELLIPTICITY            1 - B_IMAGE/A_IMAGE                                       
         1 -13.8339    223.3355     18.3331   3.8058961476e+01   2.7902413556e+01    0.8926063    0.8047591  46.73  0.002650723    1.362    0.266
         2 -14.0482    207.3489     34.6983   4.3794511745e+01   2.9660202372e+01     1.816451     1.406106  14.65  0.008198527    1.804    0.446
         3 -12.3816    214.9922     27.0205   4.0985891916e+01   2.8808502360e+01    0.4520127    0.3896132  42.30  0.001137823    1.400    0.286
         4 -11.0583      1.9957      4.1468   9.3416937383e+01   7.4000975112e+01    0.4815464   0.08482092 -47.84  0.001831545    4.418    0.774
         5 -11.1680     49.9743      3.1740   6.7689437396e+01   6.8548424368e+01    0.2997737    0.2038154  57.20  0.001705615    2.283    0.562
         6 -10.9725    245.9877      1.7046   3.2604906677e+01   2.4758015377e+01    0.4585305    0.1485831  75.70  0.001897192    2.967    0.663
         7 -11.0099     45.3022      1.5749   6.8832238921e+01   6.9451111979e+01     0.280377    0.1622776  44.33  0.001566298    1.862    0.463
         8 -10.5784    113.1890    207.5072   1.0435271535e+02   1.6150029367e+01    0.2237267    0.1847013 -67.83 0.0004688596    1.301    0.231
         9 -13.8725      4.9320    186.0011   1.2558398516e+02   3.4146133331e+01        1.089    0.5704356  89.53  0.001160331    1.566    0.361
        10 -13.2848     35.3745    206.5479   1.2083111209e+02   2.6839251859e+01     0.471839    0.4653407  16.11  0.001064094    1.442    0.306
        11 -16.1941     42.2920    195.0084   1.1843163110e+02   2.8574317807e+01     8.872574     2.702969  55.82   0.03221299    3.984    0.749
        12 -10.1997    111.6836    197.0175   1.0319158947e+02   1.8569002250e+01    0.1911072     0.174931 -80.70 0.0008852092    1.124    0.111
        13  -9.2511     72.1653    188.1750   1.1105065492e+02   2.6421818739e+01    0.1834874    0.1355223  72.23 0.0004635167    1.314    0.239
        14 -10.5710    146.5192    182.9770   9.2885126627e+01   1.5511092821e+01    0.2787136    0.1948589  52.26 0.0009463929    1.511    0.338
        15  -9.5794     99.4816    180.9274   1.0361340001e+02   2.4055970700e+01     0.205898    0.1826691  50.92 0.0005404632    1.091    0.083
        16 -12.0236     62.6447    179.0300   1.1215418241e+02   2.9769936601e+01    0.4258927    0.2901692 -37.35  0.001808534    2.022    0.505
        17 -11.9465     67.6358    173.5105   1.1025432653e+02   3.0413237938e+01    0.3125601    0.2522394 -43.72  0.001331297    1.460    0.315
        18 -15.5644      5.2193    144.5514   1.2246207224e+02   4.3551939374e+01     5.213104      1.12395 -74.71   0.01748726    3.582    0.721
        19 -11.8252    131.1024    172.7655   9.4606565341e+01   2.0502909036e+01    0.6292765    0.2802675  35.09  0.002395642    2.340    0.573
        20 -13.4783     64.7800    159.6690   1.0905318567e+02   3.4092896100e+01    0.5504109    0.3449566 -47.46  0.001639549    1.726    0.421
        21 -13.6460     57.7940    130.2063   1.0626684055e+02   4.2214265955e+01     2.875717    0.8849812 -72.22  0.006674855    7.156    0.860
        22 -11.7044     77.3587    163.7434   1.0643883921e+02   3.1405925817e+01    0.3129008    0.2981142  72.22 0.0004111427    1.089    0.082
        23 -14.5701     80.6682    156.8878   1.0449415695e+02   3.2583407618e+01     3.971163     1.434366  52.89  0.002919048    4.185    0.761
        24 -10.9517    138.1642    171.1767   9.2616968611e+01   1.9556388142e+01    0.3341382    0.2709923  74.27  0.001123339    1.487    0.327
        25  -9.6977    159.0191    161.9022   8.5829660967e+01   1.7556938733e+01    0.3230584    0.2092841 -75.42  0.001214144    2.845    0.649
        26 -11.1277    192.3138    193.3196   8.4894376709e+01   5.2413422460e+00    0.5778353    0.3232778 -63.02  0.002014826    4.362    0.771
        27 -11.0531    133.7942    144.6720   8.8203010947e+01   2.6328706864e+01     1.224697    0.2572181 -53.66  0.002406195    8.029    0.875
        28 -13.4814     68.3573    144.4012   1.0571791062e+02   3.7358345303e+01    0.9785867    0.6257901  88.44  0.002939701    1.930    0.482
        29 -10.3474    174.5402    148.9832   7.9448483692e+01   1.7124017352e+01    0.2763063    0.2690743  53.55 0.0007958243    1.124    0.110
        30 -11.8534     31.1658    144.0561   1.1574987221e+02   4.1617744243e+01    0.4463734     0.289214  22.93  0.002491324    1.910    0.477
        31 -10.8639     99.6730    141.6283   9.6574937845e+01   3.3306909569e+01    0.5871812    0.3584835 -27.36  0.002322563    2.489    0.598
        32 -12.2784     86.7052    141.5028   1.0012189507e+02   3.5432150023e+01    0.3005499    0.2546541 -48.04 0.0003417057    1.176    0.149
        33  -9.2713    159.4642    135.5049   7.9749029569e+01   2.3107888508e+01    0.1541304    0.1513364 -44.94 0.0001089924    1.056    0.053
        34  -9.7644     38.5008    133.6388   1.1236030111e+02   4.3470569433e+01    0.1901701    0.1275936  28.68 0.0004649621    1.738    0.425
        35 -10.9372    107.8541    131.1609   9.2059521854e+01   3.4401825061e+01     0.590502    0.3316243  42.64  0.002474125    1.842    0.457
        36 -11.8120     67.2103    128.2148   1.0313997228e+02   4.1515044050e+01    0.4079211    0.2701842  86.44  0.001871697    1.978    0.495
        37 -10.6028     96.8867    127.6059   9.4355275573e+01   3.7175701960e+01     0.281925    0.2540444 -26.11 0.0006303056    1.186    0.157
        38  -9.0508    125.7039    127.3318   8.6279209155e+01   3.1918870439e+01    0.1568704    0.1246081 -89.99  0.000297855    1.640    0.390
        39 -10.5226    116.3877    125.8046   8.8441928551e+01   3.4088448814e+01    0.3947363    0.2477794 -61.48  0.001650669    1.801    0.445
        40 -11.7024     45.1304    123.8563   1.0890881227e+02   4.5212619051e+01    0.3154449    0.1860116 -66.72  0.001556025    1.477    0.323
        41 -10.3802    135.7827    123.9755   8.2787067335e+01   3.0638493211e+01    0.2352374    0.1492185 -56.49 0.0004998476    1.737    0.424
        42  -9.9304    106.8517    119.9389   8.9699723977e+01   3.7255844043e+01    0.2197495     0.209504 -43.23 0.0003415944    1.011    0.011
        43 -10.1219    160.6023    127.7724   7.7582382633e+01   2.4519103326e+01    0.2318804    0.1455982 -52.40 0.0009553597    1.721    0.419
        44  -9.7498     83.9672    118.0153   9.5988075155e+01   4.1606028351e+01     0.233953    0.1770462  76.73 0.0008463627    1.711    0.415
        45  -9.5522    168.0790    113.0771   7.2074732989e+01   2.5933648118e+01    0.2597558    0.1984153 -78.73  0.001135146    1.821    0.451
        46 -10.5565    135.0000    112.0000   7.9885550231e+01   3.3476064348e+01    0.4398851   0.08825124 -44.73  0.001043104    4.860    0.794
        47  -9.7942    205.5058    110.2357   6.3661808356e+01   1.8083428552e+01    0.2601513    0.2108269  47.24 0.0006660311    1.317    0.240
        48 -10.2019     41.7115     92.0232   1.0383392794e+02   5.3288712372e+01     0.204019    0.1903069 -11.69  0.000463052    1.188    0.158
        49 -10.2320     52.9886     90.6971   9.9575395339e+01   5.2383874711e+01    0.1903785    0.1752007 -29.53 0.0006175973    1.097    0.088
        50 -15.6870     65.5309    248.3823   1.1827658294e+02   1.5065939278e+01     8.832629     2.428981  29.87   0.01295428    8.809    0.886
        51  -9.9179     72.3880     83.3030   9.0809703606e+01   5.1503392266e+01    0.2904163    0.2007688  67.97 0.0008413675    2.414    0.586
        52  -9.1977     48.5732     62.7400   9.3422891324e+01   5.9104994401e+01    0.1686768    0.1191377 -56.03  0.000338196    1.461    0.316
        53 -10.7834     13.5047     59.9834   1.0706517431e+02   6.2788124793e+01    0.2187671    0.1871706 -55.72 0.0005111282    1.161    0.139
        54 -14.0070     23.7304    224.9674   1.2431450832e+02   2.4298457303e+01     1.224346    0.4855227  64.93   0.00438604    2.396    0.583
        55 -13.4573    198.5493     40.5596   4.6464847948e+01   3.1011522410e+01     1.073782    0.7465549  34.66  0.002062916    1.842    0.457
        56 -11.1582    169.9542    231.6732   9.5979176034e+01   2.5538277070e+00    0.3281477    0.1789653 -41.95  0.001705417    2.104    0.525
        57 -10.3579    154.8003    220.9327   9.7429977478e+01   6.8049560969e+00    0.2741571    0.1831642 -58.77  0.001467354    1.896    0.473
        58  -9.8961      1.6114     49.7894   1.0967167790e+02   6.5572742330e+01    0.1630971    0.0965147 -69.67 0.0008211613    1.653    0.395
        59 -10.2093    137.6712     43.7965   5.8159470491e+01   4.5584169361e+01    0.2729421    0.1901751 -88.62  0.001004681    2.099    0.524
        60 -10.3087    140.2285     38.1572   5.5689430799e+01   4.5737768853e+01    0.2715353    0.2281189 -76.01 0.0004356104    1.408    0.290
        61  -9.8422    136.9863     35.4779   5.5469384719e+01   4.6874765686e+01    0.2410484    0.1924167 -53.88   0.00054079    1.435    0.303
        62 -10.0766    189.8293     15.1792   4.0731185132e+01   3.6151074397e+01    0.2065756    0.1658459 -70.06 0.0007026156    1.201    0.167
        63 -14.8594      9.3336    207.6581   1.2599151929e+02   2.9174259448e+01     1.176138    0.9987173 -31.01  0.005496539    1.889    0.471
        64 -16.1135      9.2439    239.1108   1.2758174779e+02   2.3029520313e+01     2.695803     2.063201  47.47   0.02148155    1.379    0.275
        65  -9.2688    130.5286    212.9969   1.0136981768e+02   1.2261849850e+01    0.1797758    0.1330071 -57.51 0.0004364406    1.514    0.340
