#   1 NUMBER                 Running object number                                     
#   2 MAG_AUTO               Kron-like elliptical aperture magnitude                    [mag]
#   3 X_IMAGE                Object position along x                                    [pixel]
#   4 Y_IMAGE                Object position along y                                    [pixel]
#   5 X_WORLD                Barycenter position along world x axis                     [deg]
#   6 Y_WORLD                Barycenter position along world y axis                     [deg]
#   7 A_WORLD                Profile RMS along major axis (world units)                 [deg]
#   8 B_WORLD                Profile RMS along minor axis (world units)                 [deg]
#   9 THETA_WORLD            Position angle (CCW/world-x)                               [deg]
#  10 FWHM_WORLD             FWHM assuming a gaussian core                              [deg]
#  11 ELONGATION             A_IMAGE/B_IMAGE                                           
#  12 ELLIPTICITY            1 - B_IMAGE/A_IMAGE                                       
         1 -10.7365    201.7419     36.3407   4.4645023850e+01   3.0609547372e+01    0.5997906    0.3365214 -51.99  0.000955971    1.790    0.441
         2 -10.0310    205.9266     23.3188   4.0806074364e+01   3.1204890236e+01    0.5013185    0.2470928 -47.68  0.001629311    1.940    0.484
         3 -11.1131    223.8742     13.9487   3.6786819505e+01   2.8104771916e+01    0.7395876    0.4440126 -58.54  0.003553606    1.533    0.348
         4 -13.0437    240.0895      5.1184   3.3560635971e+01   2.5495276490e+01     1.998693      1.09229  67.89   0.01132269    1.809    0.447
         5  -9.3079    146.5833      9.7978   4.4732831318e+01   4.7187707787e+01    0.3481447    0.2171538 -74.36  0.001664558    2.069    0.517
         6  -9.4651    150.0022      9.5193   4.4113048090e+01   4.6370955313e+01    0.3082015    0.2061771 -70.56  0.001076932    1.788    0.441
         7  -7.4089    122.7507      8.9945   4.8662528035e+01   5.3031888181e+01    0.1495595    0.1138819 -16.06 0.0003023525    1.452    0.311
         8  -9.8070     19.0132    228.0687   1.2495626926e+02   2.4196201360e+01    0.3099597    0.2199437  10.10  0.001965165    2.558    0.609
         9  -7.1127    220.0000    249.9834   8.8762680920e+01  -7.7761068901e+00    0.1586811   0.06288264 -36.33            0    2.783    0.641
        10  -7.1985    110.3536    224.3241   1.0664002663e+02   1.3157444104e+01    0.1237079    0.1001211  -1.72 0.0004239611    1.761    0.432
        11 -12.4264     34.7987    214.5986   1.2112289269e+02   2.5243424986e+01     1.244021    0.6795766  69.99  0.004015293    1.667    0.400
        12 -10.1974     27.3028    208.3253   1.2215231867e+02   2.7352458811e+01    0.3271008    0.2789786 -50.38  0.001498621    1.608    0.378
        13  -8.1940    245.5101    220.5354   7.9329121682e+01  -7.5473059315e+00    0.1230464   0.09470268   2.16  0.000809506    1.013    0.012
        14  -9.1682    214.1139    216.6606   8.4342990008e+01  -2.3816294992e+00    0.2889802    0.2645001 -81.10  0.001372004    1.795    0.443
        15  -8.8581    154.0035    214.1146   9.6000343857e+01   7.9599333004e+00    0.3475165    0.1781075  38.65  0.001625631    1.732    0.423
        16  -9.0464    202.2922    211.1626   8.5641844439e+01   3.4726471957e-01     0.259681    0.1784319  39.07 -0.000275831    1.420    0.296
        17 -10.3381    233.8277    210.0436   7.9509136713e+01  -4.4291314213e+00      0.23376    0.1934565  12.07 0.0004284944    1.109    0.098
        18 -12.2753     52.9583    194.0070   1.1555279185e+02   2.7578096955e+01     1.458678     1.146917 -70.38  0.009210943    1.261    0.207
        19  -7.5569    125.6244    208.2402   1.0120637957e+02   1.3854940651e+01    0.1743822    0.1256311 -44.41  0.000803769    1.587    0.370
        20  -9.1411     11.3451    207.0539   1.2518263116e+02   2.9181956627e+01    0.2975423    0.2167434  47.60  0.001483857    1.369    0.269
        21  -8.9768    203.2976    206.5162   8.4609328161e+01   9.2306542934e-01    0.2289509    0.1994788   3.62 0.0002986693    1.041    0.040
        22  -7.0398    213.5585    202.4134   8.1865461480e+01  -1.1064729529e-01    0.1315492    0.1124107   7.21 0.0001471275    1.022    0.022
        23  -8.6196    203.9932    201.9472   8.3634080586e+01   1.5476364981e+00    0.1979169    0.1700357   8.98 0.0003085277    1.005    0.005
        24  -9.4605    193.0561    194.6425   8.4452055793e+01   4.6568716525e+00    0.9151408     0.431403 -58.43  0.002800162    5.453    0.817
        25  -7.7649    230.5104    197.9888   7.7859791473e+01  -2.1456383039e+00     0.189371     0.154114  17.26 0.0003406309    1.134    0.118
        26 -10.2327    171.4617    196.8423   8.9359268558e+01   8.0911300066e+00    0.2488978    0.2417786 -11.05 0.0004160617    1.120    0.108
        27  -8.4194    123.7503    195.3726   9.9662940138e+01   1.6799426621e+01    0.2194774    0.1862243 -60.35 0.0002707852    1.257    0.204
        28  -8.3463    207.9978    183.2637   7.9243510770e+01   3.9950552188e+00    0.1790461    0.1143927  37.03 0.0007561575    1.535    0.349
        29  -8.8701    193.0317    181.6208   8.1922787112e+01   6.9792586658e+00    0.2329421    0.1899345 -22.07 0.0004140254    1.207    0.171
        30  -7.6465    178.4378    179.2033   8.4507157676e+01   1.0140203712e+01    0.1912967    0.1382461 -55.48 0.0005467049    1.660    0.398
        31  -7.3415    102.0285    174.2668   1.0139356916e+02   2.5104963602e+01    0.1875721     0.176882  63.16 0.0002390542    1.039    0.038
        32  -8.7186     57.1982    172.5111   1.1215789226e+02   3.2003321179e+01    0.2178233    0.1810504 -66.10 0.0003954338    1.191    0.160
        33  -7.6933    246.0117    172.7900   7.0135044225e+01  -7.2930768371e-01    0.1587738    0.1021678  36.92 0.0003905277    1.654    0.395
        34  -7.6413    120.8499    172.3187   9.6446222066e+01   2.2329727624e+01    0.1946364    0.1774777  40.17 0.0003142248    1.089    0.082
        35  -7.1424    221.4355    171.4977   7.4258670711e+01   3.6329218881e+00    0.1386043    0.1219861 -10.08 0.0001001478    1.025    0.024
        36  -7.1265    125.6970    168.2904   9.4517697047e+01   2.2365626138e+01    0.1475925    0.1136765  74.16 0.0001923748    1.568    0.362
        37  -7.7105    151.1961    152.8033   8.5151437446e+01   2.0905153063e+01    0.2039267    0.1754741  -6.13 0.0002236369    1.305    0.234
        38  -7.2291     80.2959    152.2813   1.0326890116e+02   3.3751434713e+01    0.1366761    0.1093979 -29.79 0.0001852248    1.538    0.350
        39  -8.9409    133.6280    144.5650   8.7654806974e+01   2.6265543256e+01    0.7600484    0.1942204 -53.96  0.001817541    5.386    0.814
        40  -8.1854     94.3078    148.6566   9.8849118042e+01   3.2452541064e+01    0.1537645    0.1115738  78.27 0.0007043563    1.693    0.409
        41  -7.4685     97.2952    146.6928   9.7664576904e+01   3.2435333964e+01    0.1496654    0.1129161  78.02 0.0003665166    1.586    0.369
        42 -10.1818     68.0445    128.0757   1.0229865274e+02   4.1463008901e+01    0.4152868    0.3098978 -57.34  0.002185921    1.213    0.175
        43  -8.6626    241.2552    128.3765   6.1393654761e+01   7.3669106211e+00    0.2609215    0.1537832 -26.36 0.0007114541    1.681    0.405
        44  -9.6649    196.9442    127.8243   6.9179191524e+01   1.6423449191e+01    0.2691801    0.2583965   1.77 0.0003198488    1.049    0.047
        45  -7.7203    160.8110    129.2114   7.7353206515e+01   2.3999878406e+01    0.2619884    0.1767526 -85.02 0.0009470385    2.804    0.643
        46  -8.8499    140.3960    128.7369   8.2224065247e+01   2.8476398559e+01    0.2670779    0.2486291   5.72 0.0003878417    1.135    0.119
        47  -8.5479    201.7948    124.4185   6.7402244059e+01   1.6034142314e+01    0.2788207    0.2315989 -15.41  0.000710529    1.257    0.205
        48  -9.6081    135.5754    122.4021   8.1883100911e+01   3.0911550851e+01     0.616088    0.1482426 -50.70  0.001449696    5.181    0.807
        49  -7.6933    103.1466    122.1776   9.0720450352e+01   3.7338092481e+01    0.2146954    0.1954377 -29.78 0.0002434106    1.136    0.119
        50  -9.2376    134.6928    113.4749   7.9803033397e+01   3.3090735777e+01    0.4613767    0.3953809  72.72  0.002173481    1.355    0.262
        51  -9.4254    135.0000    107.4082   7.8091287975e+01   3.4355389151e+01    0.7330898    0.2296335 -45.38  0.002194932    3.149    0.682
        52  -7.4122    225.4321    113.5028   6.0536282838e+01   1.3038443761e+01    0.1447919    0.1294021 -32.86 3.344599e-05    1.011    0.011
        53  -9.0934    121.2846    113.2692   8.3360473438e+01   3.5934186906e+01    0.3202021    0.1909782  63.01  0.001184123    2.496    0.599
        54  -8.3838    187.0333    108.5339   6.6335607182e+01   2.2335012183e+01    0.2278852    0.1535629  52.10 0.0003666935    1.560    0.359
        55  -9.3801    123.1281    100.3438   7.9331741231e+01   3.8431965194e+01    0.3851199    0.2740585   0.85  0.001444519    2.069    0.517
        56  -8.4001    143.9353    102.7877   7.4521567021e+01   3.3367972091e+01    0.2312941    0.2084492  12.11 0.0003277553    1.194    0.162
        57  -8.5414     86.9408    101.9160   9.0528614417e+01   4.4945187129e+01     0.217511    0.2001272 -38.06 0.0002996475    1.024    0.024
        58  -6.8950    197.3494     96.3208   6.1173477191e+01   2.2250262791e+01    0.1553899    0.1184199  12.38  0.000704864    1.741    0.426
        59  -7.5888    145.4145     95.8054   7.2182720131e+01   3.4476288536e+01    0.2204031    0.1496788 -29.73 0.0006520725    1.587    0.370
        60  -8.7367    152.3100     89.5528   6.8713600904e+01   3.4123155692e+01    0.3871417    0.2967645  73.03    0.0013364    1.592    0.372
        61  -8.8838    154.3017     86.1258   6.7251433032e+01   3.4314244516e+01    0.4938984    0.3320717 -71.37  0.001969502    2.248    0.555
        62  -8.1793    137.0977     88.7512   7.2227872365e+01   3.7798748226e+01    0.2828601    0.2145768 -65.26  0.001232708    1.625    0.385
        63  -7.8481    119.8028     88.8056   7.6906454851e+01   4.1592840203e+01    0.2028468    0.1817379 -77.02 0.0003135447    1.302    0.232
        64 -10.3634    103.5425     81.9863   7.9605358459e+01   4.6338333532e+01    0.2572685    0.2368219  18.27 0.0002578546    1.096    0.087
        65  -9.1027    199.7861     80.3733   5.6566272389e+01   2.4478571120e+01    0.3715259      0.28837 -18.06  0.001275507    1.472    0.321
        66  -7.4094    115.1280     80.6320   7.5738321832e+01   4.4253749981e+01    0.1981335    0.1400809  31.77 0.0001542728    1.517    0.341
        67  -8.8300    174.6413     70.1248   5.8288187791e+01   3.2259523913e+01    0.4324386    0.2008851  49.57  0.001370334    2.163    0.538
        68  -9.0529    162.9098     77.4553   6.2796096462e+01   3.3852090956e+01    0.5387794    0.3636245 -68.43  0.002250505    2.050    0.512
        69 -10.3850    166.9690     72.9757   6.0635570211e+01   3.3651486442e+01    0.7504969    0.5779062 -78.78  0.002324495    1.612    0.380
        70 -10.7680    163.3414     63.2423   5.8489567844e+01   3.6172559300e+01    0.9948365    0.6667807 -81.86  0.002118271    2.200    0.545
        71  -9.7491    146.8513     76.0213   6.5979589125e+01   3.7970880196e+01    0.5212542    0.3666192 -64.82  0.001595119    1.859    0.462
        72  -7.4549     67.5469     76.0747   8.9763272847e+01   5.3787019384e+01    0.2033789    0.1244007 -71.63 0.0008067427    2.814    0.645
        73  -7.8275    237.4929     72.8993   4.9121694571e+01   1.7204996973e+01    0.2034566    0.1206326 -38.28 0.0003931836    1.492    0.330
        74 -11.5244    181.1123     57.7008   5.3557507433e+01   3.2655492667e+01     1.028381     0.830043 -64.90  0.003623661    1.304    0.233
        75  -9.4014    188.5480     50.1286   5.0215950700e+01   3.1945555709e+01    0.4810406    0.2670806 -54.10  0.001961368    1.998    0.500
        76  -7.4364    149.9218     56.8034   5.9302734081e+01   4.0501024221e+01     0.190293    0.1670183 -79.81 -0.000430966    1.273    0.215
        77  -8.9950    186.9463     42.6636   4.8387641399e+01   3.3381272293e+01    0.2647449    0.1988822  59.66 0.0005434036    1.303    0.232
        78  -9.9868    188.6213     38.3297   4.6943473745e+01   3.3545654276e+01    0.4058596     0.302254  43.51 0.0006105546    1.500    0.333
        79 -10.4151    182.3785     38.1983   4.7817601897e+01   3.5104520488e+01    0.4227109    0.2989672 -59.55  0.001181058    1.493    0.330
        80 -11.3738    184.0297     34.1620   4.6440808227e+01   3.5213452519e+01    0.7357156    0.5074036 -87.03  0.002274861    1.592    0.372
        81  -9.7161    206.7520     40.8521   4.5178053748e+01   2.8819183505e+01      0.29924    0.2910667  31.93 0.0005419729    1.212    0.175
        82  -7.4186    228.2075    246.0338   8.6674851494e+01  -8.4146954092e+00    0.1398708   0.08519564 -28.01 0.0006483284    1.691    0.408
        83 -10.0542    198.3226     32.6511   4.4109959691e+01   3.1903059276e+01    0.4811169    0.2292058 -52.51  0.001834756    2.242    0.554
        84  -9.7626    215.7054     33.0628   4.2153885238e+01   2.7721266459e+01    0.5133959    0.3076434  40.84  0.002444836    2.278    0.561
        85 -10.4202    210.1961     28.3069   4.1587531232e+01   2.9600975803e+01    0.4655565    0.2952787 -44.24  0.001202486    1.479    0.324
        86  -9.0820    244.4516    244.8235   8.3635700222e+01  -1.0424864688e+01    0.1898813    0.1566525  32.44  0.001069464    1.574    0.365
        87  -7.7738    131.7561     35.6016   5.6262320279e+01   4.7965994368e+01    0.1848632    0.1332428  67.47 0.0004394841    1.463    0.316
        88  -8.6880    149.8197     33.0014   5.1696114258e+01   4.3880834702e+01    0.2432818    0.1598506  19.42  0.001101467    2.059    0.514
        89  -7.6505    170.1812     28.6039   4.6886282751e+01   3.9337343219e+01    0.1946118    0.1165803  54.93 0.0003229124    1.572    0.364
        90  -8.1546    162.5274     27.5806   4.7779650174e+01   4.1368932527e+01    0.2302816    0.1902637  54.78  0.001291564    1.155    0.134
        91  -8.7395    130.0560     23.1160   5.2254500921e+01   4.9876295650e+01    0.2065796    0.1919746  -8.88 0.0002601302    1.149    0.130
        92  -7.7264    104.2672    240.7681   1.0976437373e+02   1.1031615504e+01    0.1567174    0.1344937  25.55  0.001044234    1.347    0.258
        93  -8.4658    215.4501    234.1965   8.7076652657e+01  -5.0785659458e+00    0.2029797    0.1637164  30.28 0.0002683759    1.262    0.208
        94  -8.1648    189.9202     15.8212   4.0658991370e+01   3.5895166238e+01    0.1997461    0.1687327  50.90 0.0006119247    1.285    0.222
        95  -7.6037    165.6676     14.0248   4.3220659890e+01   4.2057540909e+01    0.2048387    0.1045135  11.02  0.000704052    4.254    0.765
        96  -7.7803    171.3148    234.3224   9.5571012055e+01   1.6949712260e+00    0.1279722   0.09040875   6.52 0.0002782608    1.660    0.398
        97  -9.6639     28.5339    230.1716   1.2335268816e+02   2.2794624446e+01    0.2950194    0.1413081 -77.82    0.0017207    1.928    0.481
