#   1 NUMBER                 Running object number                                     
#   2 MAG_AUTO               Kron-like elliptical aperture magnitude                    [mag]
#   3 X_IMAGE                Object position along x                                    [pixel]
#   4 Y_IMAGE                Object position along y                                    [pixel]
#   5 X_WORLD                Barycenter position along world x axis                     [deg]
#   6 Y_WORLD                Barycenter position along world y axis                     [deg]
#   7 A_WORLD                Profile RMS along major axis (world units)                 [deg]
#   8 B_WORLD                Profile RMS along minor axis (world units)                 [deg]
#   9 THETA_WORLD            Position angle (CCW/world-x)                               [deg]
#  10 FWHM_WORLD             FWHM assuming a gaussian core                              [deg]
#  11 ELONGATION             A_IMAGE/B_IMAGE                                           
#  12 ELLIPTICITY            1 - B_IMAGE/A_IMAGE                                       
         1 -10.2509     26.7727     22.6325   8.8837675594e+01   6.8844290214e+01     1.293209    0.4084472 -30.72  0.004675451    4.055    0.753
         2 -11.8069     80.4123     23.3287   6.6581200966e+01   6.0776051153e+01    0.5426538    0.2561616  36.29 0.0003013147    2.056    0.514
         3  -8.9897     46.0346     21.0853   7.8972351587e+01   6.6782844346e+01    0.4153326    0.1918959 -36.10  0.002068014    1.997    0.499
         4  -9.3127     63.8183     14.4136   6.8425881211e+01   6.4898492815e+01    0.4532213    0.2548521  14.23  0.001910798    2.061    0.515
         5  -9.0371     71.4996      8.9552   6.3037772119e+01   6.4123231296e+01    0.2494247    0.2387089  53.28 0.0003585106    1.426    0.299
         6  -9.3752     79.7126     12.9469   6.2169556491e+01   6.2126271623e+01    0.3845267    0.2462521  50.32  0.001790357    1.561    0.359
         7  -9.0113     74.4995     13.5203   6.4160384216e+01   6.3067963797e+01    0.3752235     0.221631   9.15  0.001609721    1.923    0.480
         8  -9.7300    133.9150     13.5300   4.8932812316e+01   4.9927636153e+01    0.2723036    0.2103577  44.47 0.0001507262    1.183    0.155
         9  -8.6747     96.9423     12.1155   5.6726927637e+01   5.8647269125e+01    0.2994488    0.1710408  33.06   0.00104107    1.676    0.403
        10  -9.7668     30.6439     11.0993   8.1412624821e+01   7.0184798943e+01    0.4037745     0.223994  21.12  0.001283091    1.769    0.435
        11  -9.1760     32.0087      6.0933   7.8122536436e+01   7.0695067552e+01    0.2930821    0.1681082   7.00 0.0003495378    1.804    0.446
        12  -8.8211     14.4672     10.9749   8.9971527801e+01   7.1863436847e+01    0.3671468    0.1874858  26.33  0.001400351    2.112    0.526
        13  -9.6541     20.5868      8.5064   8.5367581364e+01   7.1659736086e+01    0.2500941      0.20496  14.46 0.0001917328    1.401    0.286
        14 -10.3050     13.4074      4.5159   8.7332339278e+01   7.2929808669e+01    0.3374367    0.2234374   7.24   0.00231507    1.380    0.275
        15  -9.0630      3.1302      7.4840   9.4862854422e+01   7.3288695289e+01    0.4703332    0.1718964 -27.27   0.00224712    2.747    0.636
        16  -8.2013    125.1665     10.1299   4.9398522194e+01   5.2361532427e+01    0.2095317    0.1567762  37.19  0.000440409    1.252    0.201
        17  -8.3355    237.2286      7.0580   3.4656743152e+01   2.5598884400e+01    0.1932593    0.1543854  56.83 0.0003114699    1.476    0.323
        18  -7.8559    156.3634      6.8651   4.3011257175e+01   4.4980574744e+01     0.165453    0.1265722   4.15 0.0003510051    1.573    0.364
        19  -9.9419    119.2368      6.7503   4.9329253904e+01   5.4070187725e+01    0.2405363    0.2008858  41.34 0.0002257236    1.055    0.052
        20  -9.4652     76.3962      5.9616   5.9996404151e+01   6.3483155326e+01    0.3744009    0.2273777 -22.58  0.001535828    1.674    0.403
        21  -9.5946     46.6713      6.2120   7.1304901432e+01   6.8646061151e+01    0.3435383    0.1883452  22.21 0.0003105711    1.782    0.439
        22  -8.8223     41.3065      5.4975   7.3334851645e+01   6.9520164876e+01    0.3078173    0.1927907   4.25  0.001417163    1.507    0.337
        23  -8.4958     92.1687      5.4060   5.5123280311e+01   6.0300162630e+01    0.4109382    0.1334682  40.23  0.001573936    2.879    0.653
        24  -9.7418     84.8994      5.4822   5.7184953025e+01   6.1819748858e+01    0.2559162     0.197267   5.15   0.00156091    1.230    0.187
        25  -7.3366    131.3096      5.3209   4.6498367158e+01   5.1297267226e+01    0.1428828   0.08718007  36.46 0.0007035416    1.645    0.392
        26  -8.5227    124.9395      4.4950   4.7367688530e+01   5.2901930631e+01    0.2945212    0.1696412  28.17  0.001423595    1.927    0.481
        27  -8.3059    110.0727      2.3346   4.9534734306e+01   5.6571033146e+01     0.288191    0.1898076 -31.58   0.00157628    1.716    0.417
        28  -8.8423     57.8193      2.9825   6.5042112396e+01   6.7191690060e+01    0.2687528    0.1861196  14.97 0.0009908538    1.242    0.195
        29  -8.0505    142.9228      2.1107   4.3466116973e+01   4.8716890820e+01    0.1909442     0.166422 -85.61 0.0004153491    1.209    0.173
        30  -8.2041    105.2924      2.0491   5.0472740643e+01   5.7685537437e+01    0.2463249    0.1497743  45.42  0.001313788    1.389    0.280
        31  -7.5462    249.1900      1.3924   3.2613210815e+01   2.3630843232e+01    0.1577476   0.09468099 -82.65 0.0002587839    1.540    0.351
        32  -8.0452      3.3615      1.4460   9.1745714648e+01   7.4210010597e+01     0.195364   0.09482264  18.60 0.0007772269    2.107    0.525
        33  -9.2339     14.4142    105.0142   1.1586534161e+02   5.2261307068e+01    0.4253816    0.1437693 -45.17  0.001772121    2.879    0.653
        34 -10.8261    187.1889    248.3575   9.5876501327e+01  -2.6273651869e+00    0.6188284     0.215728  35.56   0.00276665    2.381    0.580
        35  -8.8147    244.4966     97.5052   5.4799167282e+01   1.1619078274e+01    0.1398021    0.1225262 -34.21 0.0008105777    1.021    0.020
        36  -7.8586    130.1331     97.1273   7.7765172998e+01   3.7565218329e+01    0.2902804    0.1818996  37.07 0.0007913034    1.691    0.409
        37  -7.9093    239.3449     96.3326   5.5266276387e+01   1.2859143320e+01     0.142566    0.1071671   6.83 0.0007050106    1.761    0.432
        38  -9.6776     11.9963     94.1736   1.1497971062e+02   5.4976858078e+01    0.4685215    0.2187348 -31.71  0.002231865    2.600    0.615
        39  -8.7476     96.3775     90.7985   8.5780861658e+01   4.5724755209e+01    0.5663123    0.3133261 -21.95  0.001967085    3.050    0.672
        40  -7.2669     83.4830     93.5167   9.0677052537e+01   4.7332200666e+01    0.1510971     0.133168 -28.55  0.000209425    1.090    0.082
        41  -8.7641     44.3276     91.7480   1.0348179688e+02   5.2945061567e+01    0.3487605    0.1577716 -36.33  0.001191354    2.560    0.609
        42  -8.3312    110.4045     90.5385   8.1420410212e+01   4.3102228292e+01    0.2743782    0.1449962  30.40  0.001023713    2.336    0.572
        43  -8.1285    241.3237     87.3235   5.2848506272e+01   1.3897310360e+01    0.1371318    0.1067504   6.72 0.0003326581    1.684    0.406
        44 -10.1447     37.4931     81.1152   1.0342532919e+02   5.6090776439e+01    0.7311592    0.3571857 -24.56  0.003007866    2.982    0.665
        45  -8.5295    125.4368     84.5400   7.5287900633e+01   4.1200935543e+01    0.6187681    0.3283173  19.30  0.001710406    4.696    0.787
        46  -8.2761     66.0291     84.0099   9.3914019519e+01   5.2117106553e+01    0.2192031    0.1851951 -34.25  0.000400387    1.071    0.066
        47  -9.2977     20.5438     91.9009   1.1171950325e+02   5.4959400308e+01    0.5483958    0.1264386 -45.15  0.001857064    4.004    0.750
        48  -8.1357     85.6544     80.6602   8.6209903306e+01   4.9824190541e+01    0.3688325    0.2099828 -20.97  0.001395968    2.655    0.623
        49  -8.0532     88.9910     78.4942   8.4431554218e+01   4.9707577276e+01    0.2987125    0.1873773  22.73  0.001313964    1.918    0.479
        50  -9.6079      8.2156     77.5597   1.1342994276e+02   5.9033834604e+01    0.4017714     0.157344 -41.74   0.00139938    2.274    0.560
        51  -7.7272    184.4753     78.0820   5.9674818986e+01   2.8415196909e+01    0.2277134    0.1469026 -35.51 0.0004935979    1.512    0.339
        52  -8.8976     48.9260     77.1259   9.8172398296e+01   5.5813523904e+01    0.3313411    0.2054162 -17.10  0.001280195    2.033    0.508
        53  -7.8811    119.1057     76.8656   7.4646882939e+01   4.4104589861e+01    0.3680391    0.1842463  23.78  0.001068902    4.144    0.759
        54  -9.5921     23.5189     73.9874   1.0696908636e+02   5.8883269613e+01    0.9894675    0.3015092 -34.22  0.003077012    5.251    0.810
        55  -8.9922     23.4634     69.4504   1.0591565196e+02   5.9902966599e+01    0.6690133    0.2382998  16.58  0.002807484    3.562    0.719
        56  -7.4752    202.4606     75.4245   5.5747614247e+01   2.4528669950e+01     0.145339    0.1401263 -48.53 5.883137e-05    1.019    0.019
        57  -7.5182    109.4854     75.5091   7.7016164514e+01   4.6399505810e+01    0.1522366    0.1427347 -10.32 0.0002805354    1.003    0.003
        58  -8.5654     75.0736     74.2319   8.7826893456e+01   5.2924764866e+01    0.2860638    0.2032131   0.76 0.0008098569    1.723    0.420
        59  -8.3051     49.2334     71.2204   9.6391950753e+01   5.7083144908e+01    0.2580926    0.1835921  36.31  0.001419984    1.645    0.392
        60  -7.8328    128.8025     69.3750   6.9547425507e+01   4.3363361378e+01    0.2297249    0.1354397  38.14 0.0006911338    1.783    0.439
        61  -8.6719    105.8267     67.4475   7.5445341228e+01   4.8711043894e+01    0.2918956    0.1931157  -0.92  0.001209119    2.179    0.541
        62  -6.9119    177.2626     66.2901   5.7660626386e+01   3.2161877323e+01    0.1451225    0.1169358  16.65  0.000190015    1.496    0.332
        63  -8.8375     83.8188     64.4071   8.1538403806e+01   5.3477748923e+01    0.4039361     0.263526  -0.44  0.001773198    2.127    0.530
        64  -9.0244     18.5292     61.9744   1.0603489466e+02   6.1893533574e+01    0.5186326    0.1835248 -30.50  0.001952542    3.800    0.737
        65 -10.0890     62.1560     61.1927   8.8291974055e+01   5.7537175476e+01    0.5849872    0.2731802  23.82 0.0002520376    2.686    0.628
        66  -8.7018     26.6254     60.5505   1.0232383538e+02   6.1600117303e+01    0.3324564    0.1918717 -26.62  0.001771151    1.776    0.437
        67  -9.7783     37.2000     59.0398   9.7515297740e+01   6.0970466725e+01     0.438706    0.2473828 -20.68  0.001287266    2.080    0.519
        68  -8.2709     11.3772     60.6335   1.0863938130e+02   6.2629528285e+01    0.2463558    0.1167459 -57.67 0.0008849007    1.603    0.376
        69  -8.1753    110.9828     58.3743   7.0763480166e+01   4.9274049413e+01    0.2687351    0.2002816   1.29  0.000738727    1.562    0.360
        70  -7.8816     49.4832     58.5054   9.2347113221e+01   5.9735126048e+01    0.1358565    0.1126076 -28.39 0.0008104036    1.012    0.012
        71  -8.2010     99.7785     56.1882   7.3369060277e+01   5.1989528639e+01    0.2102899    0.1634656   7.90 0.0009446982    1.378    0.274
        72  -9.2197     45.2098     49.2252   9.0914213276e+01   6.2081991655e+01    0.4667391    0.2531612 -25.24  0.001809503    1.996    0.499
        73  -9.9370     75.2007     50.0715   7.9410459484e+01   5.7628785877e+01    0.3249808    0.2603518  -2.94 0.0002731278    1.199    0.166
        74  -8.2348    118.4272     50.9992   6.6045744005e+01   4.8857671613e+01    0.2373566    0.1938038  54.96 0.0005650824    1.291    0.226
        75  -7.4692     88.7699     53.9989   7.6136754525e+01   5.4517519252e+01    0.1845732    0.1126844 -36.00 0.0005475628    1.573    0.364
        76  -7.8157     53.4649     48.0154   8.7045987794e+01   6.1280261638e+01    0.2651583    0.1463427 -32.71   0.00130193    1.668    0.400
        77  -7.8588     55.3389     43.3253   8.4492109075e+01   6.1882352915e+01    0.2367307    0.1572793 -19.43 0.0007324939    1.465    0.317
        78  -8.6413     58.4820     41.0044   8.2295723397e+01   6.1842736805e+01    0.2614981    0.1621538   3.01  0.001273128    1.984    0.496
        79  -8.8203     10.5081     47.4883   1.0560813720e+02   6.5457864751e+01    0.2881058    0.1946826 -45.49 0.0007502576    1.115    0.103
        80  -9.3554     13.5438     45.5444   1.0367171558e+02   6.5669887616e+01    0.2950858     0.213074 -29.49 0.0009408584    1.186    0.157
        81  -8.6959      3.2904     45.2028   1.0824431205e+02   6.6307729455e+01    0.2925031    0.2298932  84.98  0.001942147    1.807    0.447
        82 -11.0069     83.1634     40.0413   7.2665191039e+01   5.7889793015e+01    0.3538806    0.2452938 -11.92  0.001823786    1.500    0.333
        83  -8.7046     87.5789     38.1872   7.0430183494e+01   5.7334328665e+01    0.2798454    0.2138451  10.45 0.0008362862    1.297    0.229
        84  -8.8513      1.5416     28.2678   1.0403074693e+02   6.9735491669e+01    0.4270671   0.05776201 -43.79  0.001623162    3.654    0.726
        85  -9.7242      5.6693     34.0230   1.0383701309e+02   6.8418430085e+01    0.3867354    0.2393136 -26.50  0.002476088    1.401    0.286
        86  -8.1291      3.0082     31.7792   1.0443890409e+02   6.8992054127e+01    0.1542494    0.1198625 -28.52  0.001106154    1.122    0.108
        87  -9.2802     67.3986     37.8038   7.7479524397e+01   6.1001252876e+01    0.3481187    0.2341916 -24.15  0.001152371    1.381    0.276
        88  -8.1064    106.9484    250.5829   1.1141158506e+02   9.1691001035e+00    0.1742687   0.09466255  40.61 0.0003332573    1.501    0.334
        89  -9.7945     19.1498     35.8337   9.7866474311e+01   6.7180006153e+01    0.3167798    0.1812303 -35.60  0.001308296    1.388    0.280
        90  -9.3480     22.0076     32.0353   9.5074974838e+01   6.7652990682e+01    0.3107871    0.2008051  -7.69  0.001128932    1.539    0.350
        91  -8.9101     38.7717     35.4291   8.8506017792e+01   6.5375655098e+01     0.271148    0.1716539  -4.93 0.0008081084    1.698    0.411
        92  -8.1076    105.9729     36.7876   6.4224664951e+01   5.3742611968e+01     0.228693     0.173334  24.53 0.0007684617    1.298    0.230
        93  -7.8422     91.9804     37.0167   6.8529726185e+01   5.6639965147e+01    0.1954128    0.1735383 -72.01 0.0004458026    1.596    0.373
        94  -9.2745     70.9914     35.4893   7.5158975194e+01   6.0769093942e+01    0.3187359    0.1938869  12.65  0.001443472    1.997    0.499
        95  -8.5942     55.9778     35.5400   8.1087042121e+01   6.3128682849e+01    0.1955776    0.1531033 -21.44 0.0003523645    1.104    0.094
        96  -7.4934     46.3176     35.3095   8.5098425321e+01   6.4484593705e+01     0.134143   0.08523869 -12.04 0.0003045406    1.637    0.389
        97  -8.9344     35.6346     37.8888   9.0898609536e+01   6.5280217827e+01    0.3580812    0.1781895 -45.39    0.0018338    1.757    0.431
        98  -7.6069    134.1509     31.2197   5.5140404185e+01   4.7936647879e+01    0.1846796    0.1667204 -62.93  0.000795524    1.268    0.211
        99  -8.5965     42.0069     28.2620   8.4035102344e+01   6.6204270551e+01    0.1714171    0.1380003  -5.42 0.0001868794    1.068    0.064
       100  -8.7472     41.3203     24.7202   8.2779262567e+01   6.6855393990e+01    0.1831291    0.1439377   7.06 0.0005688676    1.168    0.144
       101  -9.6064     69.8100     25.9857   7.1505518633e+01   6.2366507288e+01    0.2777633    0.2578441 -34.11 0.0009635134    1.393    0.282
       102  -8.7630    249.1415    103.5843   5.5547449946e+01   9.7191469825e+00    0.2608595    0.1746296   2.43  0.001205021    2.258    0.557
       103  -8.6938     61.9444     26.9496   7.4955059992e+01   6.3549439051e+01    0.2025654    0.1641868   1.15   0.00051643    1.039    0.037
       104  -7.8729    109.5699     25.6101   5.8885802655e+01   5.4388941888e+01    0.2450347    0.1136926 -38.48  0.001023275    2.398    0.583
       105  -7.8552    164.1190     23.8123   4.7129841958e+01   4.1336181714e+01    0.1950375    0.1749668 -89.02 0.0002584715    1.112    0.101
       106  -8.2436    144.6838     23.2694   5.0280731645e+01   4.6270138360e+01    0.2139894    0.1990801 -82.75 0.0003198732    1.155    0.134
       107  -9.0354     64.3217     23.4623   7.2454295542e+01   6.3651340621e+01    0.2532418    0.2231581 -80.07  0.001504335    1.999    0.500
       108  -6.9448    147.2890     99.3164   7.3938637365e+01   3.3274184538e+01    0.1599222    0.1250342   1.22 0.0002997071    1.592    0.372
       109  -8.8280    130.8091     20.5831   5.2060712253e+01   4.9969963329e+01    0.4477787     0.200422  36.10  0.001368144    2.646    0.622
       110  -8.9527     92.5872     20.7081   6.1602345188e+01   5.8653438310e+01    0.2820947    0.2172485  24.73 0.0006642982    1.174    0.148
       111  -8.2054    140.4315     19.9634   4.9949279980e+01   4.7680068076e+01    0.2032209    0.1702524  56.12 0.0002915879    1.086    0.079
       112  -9.3220      7.9626     19.5345   9.7379986931e+01   7.0948660591e+01    0.3518001    0.2092314  20.38  0.001847636    1.879    0.468
       113  -8.9564     13.6429     17.9118   9.3607370388e+01   7.0810332630e+01    0.3483289    0.1787993   0.88   0.00125702    2.210    0.547
       114  -7.4146    146.8332     19.1228   4.8501236708e+01   4.6179862459e+01    0.1908263    0.1474274  36.41 0.0003726021    1.313    0.238
       115  -8.3160    127.7711     16.8290   5.1327708615e+01   5.1093867097e+01     0.204877    0.1661966  37.02 0.0003022324    1.151    0.132
       116 -10.0799    154.9391    244.3990   1.0148738941e+02   2.9092780681e+00    0.3424345    0.2307279 -10.04  0.001734724    2.273    0.560
       117  -8.5497    162.4827    243.9747   9.9970157651e+01   1.7985762109e+00    0.1478253    0.1088287 -89.05 0.0006796062    2.441    0.590
       118  -8.2584    232.4014    242.2305   8.6635525986e+01  -8.4143120444e+00    0.1389104    0.1050859 -31.69 0.0004168557    1.609    0.378
       119  -8.7199    249.0049    240.7743   8.3496607364e+01  -1.0475881772e+01    0.1869268    0.1377876  -8.55 0.0006078536    1.190    0.160
       120  -8.0657     48.8518     15.5461   7.5077314298e+01   6.7155186521e+01    0.2751211    0.1369275 -34.10  0.001421913    1.923    0.480
       121  -7.3592    180.6271    241.7140   9.6152248084e+01  -6.9273129030e-01     0.128418   0.08341391  13.28 0.0007018273    1.713    0.416
       122  -8.3409    109.3344    237.9745   1.0961761369e+02   1.0980351914e+01    0.1627121    0.1421004  52.51 0.0004863399    1.069    0.065
       123  -7.7487     88.0022     12.9888   5.9626968349e+01   6.0451849988e+01     0.179575    0.1615501 -64.46 0.0006291817    1.556    0.358
       124  -9.7703    188.1524    233.6858   9.3484908375e+01  -7.0255734113e-01    0.2971147     0.277573  38.04  0.001929133    1.306    0.234
       125  -8.4434     11.6055    206.8146   1.2596920713e+02   2.9204107906e+01    0.1629582   0.08167174  85.35 0.0009462674    1.705    0.413
       126  -6.8952    177.3244    205.3270   9.0957046999e+01   5.6197996034e+00    0.1408868   0.09977609   3.96 0.0007049238    1.693    0.410
       127  -8.3962    207.8222    202.6645   8.4326407669e+01   8.3115450431e-01    0.2091225    0.1627891 -10.25 0.0004285466    1.232    0.188
       128  -8.1016    208.1376    197.9047   8.3369227600e+01   1.5367274765e+00    0.1815471    0.1689652  12.07 0.0002667816    1.194    0.162
       129 -10.2305    175.8822    193.2629   8.9079022055e+01   8.0181833274e+00    0.2480493    0.2345158  21.04 0.0003413979    1.091    0.083
       130  -7.6184    127.9814    192.3451   9.9486039188e+01   1.6771580964e+01    0.1889936    0.1667895  41.32  0.001087538    1.063    0.059
       131 -10.5394    100.9980    176.0016   1.0316846386e+02   2.4866004660e+01    0.1981575    0.1843079  74.38            0    1.005    0.005
       132  -7.9769    169.2066    163.6180   8.4628756546e+01   1.5003743909e+01     0.221268     0.136199  31.06 0.0003915641    1.721    0.419
       133  -9.0844     67.2318    144.7007   1.0672308764e+02   3.7329114752e+01     0.457675     0.296468  57.79  0.002249433    1.725    0.420
       134  -7.8274    139.7037    138.6927   8.6089315814e+01   2.6334774033e+01    0.1559079    0.1230165  -6.95 0.0005165038    1.588    0.370
       135  -7.0192    126.0281    136.0000   8.8987497919e+01   2.9686830326e+01    0.2523323   0.08827719  40.69 0.0006455246    2.904    0.656
       136  -7.7972      4.6726    133.6931   1.2205989377e+02   4.6062760377e+01    0.1221331    0.0740582 -50.84 0.0006388142    1.654    0.395
       137  -7.5956     41.3702    129.2992   1.1147668599e+02   4.4139981765e+01    0.1373337   0.09095113 -37.86 0.0007030715    1.739    0.425
       138  -8.6571    143.9991    125.4886   8.1799077762e+01   2.8385048859e+01    0.2899499    0.2270426 -42.15 -0.0001263326    1.256    0.204
       139  -8.6057    200.1446    123.8157   6.8732701086e+01   1.6393130732e+01    0.2384644    0.2239328 -25.53 0.0003281478    1.026    0.025
       140  -7.2052     85.6706    121.6448   9.6998749066e+01   4.0317932338e+01    0.1568042     0.110645 -25.66 4.951991e-05    1.781    0.438
       141  -7.6855    119.2583    118.6099   8.6604493777e+01   3.5046007672e+01     0.224017    0.1492752  29.02  0.000955035    1.713    0.416
       142  -7.7672      1.5164    110.4973   1.2047556906e+02   5.1713047842e+01    0.1234271   0.09361748 -69.53 0.0007305014    1.031    0.030
       143  -8.0185    123.5422    107.5123   8.2494222071e+01   3.6700690341e+01    0.2847798    0.1491881  30.90  0.001025478    2.398    0.583
       144  -7.6229    134.0197    106.4781   7.9368093547e+01   3.4711530270e+01    0.2215686    0.1380062  19.78 0.0006885797    2.422    0.587
       145  -7.8126    109.5033    106.4987   8.6210872966e+01   3.9732434569e+01     0.271878    0.1498119  27.79 0.0009224436    2.316    0.568
