#   1 NUMBER                 Running object number                                     
#   2 MAG_AUTO               Kron-like elliptical aperture magnitude                    [mag]
#   3 X_IMAGE                Object position along x                                    [pixel]
#   4 Y_IMAGE                Object position along y                                    [pixel]
#   5 X_WORLD                Barycenter position along world x axis                     [deg]
#   6 Y_WORLD                Barycenter position along world y axis                     [deg]
#   7 A_WORLD                Profile RMS along major axis (world units)                 [deg]
#   8 B_WORLD                Profile RMS along minor axis (world units)                 [deg]
#   9 THETA_WORLD            Position angle (CCW/world-x)                               [deg]
#  10 FWHM_WORLD             FWHM assuming a gaussian core                              [deg]
#  11 ELONGATION             A_IMAGE/B_IMAGE                                           
#  12 ELLIPTICITY            1 - B_IMAGE/A_IMAGE                                       
         1 -12.2724    202.1468     43.1391   3.9930030721e+01   2.9425596867e+01    0.8675398     0.757852 -81.22  0.003311794    1.042    0.040
         2 -12.3005    213.0618     33.1015   3.6484769669e+01   2.8325047717e+01     0.683097    0.6742719 -29.60  0.001880189    1.370    0.270
         3 -11.1011    235.7036      8.0404   2.9492885908e+01   2.6535695844e+01    0.6941611     0.332233 -35.83   0.00394206    2.107    0.525
         4 -10.8044    241.7851     10.0835   2.9471734396e+01   2.5111132580e+01     0.458337    0.3518602  49.58  0.002691271    1.921    0.480
         5 -10.9191    241.6832      5.5023   2.8628319174e+01   2.5630861763e+01    0.4355283    0.3538921 -58.78  0.003053074    1.219    0.179
         6  -8.8854     57.8185      6.6323   5.7563698653e+01   6.5824526677e+01    0.1661912    0.1038816  56.33 0.0007328532    1.762    0.432
         7  -8.8080      8.4845      2.4833   7.8464964050e+01   7.3441035759e+01    0.1109795   0.08233263  -3.12 -7.697085e-05    1.013    0.013
         8  -9.8130    134.8627    230.0825   9.3729917477e+01   7.1242202171e+00    0.2611127    0.1835968 -57.65   0.00141705    1.659    0.397
         9 -13.1439     51.6961    185.7561   1.0751711130e+02   2.9419498618e+01      4.05163     1.486024  58.20   0.01263619    4.406    0.773
        10 -12.9140     16.7487    216.9065   1.1851724270e+02   2.6092647744e+01    0.8933802    0.5868266  31.72  0.005462504    1.656    0.396
        11 -16.3632     12.3010    241.9543   1.2092874057e+02   2.1268103580e+01     10.19095     4.851708 -80.46   0.04575175    1.947    0.486
        12  -8.9726     58.0544    195.1291   1.0704985226e+02   2.6350504830e+01    0.2077462    0.1818944  73.97 0.0004862949    1.023    0.022
        13  -7.6882    149.3410    192.6579   8.4326680407e+01   1.2239317668e+01     0.148674    0.1147019  73.64  0.000704871    1.776    0.437
        14  -8.0743    125.2839    189.3400   8.9449390053e+01   1.7227282374e+01     0.147315    0.1143976 -16.05 0.0007014435    1.632    0.387
        15  -9.3968     80.9653    182.0164   9.9465956804e+01   2.6280658611e+01    0.3244583    0.3103676 -78.59 0.0009274412    1.070    0.066
        16  -8.1345     99.4880    180.8532   9.4472871688e+01   2.3620113712e+01    0.2270962    0.2018022   0.23 0.0006029501    1.321    0.243
        17 -13.6732     41.1423    196.6561   1.1132692316e+02   2.8079215007e+01     2.675359     1.393671  72.25  0.004995977    2.237    0.553
        18  -8.6909    186.5217    173.9899   7.2498244905e+01   9.3279259614e+00    0.2767924    0.2064295  56.03  0.001387194    1.642    0.391
        19 -10.4445     66.5850    171.6412   1.0171489295e+02   3.0930334379e+01    0.4489568    0.2933543 -33.58  0.001528955    2.049    0.512
        20 -10.5024     71.1507    166.9599   9.9749791524e+01   3.1450130088e+01    0.3861035    0.2887269 -40.56 0.0006521074    1.510    0.338
        21 -10.1750    102.4907    171.4685   9.2055974417e+01   2.5369507006e+01      0.43383    0.2709967  50.68   0.00191928    1.674    0.403
        22  -7.9394    102.8503    164.8465   9.0741105377e+01   2.6912500814e+01    0.2053862    0.1717625  67.73 -0.000430966    1.284    0.221
        23 -11.3958     58.2009    131.1637   9.7292059036e+01   4.2274355483e+01     1.495911    0.5770575 -74.11  0.003908543    5.528    0.819
        24 -11.1947     79.8350    158.5840   9.5925906065e+01   3.2248982550e+01    0.9209664    0.5154449  66.85 0.0005127355    2.774    0.640
        25 -11.7473     67.8272    153.8955   9.8526151105e+01   3.5212899565e+01    0.5168562    0.4230744 -22.89 0.0008267721    1.482    0.325
        26 -12.1573     68.8721    144.3279   9.6513465307e+01   3.7479535626e+01     1.275668    0.7816655  83.06  0.004799059    2.491    0.599
        27  -9.6896    133.8076    144.2026   7.8266576896e+01   2.6002559245e+01     0.591398    0.2154504 -54.75  0.001799903    3.284    0.695
        28  -7.9881    112.1245    150.1545   8.5299230739e+01   2.8806459710e+01     0.214172    0.1800673  70.38 0.0005218112    1.329    0.247
        29  -8.8038     35.8788    161.8969   1.0874771499e+02   3.7165169921e+01    0.2026841     0.172978 -52.12 0.0005921631    1.233    0.189
        30  -8.5801    124.6302    222.6915   9.4935963217e+01   1.0209721819e+01    0.1395025    0.1046488  -1.96 0.0007034969    1.763    0.433
        31  -9.3927    101.5812    138.5711   8.5739299397e+01   3.3551677452e+01    0.4634943     0.294089 -26.59   0.00184265    2.229    0.551
        32 -10.5725     88.7691    137.6628   8.9266754284e+01   3.6023405505e+01    0.2914553    0.2621177 -37.18 0.0004156214    1.145    0.127
        33  -9.6454     26.0458    137.6398   1.0835540415e+02   4.4231867100e+01    0.3820652    0.1593886  42.75  0.001615475    2.608    0.617
        34  -9.2264    106.1285    130.9108   8.2703059531e+01   3.4553870081e+01    0.3905605    0.3261161 -66.03  0.001936302    1.262    0.208
        35  -9.5551    111.1603    129.0946   8.0847987918e+01   3.4021209505e+01    0.3277771    0.2553964   6.47  0.001030496    1.646    0.392
        36  -9.3546     98.0434    124.9478   8.3654261872e+01   3.7481497684e+01     0.324054    0.2524319  10.23  0.000788928    1.579    0.366
        37 -14.4818      9.2782    207.7488   1.1949300881e+02   2.8846863666e+01     2.760531     1.233684 -65.36   0.01150693    2.090    0.522
        38  -9.4056    134.6950    128.4661   7.4359929888e+01   2.9403134097e+01    0.3199016    0.2723921   7.90  0.001562605    1.379    0.275
        39  -8.5893    163.6038    121.8063   6.5831335647e+01   2.4643044705e+01    0.2259397    0.1394909 -53.60 0.0009514788    1.721    0.419
        40  -8.0067    107.4821    118.0945   7.9214464892e+01   3.7304317627e+01    0.2192981    0.1503649 -47.72 0.0003520748    1.440    0.306
        41 -10.4659     86.7926    152.2960   9.2796803785e+01   3.2716002301e+01    0.5806943    0.4142617 -19.80  0.001489268    1.956    0.489
        42  -8.7752    231.1284    113.8501   5.1732044574e+01   1.2252863517e+01    0.2302219    0.2035452 -47.03 0.0009803874    1.021    0.021
        43  -8.2735    205.8108    110.1726   5.4894904556e+01   1.7884631669e+01    0.1847909    0.1660219  -9.13 0.0005017812    1.298    0.229
        44 -10.4468     13.2329    106.4956   1.0778457116e+02   5.2925880901e+01    0.3093212    0.2026939 -83.79  0.001671189    1.617    0.382
        45  -9.0098    119.4086    104.1858   7.2214324631e+01   3.7979302637e+01    0.2155939    0.1456978 -56.55 0.0001936207    1.630    0.386
        46  -8.5746     42.7000    103.9582   9.6882013780e+01   5.0852415547e+01    0.3579214    0.1289145  42.71  0.001278323    3.430    0.708
        47 -10.1163     32.9461    108.5495   1.0127296340e+02   5.0777879642e+01    0.5125966    0.1873452 -64.21  0.001976472    2.543    0.607
        48  -9.4911     35.2634    101.1345   9.8935708250e+01   5.2321886927e+01    0.3113608     0.193783  27.55  0.001592724    1.752    0.429
        49  -9.7898    140.6646    215.8077   9.0266526308e+01   8.9743408606e+00    0.3876057    0.1643794  39.41  0.001583286    2.137    0.532
        50  -9.5332    120.7270     97.9932   7.0162097836e+01   3.9006351625e+01    0.2139748     0.203007 -44.01 0.0004981111    1.062    0.058
        51  -7.9253    152.3117     84.6279   5.8743981866e+01   3.4495469043e+01    0.1583803    0.1144344 -75.35 0.0007033609    1.778    0.437
        52  -8.2458    164.3193    209.3364   8.3937016924e+01   6.2950984926e+00    0.1443678    0.1036734  -4.90 0.0007049422    1.704    0.413
        53  -8.4205    159.9933     83.4944   5.6820951303e+01   3.2912866635e+01      0.20607    0.1215023  33.02 0.0005523829    2.393    0.582
        54 -10.3092     13.2614     60.4209   9.8024209341e+01   6.3262885523e+01    0.3609981    0.1966312 -54.45 0.0009614902    1.595    0.373
        55 -11.8069    192.1371     50.4941   4.2933812342e+01   3.0679162201e+01    0.6546113    0.5029592  24.48  0.002679583    1.961    0.490
        56  -9.7407    101.4394    244.8312   1.0291903131e+02   9.4142752013e+00    0.5749664    0.2249871 -67.66  0.002276819    3.680    0.728
        57 -10.0298     82.9977    243.2964   1.0668191590e+02   1.2365470322e+01    0.4941114    0.1173699 -56.58  0.001781478    4.320    0.768
        58  -8.8786     77.9957     57.5404   7.0700766137e+01   5.5347921603e+01    0.3019178    0.1287576  47.95  0.001192635    2.518    0.603
        59  -9.6809     12.2562     51.0104   9.5810833446e+01   6.5216137013e+01    0.1785999    0.1374684 -35.28  0.001158456    1.061    0.058
        60  -8.3346    111.1984    203.8349   9.5245671765e+01   1.6385435714e+01      0.18681    0.1676749  -6.53 0.0004798609    1.291    0.225
        61  -9.3974    192.0046    192.8369   7.5069541162e+01   4.7608675720e+00     0.422462    0.2107114 -60.18  0.001424291    4.212    0.763
        62  -8.0219    198.2665     23.3492   3.5828438985e+01   3.2764457048e+01    0.1129165   0.09515372  37.78 0.0003810494    1.617    0.382
        63  -8.3049    122.7836    199.4229   9.1766717867e+01   1.5420664446e+01    0.2638864    0.1822905 -71.98   0.00124935    1.799    0.444
        64  -8.2443     95.5960    242.7752   1.0393590601e+02   1.0665388313e+01    0.2449201     0.144139  74.04   0.00115735    2.404    0.584
        65  -8.6786     94.5048    238.5143   1.0368844635e+02   1.1663663515e+01    0.2174951    0.1251555 -58.60 0.0007822584    1.939    0.484
        66  -9.4992     93.6335    234.8646   1.0345756254e+02   1.2523584840e+01     0.298735    0.2047897 -83.11  0.001043167    1.741    0.426
