#   1 NUMBER                 Running object number                                     
#   2 MAG_AUTO               Kron-like elliptical aperture magnitude                    [mag]
#   3 X_IMAGE                Object position along x                                    [pixel]
#   4 Y_IMAGE                Object position along y                                    [pixel]
#   5 X_WORLD                Barycenter position along world x axis                     [deg]
#   6 Y_WORLD                Barycenter position along world y axis                     [deg]
#   7 A_WORLD                Profile RMS along major axis (world units)                 [deg]
#   8 B_WORLD                Profile RMS along minor axis (world units)                 [deg]
#   9 THETA_WORLD            Position angle (CCW/world-x)                               [deg]
#  10 FWHM_WORLD             FWHM assuming a gaussian core                              [deg]
#  11 ELONGATION             A_IMAGE/B_IMAGE                                           
#  12 ELLIPTICITY            1 - B_IMAGE/A_IMAGE                                       
         1 -14.4082    218.6405      5.8428   3.9369460482e+01   2.9502879411e+01      2.14558     1.070682  71.16  0.005079342    1.847    0.459
         2 -15.2218    193.1757     35.9561   5.0279325884e+01   3.2337335816e+01     3.174816     2.001698  20.24    0.0133052    2.549    0.608
         3 -11.5421     60.4556    232.7154   1.2104841651e+02   1.9415891790e+01    0.1980618    0.1318285  64.57 0.0006143061    1.180    0.153
         4 -12.1457    249.0537    246.8139   8.8461636679e+01  -1.1234323335e+01    0.5851526    0.2201316 -26.04  0.002962075    2.974    0.664
         5 -16.6969     69.7943    145.1677   1.0914473777e+02   3.6971811659e+01     10.01647     5.083637  74.66   0.02128654    3.580    0.721
         6 -10.8289     37.4944    211.9748   1.2370794346e+02   2.6192072292e+01    0.1478768    0.1101047  76.57  0.001036035    1.030    0.029
         7  -9.9171     33.5386    206.7928   1.2407941562e+02   2.7676118294e+01    0.3951198    0.1611006  69.17  0.001888434    2.592    0.614
         8 -11.9951     66.9938    206.2747   1.1749615815e+02   2.3679601795e+01    0.3229229    0.2532706 -31.73  0.000173512    2.144    0.534
         9 -10.3194     72.4726    203.0524   1.1605799638e+02   2.3590714732e+01    0.3470644    0.1947134  65.50  0.001829641    1.763    0.433
        10  99.0000     43.0919    207.4095   1.2230163286e+02   2.6461759124e+01    0.4568093    0.2367957 -81.06  0.002609484    1.772    0.436
        11  -9.9728     30.4871    210.5249   1.2491142842e+02   2.7261636175e+01    0.1347219   0.08188424  60.54 0.0005390844    1.324    0.245
        12 -11.0016     97.0723    200.9919   1.1070396416e+02   2.0382277956e+01    0.3737094     0.323679   3.45  0.002266556    1.688    0.408
        13 -11.8630    193.4263    195.6144   8.9782496558e+01   4.3892587052e+00     1.249343     0.626338 -59.01  0.004352184    4.512    0.778
        14 -12.8280    202.2693    198.5591   8.8600980164e+01   2.3246487100e+00    0.7956514    0.4495533  15.09    0.0033965    2.629    0.620
        15  -9.3895     87.7224    202.3978   1.1283385536e+02   2.1524909848e+01    0.1661336    0.1162161  33.91 0.0006115715    1.596    0.374
        16 -17.7474     36.0875    246.0414   1.2612781903e+02   1.9990120855e+01     8.211584      2.32643  32.30   0.03000452    6.241    0.840
        17 -10.1118     43.9763    198.5332   1.2140237470e+02   2.8185392195e+01    0.1934961     0.138991 -64.65  0.001180229    1.511    0.338
        18  -9.9748    161.0326    199.3429   9.6989954164e+01   9.6824486405e+00    0.1895141    0.1567262  41.38  0.001096692    1.078    0.072
        19 -10.9593     35.9077    197.7967   1.2294495458e+02   2.9261578786e+01    0.1784587    0.1195378  62.91 0.0004769544    1.243    0.195
        20 -11.8986    151.4701    195.5832   9.8356494303e+01   1.2120552990e+01    0.4033661    0.2228774  48.27  0.001537558    1.694    0.410
        21 -10.0223     82.2407    195.0100   1.1311597422e+02   2.3872820458e+01    0.2215453    0.1721342  52.06 0.0009389156    1.184    0.155
        22 -11.0225    158.7036    235.5809   1.0293124729e+02   4.0614418247e+00    0.2908842    0.1657241  33.62 0.0009049012    1.597    0.374
        23 -11.2389     96.3747    190.1970   1.0944790444e+02   2.2736731205e+01    0.3551178    0.3086071  16.87  0.001042678    1.526    0.345
        24 -10.1917     61.8826    220.0251   1.1975255977e+02   2.1624804623e+01    0.3133513    0.1549819  74.47  0.001595177    2.239    0.553
        25 -13.0997     67.2521    186.2754   1.1532719967e+02   2.7868220781e+01     0.657042     0.589946 -69.89  0.002982967    1.274    0.215
        26  -9.6582     33.9890    218.1246   1.2477944534e+02   2.5378206987e+01    0.1593751    0.1414729 -82.40  0.001229819    1.412    0.292
        27 -11.0142     43.4910    236.4219   1.2430100691e+02   2.0838413692e+01    0.1481302    0.1190487  62.81 9.096812e-05    1.201    0.167
        28 -10.5237    153.4839    184.3880   9.5992752412e+01   1.3881404591e+01    0.2422239    0.1367079 -61.65  0.001026492    2.377    0.579
        29 -12.5136    145.9588    182.4724   9.7289181369e+01   1.5678880694e+01     0.438992    0.3619904  68.85  0.001242319    1.315    0.240
        30 -12.3168    141.5160    175.4889   9.7020231570e+01   1.7934481453e+01    0.7991737    0.4950363  89.28  0.002907811    3.287    0.696
        31 -10.6645    188.5161    175.5574   8.6920016719e+01   8.7610439656e+00    0.4849679    0.2440635 -50.70  0.001989084    2.456    0.593
        32 -10.5905    204.4862    175.7827   8.3773454803e+01   5.6399427107e+00    0.3374775    0.2942324 -52.39  0.001200987    1.388    0.279
        33  -8.2130     50.2540    216.4859   1.2165528448e+02   2.3788602287e+01    0.3128972    0.2352124  -6.76  0.001769229    3.038    0.671
        34 -19.2819      9.3452    103.7570   1.1975479596e+02   5.2962992802e+01      17.4205      1.25503 -71.25   0.03270156   13.141    0.924
        35 -10.4401    196.6387    175.1697   8.5200439169e+01   7.2517730632e+00    0.3120106    0.2694587  62.65  0.001739347    1.407    0.289
        36  -9.6051     47.9167    173.8260   1.1821801279e+02   3.3088896851e+01     0.259007    0.1721077  52.30  0.001528363    1.423    0.297
        37  -9.8460     42.9421    172.3479   1.1917386467e+02   3.3997447196e+01    0.2328717    0.1541192  69.36  0.001369974    1.383    0.277
        38  -9.1310     39.1423    176.9167   1.2046342415e+02   3.3401703938e+01    0.1735029    0.1288667  68.30 0.0005519001    1.171    0.146
        39 -11.1834     99.2105    180.7028   1.0747926973e+02   2.4325050105e+01    0.2869546    0.2266258  47.09 0.0006179686    1.216    0.178
        40  -9.8932     37.2893    224.4405   1.2460488968e+02   2.3789571617e+01    0.1212965    0.1166616 -89.67 0.0006148841    1.541    0.351
        41 -10.1266    186.7046    165.1258   8.5152178611e+01   1.1025989088e+01    0.2478186    0.1766662 -42.47 0.0007070026    1.461    0.316
        42 -10.0649     55.3155    210.4360   1.2018745513e+02   2.4360427928e+01    0.4689746      0.18436  64.06  0.002024141    2.980    0.664
        43 -10.2063    187.8263    152.9915   8.2298663048e+01   1.3078335886e+01    0.2435956    0.1777306 -69.23  0.001093473    1.986    0.496
        44 -11.6766    133.9413    145.8395   9.2931977866e+01   2.5796833003e+01     1.281021    0.3317302 -54.97  0.003076554    5.710    0.825
        45 -13.4499     56.8418    199.8186   1.1892475461e+02   2.6342538206e+01    0.5470893     0.268711 -63.85  0.002688954    2.001    0.500
        46 -10.8953    174.3473    148.8157   8.4238017939e+01   1.6738199233e+01    0.3394801    0.3158164 -50.47  0.001543784    1.128    0.113
        47 -10.9518    143.7086    145.8094   9.0569101566e+01   2.3819087409e+01    0.4452056    0.2029087 -57.08  0.001548092    2.737    0.635
        48 -11.5240    106.9320    138.4208   9.8185695393e+01   3.2655227180e+01     0.634021    0.3507423 -38.74  0.002559929    2.235    0.553
        49  -9.8108    110.8370    140.6368   9.7631789834e+01   3.1427869222e+01    0.2597733    0.1811909  53.23 0.0004321968    1.480    0.324
        50 -12.5013     95.1110    138.4081   1.0128820453e+02   3.4713837382e+01    0.3065915    0.2816015  49.18 0.0004321421    1.144    0.126
        51  -9.4239    102.5234    133.4629   9.8312308390e+01   3.4608913586e+01    0.1487474    0.1379637 -85.31 0.0006540215    1.039    0.037
        52 -11.2600    105.8816    130.7758   9.6840045947e+01   3.4640922031e+01    0.4026541     0.341264 -56.09  0.001213786    1.138    0.121
        53 -11.1705    135.7304    128.2500   8.8500025859e+01   2.9361575830e+01    0.7131447    0.1861728 -50.49  0.001895319    4.225    0.763
        54 -10.0949    160.8281    128.0894   8.2404040474e+01   2.3948041348e+01     0.338322    0.2179426 -55.90  0.001420043    1.756    0.431
        55 -11.2312    102.0522    125.3566   9.6679520495e+01   3.6607099538e+01    0.3097947    0.2551644 -20.78  0.001047714    1.507    0.336
        56 -11.0908    120.4329    122.7939   9.1133307852e+01   3.3728805333e+01    0.5097507    0.3289738 -15.63  0.001869754    2.884    0.653
        57 -10.9890    114.5967    129.3486   9.4206795056e+01   3.3352927148e+01     0.339224      0.28326 -13.26 0.0007337524    1.518    0.341
        58 -10.2808    109.8938    118.6355   9.2970818604e+01   3.6738322263e+01    0.2553662    0.2091132 -58.57  0.000375388    1.191    0.160
        59 -10.2900    167.4336    112.3625   7.6885078240e+01   2.5698873126e+01    0.3425383    0.2595235 -77.89  0.001497028    1.777    0.437
        60 -11.6740    118.3849    110.5889   8.8636011482e+01   3.6922865921e+01    0.6162658    0.4116004  59.62  0.002680372    1.779    0.438
        61 -10.3221    205.3212    110.1955   6.8541956082e+01   1.7280375508e+01    0.3385005    0.2444552  47.76  0.001165281    1.440    0.305
        62 -10.1729    134.6192    105.9780   8.3094621080e+01   3.4522475830e+01    0.3653377    0.1484417 -44.21   0.00124321    2.415    0.586
        63  99.0000     43.1007    221.3503   1.2334571452e+02   2.3704365051e+01    0.1861125    0.1436493  19.89  0.001229787    2.085    0.520
        64 -12.1423    160.3724     61.6299   6.3745926098e+01   3.6969878465e+01     1.109578    0.6251261  80.34  0.001507447    3.052    0.672
        65  -9.0096    168.1984    248.1295   1.0284341778e+02   7.0020513932e-01    0.1461706     0.116955  51.55            0    1.260    0.207
        66 -13.4843    177.8195     50.4409   5.6954605482e+01   3.4263350339e+01    0.8566294     0.786655  27.65 0.0008708535    1.189    0.159
        67 -10.8890    241.2351    244.5845   8.9414667234e+01  -9.9242770516e+00    0.1661146   0.08334975  27.49 0.0009514259    1.667    0.400
