#   1 NUMBER                 Running object number                                     
#   2 MAG_AUTO               Kron-like elliptical aperture magnitude                    [mag]
#   3 X_IMAGE                Object position along x                                    [pixel]
#   4 Y_IMAGE                Object position along y                                    [pixel]
#   5 X_WORLD                Barycenter position along world x axis                     [deg]
#   6 Y_WORLD                Barycenter position along world y axis                     [deg]
#   7 A_WORLD                Profile RMS along major axis (world units)                 [deg]
#   8 B_WORLD                Profile RMS along minor axis (world units)                 [deg]
#   9 THETA_WORLD            Position angle (CCW/world-x)                               [deg]
#  10 FWHM_WORLD             FWHM assuming a gaussian core                              [deg]
#  11 ELONGATION             A_IMAGE/B_IMAGE                                           
#  12 ELLIPTICITY            1 - B_IMAGE/A_IMAGE                                       
         1 -13.8161     68.1529    144.0795   1.0477913222e+02   3.7321558362e+01     3.390466     1.590605 -87.28  0.002217121    5.624    0.822
         2 -13.7771    235.4112     10.7777   3.5172185200e+01   2.5665150096e+01    0.8219039    0.7064131 -52.36  0.002596245    1.163    0.140
         3 -14.1871    216.9084     28.5714   4.0971187267e+01   2.7757323559e+01     1.460369     1.039944  32.91  0.007742237    2.005    0.501
         4  -9.6291    189.4853     15.4927   4.0613632013e+01   3.5800976483e+01    0.1331214    0.1177159 -84.75 0.0001979849    1.008    0.008
         5 -15.2649     88.3346    246.4448   1.1325573069e+02   1.2105258219e+01      7.27184     2.417146  34.57   0.03039856    3.149    0.682
         6 -15.3970      4.6174    179.6336   1.2434565932e+02   3.5653651545e+01     8.613556    0.7446555 -75.65   0.01757149    8.386    0.881
         7 -15.5256      7.6287    238.4504   1.2709667512e+02   2.3277856935e+01     7.214203     1.304101 -74.70   0.02992635    4.469    0.776
         8 -12.7807     18.1485    218.7330   1.2420403739e+02   2.6066399191e+01    0.4751657    0.3637982  83.63   0.00144925    1.100    0.091
         9 -14.4353      9.6227    207.8613   1.2514214268e+02   2.9125909936e+01      1.08946    0.9533508 -78.98  0.002274103    1.369    0.270
        10 -11.7141     62.3894    236.8048   1.1726492506e+02   1.7382374186e+01    0.4776727    0.2282408  78.83  0.002293422    2.674    0.626
        11 -11.3073     54.1692    231.7498   1.1839832111e+02   1.9396612893e+01    0.3156288    0.1539824  74.91  0.001064428    2.293    0.564
        12 -13.0435     27.3873    210.2751   1.2189838917e+02   2.6849469339e+01    0.4813693    0.3300541 -56.29   0.00104405    1.794    0.442
        13 -10.8250    192.9112    193.5090   8.4408725736e+01   4.5620452622e+00    0.6276452    0.3783346 -58.36  0.002765657    2.578    0.612
        14 -11.8257     56.8813    181.6199   1.1297179120e+02   2.9768793872e+01    0.4036269    0.2912171 -36.15  0.001461733    1.973    0.493
        15 -11.7384     62.7068    175.6753   1.1087741173e+02   3.0404296658e+01    0.3009357    0.2484155 -52.73 0.0008972091    1.354    0.262
        16 -11.2670     73.1551    165.4972   1.0691391219e+02   3.1397149275e+01    0.2818113     0.240504 -68.80 0.0004214673    1.115    0.103
        17 -13.3508     79.5150    158.3922   1.0418387270e+02   3.2188389277e+01     2.106227    0.9157645  58.61  0.001523199    3.637    0.725
        18 -15.4755     37.6611    198.7381   1.1892234208e+02   2.8199013333e+01     3.589441     1.719683  72.98    0.0152831    2.270    0.559
        19  -9.7308     98.8248    140.8135   9.5808973156e+01   3.3372770353e+01    0.3564014    0.2434566 -21.10  0.001149187    2.225    0.551
        20 -11.8966     29.6381    143.3049   1.1502714857e+02   4.1967056342e+01     0.367437    0.2633365 -45.84  0.002139915    1.543    0.352
        21 -11.9130     83.7026    142.9043   1.0032943135e+02   3.5335761516e+01    0.2992907    0.2485328 -54.06 0.0004292098    1.161    0.139
        22 -10.3567     95.6433    144.4313   9.7399940207e+01   3.3034875961e+01    0.3023922    0.2729439 -82.49 0.0009347325    1.085    0.078
        23 -10.2265     75.0002    135.9842   1.0141417929e+02   3.8351897042e+01    0.2675561    0.1889373  62.08 0.0005594653    1.625    0.385
        24 -10.9944     71.5138    133.4791   1.0191859066e+02   3.9473533993e+01    0.2709447    0.1754881 -71.43 0.0008154376    1.559    0.359
        25  -9.2346    158.8439    134.9776   7.9220357908e+01   2.2886983440e+01    0.2625741    0.1829894 -71.67  0.001076976    2.050    0.512
        26 -10.7219    107.1025    131.7268   9.1584948270e+01   3.4094440582e+01    0.4229229    0.3884165  52.93  0.001480384    1.130    0.115
        27 -13.3399     59.8474    162.0065   1.0974216530e+02   3.4036940754e+01     0.518025    0.3006376 -46.00  0.001473386    1.991    0.498
        28 -11.7780     32.4558    156.3407   1.1587429736e+02   3.8537832661e+01    0.3648449    0.2313847 -85.66  0.001451667    1.414    0.293
        29 -10.6902     94.8938    128.5388   9.4255415218e+01   3.7025388867e+01    0.3096558    0.2625002  -8.80 0.0007250371    1.446    0.308
        30 -11.4486     66.1932    127.3540   1.0226469169e+02   4.1728576243e+01    0.3757772    0.2493048 -75.87  0.001603589    1.596    0.373
        31  -9.7185    114.8043    125.7832   8.8093458390e+01   3.4057745851e+01    0.2612951    0.1714394 -10.43 0.0009515203    2.803    0.643
        32  -9.6484    105.6352    120.1907   8.9270419259e+01   3.7113892977e+01    0.2098577    0.1807355 -43.27 0.0004556482    1.127    0.112
        33  -9.5004    168.1658    113.2885   7.1614434697e+01   2.5393596854e+01    0.2975916    0.2000237 -65.97  0.001088348    2.023    0.506
        34  -9.9240    204.9083    110.4272   6.3488278037e+01   1.7657205579e+01    0.3406903    0.2171753  33.15  0.001483116    1.946    0.486
        35  -8.8000    174.6874    149.3230   7.9016955552e+01   1.6521353862e+01    0.1508351    0.1229659 -84.63 0.0003051524    1.657    0.396
        36  -9.2093     24.9349     82.7149   1.0638419864e+02   5.6956932310e+01     0.166643    0.1484413 -49.68 0.0003456045    1.098    0.089
        37  -9.4330    161.2966     81.6734   6.4342009349e+01   3.3197449313e+01    0.1583576     0.119966 -70.54 0.0004466324    1.630    0.386
        38 -10.1856    134.2937    147.0687   8.7947805233e+01   2.5282193429e+01    0.4747281    0.1391058 -52.62  0.001334725    3.825    0.739
        39 -10.4593     13.3718     60.2373   1.0551530077e+02   6.2785623936e+01    0.2133451    0.1794443 -54.78 0.0004744546    1.144    0.126
        40  -9.2955     31.3466     54.0196   9.6186689245e+01   6.2627903219e+01    0.1764948    0.1402451 -41.26 0.0005541967    1.082    0.076
        41 -11.9334    198.4491     46.7116   4.7859174806e+01   2.9756932389e+01    0.5522243    0.3566447 -67.11  0.002623868    1.748    0.428
        42  -8.5533     30.2786     46.6762   9.4197125507e+01   6.4181634109e+01    0.1097699   0.09736619 -76.25 0.0002372523    1.587    0.370
        43 -11.3364    134.1773     41.0720   5.7434728347e+01   4.6387691642e+01    0.7449703    0.4292881 -76.26  0.002493971    4.007    0.750
        44 -10.1672     95.1304     41.9717   6.7912027008e+01   5.5016574945e+01    0.3380852    0.1795236 -42.39  0.001147784    2.056    0.514
        45 -11.8788     52.7794    241.0507   1.1937155688e+02   1.7795195898e+01    0.3232079    0.2290656 -41.64   0.00170979    2.382    0.580
        46 -12.6327    206.1970     36.8507   4.4260072841e+01   2.9228035749e+01    0.5592078     0.432981  20.83  0.002104626    1.808    0.447
        47 -13.3204     40.4269    235.2362   1.2119880244e+02   2.0379327364e+01    0.9990556    0.4509201  74.35  0.002411704    2.362    0.577
