#   1 NUMBER                 Running object number                                     
#   2 MAG_AUTO               Kron-like elliptical aperture magnitude                    [mag]
#   3 X_IMAGE                Object position along x                                    [pixel]
#   4 Y_IMAGE                Object position along y                                    [pixel]
#   5 X_WORLD                Barycenter position along world x axis                     [deg]
#   6 Y_WORLD                Barycenter position along world y axis                     [deg]
#   7 A_WORLD                Profile RMS along major axis (world units)                 [deg]
#   8 B_WORLD                Profile RMS along minor axis (world units)                 [deg]
#   9 THETA_WORLD            Position angle (CCW/world-x)                               [deg]
#  10 FWHM_WORLD             FWHM assuming a gaussian core                              [deg]
#  11 ELONGATION             A_IMAGE/B_IMAGE                                           
#  12 ELLIPTICITY            1 - B_IMAGE/A_IMAGE                                       
         1 -10.5748    159.5384     11.9898   6.0626129257e+01   4.3568157753e+01    0.2371227    0.1402998 -15.89  0.001154686    2.192    0.544
         2 -12.1730     56.4434      2.8011   8.0857419930e+01   6.7927820311e+01    0.4373205    0.1079861  41.35  0.001656129    3.430    0.708
         3 -12.0521    192.5308    194.3253   1.0081936194e+02   4.4539937463e+00    0.9642045    0.5083701 -64.08  0.002732267    6.551    0.847
         4 -15.1588    159.6148     74.3042   7.9164565766e+01   3.5074732750e+01     4.037692     2.152905 -19.53   0.01389337    3.135    0.681
         5 -15.5104    182.7726     82.3246   7.6827934274e+01   2.7918894514e+01     14.95699     7.038465 -59.63   0.04346811    3.458    0.711
         6 -18.0263    245.3937    123.3764   7.6347579019e+01   7.0558860565e+00     12.78343     2.812481 -39.12   0.04017722    3.817    0.738
         7 -12.8165    189.3325    148.4081   9.1953231250e+01   1.3740437050e+01    0.4950152    0.3379397 -68.19  0.001905253    2.187    0.543
         8 -10.1223    155.0416    153.5163   1.0077534581e+02   1.9920362049e+01    0.2278756    0.1323555  63.94 0.0008099236    2.619    0.618
         9  99.0000    194.9670     42.4786   6.4281778840e+01   3.1094006348e+01     14.39731     3.904374  60.56   0.04944349    3.209    0.688
        10 -11.5255    133.4058    144.2865   1.0409892149e+02   2.6528080867e+01     1.152983    0.2730393 -54.59  0.002379116    7.156    0.860
        11 -11.0810    154.8598    146.8024   9.9314402473e+01   2.1422793664e+01    0.2426363    0.2155435   2.67 0.0007381637    1.259    0.206
        12 -11.0001    143.8647    145.7053   1.0175798490e+02   2.4009649858e+01    0.4236648    0.2308634 -66.02  0.001429627    2.957    0.662
        13 -12.3685    149.8394    141.1399   9.9228143095e+01   2.3749204698e+01    0.3969269    0.3015891  47.21  0.001853852    1.302    0.232
        14 -11.6695    142.5588    138.3362   1.0038452569e+02   2.5947590713e+01    0.3967216    0.3282585  -0.23  0.001867033    1.505    0.336
        15 -12.5444    168.1323    133.5163   9.3090457502e+01   2.1367798047e+01      0.57206    0.3427047  35.16  0.002326793    1.872    0.466
        16 -10.1101    100.4973    132.9613   1.1059023715e+02   3.5724079344e+01    0.2250504    0.1490224 -53.38 0.0004093133    1.486    0.327
        17 -11.0744    141.2888    121.3182   9.6535556556e+01   3.0034595597e+01    0.3276677    0.1885025  64.38  0.001159852    2.504    0.601
        18 -12.6418    118.9508    110.3970   9.9702871039e+01   3.7377349686e+01     1.227927    0.7475576  72.34  0.004232172    2.991    0.666
        19 -11.4079    113.4913     95.0196   9.6993866297e+01   4.1936073604e+01    0.3239242    0.2458872  10.10 0.0008875294    1.726    0.421
        20 -13.2857    127.2669    105.2716   9.5990363262e+01   3.6704586049e+01     1.013949    0.3872383 -50.60  0.003221135    2.914    0.657
        21 -13.8609    119.4678     94.3985   9.5086115016e+01   4.0771229475e+01     1.398182     0.651426 -59.54  0.004237821    3.654    0.726
        22 -12.0115    112.1597    104.0062   9.9929064031e+01   4.0245102380e+01    0.5246281    0.4267308 -77.62  0.001754763    1.482    0.325
        23 -12.8090    116.5215    101.9826   9.8096446511e+01   3.9772709163e+01    0.9110049    0.5402962  62.29  0.003461396    2.303    0.566
        24 -10.4868    111.7570    112.1972   1.0225190445e+02   3.8468790933e+01    0.2139253    0.1863828 -11.26 0.0007380664    1.320    0.243
        25 -12.6874    192.3871    153.1839   9.2388000959e+01   1.2173955927e+01    0.4281125    0.2679517 -49.97  0.001721726    1.728    0.421
        26 -13.9088     68.8347    145.5637   1.2233241259e+02   3.7788631607e+01    0.8658131    0.6423165  89.83  0.002842681    1.441    0.306
        27 -13.8497    191.5228     70.2346   7.2078861063e+01   2.7812668406e+01    0.9177799    0.7152822 -55.41  0.004746013    1.253    0.202
        28 -12.2296    194.4632     58.6731   6.8577534430e+01   2.8901440253e+01    0.4446276    0.2609027 -67.72  0.001609877    2.112    0.527
        29 -12.5766    205.1681     64.4912   6.8496258144e+01   2.5418027414e+01    0.3459101    0.2845907 -72.02 0.0008253471    1.167    0.143
        30 -12.8314    202.9148     60.4172   6.7789971996e+01   2.6581449362e+01    0.4317449    0.2901927  40.42  0.002065809    1.894    0.472
        31 -10.8781    212.9858     58.0948   6.5836439169e+01   2.4534009501e+01    0.3701762    0.1491761 -52.88  0.001380447    2.737    0.635
        32 -13.5049     58.6080    163.2307   1.2792544811e+02   3.4798094562e+01    0.4305349    0.3808611 -37.79 0.0009555561    1.368    0.269
        33 -15.5512     68.2020    155.7863   1.2420373507e+02   3.5328544855e+01     2.094645     1.501621 -18.61  0.004988148    2.141    0.533
        34 -12.1026    188.1306    153.6933   9.3386443751e+01   1.2949027083e+01    0.3757036    0.3025379 -71.18  0.001572673    1.606    0.378
        35 -11.0488    206.2929     25.2548   5.8607646326e+01   3.0525166550e+01    0.2437211    0.1475379  89.08  0.001240295    1.607    0.378
        36 -15.9725     24.3750    180.9940   1.3852498742e+02   3.4452068558e+01     2.665568     1.921538  44.16   0.01606429    1.394    0.283
