#   1 NUMBER                 Running object number                                     
#   2 MAG_AUTO               Kron-like elliptical aperture magnitude                    [mag]
#   3 X_IMAGE                Object position along x                                    [pixel]
#   4 Y_IMAGE                Object position along y                                    [pixel]
#   5 X_WORLD                Barycenter position along world x axis                     [deg]
#   6 Y_WORLD                Barycenter position along world y axis                     [deg]
#   7 A_WORLD                Profile RMS along major axis (world units)                 [deg]
#   8 B_WORLD                Profile RMS along minor axis (world units)                 [deg]
#   9 THETA_WORLD            Position angle (CCW/world-x)                               [deg]
#  10 FWHM_WORLD             FWHM assuming a gaussian core                              [deg]
#  11 ELONGATION             A_IMAGE/B_IMAGE                                           
#  12 ELLIPTICITY            1 - B_IMAGE/A_IMAGE                                       
         1 -10.9324     84.7826     21.8649   8.8498858111e+01   5.9100982913e+01    0.3852103     0.218486   7.46  0.001841862    2.367    0.578
         2 -10.9610    216.3864     16.8684   6.2675204735e+01   2.9414927493e+01    0.6991626    0.1622534  53.53  0.002196123    4.802    0.792
         3  -9.5669     50.3581     18.9037   9.8944322188e+01   6.4966716670e+01    0.1574979    0.1186565 -10.51 0.0003244805    1.116    0.104
         4 -10.3304     20.0130     15.7865   1.1015464598e+02   6.8836387177e+01    0.2341352    0.1604249 -30.78 0.0005144303    1.253    0.202
         5 -11.9689    131.1030     14.0511   7.4322362160e+01   5.0253256150e+01    0.4953979    0.2881294  27.24   0.00207248    2.070    0.517
         6 -12.3131     26.2613     13.5189   1.0646868000e+02   6.8535219371e+01    0.2745504    0.1887664  -0.56 0.0004535867    1.228    0.186
         7 -10.0846     99.5149     13.8865   8.1391904666e+01   5.7107777557e+01    0.1949834    0.1771468  -4.59 0.0008524996    1.184    0.156
         8 -11.0953     75.4377     17.2740   8.9575633339e+01   6.1276943299e+01    0.3152044    0.1948887   7.02 0.0007208422    1.786    0.440
         9  -9.9664    119.9188     11.7199   7.5841888821e+01   5.2991123263e+01    0.1918626    0.1491516  38.03 0.0003109916    1.152    0.132
        10  -9.3350    122.2859      8.7030   7.4325497670e+01   5.2740311953e+01    0.1608097    0.1071295 -17.75 0.0004359871    1.706    0.414
        11 -11.1578     75.1048      5.2028   8.4789855354e+01   6.2551518482e+01    0.6294333     0.239033 -23.28    0.0029913    2.748    0.636
        12 -11.1325     79.3571     10.3078   8.5586655486e+01   6.1311277367e+01    0.3399056     0.212443  16.86  0.001455388    1.615    0.381
        13 -11.7706     81.3871      6.0720   8.3296094652e+01   6.1340695223e+01    0.2484112    0.1991195   6.43  0.000259922    1.155    0.134
        14 -10.5781     61.0841     10.8779   9.1696722916e+01   6.4326488286e+01    0.3221435    0.2376341  68.71  0.001267227    2.708    0.631
        15  -9.8955     23.3394      9.3051   1.0594227839e+02   6.9374801195e+01     0.187387     0.123239 -10.16 0.0006658903    1.230    0.187
        16  -9.6606     37.1161      8.4777   9.9699430894e+01   6.7935632723e+01    0.1480061   0.09321891  25.02 0.0003336276    1.451    0.311
        17 -10.9161     10.1595      7.0122   1.1099227296e+02   7.0874441579e+01    0.3217262    0.1593928  -4.92  0.001878918    2.310    0.567
        18  -9.4675    156.2989      6.6539   6.7676036511e+01   4.5013340534e+01    0.1315065   0.09204845 -69.52 0.0007036197    1.679    0.404
        19 -10.1629    115.3097      4.4487   7.4320246299e+01   5.4640298901e+01    0.2258408    0.1687746 -10.08  0.001387888    1.496    0.332
        20  -9.1951    180.6148     10.8533   6.5408912304e+01   3.8714335400e+01    0.1646482    0.1139366 -48.78 0.0001822359    1.538    0.350
        21 -11.8530     26.6433      3.6271   1.0195206991e+02   6.9713405305e+01    0.2741501    0.1891146  21.52 0.0007692983    1.371    0.271
        22 -10.8893     31.2456      2.4323   9.9420238648e+01   6.9324520859e+01    0.2376126    0.1799242  36.67  0.001159055    1.730    0.422
        23  -9.3121    120.5233      4.5334   7.3275941761e+01   5.3489898401e+01    0.1266328    0.1075786  48.76 7.354716e-07    1.021    0.021
        24 -10.1154     98.6857      3.7505   7.7827822456e+01   5.8193391399e+01    0.3388747    0.1192533  51.98  0.001326007    2.260    0.558
        25 -10.6394     91.9781      4.0131   7.9605485728e+01   5.9508686150e+01    0.1832382    0.1445286  30.27 0.0003096877    1.056    0.053
        26 -10.3713     18.8348      3.8721   1.0556057963e+02   7.0494246472e+01    0.1554141    0.1047289  -8.37  0.000315972    1.139    0.122
        27  -9.3807    124.4559      1.4555   7.1476710224e+01   5.2864315533e+01    0.1254183    0.1068672  53.49 -2.433115e-05    1.037    0.036
        28  -9.4852     58.3591    230.2953   1.4108783285e+02   1.9949110590e+01    0.1014478   0.09558449 -39.96 0.0003785129    1.702    0.412
        29 -10.9719    246.9878    250.0099   1.0814934226e+02  -1.3955024759e+01    0.3051635    0.1923613  18.60  0.001898966    1.408    0.290
        30  -9.3397    168.6396    250.6933   1.2264269406e+02  -1.5001067438e+00     0.126787   0.09035389  17.30 0.0007039958    1.733    0.423
        31 -10.0039    127.9297    249.6549   1.3018908411e+02   5.5939182063e+00    0.1871569    0.1711599 -57.92  0.001284343    1.367    0.268
        32 -10.0083     72.6284    250.1124   1.4030209146e+02   1.4155463144e+01    0.1709675    0.1607464  39.87  0.001255399    1.582    0.368
        33 -10.4936     32.0504    249.2972   1.4706818106e+02   1.9624955708e+01    0.2835836    0.1383658 -55.93  0.001576827    2.962    0.662
        34 -11.5019     27.8134    245.9607   1.4753785055e+02   2.0743694104e+01    0.4191813    0.1556394 -74.25  0.002279527    2.405    0.584
        35 -12.2394     21.2293    248.9770   1.4877112664e+02   2.0936059319e+01    0.5136041    0.1863973  52.06  0.002921609    2.107    0.525
        36 -11.4006     14.2528    244.7692   1.4962391711e+02   2.2483524237e+01     0.362091    0.1316221 -83.09   0.00194726    2.445    0.591
        37 -10.7134     10.9658    250.3761   1.5043756967e+02   2.1803688442e+01    0.3669741    0.1030329  43.46  0.001943226    2.849    0.649
        38 -10.9163      6.0817    245.0563   1.5090565369e+02   2.3291026248e+01    0.2838946    0.1470428  77.52 0.0009228611    1.457    0.314
        39 -11.5441      8.6757    241.9194   1.5033829903e+02   2.3605308806e+01    0.4169329    0.1766335  73.88   0.00242036    2.023    0.506
        40 -11.0808    153.4198    233.6353   1.2312843717e+02   3.9723379660e+00    0.2380126    0.2022611 -14.21  0.000849643    1.547    0.354
        41 -10.4487    190.3412    226.7791   1.1476091585e+02  -1.4934610933e+00    0.2811742    0.1789086 -43.42 0.0009891512    1.787    0.441
        42  -9.8821     86.1381    233.4544   1.3622706064e+02   1.5324455096e+01    0.2353612    0.1290245  84.72  0.001151197    2.238    0.553
        43 -10.8172    115.8649    226.3965   1.2959869317e+02   1.1902524172e+01    0.3026065    0.1502932 -64.70  0.001324153    2.318    0.569
        44 -10.1584    144.2786    226.9140   1.2396483396e+02   6.8184829706e+00    0.1812272    0.1659639  66.06 0.0007052668    1.086    0.079
        45 -10.2955    129.9263    226.7772   1.2683207006e+02   9.3963480151e+00    0.3722558    0.1714672  55.24   0.00159287    2.251    0.556
        46 -10.3188     88.1257    227.1360   1.3515660396e+02   1.6269668448e+01    0.1812694    0.1691768  65.79  0.001226175    1.286    0.222
        47 -10.4645     66.4379    226.4097   1.3922566033e+02   1.9618254590e+01    0.2592981    0.1598735  49.33  0.001002871    1.448    0.309
        48 -10.4322    180.8642    224.1340   1.1618930511e+02   6.5645523257e-01    0.2228438    0.1809346 -31.83 0.0006843321    1.400    0.286
        49 -10.2769     81.4017    224.5642   1.3617608776e+02   1.7814681154e+01     0.249945    0.1617077  89.43  0.001085614    1.542    0.351
        50 -10.7978     13.1462    222.1219   1.4844080876e+02   2.6966166649e+01    0.1856046    0.1468693 -87.48 0.0003821932    1.255    0.203
        51 -11.1385    141.4113    221.3913   1.2372675420e+02   8.3710660737e+00    0.2969953    0.2343438  17.89  0.001393107    1.644    0.392
        52 -11.0191    123.2241    221.4923   1.2745291295e+02   1.1594025212e+01     0.315993    0.2251641  55.32 0.0009432994    1.236    0.191
        53  -9.4518     51.4895    222.5634   1.4165749696e+02   2.2421993238e+01    0.1209453    0.0939993  77.00 0.0001197384    1.027    0.026
        54  -9.8661    174.1285    219.9039   1.1683373543e+02   2.6247973370e+00    0.2060063    0.1746181  58.97 0.0005997655    1.228    0.186
        55  -9.7635    250.3143    219.0831   1.0215565205e+02  -1.0424883489e+01    0.1726037    0.1394166 -11.62 0.0005994463    1.122    0.109
        56 -10.3325    181.3362    247.3230   1.1975028770e+02  -3.1527550319e+00    0.1278847   0.09052394  14.19 0.0007050788    1.713    0.416
        57  -9.5058     50.3391    218.3047   1.4148648777e+02   2.3448196049e+01    0.1054883   0.09262118 -49.56 0.0007040302    1.676    0.403
        58 -10.8634     10.0493    217.0529   1.4864275276e+02   2.8295489949e+01    0.2721229    0.1533025  66.66 0.0008630385    1.438    0.305
        59 -10.4048    191.5252    216.9494   1.1284224782e+02  -7.1317649792e-02    0.2267735    0.1784052  19.40 0.0008956875    1.303    0.233
        60  -9.3871     37.5693    217.4651   1.4378532153e+02   2.5203926466e+01     0.118916   0.08976219  80.97 0.0001543467    1.016    0.016
        61  -9.9846     24.5804    216.9136   1.4609145275e+02   2.6803207216e+01    0.2406433    0.1073637  57.13  0.001330733    1.952    0.488
        62 -10.4853    201.3950    215.9763   1.1072156672e+02  -1.7066497980e+00    0.2309533    0.1697646  24.03   0.00126867    1.339    0.253
        63 -10.0493     31.1017    215.8487   1.4483559393e+02   2.6292206962e+01    0.1937046    0.1239101  73.56  0.001146905    1.265    0.210
        64  -9.2640    179.6671    215.7011   1.1500247320e+02   2.3391448138e+00    0.1379004    0.1031197  11.51 0.0007031665    1.648    0.393
        65  -9.5716    137.1860    215.6355   1.2372754823e+02   1.0251930467e+01    0.1990937    0.1199534  35.19 0.0009447424    1.731    0.422
        66 -10.3425    208.9764    212.1527   1.0854931408e+02  -2.4445059447e+00     0.211775    0.1902287 -15.50 0.0005011735    1.140    0.123
        67  -9.5240    170.4059    213.1961   1.1645904021e+02   4.5270284229e+00    0.1781292     0.134049 -62.32 0.0008517203    1.609    0.378
        68  -9.5414    142.8228    213.2140   1.2217920462e+02   9.6923271382e+00    0.1802942    0.1612435  17.01 0.0004770532    1.333    0.250
        69 -10.9155     20.7005    211.6474   1.4639592225e+02   2.8304745682e+01    0.3025025    0.1559626  72.81 0.0009466158    1.718    0.418
        70  -9.5031    212.8998    211.8954   1.0774271676e+02  -3.1054424794e+00      0.16793     0.158499  61.29 0.0005440208    1.306    0.234
        71 -11.9690      4.3122    207.2579   1.4900437913e+02   3.0839241846e+01     0.450323     0.247371  83.09  0.002891109    1.432    0.302
        72  -9.8821    223.2954    201.3187   1.0375825347e+02  -3.2360125166e+00    0.3198484    0.2315318 -89.05  0.001406008    3.108    0.678
        73  -9.2172    238.5176    201.4506   1.0095156882e+02  -5.9106251949e+00    0.1331935     0.113292   3.64  0.000131391    1.050    0.048
        74  -9.6645    218.2690    201.3666   1.0472692530e+02  -2.3390216035e+00    0.1392288   0.09943493  -1.78 0.0006995277    1.660    0.398
        75  -9.2442     34.6624    200.7431   1.4288523543e+02   2.9074639825e+01    0.1028781    0.0888387 -53.79 0.0002473767    1.576    0.365
        76 -10.2956    227.2683    196.8117   1.0213259355e+02  -3.2056761766e+00    0.2773678    0.1992202  11.98 0.0008322463    1.530    0.346
        77 -11.6690    192.2268    194.7863   1.0862294132e+02   3.7311773601e+00    0.3557193    0.2945642 -71.50   0.00190271    1.549    0.354
        78  -9.6544    202.9082    196.0713   1.0671303896e+02   1.4354696829e+00     0.201773    0.1927768  67.13 0.0006913105    1.212    0.175
        79 -11.1792    215.4378    194.0833   1.0385734626e+02  -5.8274944355e-01    0.3693205    0.1837202 -39.12  0.001629444    2.056    0.514
        80 -10.0079    163.0000    191.4808   1.1414254486e+02   1.0154674441e+01    0.3105758   0.08396151 -47.87 0.0009362884    3.947    0.747
        81  -9.3455     56.6580    197.6902   1.3817186967e+02   2.7041237941e+01    0.1159735   0.09645583 -42.90 0.0007044851    1.695    0.410
        82  -9.6328    250.4714    190.0129   9.6570070051e+01  -6.1355395614e+00    0.1961891    0.1187586 -34.75 0.0004776399    1.557    0.358
        83  -9.4123    205.5933    190.2304   1.0503186371e+02   1.9670265215e+00     0.187783    0.1317114 -27.22 0.0005056208    1.545    0.353
        84 -10.4736    225.8975    188.9381   1.0083142163e+02  -1.6391802247e+00    0.3071819    0.1734045  16.40  0.001216402    2.835    0.647
        85 -10.9507    232.5649    191.3079   1.0005733463e+02  -3.2444866006e+00    0.3161134    0.2025888  22.20  0.001567603    1.748    0.428
        86 -10.3635    167.8662    184.0982   1.1168142988e+02   1.0677017446e+01    0.4489655    0.2385848  64.23  0.001547785    3.200    0.687
        87  -9.4515     61.6183    184.8295   1.3561171967e+02   2.9265311911e+01    0.1910261    0.1090755 -80.68 0.0009495818    1.714    0.417
        88 -11.7822     16.2733    183.2259   1.4495673931e+02   3.4810803460e+01    0.4036921    0.1981602 -89.05  0.001894423    1.821    0.451
        89  -9.8936    236.4745    182.4843   9.7561014470e+01  -2.4769142204e+00    0.1359562    0.1233179  -5.96 0.0008098829    1.015    0.015
        90 -10.4610      2.1396    180.1265   1.4749166018e+02   3.6740683192e+01    0.1881561     0.134622  73.53 0.0005423331    1.207    0.172
        91 -11.3666    244.6367    177.9235   9.5160197166e+01  -3.1776629131e+00    0.3108784    0.1586459 -26.20    0.0013459    2.199    0.545
        92  -9.5518     36.0927    178.5085   1.4039936305e+02   3.3830013079e+01    0.1567622    0.1165299  46.14 0.0005134744    1.462    0.316
        93 -10.5442    200.1475    176.8189   1.0340592252e+02   5.5329398061e+00    0.2032886    0.1698237   6.43 0.0006163524    1.322    0.244
        94  -9.4445     70.2019    177.5996   1.3274653684e+02   2.9738443289e+01     0.157938    0.1306405  30.59 0.0004920889    1.511    0.338
        95  -9.5021    211.2798    175.3492   1.0086998171e+02   3.5731130590e+00    0.1471409    0.1100494  -2.34 0.0007011574    1.644    0.392
        96 -11.3605    224.2755    178.3473   9.8981491196e+01   4.9987185680e-01    0.2866568     0.270654  15.57 0.0005334214    1.066    0.062
        97  -9.8023    183.3289    173.3228   1.0617871269e+02   9.6790884335e+00    0.1532081    0.1179973   4.11 0.0004005547    1.694    0.410
        98 -11.3440    248.7740    182.5262   9.5367801251e+01  -4.6549776048e+00    0.4517494    0.2417577  17.37  0.001788507    3.144    0.682
        99  -9.6122     59.6081    171.7419   1.3436361033e+02   3.2548251493e+01    0.1895152    0.1115088 -78.98 0.0009448631    1.635    0.388
       100  -9.7249     74.4996    171.4862   1.3087694580e+02   3.0542801339e+01    0.1372853    0.1198105 -86.76  8.87295e-05    1.025    0.024
       101  -9.6297    193.3550    172.3247   1.0386215019e+02   7.7938238080e+00    0.1555228    0.1159526   5.93 0.0007046285    1.767    0.434
       102  -9.8600      4.5306    168.0137   1.4602627662e+02   3.9180497483e+01    0.1863794   0.08796595 -76.10  0.001041258    1.621    0.383
       103  -9.7964    209.8673    166.2079   9.9210325004e+01   5.5711469285e+00    0.2033705     0.169953   3.86 0.0005502163    1.325    0.245
       104 -10.2120     41.3134    165.6176   1.3776065217e+02   3.6198337863e+01    0.1983033    0.1235433  73.27 0.0006503321    1.671    0.402
       105  -9.2446     21.6513    166.6856   1.4226795492e+02   3.7981580388e+01    0.1176571   0.08040689 -48.99  1.20817e-05    1.723    0.420
       106 -10.6750     52.8264    163.1447   1.3476943749e+02   3.5419446737e+01    0.5642706    0.2814303 -34.44  0.001966847    4.823    0.793
       107  -8.9601    229.4902    164.5280   9.5096028190e+01   1.9572445727e+00    0.1424914    0.1305596  -9.07 0.0001004021    1.039    0.038
       108  -9.5006      9.7230    165.3237   1.4469808069e+02   3.9348197766e+01    0.1197833   0.07081121  77.17 0.0002263238    1.584    0.369
       109  -9.4012    200.0529    162.9653   1.0047966642e+02   8.2332924162e+00    0.1793743    0.1684469  36.31 0.0004328482    1.060    0.057
       110 -10.6385     36.5163    160.9938   1.3829190870e+02   3.7792229330e+01    0.5182914    0.1236697 -61.41  0.001956969    3.121    0.680
       111 -11.4098    246.5108    162.4716   9.1614726188e+01  -9.0813277588e-01     0.220909    0.2170004  39.08   0.00137865    1.181    0.153
       112 -11.1248    247.7928    158.8088   9.0618511471e+01  -5.1598326301e-01    0.2854038    0.2696545  89.76  0.001665241    1.305    0.233
       113  -9.9195    238.5889    158.1910   9.2089488542e+01   1.3266290175e+00    0.2093236    0.1253244 -26.69  0.000949255    1.784    0.440
       114  -9.8956     48.7646    158.6184   1.3510914428e+02   3.6970228346e+01    0.1775863    0.1105046  49.91 0.0009537986    1.683    0.406
       115 -10.0619      9.2198    158.4122   1.4414810060e+02   4.0929499971e+01    0.2884378   0.09514604  33.37   0.00138543    3.276    0.695
       116 -11.0111     22.2687    155.8815   1.4096244429e+02   4.0376765718e+01    0.3437642    0.2601836  51.25  0.002281028    1.444    0.308
       117  -9.0851    235.6642    154.7026   9.1855993644e+01   2.5149835961e+00    0.1441313    0.1080842   4.36 0.0007031395    1.652    0.395
       118  -9.5096    216.9894    155.0000   9.5377023327e+01   6.2281378772e+00    0.2417128   0.08355576  47.16 0.0008076537    2.979    0.664
       119 -10.0775    205.4057    152.3247   9.7047242997e+01   9.1847888803e+00    0.2951007    0.1426894 -36.33   0.00112937    2.155    0.536
       120 -10.0266    197.1909    153.6118   9.8999664009e+01   1.0697775403e+01    0.2215563    0.1400588  36.56 0.0009550029    1.703    0.413
       121  -9.3180    151.6712    153.3243   1.0896652596e+02   2.0661594875e+01    0.1613484    0.1220826  85.63 0.0007049835    1.698    0.411
       122 -10.2500     11.6368    152.6990   1.4303331065e+02   4.2014924622e+01    0.4111724     0.127564  38.93  0.001916389    3.274    0.695
       123 -10.3989    178.1958    151.4196   1.0253233450e+02   1.5300831454e+01    0.3352004    0.2732775  78.27  0.001609077    1.462    0.316
       124  -9.5982     46.1488    151.1364   1.3469088259e+02   3.9029578994e+01     0.177078    0.1334434  77.99 0.0004097235    1.322    0.244
       125  -9.5082     92.8232    148.1676   1.2241790677e+02   3.3216748738e+01    0.1963702    0.1723736 -34.07  0.001069943    1.328    0.247
       126  -9.3455    233.5220    146.9698   9.0543935792e+01   4.3383949030e+00    0.2233454    0.1338915 -37.37  0.000901149    1.569    0.363
       127 -10.3340    206.9906    145.9744   9.5296849930e+01   1.0088409672e+01     0.226549    0.2236837  14.22 0.0006628996    1.029    0.028
       128 -11.2447      9.0297    145.3889   1.4285230071e+02   4.3864492081e+01    0.3811924    0.1694003  45.14  0.002034976    2.484    0.597
       129 -10.5528      3.1373    143.3664   1.4400169660e+02   4.4749211421e+01    0.2047764    0.1217089 -66.98 0.0006833164    1.306    0.234
       130 -10.4221    212.3567    141.8630   9.3311334758e+01   9.7269613495e+00    0.3948331    0.2833849  16.86  0.001773399    1.890    0.471
       131  -9.4945     38.0220    142.2187   1.3542713461e+02   4.2001833093e+01    0.1502418    0.1058801  32.62 0.0008765513    1.698    0.411
       132  -9.6549     49.9449    141.5328   1.3229126814e+02   4.0853118814e+01    0.1716695    0.1139674 -12.72 0.0008092596    2.665    0.625
       133 -10.5890    236.3550    138.8751   8.8250211043e+01   5.2383204769e+00    0.2488564    0.2302954 -76.18 0.0005040693    1.208    0.172
       134 -10.9972     57.5787    138.5574   1.2981961002e+02   4.0636109529e+01    0.3205825    0.2194491  75.88 0.0006648797    1.723    0.420
       135  -9.0372     16.6557    139.6841   1.4038205638e+02   4.4555004217e+01      0.12236    0.0759744 -46.85 0.0003887643    1.716    0.417
       136 -11.4619      2.7942    136.9753   1.4340391378e+02   4.6197044670e+01    0.3907548    0.1363495 -64.82  0.001132472    2.047    0.511
       137 -11.9919      9.0367    136.7917   1.4188609646e+02   4.5797782472e+01    0.2233937    0.1729639 -66.25 0.0002651129    1.127    0.113
       138 -10.5943      6.2901    133.6921   1.4219322434e+02   4.6689838177e+01    0.2206658    0.1509768 -83.51 0.0002654853    1.221    0.181
       139 -10.2635     21.8706    136.1188   1.3864021744e+02   4.4934885118e+01    0.1915842    0.1424161  84.79 0.0009351908    1.306    0.234
       140  -9.8417    138.0177    135.4622   1.0819844366e+02   2.7594518249e+01     0.240043    0.1533873  42.31   0.00102442    1.598    0.374
       141 -10.0222     40.5879    135.5175   1.3376692993e+02   4.3299620159e+01    0.2078533    0.1291518  31.24  0.001011964    1.915    0.478
       142 -12.2345     36.6405    130.7234   1.3405456001e+02   4.4818829582e+01    0.3968508    0.2948951 -71.93  0.001928692    1.136    0.120
       143  -9.9848     73.9408    129.4639   1.2374005955e+02   4.0592457775e+01     0.219363    0.1741772 -59.99 0.0006378548    1.132    0.116
       144 -10.2639    249.6209    130.0623   8.4091984223e+01   4.1535199167e+00    0.2268664     0.201081  85.51  0.001095196    1.323    0.244
       145  -9.3906    243.1638    128.3925   8.4764953596e+01   5.7440516967e+00    0.1785873    0.1375449  68.84 0.0005276471    1.562    0.360
       146  -9.4157     60.1727    128.4557   1.2731563094e+02   4.2694083526e+01    0.1695603    0.1238853  53.23 0.0004034407    1.533    0.348
       147 -10.0063      1.7376    126.5806   1.4248504267e+02   4.8577590169e+01    0.1996606    0.1198048  84.21  0.001190269    1.701    0.412
       148 -10.2975    219.6372    124.4645   8.7914811543e+01   1.1469087674e+01    0.2666508    0.2460983 -22.09 0.0006051579    1.126    0.112
       149 -11.4200     10.4092    122.6547   1.3978063864e+02   4.8875274251e+01    0.2834973    0.2621279 -23.74  0.001740451    1.373    0.272
       150 -11.5918     16.9300    117.5178   1.3732175876e+02   4.9555246830e+01    0.4474774    0.2246325 -45.57  0.002398427    1.936    0.484
       151 -10.4485      9.9982    102.2720   1.3691551875e+02   5.3416335647e+01    0.3157917    0.1856418  64.38  0.001737773    2.410    0.585
       152 -10.2034     20.1429    112.8252   1.3571290996e+02   5.0363711790e+01    0.2293198    0.1357878 -57.79 0.0006928103    1.333    0.250
       153 -12.3634     16.7756    108.3710   1.3594942589e+02   5.1609893378e+01    0.3696944    0.3045758 -74.21  0.002573444    1.119    0.106
       154  -9.4421     20.5412    121.5230   1.3694105515e+02   4.8371695686e+01    0.1235771   0.09721193 -66.35 0.0001021048    1.020    0.019
       155  -9.5608    221.6332    120.1379   8.6542556404e+01   1.1842397335e+01    0.2143533    0.1363166 -29.29 0.0008633191    1.720    0.419
       156  -9.5397     54.6439    117.6979   1.2679059599e+02   4.5882405726e+01    0.1366888   0.09405844 -31.82 0.0007038543    1.711    0.415
       157  -9.9534    179.1320    116.3743   9.3927530150e+01   2.2410768472e+01    0.2227607    0.1928857  57.95 0.0006413931    1.164    0.141
       158 -11.4408     35.9122    111.0641   1.3091368967e+02   4.9403963948e+01    0.5226359    0.2448306 -58.83  0.001736871    1.709    0.415
       159  -9.8033     66.6917    113.0072   1.2233718686e+02   4.5435514465e+01    0.1901401    0.1545396 -57.90 0.0002072061    1.101    0.091
       160  -9.4656      5.5371    113.5257   1.3983534046e+02   5.1228374161e+01    0.1792932   0.09301087  40.93  0.001020038    2.347    0.574
       161  -8.8920    212.6976    112.3255   8.6285736760e+01   1.5334689205e+01    0.1559356    0.1152464 -72.19 0.0004467511    1.640    0.390
       162 -10.0961     55.3949    109.8017   1.2495822957e+02   4.7603404631e+01    0.2693751    0.1563686  -3.55  0.001090805    3.409    0.707
       163  -9.7817     42.5134    110.4582   1.2887762260e+02   4.8887477315e+01    0.1298771    0.1089619 -57.47 0.0002817877    1.012    0.011
       164  -9.3719    167.3993    109.1912   9.4652462897e+01   2.6657157453e+01    0.2208115    0.1458656 -52.55 0.0007539042    1.586    0.369
       165  -9.6184    117.1699    108.8178   1.0699313507e+02   3.7888833000e+01    0.2004518    0.1754238  -9.46            0    1.309    0.236
       166 -10.1139    242.1578    108.3791   8.0420176405e+01   9.5171811437e+00     0.194472    0.1357581  71.94  0.000617269    1.715    0.417
       167  -9.6699    133.1677    107.8136   1.0251258160e+02   3.4768386430e+01    0.2158924    0.1881986  -3.02  0.000759006    1.346    0.257
       168 -12.3859     61.9822    107.2694   1.2245438905e+02   4.7360921134e+01    0.2845949    0.2240675 -52.17 0.0004234652    1.114    0.102
       169 -11.4286     23.9930    107.1016   1.3366189677e+02   5.1339480138e+01    0.2816232    0.2026083  60.72  0.001145485    1.732    0.423
       170 -10.3939      6.3904    106.2114   1.3855300046e+02   5.2782562630e+01    0.2830808     0.138887 -55.21 0.0008147207    1.565    0.361
       171 -10.8666      2.8313    105.1711   1.3939902651e+02   5.3221816785e+01     0.313404    0.1553181 -78.36  0.001517063    1.893    0.472
       172 -10.4158     76.4348    107.0536   1.1811760964e+02   4.5411529273e+01    0.2179921    0.1263167 -53.04 0.0004611285    1.567    0.362
       173  -9.8102    223.3248    103.9938   8.2432025251e+01   1.4449995787e+01    0.2131657    0.1773891 -46.98 0.0004970455    1.128    0.113
       174 -11.3222     70.3225    102.4061   1.1882486006e+02   4.7332244689e+01    0.3687717    0.2719485   5.07  0.001196817    1.759    0.431
       175 -10.2768    247.5339    102.4829   7.8281684181e+01   9.4098955356e+00    0.1413621    0.1259307 -52.46 0.0001069834    1.002    0.002
       176 -10.3499     36.0003    101.3597   1.2902132439e+02   5.1570467731e+01     0.251678    0.1914273  32.61  0.001570186    1.562    0.360
       177  -9.7492    120.0417    101.1896   1.0418456744e+02   3.8954730445e+01    0.2459658     0.175792  12.68  0.000838762    1.989    0.497
       178  -9.3914     91.5467    101.4327   1.1227079574e+02   4.4259363170e+01       0.1435    0.1329821 -33.27 8.939944e-05    1.047    0.045
       179 -10.2475     27.8737    100.9633   1.3140019302e+02   5.2381821075e+01    0.1781188    0.1440617 -53.03  0.000311066    1.048    0.046
       180 -10.9756      3.6577    100.6276   1.3848902599e+02   5.4159309319e+01    0.2339393    0.2189472 -87.43  0.000879652    1.253    0.202
       181 -12.1854     50.5308     99.3491   1.2414903831e+02   5.0513432116e+01     0.231546    0.2024465 -52.38 0.0002734275    1.029    0.028
       182 -11.4249     20.8213     95.5104   1.3251258568e+02   5.4136031380e+01    0.6470653    0.1335566 -63.73  0.002184873    4.110    0.757
       183 -10.7511     63.6676     98.5386   1.1991704129e+02   4.9089903342e+01    0.4643939    0.2065752  24.84  0.001875399    3.031    0.670
       184 -10.7591     38.7023     96.0290   1.2708511780e+02   5.2486026745e+01    0.2058397    0.1827935  43.18 0.0003988224    1.352    0.261
       185 -10.2319      3.4598     85.9900   1.3615012475e+02   5.7288418512e+01    0.2504545    0.1959212   3.46  0.001821053    1.604    0.376
       186 -10.8096      8.1678     95.0399   1.3626742854e+02   5.5096646088e+01    0.2597188    0.1764986 -38.16  0.001224395    1.448    0.309
       187 -11.3027     11.1265     91.0082   1.3466449068e+02   5.5775721312e+01    0.2903457    0.2025389   4.75  0.001081962    1.827    0.453
       188 -10.1459      7.0401     88.7536   1.3552476819e+02   5.6504126099e+01    0.1730001     0.132646 -64.21 0.0003013889    1.096    0.088
       189 -10.3862      1.5989     93.8254   1.3802991899e+02   5.5733384254e+01    0.3163011   0.06807416 -59.10  0.001354424    2.726    0.633
       190  -9.8714    227.0722     93.3015   7.9282530134e+01   1.5510010398e+01    0.1992781     0.181924  86.97 0.0004054065    1.100    0.091
       191  -9.3802     70.0480     91.6881   1.1622302360e+02   4.9708270995e+01     0.182374    0.1688406 -28.24 0.0006298762    1.055    0.052
       192  -9.5488    171.2479     91.0149   8.8976974815e+01   2.9320462283e+01    0.2074217    0.1320431 -39.59 0.0008860113    1.588    0.370
       193 -10.8142     96.2434     90.3242   1.0788729669e+02   4.5812521202e+01    0.3491271    0.2064641  -8.17  0.001151853    4.000    0.750
       194  -9.4236     73.0081     88.6978   1.1450694996e+02   4.9918136137e+01    0.1753959    0.1663322  -0.49 0.0002721621    1.108    0.097
       195 -10.1941     49.1951     87.9547   1.2190229104e+02   5.3135143652e+01    0.2452164    0.1642426 -66.03 0.0004006595    1.605    0.377
       196 -10.9088     46.5096     82.8529   1.2151239572e+02   5.4504297755e+01    0.5648236    0.2415042 -52.86  0.002613003    1.975    0.494
       197 -10.3971     24.2812     85.5330   1.2942479694e+02   5.6008327365e+01    0.2831683    0.1712978 -26.89  0.001612184    1.854    0.461
       198 -11.1286     67.4163     84.6932   1.1519333527e+02   5.1547819064e+01    0.2525666     0.202213 -29.33 0.0006138152    1.192    0.161
       199 -10.9582    118.1042     83.1682   9.9603578830e+01   4.3026936531e+01    0.3329045    0.2704878  -7.30 0.0009979716    1.428    0.300
       200 -11.8702     19.2106     81.3958   1.3020098758e+02   5.7257579109e+01    0.5786895    0.3282073  14.05  0.002062273    2.206    0.547
       201 -11.0533     23.6505     79.0039   1.2820353973e+02   5.7421843434e+01    0.2973974   0.09315287 -50.81  0.001330529    2.313    0.568
       202  -9.5109    133.4636     82.0506   9.5232312779e+01   3.9925799846e+01      0.23529    0.1481396 -38.10  0.001034986    1.612    0.380
       203 -11.0493     85.2727     80.9072   1.0850068346e+02   4.9612357144e+01    0.3085705     0.220166 -40.33 0.0008906497    1.310    0.236
       204 -12.1377     72.0720     78.4949   1.1196478829e+02   5.2148516541e+01    0.5356715    0.4160427 -19.12  0.001067278    1.329    0.248
       205 -11.2819     77.8526     71.9170   1.0815670402e+02   5.2559363648e+01    0.4457915    0.2663298  39.23  0.001038667    1.784    0.439
       206 -10.1981      2.4196     71.7615   1.3380840747e+02   6.0267544469e+01    0.2564311    0.1359707 -53.18  0.001082753    1.369    0.270
       207 -11.1643      7.9957     73.7207   1.3232521393e+02   5.9564920531e+01    0.3085044    0.1961612  11.81  0.002015631    1.935    0.483
       208 -12.1958      3.1093     77.5675   1.3471834932e+02   5.9052776435e+01    0.3275036    0.2392627 -70.12  0.002288502    1.282    0.220
       209 -11.3470      7.0847     76.7320   1.3324511027e+02   5.9004358573e+01    0.2516038    0.1720116 -65.39  0.001341979    1.282    0.220
       210  -9.5799     92.8202     78.8574   1.0558971810e+02   4.8729896298e+01    0.3075119    0.1581813 -26.99   0.00117262    2.707    0.631
       211  -8.9096     81.3250     79.2515   1.0924512024e+02   5.0582650117e+01     0.134908    0.1020957  -5.66 0.0002594807    1.543    0.352
       212 -11.5862    151.0087     78.4958   8.9953738115e+01   3.6528459073e+01    0.2994146    0.2693462 -67.56 0.0004341239    1.184    0.156
       213 -10.1550     29.9661     81.8609   1.2674970879e+02   5.6313169911e+01    0.1809489    0.1478044 -49.16 0.0005080987    1.033    0.032
       214 -12.3085     61.8171     73.1624   1.1378514239e+02   5.4631903958e+01    0.6146137    0.3989629 -24.12  0.002592442    1.673    0.402
       215 -10.3100     54.5590     72.4130   1.1601455812e+02   5.5699755126e+01    0.2080282    0.1928186 -72.39 6.321975e-05    1.339    0.253
       216 -10.1325    121.6340     76.1439   9.6552563009e+01   4.3616306727e+01    0.2105669    0.1371334 -29.24 0.0009474715    1.670    0.401
       217 -10.6691    108.2968     75.5313   1.0004267374e+02   4.6471670262e+01    0.3712279    0.2441664 -16.66  0.001402132    2.000    0.500
       218 -11.1523     48.2249     74.6242   1.1878323219e+02   5.5998967197e+01    0.3142889    0.2763792  88.73  0.001687432    1.533    0.347
       219 -11.5595     47.3911     70.3898   1.1789845716e+02   5.6932029726e+01    0.2820651    0.2059785  42.28  0.001683713    1.707    0.414
       220 -10.7442     50.8474     68.1133   1.1605170912e+02   5.6980742963e+01    0.2784367    0.1847639 -33.11 0.0007364855    1.362    0.266
       221  -9.8897    188.4510     74.3157   8.1084141700e+01   2.8091591872e+01    0.2891203    0.2075322  12.65  0.001015161    2.215    0.548
       222 -10.9074     40.4643     72.8173   1.2095503564e+02   5.7185805297e+01    0.3117344    0.2279886 -56.94 0.0007068437    1.337    0.252
       223 -10.0968    102.6703     72.9312   1.0086298190e+02   4.8049678371e+01    0.2459207    0.1886832  25.90 0.0006975261    1.372    0.271
       224 -10.6622     26.6666     70.2744   1.2509650785e+02   5.8954352783e+01    0.3887271     0.246587 -82.67  0.001998543    2.660    0.624
       225 -10.3018    152.0480     72.2996   8.7920556558e+01   3.7381075590e+01    0.2198167    0.1903579  58.09 0.0009783217    1.128    0.113
       226  -9.5501     16.8293     72.1947   1.2897612828e+02   5.9311508099e+01    0.1673766    0.1396463 -67.55  0.001022275    1.284    0.221
       227  -9.6201    175.1543     70.8727   8.2664462045e+01   3.1974611619e+01    0.2025442    0.1809562   6.17 0.0006182289    1.335    0.251
       228  -9.9776    145.2694     71.6230   8.9276019578e+01   3.9108718467e+01    0.1533966    0.1155278 -69.64 0.0006993993    1.684    0.406
       229  -9.9835    115.7814     71.0423   9.6573325184e+01   4.5778012441e+01    0.2080125    0.1891201 -28.48  0.001158728    1.094    0.086
       230 -11.3410     95.6845     67.4360   1.0120963887e+02   5.0360771264e+01    0.4398285    0.3673388   5.98   0.00215426    1.236    0.191
       231 -10.7374    160.0363     69.6807   8.5412944954e+01   3.5899118899e+01    0.3404424    0.2052262  74.48  0.001353046    2.231    0.552
       232 -10.7356    130.3714     69.1332   9.2145933522e+01   4.2964970583e+01    0.3801821    0.2402679  32.37  0.001678172    1.815    0.449
       233 -10.5393    130.1059     64.2504   9.0708323689e+01   4.3857867244e+01    0.2979747    0.2026609 -44.53 0.0002003169    1.557    0.358
       234 -11.1191     36.8918     68.2397   1.2097045678e+02   5.8444702155e+01    0.3403679    0.1934981 -37.11   0.00123955    1.550    0.355
       235 -11.3260     31.2997     66.3123   1.2243294973e+02   5.9340088147e+01    0.2715309    0.1867194 -53.60 0.0004634216    1.313    0.238
       236 -10.3845      6.6591     67.9297   1.3154811738e+02   6.0803692001e+01    0.2099696    0.1561739 -54.61  0.000729322    1.095    0.087
       237 -11.8522      4.1174     64.0274   1.3158134131e+02   6.1713369079e+01    0.2933216    0.2619548 -72.83 0.0003677275    1.332    0.249
       238 -11.2190     68.6549     67.3827   1.0977262399e+02   5.4797939701e+01    0.3616703    0.1961619 -38.16 0.0003942064    1.704    0.413
       239 -11.0012     83.9220     62.9596   1.0340536761e+02   5.3225006409e+01    0.4696917    0.3265067 -62.00  0.002318314    2.086    0.521
       240 -10.5865     86.0322     58.4515   1.0126344035e+02   5.3649985450e+01    0.3428968    0.1899523 -34.85   0.00097124    1.757    0.431
       241 -11.2789     21.0898     66.0348   1.2600569024e+02   6.0230635111e+01     0.255414    0.1742564  15.55  0.001153212    1.706    0.414
       242 -10.5297    141.6205     63.5218   8.7700476212e+01   4.1337903166e+01    0.2723745    0.2275068  73.71 8.968479e-05    1.317    0.241
       243 -10.5596    121.4934     62.0350   9.2218660341e+01   4.6124556440e+01    0.3155631    0.2226889  -6.86  0.001481677    1.827    0.453
       244 -10.4332    105.9648     63.8854   9.7061062187e+01   4.9028256878e+01    0.4088232    0.1581767 -48.61  0.001409228    3.322    0.699
       245 -10.7198     77.0975     65.2643   1.0633308371e+02   5.3919247088e+01    0.2380659    0.1882541  54.83  0.001335242    1.632    0.387
       246 -10.5266    173.8569     63.5767   8.0893102831e+01   3.3500196410e+01     0.313482    0.2294748 -56.70  0.001455026    1.470    0.320
       247 -10.5636     51.8029     62.5335   1.1405792656e+02   5.7926438733e+01    0.2525708    0.1632444 -26.10 0.0009387873    1.519    0.342
       248 -11.5641     11.1210     62.5554   1.2873160720e+02   6.1594277166e+01    0.2424009    0.1874392 -24.13 0.0004201313    1.249    0.200
       249 -10.1324     93.0972     61.2375   9.9996341520e+01   5.1923839427e+01    0.2241367    0.1743976 -22.59 0.0003627348    1.265    0.209
       250  -9.5931     56.4644     62.4748   1.1240750247e+02   5.7362444659e+01    0.1279261    0.1090875 -24.96 -3.445173e-06    1.009    0.009
       251  -9.8493     38.4845     58.5006   1.1762297794e+02   6.0145757847e+01    0.1881573    0.1224826 -22.80  0.001045899    1.510    0.338
       252 -11.7113     37.9066     52.2484   1.1592039822e+02   6.1341028430e+01    0.6424599    0.3531891 -31.47  0.003568104    1.665    0.399
       253 -10.5304     44.8372     51.8590   1.1321621748e+02   6.0666586332e+01    0.2350027    0.1838031 -28.90 0.0003742527    1.063    0.059
       254 -11.1313     46.0651     46.9906   1.1114785568e+02   6.1363757461e+01    0.2396947    0.1651279 -40.49 0.0002951239    1.327    0.247
       255 -10.8525     33.3328     60.2366   1.2001558470e+02   6.0320838365e+01    0.2841537     0.179887 -29.19  0.001045157    1.451    0.311
       256 -11.1791     27.3993     61.3088   1.2248531514e+02   6.0643461392e+01    0.3356248    0.1856933  17.87  0.001862026    2.096    0.523
       257 -10.7810     70.4648     59.0326   1.0651678024e+02   5.6052239378e+01    0.4545104    0.2207496 -44.80  0.002126072    1.993    0.498
       258 -10.9782     64.5943     59.9624   1.0880706207e+02   5.6735579761e+01    0.3217355    0.1798101  35.75 0.0009186428    1.905    0.475
       259  -8.8575    150.6675     60.6782   8.4800792470e+01   3.9651484886e+01    0.1534419     0.112348  23.31 0.0007049791    1.701    0.412
       260 -11.1652    114.5894     58.1572   9.2812566869e+01   4.8230147421e+01    0.4559192    0.3036855  65.13  0.001947291    1.960    0.490
       261  -9.8795    183.9329     61.3187   7.8417705637e+01   3.1350518936e+01    0.2084079      0.17872  62.63 0.0004526628    1.118    0.106
       262 -10.9039     58.1872     58.1038   1.1042765972e+02   5.7935983346e+01    0.3263923    0.1622586 -45.10  0.001609549    1.851    0.460
       263 -10.2754    137.1289     57.8244   8.7007550391e+01   4.3300941230e+01    0.1965432    0.1625097  25.40            0    1.289    0.224
       264 -10.7538    123.7799     57.3487   9.0135718017e+01   4.6388509691e+01    0.3500866    0.2419253  83.36  0.001527734    2.371    0.578
       265 -11.2837     99.3102     55.9312   9.6386849703e+01   5.1655072225e+01    0.6004645    0.2532728  47.91  0.002209253    2.440    0.590
       266  -9.7714     80.9824     57.0458   1.0240195713e+02   5.4741651564e+01    0.1969096    0.1730692  -8.90 0.0004534108    1.020    0.020
       267 -10.4876     45.4351     57.1413   1.1467441723e+02   5.9656072136e+01    0.3146029    0.1652683  33.85  0.001672337    2.128    0.530
       268 -12.1314    127.9127     52.1469   8.7435576007e+01   4.6277618680e+01    0.4046859    0.3133799 -25.21  0.000553523    1.367    0.268
       269 -11.3629      4.4587     52.7783   1.2878970685e+02   6.3847212565e+01    0.3247861    0.1991642 -31.12  0.002185111    1.417    0.294
       270 -10.7058     87.1607     52.6319   9.8953347331e+01   5.4419631231e+01    0.1956051    0.1618044  46.48 0.0009916985    1.354    0.261
       271 -10.1692      7.0933     40.8510   1.2450161755e+02   6.5853674868e+01    0.1515564    0.1207281 -43.97 0.0006103406    1.188    0.159
       272 -10.9404     12.5982     50.2208   1.2499256002e+02   6.3827526295e+01    0.3536357     0.154937 -48.86   0.00172688    1.705    0.413
       273 -12.4325      9.6166     45.4446   1.2481809794e+02   6.4884366636e+01     0.498553    0.3468887 -13.78  0.001522962    1.402    0.287
       274  -9.3058     50.0393     51.9848   1.1134881108e+02   6.0038518166e+01    0.1731617    0.1237887 -15.20 0.0003347634    1.349    0.259
       275 -10.3830     52.3242     49.6779   1.0974924033e+02   6.0154707029e+01    0.2090224    0.1736227 -62.21  0.001311007    1.692    0.409
       276 -11.1293    135.2397     49.9433   8.4985717574e+01   4.4937332234e+01    0.3168645     0.238515 -85.25  0.001500176    1.835    0.455
       277 -10.5751     73.3839     52.0657   1.0321073455e+02   5.6797355797e+01    0.2873971    0.2667391 -68.19  0.001829685    1.475    0.322
       278 -10.7497    114.9750     48.8979   8.9668380484e+01   4.9587399213e+01    0.3388869    0.2447646  -7.38  0.001730198    1.621    0.383
       279 -11.2662    100.7646     47.6208   9.3153539501e+01   5.2673658679e+01    0.4063768    0.3292914   2.87  0.002330719    1.253    0.202
       280 -10.3646     98.1901     45.2266   9.3071731989e+01   5.3528807622e+01    0.3544326    0.2081127  18.75  0.001129105    2.315    0.568
       281 -11.2791    142.8588     46.6169   8.2233042559e+01   4.3634537154e+01    0.3075565    0.2843247  -1.01 0.0008327456    1.161    0.139
       282  -9.2065    209.0218     48.7537   7.1185094741e+01   2.7038681996e+01    0.1769126     0.112605  68.00 0.0003969763    1.494    0.330
       283 -10.5408     80.5985     47.2813   9.9184983933e+01   5.6396735157e+01    0.2240548    0.1458967  17.63 0.0006453399    1.724    0.420
       284  -9.9472     22.8661     46.2312   1.1981602189e+02   6.3786415056e+01    0.1571475    0.1279917 -33.91 0.0005041126    1.104    0.094
       285  -9.3966    233.3573     45.2141   6.7216830340e+01   2.1755087185e+01    0.1807043      0.11131 -48.31  0.000511387    1.496    0.331
       286 -10.2364    151.4840     45.0296   7.9932977465e+01   4.1792301347e+01    0.2108545    0.1416542 -33.59 0.0006351031    1.593    0.372
       287 -10.5156    123.0313     43.9560   8.5975740665e+01   4.8555339505e+01    0.3514612     0.275417  24.52  0.001916059    1.321    0.243
       288  -9.2754     86.0109     45.2142   9.6739806899e+01   5.5780738760e+01    0.1664257    0.1008649  40.81 0.0003701536    1.619    0.382
       289  -9.7664    157.8837     51.9432   8.0696701033e+01   3.9243397698e+01    0.2169412    0.1857867  32.70  0.001168311    1.250    0.200
       290 -10.5064     81.2504     42.6098   9.7319414640e+01   5.6996966478e+01    0.2189721    0.1771832 -16.78 0.0006519649    1.153    0.133
       291 -10.6298     63.6511     41.5293   1.0283949442e+02   5.9944074016e+01    0.2998867    0.2294194  23.91  0.001703555    1.274    0.215
       292 -10.4096    163.0632     42.2970   7.6877355258e+01   3.9337900791e+01    0.2034798    0.1700188  66.05 0.0004257348    1.110    0.099
       293 -10.3493     56.4772     41.8235   1.0550679562e+02   6.0901676935e+01    0.2263558    0.1664732 -53.74  0.001332486    1.847    0.459
       294  -9.7587     52.4826     41.9987   1.0703050560e+02   6.1398193189e+01     0.175635    0.1056359 -36.12 0.0003817588    1.488    0.328
       295 -10.1401     23.9593     41.5442   1.1789713812e+02   6.4506845532e+01    0.2077962    0.1526751 -28.89  0.001246933    1.059    0.056
       296 -10.4773    226.3747     40.3224   6.6928869357e+01   2.4068955142e+01    0.2484082    0.1981388 -75.09 0.0004161791    1.122    0.108
       297 -10.9069     95.5692     40.0254   9.2010190393e+01   5.4777448534e+01     0.334661    0.3044621  55.13  0.001836042    1.302    0.232
       298 -10.2922     44.1484     39.8263   1.0938551927e+02   6.2762747848e+01    0.2821827    0.1517958 -43.73  0.001104656    1.768    0.434
       299  -9.3804    235.5691     40.5398   6.5916272402e+01   2.1902159638e+01    0.1322571    0.1152524 -77.51 0.0007301847    1.052    0.049
       300 -10.8026     87.6334     38.0213   9.3665325810e+01   5.6533336043e+01    0.4076209     0.292511 -86.85  0.001811071    3.403    0.706
       301 -11.7105     82.1692     36.5016   9.4810238360e+01   5.7715312661e+01    0.3755367    0.2765776  19.60  0.001365889    1.300    0.231
       302  -9.9929    159.2829     39.0760   7.6640100729e+01   4.0697098290e+01    0.1877248    0.1790359 -63.78 0.0003732855    1.115    0.103
       303  -9.5156    119.6179     39.1822   8.5233090275e+01   4.9956744576e+01    0.1850734    0.1279517 -11.71 0.0005489568    1.682    0.405
       304 -11.3468     69.6403     36.2587   9.8831826666e+01   5.9822401607e+01    0.5333908    0.3395617  -5.09  0.002521789    1.797    0.443
       305  -9.5166     91.5255     45.5062   9.5146486418e+01   5.4742910602e+01    0.1335611    0.1185309   7.00 0.0001686617    1.005    0.005
       306 -10.0428     19.3990     37.8225   1.1852559320e+02   6.5509917484e+01    0.1997927    0.1306032 -11.33 0.0006360024    1.474    0.321
       307 -11.3736     24.3888     35.4198   1.1566972023e+02   6.5488729628e+01    0.2443684    0.2245457 -15.04 0.0009161259    1.333    0.250
       308 -10.9711     13.4856     33.1907   1.1944752835e+02   6.6728197280e+01    0.2364533    0.1593207  35.65  0.001292225    2.056    0.514
       309 -10.3839      9.3897     33.2461   1.2119618355e+02   6.7004392397e+01    0.2862585    0.1693139 -63.45  0.001688445    2.387    0.581
       310 -10.4355      1.7012     37.8152   1.2582377833e+02   6.6693531590e+01    0.2576692    0.1117793 -29.33 0.0005744417    2.131    0.531
       311 -10.6217      1.4505     31.8193   1.2412210211e+02   6.7729007358e+01    0.1648626   0.09407689 -40.44 0.0009977425    1.272    0.214
       312 -11.0004      5.0046     32.9959   1.2297578989e+02   6.7325030946e+01    0.3650215    0.1518682 -34.24   0.00207582    1.967    0.492
       313 -11.1776      9.3175     25.4085   1.1857053715e+02   6.8275038449e+01    0.4230907    0.1822952 -26.47  0.002318363    2.263    0.558
       314 -10.5880      8.4470     21.4982   1.1754941101e+02   6.8940938899e+01    0.1800215    0.1470354 -26.74 2.432281e-05    1.222    0.181
       315 -10.2986    103.4638     37.0000   8.8701604159e+01   5.3640918243e+01    0.3661593     0.169928  54.24  0.001585487    2.273    0.560
       316 -10.9666    106.0215     33.9305   8.6928292952e+01   5.3521253412e+01    0.3213017    0.2626779   4.87 0.0009572713    1.228    0.186
       317 -10.9330     55.7415     31.3362   1.0188449451e+02   6.2570045085e+01     0.302817    0.1814107 -26.30  0.001751911    1.533    0.348
       318  -9.4428    110.8935     34.8519   8.5967849950e+01   5.2392074913e+01    0.1646218    0.1574843 -82.44 0.0003657053    1.280    0.219
       319 -10.5268     77.0233     33.6653   9.5406950096e+01   5.8985779718e+01    0.2419599    0.1644123  17.14 0.0007146273    1.490    0.329
       320  -9.5204     78.5997     30.1446   9.3573231348e+01   5.9186137831e+01    0.1825505    0.1172328 -27.30 0.0005527011    1.530    0.347
       321  -9.9188     32.4435     33.9710   1.1188024093e+02   6.4959889765e+01    0.2267052    0.1500312  19.54   0.00148182    1.549    0.354
       322 -10.1114     97.5487     31.9421   8.8545147071e+01   5.5471475169e+01    0.1824857    0.1062771   0.54 0.0006035517    2.466    0.595
       323 -10.3315     18.7147     31.5833   1.1669457118e+02   6.6587167586e+01    0.1780918    0.1297632 -57.74  0.001192475    1.840    0.457
       324  -9.5482    145.1008     31.5431   7.7097285358e+01   4.5078772396e+01     0.201926    0.1246071  59.28 0.0003249691    1.468    0.319
       325 -10.4683     81.3332     28.8365   9.2213520053e+01   5.8878971493e+01    0.3907551    0.2163661 -45.54  0.001915565    2.427    0.588
       326 -11.1822     71.2847     26.2833   9.4476933888e+01   6.0905806898e+01    0.3813761    0.2549613  13.33  0.001648651    1.504    0.335
       327 -10.4925    124.9206     27.9669   8.0221955218e+01   5.0179523999e+01    0.1983514    0.1714583  36.76            0    1.055    0.052
       328  -9.2688    101.2631     28.6881   8.6343118254e+01   5.5137399437e+01    0.1166109    0.1026368 -64.44 0.0002642176    1.537    0.349
       329 -10.5936     50.1625     26.1679   1.0195278612e+02   6.4042596722e+01    0.4339887    0.1737269 -39.50  0.001865511    2.466    0.594
       330 -10.6998     54.2531     23.3551   9.9300522463e+01   6.3861585709e+01    0.2647999    0.1805365  17.11 0.0006447147    1.353    0.261
       331  -9.6348    172.4771     27.4751   7.1058111116e+01   3.8891650726e+01     0.138397    0.1223333  78.35 0.0001013158    1.031    0.030
       332  -9.3477    179.9664     25.9784   6.9508229010e+01   3.7217117007e+01    0.1627303    0.1451653  79.36 0.0003307104    1.017    0.017
       333  -9.4494     90.5084     26.5502   8.8582094207e+01   5.7488592036e+01    0.1272089    0.1109583  19.55 5.228537e-05    1.034    0.033
       334 -11.4837     60.6398     23.1913   9.6918927018e+01   6.2959732456e+01     0.395206     0.200487 -45.71  0.001919043    2.837    0.648
       335 -11.1075     65.6495     21.5519   9.4513023765e+01   6.2395380428e+01    0.3314115     0.195025  23.87  0.001201918    1.672    0.402
       336  -9.9994    113.0865     25.0888   8.2021136836e+01   5.3103612864e+01    0.1984225    0.1728251  40.42 0.0006618457    1.045    0.043
       337  -9.7058    119.6582     23.3396   7.9861869173e+01   5.1871610289e+01    0.2678407    0.1548899   8.33  0.001190892    2.550    0.608
       338  -9.6701     17.4100     23.8657   1.1446267909e+02   6.7894568347e+01    0.1628916    0.1111696  -1.59 0.0006072184    1.349    0.259
       339 -12.0500    231.7007    247.4430   1.1043460784e+02  -1.1374850339e+01    0.4982698    0.2949667  19.66  0.002819609    1.680    0.405
       340 -10.8849     35.0713     21.5595   1.0606728623e+02   6.6512363511e+01    0.3109999      0.14775 -32.03   0.00104152    1.835    0.455
       341 -11.0523     24.0000     20.9491   1.1048383999e+02   6.7738897216e+01    0.3325056    0.1408723 -36.93  0.001446759    1.957    0.489
       342 -10.6353     27.2596     19.4079   1.0847102540e+02   6.7638380897e+01    0.2131331    0.1694778  25.59  0.001164864    1.524    0.344
       343 -10.6202    124.0272     21.9425   7.8407073498e+01   5.1053079175e+01    0.1940729    0.1713913  43.28 0.0003132238    1.010    0.010
       344 -10.3427    100.1715     21.9914   8.4204447266e+01   5.6130369352e+01    0.2535975    0.1751958  46.44 0.0005284455    1.309    0.236
       345 -10.1163    104.2501     18.8317   8.1995546389e+01   5.5640269205e+01     0.232064    0.1448119  13.92  0.001059741    1.900    0.474
       346  -9.3274    166.7045     20.6919   7.0069932694e+01   4.1084754037e+01    0.1356291   0.09482224  38.48 0.0002302308    1.588    0.370
       347  -9.9296    137.0371     20.0212   7.5074035263e+01   4.8280917525e+01    0.1987868    0.1771778  59.65  0.001228185    1.056    0.053
       348  -9.1687     45.5236     20.5249   1.0146495626e+02   6.5398879471e+01    0.1180468   0.09091035  -3.54 0.0008094618    1.033    0.032
       349 -10.7152      3.4167     19.6882   1.1916615221e+02   6.9555347832e+01    0.2801563    0.1367478 -19.78  0.001708042    1.982    0.496
       350 -12.0801    225.7827    246.1796   1.1129592758e+02  -1.0298030238e+01    0.6548287    0.3782475   3.43  0.003246355    2.485    0.598
       351 -10.0966    107.9147     17.9433   8.0763267809e+01   5.4970638892e+01    0.2655046    0.1735453  -6.95 0.0007994496    1.747    0.428
       352  -9.6308    115.4378    244.7293   1.3195082505e+02   8.5348095263e+00    0.1480686    0.1196043 -55.06 0.0006015109    1.528    0.346
       353  -9.5037     17.9899     19.0000   1.1233970644e+02   6.8562887643e+01    0.1958969   0.09991924  27.55  0.001188821    2.114    0.527
       354 -10.2508    148.3013    244.3314   1.2563531603e+02   3.0318553277e+00     0.120911   0.09719218  12.12 0.0003519306    1.650    0.394
       355 -10.4776    135.6456     16.6078   7.4257385615e+01   4.8954534426e+01    0.2709382   0.07175647  49.56 0.0009541651    3.078    0.675
       356 -10.2388    109.7624    243.2146   1.3284466426e+02   9.7388719901e+00    0.2861001    0.1695084  69.61  0.001294625    1.845    0.458
       357 -10.8681    178.3218    243.5045   1.1975189870e+02  -2.0480602199e+00     0.357411    0.1084851  40.53   0.00136686    2.811    0.644
       358  -9.9755      9.8168     15.9649   1.1482921128e+02   6.9662901934e+01    0.1664798    0.1037292 -22.43 0.0006924776    1.243    0.196
       359 -11.6594     34.8422    241.6676   1.4609936070e+02   2.0724075710e+01    0.4939065    0.2149231  46.39  0.002847632    1.964    0.491
       360  -9.5326     24.4648    232.4770   1.4720946137e+02   2.3703633875e+01    0.1878694    0.1143945  58.46  0.001007691    1.346    0.257
       361  -9.6615    115.6597     13.2287   7.7290036974e+01   5.3782445198e+01    0.2380634    0.1489539  66.77  0.001249862    1.707    0.414
       362  -9.1865     90.2419     12.9734   8.3513213455e+01   5.9024592749e+01    0.1395544   0.09937166 -17.73  0.000372074    1.455    0.313
       363 -10.4508     31.8220    237.3087   1.4630232151e+02   2.1919132189e+01     0.292013    0.1440345  76.75  0.001064786    1.825    0.452
       364 -10.1082     29.0540    233.0096   1.4647081258e+02   2.3077134052e+01    0.2603048     0.122352  52.50  0.001217104    1.761    0.432
       365 -11.7633    155.8409    241.5334   1.2379317325e+02   2.1902567739e+00    0.3157462    0.2209293  33.72  0.001159823    1.379    0.275
       366 -11.5633     19.4257    239.0340   1.4846201131e+02   2.2999679372e+01    0.4601862    0.2624798  57.15  0.002878803    1.411    0.291
       367 -10.3453     71.9245    243.8457   1.3986510739e+02   1.5425581317e+01    0.1695202    0.1493194  67.33 0.0007060162    1.280    0.219
       368 -11.5903     74.0502    238.2203   1.3895635099e+02   1.6194882569e+01    0.5576848    0.2733548  52.73  0.003007442    1.696    0.411
       369  -9.1484     51.3047     11.3244   9.5397944583e+01   6.5734348726e+01    0.1202964   0.07346949   6.52 0.0004302653    1.642    0.391
       370  -9.6214    107.7357     10.3426   7.8083435162e+01   5.5747619762e+01    0.1743914   0.09801056  48.77 0.0005452046    1.495    0.331
       371  -9.3508     50.2796    240.3382   1.4337538547e+02   1.9050286038e+01   0.09888071   0.08571361 -63.44 0.0004428279    1.619    0.382
       372 -10.3438    174.0364    238.4901   1.1981746086e+02  -5.0390355333e-01    0.2091298    0.1742503  13.52 0.0008799887    1.328    0.247
       373 -11.0079    177.5733    234.8172   1.1856173946e+02  -5.3144061832e-01    0.2891329    0.2087173   6.12  0.001187626    1.871    0.466
       374  -9.6651    195.5229    238.5105   1.1568478717e+02  -4.2459540044e+00    0.2334667    0.1050415  32.73  0.001028618    2.215    0.549
       375 -10.2755     11.9547    238.1840   1.4961267967e+02   2.3965607045e+01     0.173854   0.09986761  70.81 0.0006218086    1.298    0.230
       376 -10.4213    159.8952    235.8696   1.2218260633e+02   2.4335980352e+00    0.2021512    0.1655135  26.67 0.0006713927    1.280    0.219
       377 -11.0666     73.7221    232.9985   1.3850997475e+02   1.7261761483e+01    0.3168049    0.1803827  58.72  0.001384169    1.497    0.332
       378 -10.5464    167.0107    233.8055   1.2047419831e+02   1.5164330936e+00    0.2031812    0.1964021 -31.44 0.0007975918    1.205    0.170
       379  -9.5381     53.6631    234.6885   1.4231802067e+02   1.9705544637e+01   0.09993065   0.09207308 -52.39  0.000704514    1.687    0.407
       380  -9.9050     79.5698    231.3750   1.3725032318e+02   1.6723644437e+01    0.2205755    0.1338071  44.93 0.0006696613    1.527    0.345
       381 -10.1414    137.1091    247.3800   1.2817428302e+02   4.4358404874e+00    0.1853388    0.1748308 -48.78 0.0006327882    1.336    0.251
       382 -11.2333    250.4938    244.5121   1.0661488317e+02  -1.3788009344e+01    0.5712432    0.2003695 -37.81  0.002114767    3.107    0.678
