#   1 NUMBER                 Running object number                                     
#   2 MAG_AUTO               Kron-like elliptical aperture magnitude                    [mag]
#   3 X_IMAGE                Object position along x                                    [pixel]
#   4 Y_IMAGE                Object position along y                                    [pixel]
#   5 X_WORLD                Barycenter position along world x axis                     [deg]
#   6 Y_WORLD                Barycenter position along world y axis                     [deg]
#   7 A_WORLD                Profile RMS along major axis (world units)                 [deg]
#   8 B_WORLD                Profile RMS along minor axis (world units)                 [deg]
#   9 THETA_WORLD            Position angle (CCW/world-x)                               [deg]
#  10 FWHM_WORLD             FWHM assuming a gaussian core                              [deg]
#  11 ELONGATION             A_IMAGE/B_IMAGE                                           
#  12 ELLIPTICITY            1 - B_IMAGE/A_IMAGE                                       
         1 -15.5855      6.3645     67.6668   1.1619353823e+02   6.1116133183e+01      2.26219     1.025118 -67.25  0.009306382    1.729    0.422
         2 -13.5727     65.9033     48.9040   8.8203753300e+01   5.9164263154e+01     1.502097    0.6937835 -29.80  0.006079039    2.600    0.615
         3 -14.6581    119.7368     54.6282   7.3107602023e+01   4.7934836999e+01      1.14916     0.844053  35.87   0.00186255    1.401    0.286
         4 -13.3633    139.1672     22.2326   5.6771438966e+01   4.7938319862e+01    0.9368365    0.3717845  57.84  0.001464312    2.248    0.555
         5 -14.6743    121.0893     37.5884   6.6548166900e+01   5.0324035749e+01      1.65892     0.696213  50.94  0.006445619    2.252    0.556
         6 -14.7656    166.5650     30.1393   5.4426318279e+01   3.9957369268e+01     1.259366     1.088095  78.13  0.004133017    1.142    0.124
         7 -14.8375    147.5999     30.2743   5.7938807656e+01   4.4832053222e+01     1.487665    0.9372048  58.93  0.004854717    1.500    0.333
         8 -12.9399    232.4429      2.3675   3.8869123615e+01   2.6408325740e+01     1.600928    0.5351584  58.90  0.006485956    2.980    0.664
         9 -15.3367    211.9448     41.1011   5.0916728541e+01   2.6776986180e+01     2.706811     1.358592  69.05  0.009572811    2.046    0.511
        10 -15.2343    190.3612     25.5656   4.9413039630e+01   3.4313600917e+01     2.940206     1.249218  69.54   0.01143964    2.321    0.569
        11 -13.7259    188.3898     14.0175   4.6297226299e+01   3.6143823719e+01     1.042198    0.6710094 -52.32  0.005038851    1.590    0.371
        12 -12.8890      7.9366      2.6356   9.4817731444e+01   7.3543921418e+01    0.5253639    0.3700907  27.95  0.003791321    1.810    0.448
        13 -16.0195     13.9782     19.7157   9.9276141172e+01   7.0274274204e+01     1.951794    0.8806769 -36.23  0.009169837    1.785    0.440
        14 -14.6779     42.3515      6.5274   7.9270048669e+01   6.9284326241e+01     1.591573    0.9435161   1.05  0.008874115    1.868    0.465
        15 -12.8660    120.2567     26.7495   6.2633537782e+01   5.1987644849e+01    0.7745008    0.4652593  40.82  0.003350765    1.621    0.383
        16 -12.8175     71.8216     16.7586   7.2598826303e+01   6.3323403778e+01    0.5669649     0.285174 -30.95  0.002797151    1.893    0.472
        17 -13.7680    218.4952     15.2778   4.3304843394e+01   2.8371906643e+01    0.9215508    0.5575001  41.85  0.004162553    2.135    0.532
        18 -13.2950      2.6496     10.7459   1.0152733984e+02   7.2595451321e+01    0.6621101    0.3044945 -52.71   0.00386032    1.881    0.469
        19 -11.9239     46.8166     21.4218   8.4577852183e+01   6.6560993465e+01     0.397765    0.2926051 -21.69  0.001914437    1.137    0.120
        20 -15.4211     97.9204     12.4680   6.2527843744e+01   5.8684235216e+01     1.717562    0.7964373  50.60  0.004037781    1.955    0.489
        21 -13.8382    214.9990      9.9887   4.2280316800e+01   2.9821249240e+01    0.7849303    0.4959992  61.25  0.000606644    1.566    0.361
        22 -13.2973    223.8957     20.8851   4.4200021499e+01   2.6395688879e+01     1.111853    0.6012379  54.69  0.005194134    1.972    0.493
        23 -11.9443    153.3299      8.8799   4.9570050391e+01   4.5750822579e+01     0.362016    0.2769946  62.23  0.001235633    1.184    0.155
        24 -11.5255     60.1882     17.1737   7.7113021485e+01   6.5226309989e+01    0.3084304    0.1648419 -32.10  0.001608657    1.728    0.421
        25 -11.0463     59.0055      6.4346   7.2304962665e+01   6.6780191431e+01    0.2395073    0.2201963  82.48  0.001463751    1.784    0.439
        26 -11.8078     61.4147      1.9594   6.9103494992e+01   6.6872464094e+01    0.3844485    0.2054777  44.73  0.001535976    1.821    0.451
        27 -10.8170    160.8013      5.9714   4.7483505436e+01   4.4102901779e+01    0.2220444     0.172275  39.92 0.0009706482    1.331    0.249
        28 -10.8668     68.0987      4.6822   6.8090245206e+01   6.5410426953e+01    0.2767913    0.1563483 -37.48  0.001451613    2.043    0.511
        29 -11.7774    182.8569      2.7398   4.3659985397e+01   3.8706244419e+01    0.4375304    0.2482395 -70.07  0.001989155    2.036    0.509
        30 -11.7007    119.6685      3.6931   5.3712775672e+01   5.4589608626e+01    0.4247941     0.194989  70.59  0.001751102    2.464    0.594
        31 -11.5101    116.9903      1.4855   5.3381838528e+01   5.5413173579e+01     0.297409    0.2220995  59.62 0.0007617301    1.246    0.198
        32 -11.9129     78.0875      2.3729   6.3664719962e+01   6.3775338114e+01     0.319071     0.253171  36.08  0.001214794    1.156    0.135
        33 -10.9953     83.0363      1.2291   6.1625925361e+01   6.2903165869e+01    0.2740501    0.1148681  55.12  0.001120992    2.301    0.565
        34 -10.9347    112.0405      1.5203   5.4441164748e+01   5.6568478227e+01    0.2777924    0.1875689  64.81  0.001386293    1.471    0.320
        35 -14.3130     23.7293     13.8835   9.1817959145e+01   7.0405506554e+01    0.6948293    0.3634529  27.12  0.002302655    2.098    0.523
        36 -10.6143     53.9019      1.2897   7.1625072903e+01   6.8191462521e+01    0.1578111   0.09088349  32.71            0    1.614    0.380
        37 -10.4798     60.3089    149.3144   1.1359932828e+02   3.7159917469e+01    0.1267312   0.09699165 -42.25 0.0004969159    1.629    0.386
        38 -12.0845    109.9166    249.3177   1.1495266792e+02   9.8965789002e+00    0.4091339    0.2055821  50.07  0.002379916    1.541    0.351
        39 -12.6626    105.5887    246.4924   1.1544073626e+02   1.0989823647e+01    0.3189262    0.2712535 -70.25  0.002384759    1.440    0.306
        40 -12.6658     57.4797    246.7695   1.2370165003e+02   1.7576589250e+01     0.433405    0.3142631  38.20  0.003135655    1.645    0.392
        41 -13.4277     28.4014    246.1687   1.2836072566e+02   2.1122738632e+01    0.6448381    0.2920026  77.77  0.004020421    1.948    0.487
        42 -11.9263      2.8409    249.7539   1.3239802238e+02   2.3174879276e+01    0.2775079    0.1530297  58.89  0.001696721    1.258    0.205
        43 -13.7086      9.0001    245.7112   1.3132820783e+02   2.3246111086e+01    0.6811586     0.314767  60.24  0.003211066    1.506    0.336
        44 -10.4909     61.9678    145.8010   1.1268115322e+02   3.7770986077e+01    0.3729993    0.1656853  89.89  0.001123463    5.005    0.800
        45 -10.6029     38.3996    145.8132   1.1851087521e+02   4.0532220580e+01    0.1771456   0.09598657 -62.28 0.0005364228    1.615    0.381
        46 -11.0192    148.8201    140.9767   9.0193397281e+01   2.3726728094e+01     0.258097    0.1809463 -77.36  0.001094618    2.008    0.502
        47 -10.6411     88.4783    140.4630   1.0505213367e+02   3.5202061804e+01    0.1419388     0.128633 -83.74 8.314056e-05    1.009    0.009
        48 -11.4944     46.1842    135.8258   1.1525675490e+02   4.2034164292e+01    0.4415163    0.2132506 -52.54  0.002104531    2.033    0.508
        49 -12.1703     44.3835    132.8182   1.1529804925e+02   4.2944923379e+01    0.3497095    0.2568836  87.05  0.001282687    1.277    0.217
        50 -12.3948    245.7438    134.6371   6.9398894190e+01   4.3039908408e+00      0.33542    0.2359731 -77.04  0.001488788    2.745    0.636
        51 -10.3779     11.1054    134.3374   1.2391985113e+02   4.5643159790e+01    0.1486823   0.09493324  48.30 0.0008180623    1.676    0.403
        52 -12.6142    222.5028    127.8301   7.1771559402e+01   1.0160791688e+01    0.3641791    0.2312042 -55.12  0.001596865    2.003    0.501
        53 -11.1569     25.7436    127.2294   1.1942959723e+02   4.6094744850e+01    0.2606966    0.1809681 -64.01 0.0008860525    1.243    0.196
        54 -13.0669     28.5686    122.4451   1.1805836933e+02   4.6966701296e+01    0.4862869    0.2867167 -67.23  0.002748264    1.362    0.266
        55 -13.0046    120.3152    102.3480   8.7854935143e+01   3.8248259497e+01    0.6569124    0.3292727  41.88  0.001740485    2.096    0.523
        56 -12.1878     76.9365    116.9739   1.0358580463e+02   4.2567848577e+01    0.8680677    0.4139403 -60.53  0.003664443    1.956    0.489
        57 -13.1874     86.1417    113.6028   1.0023412979e+02   4.1945912492e+01     1.427447    0.9649572 -35.25  0.005926266    1.747    0.427
        58 -13.9151    106.2119    121.2662   9.6413603731e+01   3.6681554901e+01     1.260781     1.038058  30.74  0.004710475    1.371    0.270
        59 -14.6973    105.5135    106.2523   9.2969226415e+01   4.0284482831e+01     1.654213     1.343719  -2.44  0.007511384    1.611    0.379
        60 -11.8703    180.6958    121.1177   7.8268106940e+01   2.0752900509e+01    0.3525797    0.2381241  50.27  0.001398497    1.505    0.336
        61 -10.6074     60.0327    125.3557   1.0991823240e+02   4.2883030855e+01    0.2387314    0.1358964  22.30  0.001098503    2.455    0.593
        62 -12.2180      4.9749    119.2136   1.2393809710e+02   4.9531197160e+01    0.5668372    0.4597453 -53.98   0.00407852    1.345    0.256
        63 -13.3977    171.5451    242.9524   1.0321018586e+02   1.1509476437e+00    0.7384099     0.370142  36.79  0.004004303    1.659    0.397
        64 -13.3599      6.0179     43.7696   1.1094822053e+02   6.6198175242e+01    0.7290319    0.3717531  17.27  0.004305726    2.402    0.584
        65 -14.5669     17.9127    111.0082   1.1945455297e+02   5.0522241965e+01     1.135662    0.9429855  -5.80  0.007753426    1.646    0.393
        66 -13.5912      2.2162     97.2286   1.2217273139e+02   5.4714308402e+01     1.068189    0.3316514 -78.81  0.003824852    3.079    0.675
        67 -14.8826     24.4150     94.6778   1.1503555445e+02   5.3821475283e+01     1.826977     1.190624 -11.22   0.01028697    2.216    0.549
        68 -11.3932     45.8221    110.5197   1.1133436970e+02   4.8094790279e+01    0.3554492     0.268818  88.52  0.002065892    1.360    0.265
        69 -12.5453     33.1976    110.9347   1.1508067140e+02   4.9260255726e+01    0.3886065      0.21417 -86.40  0.001905615    1.996    0.499
        70 -11.2457    121.3336    112.2085   9.0170134394e+01   3.5834024680e+01    0.2822498    0.1804978  55.97 0.0008834961    1.753    0.429
        71 -11.4333    176.5044    110.6362   7.6461850905e+01   2.3801228681e+01    0.3512844    0.2788137  18.43  0.001628932    1.514    0.340
        72 -11.3292     61.9914    110.5138   1.0658019755e+02   4.6182047719e+01    0.1951322    0.1367862  36.38  0.001038917    1.612    0.380
        73 -11.4482    222.8145    109.6033   6.7282763654e+01   1.3239070941e+01    0.2008505    0.1458532  67.07  0.000950536    1.669    0.401
        74 -12.2202    135.9383    103.1442   8.3962885185e+01   3.4732161991e+01    0.6678823     0.313566  50.22  0.002015661    2.238    0.553
        75 -11.9092     43.2819     91.2712   1.0836179340e+02   5.2894329084e+01     1.121016    0.3837873 -71.28   0.00336007    4.881    0.795
        76 -12.4132     62.5006     99.5009   1.0408116092e+02   4.8723585782e+01    0.6668011    0.4206154  66.59  0.003090697    2.265    0.559
        77 -12.6035     51.1501     99.1125   1.0751849814e+02   5.0203502274e+01    0.7348366    0.4504213 -15.35   0.00273728    2.798    0.643
        78 -12.1641     49.2022     94.5236   1.0715817108e+02   5.1499447792e+01    0.3732748    0.3009396  77.65  0.001296618    1.435    0.303
        79 -12.5388    137.2713     95.5363   8.1494670119e+01   3.6052337287e+01    0.4618868    0.3793656  80.57  0.001334028    1.466    0.318
        80 -10.3952    162.9715     97.0000   7.5734894628e+01   2.9737839437e+01    0.2665549   0.09073143  50.89 0.0008074929    2.978    0.664
        81 -11.8590    125.3874     92.5156   8.3733609293e+01   3.9315864109e+01    0.3800321    0.2822861  84.52  0.001654837    1.914    0.478
        82 -12.0968     89.6710     88.2469   9.2801704426e+01   4.7211806833e+01    0.4876532    0.3436161  45.91  0.001726679    1.555    0.357
        83 -12.0007    127.0681     85.6600   8.1261776392e+01   4.0387362502e+01    0.5054949    0.4544695 -29.69  0.002618519    1.111    0.100
        84 -12.4732    132.0342     85.8348   8.0003428612e+01   3.9244925681e+01    0.3709715    0.3169663 -49.35  0.001531441    1.168    0.144
        85 -12.9464    135.7196     79.8535   7.7229132383e+01   3.9605322274e+01    0.8061328      0.42648  48.33  0.003190668    1.916    0.478
        86 -12.5976    149.7237     85.0877   7.5362643331e+01   3.5276061581e+01    0.7193689    0.3883774  33.73  0.002592653    2.459    0.593
        87 -14.5103    164.7448     71.2713   6.7788573187e+01   3.4154758019e+01     1.889662    0.7273658  53.94  0.006394863    2.563    0.610
        88 -12.7905    160.1481     68.1324   6.7806271973e+01   3.5864542639e+01    0.8314726    0.4474744 -49.62  0.002702674    2.083    0.520
        89 -13.6483    160.7900     80.8317   7.1538235784e+01   3.3398834885e+01     1.001983     0.678297  20.66  0.003207477    2.114    0.527
        90 -14.4758    169.4076     77.3670   6.8640213495e+01   3.1890899989e+01     1.482928    0.6321942  53.43  0.005245558    2.336    0.572
        91 -13.2334    188.2788     84.4095   6.6886499960e+01   2.5896255336e+01    0.8427811    0.3501205  44.97  0.002432127    2.651    0.623
        92 -13.6127    237.2422     80.2653   5.7678492159e+01   1.4847010966e+01    0.5422333    0.4102793  88.16  0.002281375    1.604    0.377
        93 -11.7485     40.6425    243.5478   1.2626180000e+02   2.0178177437e+01    0.3180291    0.1767869  87.58   0.00177158    1.602    0.376
        94 -13.6254     74.0152     74.3064   9.3775990356e+01   5.2808626217e+01     1.357384    0.7639314  10.53  0.005056584    3.513    0.715
        95 -13.6105     87.6634     65.2207   8.6383268551e+01   5.2447797394e+01     1.687473    0.6605998 -34.08  0.005471513    3.161    0.684
        96 -12.8396     55.0591     81.7798   1.0224383082e+02   5.3749614975e+01    0.5517644    0.4239011 -52.25  0.002678849    1.114    0.102
        97 -14.1944     61.0659     75.5436   9.8527886256e+01   5.4380439060e+01     1.416435     0.998575 -89.09  0.001007566    2.208    0.547
        98 -14.0935    198.8907     69.4786   6.0763109902e+01   2.5798624332e+01    0.9595746    0.7833874  26.19   0.00277982    1.451    0.311
        99 -13.9165    213.8074     79.0265   6.0903605561e+01   2.0537418900e+01      1.11205    0.6759124  81.98  0.004454331    2.397    0.583
       100 -13.0109    216.7660     73.7239   5.9023392677e+01   2.0688380181e+01    0.6972206    0.4748965 -73.64  0.002736966    1.889    0.471
       101 -10.8674     90.1536     81.3005   9.0649778529e+01   4.8654802088e+01    0.2843129    0.2032077 -64.19  0.001363165    1.616    0.381
       102 -12.1603    114.1243     80.1129   8.3134755240e+01   4.4307587913e+01    0.4300417    0.3454979 -57.63  0.002135327    1.333    0.250
       103 -10.7024     32.7121     80.9487   1.0965448939e+02   5.6282611835e+01    0.1868617    0.1358346 -61.02 0.0009592143    1.133    0.118
       104 -11.4275     42.4539     77.0762   1.0539025502e+02   5.6223260627e+01    0.2549969     0.224152  14.84  0.001477741    1.341    0.254
       105 -12.2271    132.6724     68.6883   7.4465968210e+01   4.2452777865e+01    0.5161856    0.3278171  22.65  0.001147296    2.262    0.558
       106 -13.2902    135.8686     66.6234   7.2981905837e+01   4.2082320413e+01     1.001298    0.9482092  35.40  0.002729734    1.058    0.055
       107 -12.0882    240.9861     70.9900   5.4857695157e+01   1.5439982058e+01    0.3495523    0.2015925  81.42  0.001485399    2.430    0.589
       108 -10.5845    100.9704     69.9839   8.3776968989e+01   4.9019349162e+01    0.2253354    0.1835341 -79.43 0.0009923689    1.639    0.390
       109 -12.3329     38.7612     68.1699   1.0444014883e+02   5.8566787016e+01    0.6813437    0.3427661  25.60  0.003414865    2.374    0.579
       110 -11.5186    100.1532     64.9345   8.2347367813e+01   5.0175257551e+01    0.3757095    0.3095566 -31.59  0.001677954    1.154    0.133
       111 -13.9496    177.9839     57.7750   6.1048034571e+01   3.3034554967e+01    0.9570585    0.7458279 -45.18  0.002539137    1.280    0.219
       112 -13.9565     96.7014    238.8747   1.1629332665e+02   1.3559556262e+01    0.7173865    0.4641514  47.98     0.002908    1.253    0.202
       113 -12.8143    135.4540     50.6996   6.7716824488e+01   4.4913876590e+01     0.644652    0.3678237  34.45  0.002315135    2.085    0.520
       114 -13.1762    131.6911     32.7277   6.2191804529e+01   4.8476143572e+01    0.6521705     0.468307 -18.22   0.00193981    1.485    0.327
       115 -13.9098     91.2885    232.5734   1.1667221090e+02   1.5437889596e+01    0.5520904    0.3125326  80.75  0.003050209    2.106    0.525
       116 -12.7169    110.0054     42.1261   7.1222300757e+01   5.2142434428e+01     0.489956    0.2641436  48.24   0.00139918    1.830    0.454
       117 -11.7442    147.3169    239.0364   1.0710565449e+02   5.6466853063e+00    0.1644722    0.1432183  53.36  0.000989661    1.113    0.102
       118 -14.0583     23.2857    224.2678   1.2803715915e+02   2.5578482951e+01    0.9458883     0.594283  81.46  0.006839651    1.222    0.182
       119 -13.6757      8.8304    210.8195   1.2978248867e+02   2.9576290747e+01     1.246939    0.5841347  78.81  0.007698308    1.732    0.423
       120 -12.4066     79.4298     60.9233   8.7666818424e+01   5.4715065672e+01    0.4739828    0.4233066  -0.77  0.002091815    1.130    0.115
       121 -13.0548     81.3652     54.5503   8.4783438641e+01   5.5618437812e+01    0.7521852    0.5254105  18.82  0.003738147    1.669    0.401
       122 -10.7293     39.0303     60.4804   1.0221472193e+02   6.0192535050e+01    0.2679316     0.189394  86.41  0.001397441    2.319    0.569
       123 -11.9970     24.3342     59.6709   1.0765172305e+02   6.1676952598e+01    0.3694894    0.1945751 -53.29  0.002031963    1.463    0.317
       124 -12.4571    247.8209     54.5220   4.9980120402e+01   1.6327353244e+01    0.5931128    0.2895833 -49.40   0.00261808    1.944    0.486
       125 -12.3747    249.1568     49.0762   4.8519216764e+01   1.6793080935e+01    0.3637913    0.3225791 -31.44  0.001851507    1.179    0.151
       126 -13.3982    103.1923     50.7488   7.6419665096e+01   5.2171484139e+01     0.756628    0.4347258 -49.87 0.0005006532    2.057    0.514
       127 -12.6918     97.9041     50.3311   7.7873983543e+01   5.3314100109e+01    0.8418916    0.3511953 -44.90  0.002653403    2.550    0.608
       128 -11.0283     23.4990     50.0120   1.0533477913e+02   6.3766675130e+01    0.3116556    0.1745421 -15.54  0.001405644    2.292    0.564
       129 -10.9843     27.0161     46.3679   1.0277440708e+02   6.4218268747e+01    0.2732306    0.2509216  53.82  0.001935053    1.474    0.322
       130 -13.2005    157.6452     43.8612   6.0541381595e+01   4.0406588405e+01    0.9002045    0.5545085  33.81  0.003807619    1.955    0.488
       131 -13.4647     24.3340    150.7637   1.2239263290e+02   4.0781373867e+01     1.641358    0.8777413 -51.31  0.008567574    2.124    0.529
       132 -12.6969     16.7374    195.6807   1.2751637590e+02   3.1802716832e+01    0.9315426    0.2624663 -74.40  0.004355765    2.903    0.656
       133 -13.7127     29.8504    169.4864   1.2292566998e+02   3.6045198752e+01      1.05705    0.6690865  58.45  0.003356399    1.446    0.308
       134 -11.9547    170.0062     43.7140   5.8154742932e+01   3.7230410246e+01    0.3683667    0.2933362  51.62  0.001626095    1.237    0.191
       135 -13.4666     22.2688    181.2862   1.2546363173e+02   3.4250110315e+01    0.5733137     0.472783 -74.24  0.002846416    1.335    0.251
       136 -11.3680     55.6085     41.1025   8.9197195787e+01   6.2071086690e+01    0.1823257     0.167579  -4.65 0.0003343572    1.155    0.134
       137 -12.0139    104.5025     36.9944   7.0811450157e+01   5.4114049514e+01    0.4071905    0.1389546 -30.90   0.00139223    3.016    0.668
       138 -12.4316     75.9709     37.4675   8.0135287132e+01   5.9559957602e+01    0.3423676    0.2434198  39.86  0.001056704    1.487    0.328
       139 -11.8242     69.4098     36.6266   8.2156814687e+01   6.0793607249e+01    0.4276503    0.2318825  28.52  0.001415607    2.087    0.521
       140 -13.0639    242.1411     35.4832   4.5975734520e+01   2.0225664127e+01    0.7136221    0.4602687  67.04  0.002593413    1.604    0.376
       141 -11.5661     58.3465     35.4856   8.5898165336e+01   6.2677051096e+01     0.502605     0.270796  26.82  0.002479099    2.100    0.524
       142 -12.8549     29.4816     32.1049   9.6762913863e+01   6.6734530332e+01    0.9807306    0.3607043  22.86  0.003633476    3.362    0.703
       143 -14.7262      7.9932    183.5454   1.2841338747e+02   3.5108467202e+01    0.9664162    0.7515842  76.58  0.007372691    1.120    0.107
       144 -12.3644     57.1616    203.3343   1.2038869137e+02   2.5691909282e+01    0.5909932     0.256246 -84.36  0.002770643    2.626    0.619
       145 -12.1933     46.1661     33.9172   9.0209317141e+01   6.4579094949e+01    0.4853211    0.2625237 -31.51  0.002524817    1.695    0.410
       146 -13.7644     62.9182    214.5505   1.2027895782e+02   2.2724592916e+01    0.9410297    0.4466068  48.91  0.005212665    1.744    0.427
       147 -10.8414     90.7294     34.0565   7.3799411841e+01   5.7377243931e+01    0.2553026    0.1655763  30.19  0.001175357    1.601    0.375
       148 -12.7038     94.6135    218.5973   1.1463997304e+02   1.7473057120e+01    0.3532794    0.2299609  55.59  0.001447481    1.274    0.215
       149 -10.2308     89.4529     30.4296   7.2709490227e+01   5.8162692031e+01    0.1371837    0.1210107   5.29 2.621089e-05    1.016    0.016
       150 -10.9328     85.4869    215.9705   1.1611889736e+02   1.9320009152e+01    0.2526463    0.1354994  55.45  0.001381098    1.603    0.376
       151 -12.8465     56.7270     27.4503   8.3155576355e+01   6.4234867889e+01    0.5580034    0.3011923  43.58  0.001770088    2.188    0.543
       152 -12.8150     67.8649     24.5424   7.7576089062e+01   6.2935439519e+01    0.6769077    0.3456482  38.15  0.003329974    1.982    0.495
       153 -11.3231    185.8104    214.0041   9.6300082101e+01   2.9434885518e+00    0.1922773    0.1526079 -87.25  0.001084383    2.019    0.505
       154 -10.9413     97.9375     27.1370   6.8750789737e+01   5.6902503351e+01    0.1982913    0.1934987  83.83   0.00108136    1.266    0.210
       155 -11.0992    136.8376    211.3282   1.0545226810e+02   1.1963296002e+01    0.2071981    0.1733954 -83.90 0.0008259487    1.351    0.260
       156 -10.9799     45.6418    209.2317   1.2307883256e+02   2.5937606057e+01    0.3392631    0.1480039 -88.01  0.001696038    2.426    0.588
       157 -11.9789     41.8632    206.7463   1.2359431089e+02   2.6877744609e+01    0.3187514    0.1496359  82.11  0.001662242    2.184    0.542
       158 -11.1198    200.5186    215.4933   9.3785509397e+01   1.8320489340e-01    0.1282945    0.1062927  25.30 0.0003379074    1.014    0.014
       159 -11.0968    150.1826    206.9189   1.0214309351e+02   1.0411099083e+01    0.3090695     0.169284  38.55  0.001166625    1.661    0.398
       160 -12.9556     40.5142    195.3520   1.2295434603e+02   2.9347392122e+01     0.475035    0.2014168  88.23  0.002215661    2.640    0.621
       161 -14.9508     16.0214    175.6180   1.2630295047e+02   3.6055086066e+01      2.16773    0.8563494  64.46   0.01064124    2.532    0.605
       162 -11.4795    163.7902    195.3917   9.7541960081e+01   9.9758625556e+00    0.2714307     0.165105 -81.85 0.0009602332    4.323    0.769
       163 -13.1830     66.3696    223.4515   1.2040142002e+02   2.0575213283e+01     0.722436    0.5077584  43.85   0.00482537    1.416    0.294
       164 -12.4440    201.1211    191.8356   8.9509478222e+01   3.6400076400e+00    0.3394247     0.281724  17.01  0.001780637    1.128    0.114
       165 -11.6098     49.0991    181.6402   1.1998072231e+02   3.1241730499e+01    0.3424912    0.2186052 -59.03  0.002017549    1.689    0.408
       166 -12.2310    198.4482    181.6089   8.8080529759e+01   5.8007953869e+00    0.2831716    0.2618228  43.52  0.001430477    1.166    0.142
       167 -12.0226    124.5962    167.7983   1.0121400235e+02   2.2732147594e+01    0.4259478    0.2729985 -59.20  0.002056606    1.634    0.388
       168 -11.8390     77.3299    156.9532   1.1056661981e+02   3.3045708984e+01    0.3932468    0.2737392  38.44  0.001404829    1.551    0.355
       169 -12.7735     74.0074    153.3375   1.1082851542e+02   3.4363764464e+01      0.59646     0.451525  34.73  0.002809315    1.518    0.341
       170 -11.2305     85.8899    152.9136   1.0785421439e+02   3.2694060758e+01    0.3556004    0.1726874 -51.53  0.001544623    2.101    0.524
       171 -11.4763    103.1970    150.2111   1.0312999399e+02   3.0483690903e+01    0.3176745    0.2457385 -36.57  0.001630987    1.588    0.370
       172 -11.8807      6.4408    147.7333   1.2620793658e+02   4.2971746939e+01    0.3810731    0.2238862  75.00  0.002351198    1.510    0.338
