#   1 NUMBER                 Running object number                                     
#   2 MAG_AUTO               Kron-like elliptical aperture magnitude                    [mag]
#   3 X_IMAGE                Object position along x                                    [pixel]
#   4 Y_IMAGE                Object position along y                                    [pixel]
#   5 X_WORLD                Barycenter position along world x axis                     [deg]
#   6 Y_WORLD                Barycenter position along world y axis                     [deg]
#   7 A_WORLD                Profile RMS along major axis (world units)                 [deg]
#   8 B_WORLD                Profile RMS along minor axis (world units)                 [deg]
#   9 THETA_WORLD            Position angle (CCW/world-x)                               [deg]
#  10 FWHM_WORLD             FWHM assuming a gaussian core                              [deg]
#  11 ELONGATION             A_IMAGE/B_IMAGE                                           
#  12 ELLIPTICITY            1 - B_IMAGE/A_IMAGE                                       
         1 -13.4537     54.6791    122.6018   6.5995507017e+01   4.4985342369e+01     4.276703     1.115785 -69.54    0.0102739    5.654    0.823
         2 -13.2765    231.1973     43.4680   4.1245713665e+00   2.2740228942e+01    0.9901414    0.7878697  39.29  0.006132688    1.765    0.434
         3 -13.3589    215.9104     53.3383   7.9114236134e+00   2.4619615567e+01      1.51035     1.115224  37.35  0.008356082    1.878    0.468
         4 -12.6668      3.1504      8.4452   5.8098768462e+01   7.7064651757e+01     1.117477    0.6470304 -42.49  0.006647331    1.475    0.322
         5 -12.0853      9.6252     23.8955   6.0741502219e+01   7.3622781742e+01    0.6996663    0.3061966  32.08  0.002138923    2.523    0.604
         6  -9.7888    158.0520      8.9920   2.0899605005e+00   4.3790692995e+01    0.2071833     0.177575 -82.48 0.0003977389    1.015    0.015
         7  -9.3179     28.5108     24.4501   4.7936532816e+01   7.1516119112e+01     0.128899    0.1120133  -7.95 0.0002658207    1.042    0.040
         8  -9.3214     75.0000    249.4641   7.5769945464e+01   1.2864004081e+01    0.2596566    0.1471814 -72.17  0.001505468    2.166    0.538
         9 -10.5848     74.8949    244.3978   7.5384712324e+01   1.3787248668e+01    0.3365628    0.2755499  18.38  0.002260208    1.374    0.272
        10 -10.1780     56.5800    247.1981   7.9463744568e+01   1.5509091237e+01    0.8009903    0.1135471 -61.60  0.002781352    6.159    0.838
        11 -10.3423     47.7596    240.1264   8.0861205764e+01   1.7859253462e+01    0.3655768    0.2576896   5.48  0.001754978    2.097    0.523
        12 -10.1102     62.5866    226.2589   7.6600341396e+01   1.8809792977e+01    0.2728256     0.233729 -69.99  0.000732514    1.363    0.266
        13  -9.6471     54.7442    240.2016   7.9377611867e+01   1.7031664343e+01    0.2590252    0.2128485  22.50 0.0008803628    1.383    0.277
        14 -11.8121     58.6601    232.6969   7.7986184956e+01   1.8012043791e+01    0.6796104    0.4645329  86.25  0.004164716    1.580    0.367
        15 -10.4498     54.1340    230.3404   7.8811376941e+01   1.9022404369e+01     0.359966    0.2564135  68.87  0.001737872    1.325    0.245
        16 -12.3638     27.5950    237.7220   8.4972503424e+01   2.0530669535e+01    0.7290566    0.4743377  74.51  0.001585306    1.400    0.286
        17 -15.8494     23.9462    182.0326   8.2561634780e+01   3.3047142304e+01     9.224217     2.958246  89.64  0.008831789    3.986    0.749
        18  -9.8164     77.0036    230.4802   7.3718566258e+01   1.6134208596e+01    0.2075186    0.1769992  89.37 0.0005241599    1.299    0.230
        19  -8.8979     68.3208    230.3059   7.5648277358e+01   1.7284374485e+01    0.1144618   0.09562348  -8.27 0.0003279642    1.637    0.389
        20  -9.9460     72.4110    226.4960   7.4392391314e+01   1.7514651231e+01    0.5085269     0.157134  38.80   0.00211556    2.412    0.585
        21 -14.7103      9.2385    207.0417   8.7547975781e+01   2.8669279134e+01     2.362894     1.207699  15.03  0.005347025    2.631    0.620
        22  -8.5085    141.6757    213.7568   5.7070306011e+01   1.0018269885e+01    0.1598392    0.1258456 -60.35 0.0005538777    1.611    0.379
        23 -11.5351    110.6163    196.7245   6.1809305768e+01   1.8196598522e+01    0.7162772    0.2686436  25.36  0.002307338    3.683    0.729
        24 -11.1787     82.1296    196.4469   6.8888938066e+01   2.2552783912e+01    0.6724168    0.3865462  21.80  0.003066757    1.995    0.499
        25 -10.5430     42.0495    234.8594   8.1753817352e+01   1.9527287623e+01     0.510016    0.2491311 -76.45  0.002766106    2.230    0.551
        26  -9.0496     93.8269    192.1300   6.5358741010e+01   2.1792467741e+01    0.1839713    0.1646905 -16.01 0.0004483336    1.324    0.245
        27 -10.3839     78.8479    188.2039   6.8707076652e+01   2.4901391262e+01    0.6118011    0.3247091 -76.89  0.002635766    2.310    0.567
        28  -9.3438    160.2257    183.1653   4.7852476125e+01   1.2734085155e+01    0.3204075    0.1647063 -54.73  0.001325966    2.516    0.603
        29 -10.1282     99.0142    181.2014   6.2437755938e+01   2.3459699960e+01    0.2971764    0.2571508  32.27 0.0006308628    1.116    0.104
        30  -8.8710    174.5237    181.5313   4.4453882550e+01   1.0629753421e+01    0.1367363    0.1245208   6.19 7.897263e-05    1.053    0.051
        31  -8.7482    131.7709    187.3881   5.5191631978e+01   1.6712366820e+01    0.1950841    0.1278448  26.03 0.0003017228    1.523    0.343
        32  -8.5247     90.4292    237.4384   7.1400004891e+01   1.3046271001e+01    0.1255719    0.1010704  41.59  6.38042e-05    1.007    0.006
        33  -9.5138     91.6072    174.8520   6.3438502050e+01   2.6116003356e+01    0.3201223    0.2377025  69.00  0.000984204    1.504    0.335
        34 -10.1272     71.0389    166.4532   6.7921120438e+01   3.1269863354e+01     0.654604    0.3247309  80.73  0.002106531    3.862    0.741
        35 -11.5943     86.8301    164.7752   6.3173925836e+01   2.9304256429e+01     1.543365    0.4594069  50.64  0.003790429    5.649    0.823
        36 -11.6490     82.0144    133.4739   5.8949233696e+01   3.8014156698e+01    0.4562609    0.2861932 -49.90 0.0006234958    1.607    0.378
        37 -13.1499     56.6641    146.8218   6.9366455832e+01   3.8291927810e+01     1.080277    0.7372305 -30.21 0.0008046995    1.957    0.489
        38  -9.0990    136.3174    247.7048   6.2735925783e+01   5.0728847673e+00    0.1185983   0.08142739  49.68 0.0002076818    1.607    0.378
        39 -11.4888     53.9277    163.2491   7.2439011628e+01   3.4389643913e+01    0.4868889    0.3352956 -21.81  0.002259372    2.153    0.536
        40 -11.3897     59.5381    159.0379   7.0236028996e+01   3.4739287869e+01    0.4473729    0.3312335 -22.17    0.0016769    1.855    0.461
        41 -12.3184     70.6159    151.1614   6.5726880030e+01   3.5218180838e+01    0.5981746     0.537495 -55.01 0.0008331238    1.166    0.142
        42 -12.5878     69.4897    145.1756   6.5084566085e+01   3.6935744054e+01     1.001805    0.5998654  81.30  0.003543688    2.320    0.569
        43  -9.1527    110.3351    166.9621   5.7079138232e+01   2.4874047098e+01    0.2351486    0.1922592  48.35 0.0003273874    1.190    0.159
        44  -9.9942    178.5998    165.4782   4.0455705695e+01   1.2888991872e+01    0.2530574    0.1788739 -68.54  0.001149824    2.345    0.574
        45  -9.2602     75.0218    166.0214   6.6720838265e+01   3.0799103029e+01    0.2401319    0.1615005  66.96 0.0005884561    1.659    0.397
        46  -9.4337    244.2984    155.6045   2.6791422262e+01   3.8660783534e+00    0.2178052    0.1217152 -39.94 0.0006650256    1.621    0.383
        47  -8.4480     96.3519    153.2282   5.8451302666e+01   3.0584789950e+01    0.2064393    0.1429307 -74.09 0.0004235594    1.669    0.401
        48  -9.6431    133.8599    146.6594   4.6843013429e+01   2.5199025163e+01    0.7295806    0.2010828 -54.50  0.001798361    5.268    0.810
        49 -10.6769     40.1549    146.4718   7.4516234874e+01   4.0381703863e+01    0.2926158    0.2275354 -80.29  0.001446294    1.195    0.163
        50 -14.4545     10.5289    243.9696   8.8692957056e+01   2.1030147890e+01     1.518814    0.7798941  42.68  0.009534682    1.437    0.304
        51 -10.1197     95.4618    134.6816   5.5009331490e+01   3.5374098193e+01     0.533762    0.3784536  -6.21  0.002199756    2.155    0.536
        52 -11.2333     45.3201    133.0443   7.0981720924e+01   4.3361037475e+01     0.727791    0.3057796  89.72  0.002075989    4.574    0.781
        53  -9.4081     37.1564    135.3309   7.4044796764e+01   4.3662644053e+01    0.2844737    0.1611373  71.87  0.001135426    2.066    0.516
        54 -14.1596     35.3320    176.0278   7.9049174285e+01   3.3347920587e+01     2.092487     1.194618  87.66  0.009272406    1.762    0.433
        55 -12.5136    126.6678    229.7773   6.2580168014e+01   9.3846407635e+00    0.8042179    0.3779255  29.68    0.0038246    1.869    0.465
        56  -9.9848    106.2655    128.6898   5.0415932639e+01   3.4844030377e+01    0.5778596    0.3197265 -37.37  0.002179443    2.180    0.541
        57  -9.9956     74.4774    129.7336   6.0632390195e+01   4.0210372911e+01    0.3676577    0.2398105 -47.37 0.0009597355    1.579    0.367
        58 -10.6169     67.6012    128.7879   6.2729437703e+01   4.1518120912e+01    0.3538283    0.2677913 -72.84  0.001407206    1.328    0.247
        59 -10.0668     67.4485    124.8440   6.2002816800e+01   4.2581153917e+01     0.398984    0.2852046  -9.85  0.001628814    1.984    0.496
        60 -13.4482      8.2663    229.7659   8.8655000619e+01   2.4001030008e+01     1.179755    0.4833441  25.13  0.005980373    2.534    0.605
        61 -15.3714      7.1061    219.7878   8.8533898459e+01   2.6142246583e+01     6.486685     1.960101  17.53   0.02022128    6.712    0.851
        62 -10.0084     38.0730    124.4628   7.2174738779e+01   4.6475320276e+01    0.2056999    0.1431985  26.61 0.0003943755    1.550    0.355
        63 -10.0301     93.9292    122.3150   5.2708745517e+01   3.8766982701e+01    0.3510051      0.27889 -12.50  0.001606449    1.615    0.381
        64 -11.6682    108.4157    228.7978   6.6495704649e+01   1.2166170945e+01    0.5310895     0.230901  34.82  0.002472004    1.874    0.466
        65  -8.5310     65.8007    120.3813   6.1659818787e+01   4.4005374023e+01    0.1935694    0.1490038  17.54 0.0002540744    1.492    0.330
        66  -9.0397    104.8412    116.6714   4.7931193126e+01   3.8059361333e+01    0.2141826    0.1944376  52.96 0.0004037238    1.111    0.100
        67  -9.5672     31.0992    115.0604   7.3256580719e+01   4.9707310933e+01    0.2568488    0.1934475  50.80 0.0007250833    1.390    0.280
        68 -11.1802     16.9427    113.6310   7.8317125897e+01   5.1291493814e+01    0.4044982    0.3015105 -17.50  0.001640207    1.630    0.387
        69 -10.7940     14.3782    110.3717   7.8869407472e+01   5.2341561692e+01    0.3109206    0.2864311  35.17  0.001509158    1.217    0.178
        70  -9.4227    205.1857    110.5066   2.3191034977e+01   1.7867027740e+01    0.2437452     0.224806 -14.89 0.0007199203    1.114    0.102
        71  -9.5460     24.2292    105.4911   7.4393124298e+01   5.2884341456e+01    0.2633051     0.218856 -37.51 0.0008358317    1.270    0.212
        72  -8.7123     20.4840     90.5487   7.3441801984e+01   5.7129253966e+01    0.1377994    0.1241683 -72.10 0.0008080166    1.046    0.044
        73 -10.7800    148.7164    229.4050   5.7791335423e+01   6.2791802262e+00     0.290491    0.2234421 -42.58  0.001816534    1.521    0.342
        74  -9.0832     38.2676     86.0201   6.4735673935e+01   5.6625738498e+01     0.201978     0.177047 -64.28 0.0003640768    1.086    0.079
        75  -8.6326     70.3062     78.3448   4.9038186581e+01   5.3872926710e+01    0.1586807    0.1166041 -17.56 0.0007042466    1.693    0.409
        76  -9.2895     21.0584     70.8242   6.9116116532e+01   6.2121410076e+01    0.2104539    0.1796319  68.78  0.001221428    1.370    0.270
        77 -12.5102     78.9194    147.1665   6.2517734987e+01   3.4983981407e+01     1.799139    0.9618159 -53.17  0.006003167    1.870    0.465
        78 -10.9669     97.8739    227.8274   6.8752829653e+01   1.3827168695e+01    0.4412682    0.3265423  64.72  0.002618102    1.487    0.328
        79 -11.8603    206.4259     59.5418   1.0519802873e+01   2.5808218345e+01    0.4299222     0.414308 -84.25  0.001063048    1.159    0.137
        80  -8.9146     50.5000    246.3334   8.0675986785e+01   1.6377067118e+01    0.1735852    0.1095145 -71.39  0.000444316    1.837    0.456
        81 -10.2855     17.1938     46.1934   6.4316053596e+01   6.8280353577e+01    0.2209598    0.1889161 -65.29 0.0006132316    1.260    0.206
        82 -10.0618     18.6481     43.2757   6.2434742434e+01   6.8806393714e+01    0.2006932    0.1750119   3.24 0.0008479462    1.179    0.152
        83  -8.1925     72.3470     32.6940   3.0168495491e+01   6.2441177716e+01    0.1377339    0.1138408 -84.72 0.0007042427    1.698    0.411
        84 -10.5933    212.0380    242.9624   4.7454970183e+01  -4.0299494710e+00    0.2208662    0.1548666  -3.34 0.0009601202    1.176    0.150
        85 -10.4927    119.0870    242.7471   6.5766666301e+01   8.2229888280e+00    0.2737519    0.2128453 -67.16   0.00101161    1.686    0.407
        86  -9.1067     60.2450     21.2097   2.9323423243e+01   6.6626177863e+01    0.2020307    0.1660896  17.36 0.0005643387    1.154    0.134
        87  -9.1158    189.4992     15.0696   7.9581879690e-01   3.5402938409e+01    0.1918889    0.1213587 -32.78 0.0006782303    1.580    0.367
        88 -10.0754     37.7471    240.9444   8.3020075709e+01   1.8825257120e+01    0.2230162    0.1857951 -71.20 0.0005617579    1.468    0.319
        89 -11.3680     19.6953     28.7697   5.5865148675e+01   7.1738318419e+01    0.5976039     0.275562  44.63  0.002114605    3.361    0.702
