#   1 NUMBER                 Running object number                                     
#   2 MAG_AUTO               Kron-like elliptical aperture magnitude                    [mag]
#   3 X_IMAGE                Object position along x                                    [pixel]
#   4 Y_IMAGE                Object position along y                                    [pixel]
#   5 X_WORLD                Barycenter position along world x axis                     [deg]
#   6 Y_WORLD                Barycenter position along world y axis                     [deg]
#   7 A_WORLD                Profile RMS along major axis (world units)                 [deg]
#   8 B_WORLD                Profile RMS along minor axis (world units)                 [deg]
#   9 THETA_WORLD            Position angle (CCW/world-x)                               [deg]
#  10 FWHM_WORLD             FWHM assuming a gaussian core                              [deg]
#  11 ELONGATION             A_IMAGE/B_IMAGE                                           
#  12 ELLIPTICITY            1 - B_IMAGE/A_IMAGE                                       
         1 -12.5126    199.2274     36.4432   4.8442997362e+01   3.0838587366e+01     1.443835     1.033643  29.09  0.007086459    1.857    0.462
         2 -12.4559    210.9977     23.9913   4.3676284718e+01   2.9484128189e+01     1.024865    0.7734638  32.71  0.005520627    1.735    0.424
         3 -10.4546     22.1244     18.6639   9.2258725968e+01   6.9836440565e+01    0.3343724   0.09956849 -43.99  0.001484966    2.696    0.629
         4 -10.4500     33.0000     12.0322   8.3734863394e+01   6.9717297161e+01    0.4708104    0.1152127 -37.16  0.001816687    3.630    0.724
         5  -9.6663     32.9938      3.4956   7.9366172072e+01   7.0881767748e+01    0.3785948    0.1117204 -35.11   0.00164708    3.066    0.674
         6  -9.8469    235.3146      1.7594   3.6076568207e+01   2.6227777603e+01    0.6512992    0.1646911  75.13  0.002350967    3.819    0.738
         7  -8.4491    104.5739    172.3154   1.0385700898e+02   2.5157479760e+01     0.272353    0.1364446 -64.28  0.001144126    2.174    0.540
         8 -12.0573     15.4386    190.8512   1.2571602403e+02   3.2566213820e+01    0.7053561    0.4575349  72.49 0.0004811116    1.236    0.191
         9 -14.0733     44.5255    204.7781   1.2098323132e+02   2.6571489169e+01      3.11078     1.717996  67.00   0.01777599    1.642    0.391
        10 -12.9449     53.8463    194.6249   1.1817362843e+02   2.7589382002e+01      1.71954    0.9320425  63.70  0.009147063    1.775    0.437
        11 -14.5140     64.5706    248.0127   1.2060389751e+02   1.5825539411e+01     6.273627      2.32854  31.13   0.01674365    4.119    0.757
        12  -9.0190    193.2479    194.6546   8.8264951839e+01   4.5042185307e+00    0.3329693    0.1660502 -57.74  0.001191944    4.018    0.751
        13 -11.2394     81.8147    162.3857   1.0780686786e+02   3.1055073713e+01    0.8143145    0.4696354  70.68 0.0006858952    2.258    0.557
        14 -11.8440     70.0083    158.8795   1.1020958525e+02   3.3573274299e+01    0.5888112    0.3945923 -44.82  0.001482089    1.762    0.433
        15 -11.7242     68.7430    144.3477   1.0830735645e+02   3.7216881982e+01    0.8898654    0.5523397  80.92  0.003228447    2.018    0.505
        16  -9.8350     73.7008    188.4770   1.1322662929e+02   2.6306486404e+01    0.4192487    0.2248321  68.64  0.001948654    2.180    0.541
        17 -10.3825     32.7461    157.4367   1.1914087236e+02   3.8330378732e+01     0.392175    0.1588548 -73.26  0.001807867    2.121    0.529
        18 -10.5548     88.7577    156.4470   1.0512497900e+02   3.1387074282e+01    0.5372445    0.4275957 -14.55   0.00206895    1.830    0.454
        19  -8.7280    134.5020    148.5305   9.2122601261e+01   2.5035153102e+01    0.3783877    0.1501169 -55.07  0.001266423    2.872    0.652
        20  -8.7946     84.5336    144.0883   1.0408058136e+02   3.4985465361e+01     0.301261    0.2091317  73.24  0.001079756    1.692    0.409
        21  -9.5926    102.5019    141.2134   9.8775602219e+01   3.2721780530e+01    0.4980562    0.3049273 -31.43  0.002034963    2.376    0.579
        22 -10.3249     33.0596    140.3244   1.1710937367e+02   4.2328881165e+01    0.4974307    0.1825042 -69.90  0.002147828    2.279    0.561
        23 -10.6268     89.9467    141.0106   1.0207339769e+02   3.4872160763e+01    0.2868683    0.2544503 -51.08 0.0004254729    1.162    0.140
        24  -8.5721     99.5156    180.5178   1.0631398671e+02   2.4164929895e+01    0.1380907    0.1235495  71.83 -1.562862e-05    1.002    0.002
        25  -9.5466     28.6011    138.5469   1.1804941133e+02   4.3169472678e+01    0.2528408    0.1842349  72.28 0.0008900724    1.344    0.256
        26 -11.1517     59.0250    132.6695   1.0902002053e+02   4.1314236688e+01     1.132908    0.3756565 -72.45  0.003336687    4.581    0.782
        27  -9.5126     32.5980    131.0685   1.1604395611e+02   4.4582785720e+01    0.5344722    0.1160697 -70.47  0.001653926    4.355    0.770
        28  -8.6583    111.7889    130.7185   9.4077202996e+01   3.3524286648e+01    0.2331793    0.1953132   9.92 0.0007686964    1.476    0.323
        29  -8.5767    105.8373    131.1030   9.5767938485e+01   3.4526792803e+01     0.240465    0.2016321  84.22  0.001224919    1.316    0.240
        30  -9.1192     99.0928    127.1407   9.6751044355e+01   3.6663883049e+01    0.3009757    0.2440151 -22.61  0.001009395    1.517    0.341
        31  -8.7112    117.3211    125.3494   9.1359429292e+01   3.3723518515e+01     0.158055      0.12193 -13.94 0.0005948375    1.742    0.426
        32  -9.3672    135.1570    121.4901   8.5727973805e+01   3.0977450195e+01    0.5193204     0.108529 -50.56  0.001121986    6.161    0.838
        33  -8.1117    107.9812    119.5659   9.2544258287e+01   3.6852338686e+01    0.2109225    0.1501855  37.96 0.0002868714    1.477    0.323
        34  -8.4250    205.7341    110.3915   6.7141749845e+01   1.7260120166e+01    0.2072879    0.1410386  40.59 0.0004516729    1.578    0.366
        35 -10.0687     50.1726    108.0086   1.0716805248e+02   4.8337077525e+01    0.3769942    0.2386096  52.09  0.001916168    1.876    0.467
        36  -9.2066     32.6538    107.0102   1.1240908704e+02   5.0341408874e+01    0.3156337    0.1023867 -65.61  0.001247898    2.535    0.606
        37 -10.3592     68.6868    178.0012   1.1308752553e+02   2.9330353851e+01    0.3913824    0.2878067 -31.08   0.00209428    2.097    0.523
        38  -8.8512    114.5232    105.4987   8.7157327837e+01   3.8832293717e+01    0.1533746    0.1478059 -38.63 4.738541e-05    1.020    0.019
        39  -9.5358     32.7560     99.8294   1.1111607913e+02   5.2038026244e+01    0.3006388    0.1248283 -61.11  0.001366209    1.905    0.475
        40 -10.3001     73.4136    172.7161   1.1130940520e+02   2.9879333070e+01    0.3630192    0.2543087 -44.67 0.0007740888    1.763    0.433
        41  -8.5727     41.6436     91.8987   1.0662619482e+02   5.3065473805e+01    0.1896692    0.1448375 -58.67 0.0004910683    1.108    0.097
        42 -15.1878      6.7398    206.8548   1.2830122627e+02   3.0080305629e+01      6.03029     1.435422 -73.84   0.01652161    3.328    0.700
        43  -8.2231     74.8998     84.8782   9.3662122488e+01   5.0497257094e+01    0.1849828    0.1680373  80.47 0.0005071391    1.310    0.237
        44  -8.5412    209.6606    199.3731   8.5928907494e+01   8.3912228618e-01    0.1776473    0.1592596  72.22 0.0003987792    1.611    0.379
        45  -8.6891    113.4855    172.9933   1.0185703545e+02   2.3482133611e+01    0.1998478    0.1220103 -86.32 0.0008098376    2.495    0.599
        46  -9.6090    146.8809     51.1419   6.2074421421e+01   4.2042045381e+01    0.4772171     0.309233 -84.39  0.001579654    2.554    0.608
        47 -11.3660    190.0950     42.9720   5.1579936959e+01   3.2261099018e+01    0.5471595    0.4519592  -0.71  0.000990551    1.492    0.330
        48 -15.6216      7.7328    243.7083   1.2984255970e+02   2.3053757233e+01     16.26199     1.791137 -78.34  0.002578301    8.411    0.881
        49 -10.2774     73.5725    231.0641   1.1760846916e+02   1.7682149890e+01    0.3663715    0.1834526  41.24  0.001567424    1.745    0.427
        50  -9.1100     33.0000     48.9865   9.8597591624e+01   6.3284604897e+01    0.3600286     0.060712 -53.97  0.001064473    5.054    0.802
        51  -8.7238    148.3291     44.5253   5.9578586408e+01   4.2673226837e+01    0.2445548    0.2245466 -59.75 0.0004912738    1.163    0.141
        52 -10.2324     32.4984     31.7084   9.2653213823e+01   6.6596612224e+01    0.5804718   0.09528834 -47.74  0.001824188    4.938    0.798
        53 -10.7374    160.7794    227.7291   1.0020620511e+02   4.7245150131e+00    0.4932981    0.1608802  37.37  0.001934364    2.751    0.637
        54 -10.2804    162.1080    223.2000   9.9280728772e+01   5.2344044745e+00     0.310403    0.1900602  23.53  0.001574406    1.878    0.467
        55  -7.8009    198.6983    222.7044   9.2091415734e+01  -8.1827556019e-01    0.1271955   0.08723821  10.72 0.0005531054    1.576    0.365
