#   1 NUMBER                 Running object number                                     
#   2 MAG_AUTO               Kron-like elliptical aperture magnitude                    [mag]
#   3 X_IMAGE                Object position along x                                    [pixel]
#   4 Y_IMAGE                Object position along y                                    [pixel]
#   5 X_WORLD                Barycenter position along world x axis                     [deg]
#   6 Y_WORLD                Barycenter position along world y axis                     [deg]
#   7 A_WORLD                Profile RMS along major axis (world units)                 [deg]
#   8 B_WORLD                Profile RMS along minor axis (world units)                 [deg]
#   9 THETA_WORLD            Position angle (CCW/world-x)                               [deg]
#  10 FWHM_WORLD             FWHM assuming a gaussian core                              [deg]
#  11 ELONGATION             A_IMAGE/B_IMAGE                                           
#  12 ELLIPTICITY            1 - B_IMAGE/A_IMAGE                                       
         1 -16.4181    171.9308    152.6783   6.2347067595e+01   1.7417946452e+01     5.143268     4.044459 -72.44   0.02583565    1.755    0.430
         2 -19.6088    226.9652    113.9370   4.4187322365e+01   1.4827848596e+01     7.438132     5.632814 -44.34   0.03487626    1.122    0.109
         3 -10.2286    143.0912     46.1942   4.0415754046e+01   4.3354966745e+01     0.392581    0.3171993 -35.39  0.001004322    1.281    0.220
         4  99.0000    232.4610    185.9230   5.7676365863e+01   2.1178094856e+00    0.3249865    0.2363202 -83.45  0.001324249    5.286    0.811
         5 -15.1733    223.8928    241.9416   6.8617825166e+01  -5.1047490027e+00     3.979793     1.268936  29.94   0.01889757    2.983    0.665
         6  -9.3582    175.4442    222.8096   7.4699253162e+01   3.6165356930e+00    0.2211904     0.187411   7.69  0.000384802    1.064    0.061
         7  -8.5257    206.9651    224.3436   6.8842978491e+01  -6.6083298525e-01    0.1807318     0.146126 -23.24 0.0002962076    1.213    0.175
         8  -9.0681    186.8389    216.4974   7.1386061920e+01   3.1543267370e+00    0.3687302    0.1745425 -32.72  0.001658803    2.121    0.529
         9  -8.5463    162.2680    219.0698   7.6833971337e+01   6.0623699318e+00    0.2362896    0.1722233  30.83  0.000458486    1.311    0.237
        10  -9.1498    145.0769    216.3608   8.0130122467e+01   8.9858744546e+00    0.2216039     0.172995 -27.12 0.0005301178    1.303    0.232
        11  -8.4630    166.5240    214.9092   7.5265891135e+01   6.2116118175e+00    0.2594144    0.1771076  33.46  0.001443127    1.434    0.303
        12 -10.0800    168.1944    227.8509   7.6972531072e+01   3.7314632537e+00    0.3058683     0.224419 -74.10  0.001275128    2.621    0.618
        13  -9.5498    164.5125    223.5100   7.7061993424e+01   4.9713491449e+00     0.335416    0.1945692  42.04   0.00109626    1.917    0.478
        14  99.0000    230.1525    167.3754   5.4568819243e+01   5.4116360682e+00    0.3030963    0.2223928 -37.73  0.001292948    1.221    0.181
        15 -10.4902    236.7592    166.8739   5.3426205286e+01   4.5812370714e+00    0.2133513    0.1514371  14.71 0.0007364674    1.602    0.376
        16 -11.8586    233.5365    162.7727   5.3143103751e+01   5.6907552186e+00    0.2309233     0.189383 -45.82 0.0006570359    1.356    0.263
        17  -9.3920    222.2675    173.6794   5.7081330108e+01   5.4757087412e+00    0.2390807    0.1377882 -35.93  0.001278425    1.461    0.316
        18 -12.2151    232.0384    177.1081   5.6111799829e+01   3.5742193111e+00    0.4967097    0.3396156 -59.60  0.001247337    2.424    0.587
        19 -10.2808    221.6829    181.2954   5.8624507405e+01   4.2941582411e+00    0.2127357    0.1325538 -39.37 0.0005866533    1.441    0.306
        20 -12.8140    225.3784    179.3686   5.7635797314e+01   4.1057848593e+00    0.2955703     0.218786 -27.26  0.001005843    1.103    0.094
        21  -9.6730    240.4095    174.0754   5.4216513456e+01   2.9514349019e+00    0.1027059    0.0607463  27.67 0.0002581311    1.960    0.490
        22  -9.8483    246.5585    172.6612   5.3015595998e+01   2.3792876379e+00    0.1189884   0.09187651 -18.08 0.0002725577    1.086    0.079
        23  99.0000    245.2716    168.3012   5.2396309691e+01   3.2210897507e+00    0.4662122    0.2121862 -15.33  0.001419415    6.345    0.842
        24  -7.8120    179.5681    210.7458   7.1876038106e+01   5.1252293271e+00    0.1584013    0.1217567 -46.63 0.0004525908    1.494    0.330
        25  -8.7458    183.9513    206.9181   7.0336056574e+01   5.1819017057e+00    0.3744482     0.164878  38.06 0.0009770218    2.359    0.576
        26  -9.2744     67.1765    144.6956   8.8579242181e+01   3.7300523786e+01    0.4297223    0.2534117  61.05  0.001731694    2.237    0.553
        27  -8.8469    169.9031    208.6698   7.3519034908e+01   6.8566286340e+00    0.2826626    0.1951456   5.99  0.001331296    1.516    0.341
        28  -7.6896     88.3002    144.2876   8.2019814020e+01   3.4245507331e+01    0.1530588    0.1172521 -22.46 0.0001694951    1.558    0.358
        29  -9.1044     79.2162    127.8131   8.1385874746e+01   3.9905503214e+01    0.2268614    0.2099593 -85.41 0.0006610426    1.136    0.120
        30  -9.6529     71.3508    126.8678   8.3749320392e+01   4.1356859363e+01    0.2577316    0.2095804  47.03 0.0007361745    1.307    0.235
        31  -8.5800    174.9359    206.3375   7.2073083860e+01   6.5582583005e+00    0.3690321    0.3118084  27.58  0.002269995    1.236    0.191
        32 -10.4285     79.8798    117.0503   7.8702955040e+01   4.2530223983e+01     0.327983    0.2716035  68.73 0.0006406261    1.425    0.298
        33 -10.5835     77.0410    113.0162   7.8678118451e+01   4.4003529887e+01    0.3684986     0.260053 -83.02  0.001592152    1.927    0.481
        34  -8.5572     93.3916    115.3378   7.3912770958e+01   4.0631109113e+01    0.3069003    0.1404587 -47.91 0.0009653851    2.091    0.522
        35  -9.9980     54.8913    111.9035   8.6205486583e+01   4.7544616352e+01    0.3209162    0.1820442 -55.10  0.001149348    1.603    0.376
        36 -11.4002    185.9925    200.8937   6.8872022016e+01   5.9505512301e+00    0.2865992    0.2463886  21.75 0.0009214071    1.214    0.177
        37 -10.9745     81.1732    108.4961   7.6150078447e+01   4.4437543400e+01     0.420978     0.374689  66.01  0.002181577    1.269    0.212
        38  -8.7344     17.0276    106.8789   9.9494735189e+01   5.2724681232e+01    0.2949262    0.1882653  -0.08  0.001306355    1.888    0.470
        39 -10.1330    107.6420    103.9215   6.6538491191e+01   4.0612671313e+01    0.4275906    0.2710373 -39.26 0.0009459995    1.596    0.373
        40  -8.9085    178.8433    202.6357   7.0626017049e+01   6.6633413493e+00    0.4010724    0.3176855  63.63  0.002017687    2.055    0.513
        41  -9.9004     44.2264     94.8576   8.6328976656e+01   5.3219391551e+01    0.2654095    0.2589916 -68.51 0.0003499014    1.107    0.096
        42  -8.6779    221.6148    199.3664   6.1940194661e+01   1.3882524845e+00    0.1559766    0.1030079 -35.97 0.0001332186    1.373    0.271
        43  -9.5642    109.4204     90.4678   6.2175030034e+01   4.3200590597e+01    0.2655283    0.2610966 -61.67 0.0006136469    1.046    0.044
        44  -9.1695    105.8727     85.8400   6.1828647931e+01   4.4910805870e+01    0.3982338    0.2305344 -51.24   0.00122224    1.827    0.453
        45  -7.7172    219.3811    196.2312   6.1769292616e+01   2.1736902129e+00    0.1615421    0.1263662 -49.29 0.0008146663    1.659    0.397
        46  -8.3249    209.2140    199.3621   6.4152501618e+01   3.0056374153e+00    0.1413421     0.112836  28.63 0.0006233827    1.392    0.282
        47  -8.3033     64.4817     77.4756   7.3376339166e+01   5.4486719467e+01    0.2875853    0.1430512  34.79 0.0008551684    2.065    0.516
        48  -8.5003    104.9966     71.5005   5.7561977687e+01   4.7951543058e+01    0.2245395    0.1451845  49.44 0.0005645863    1.558    0.358
        49  -7.6018    192.8198    199.3864   6.7255253439e+01   5.2483155209e+00    0.1593618    0.1142406  17.02 0.0009051766    1.359    0.264
        50  -9.2746    179.5322    191.8036   6.8540553538e+01   8.5383342502e+00    0.2437937    0.2116752 -47.41 0.0005481539    1.340    0.254
        51  -8.6213    180.7558    197.5600   6.9334806686e+01   7.3023198075e+00    0.2034707    0.1666254 -26.71 0.0003979189    1.131    0.116
        52  -8.0297    247.7761     61.0149   3.0749646302e+01   1.9227075294e+01    0.1395045    0.1144799 -56.52 0.0003675334    1.075    0.069
        53  -9.9763    149.3700     51.4286   4.0854562541e+01   4.1128700451e+01    0.5998858     0.282536 -42.17  0.001612523    2.064    0.516
        54 -10.3367    173.1655    226.9563   7.5817251063e+01   3.2228792283e+00    0.3339417    0.1917588  20.29  0.001553182    1.673    0.402
        55  -9.7928    183.8215    194.3734   6.8136504440e+01   7.4306815328e+00    0.2328511    0.2036691   4.09 0.0004910225    1.081    0.075
        56  -7.3368     68.6577     46.7298   6.0713251604e+01   5.9805220412e+01    0.1419068    0.1021048  11.55 0.0006990256    1.610    0.379
        57  -9.3654    175.3358    211.8821   7.2932242585e+01   5.5155794170e+00    0.2310915     0.218677  34.46 0.0005586205    1.346    0.257
        58  -8.8704    117.9557     42.3242   4.4290853134e+01   4.9825911083e+01    0.2401758    0.2055464 -15.34 0.0003432173    1.301    0.232
        59  -9.0142    120.9396     38.6734   4.2378554328e+01   4.9622739965e+01    0.2157471    0.1934653   4.04 0.0004362643    1.262    0.208
        60  -8.0467    132.5021     41.5226   4.0951902198e+01   4.6505386193e+01    0.1372001    0.1289312  82.44 7.270404e-05    1.015    0.014
        61 -16.3527    229.4794     90.1167   3.8754872644e+01   1.8219942040e+01     1.109451    0.7600873  39.49  0.006326738    1.970    0.492
        62  -8.5172    245.2047     35.4092   2.5829075551e+01   2.2980585431e+01    0.1688863      0.12619 -36.92 0.0004839101    1.336    0.251
        63  -9.3151    233.3770    193.1142   5.8830173322e+01   8.8167720540e-01    0.1212948   0.09645174 -27.90 0.0001581459    1.178    0.151
        64  -9.1499    123.7814     30.5349   3.9021297011e+01   4.9981210899e+01    0.2820157    0.2016914 -16.34  0.000812521    1.666    0.400
        65  -9.2944    112.3509     29.5968   4.1060326173e+01   5.2794714105e+01    0.3138666    0.2131849  23.03  0.001092641    1.888    0.470
        66  -9.6520    219.0672    188.0547   6.0334540261e+01   3.5392871188e+00    0.2702312    0.1548015  43.76  0.001264268    2.268    0.559
        67  -9.1493    100.5828     19.5331   3.9934339510e+01   5.6676878794e+01    0.3667454    0.1852471  50.93 -6.142769e-05    1.752    0.429
        68  -8.5981    111.8623     19.2560   3.7412010337e+01   5.4069209072e+01    0.2604471    0.1527795  46.73 0.0007820406    1.639    0.390
        69  -9.1427     76.6644     14.9267   4.4251720382e+01   6.2526355528e+01    0.2225915    0.1702435  57.98 0.0003080793    1.257    0.204
        70 -11.6121    238.4616    186.3292   5.6779813836e+01   1.2932755480e+00    0.2105403    0.1580294 -27.88 0.0005201415    1.108    0.098
