#   1 NUMBER                 Running object number                                     
#   2 MAG_AUTO               Kron-like elliptical aperture magnitude                    [mag]
#   3 X_IMAGE                Object position along x                                    [pixel]
#   4 Y_IMAGE                Object position along y                                    [pixel]
#   5 X_WORLD                Barycenter position along world x axis                     [deg]
#   6 Y_WORLD                Barycenter position along world y axis                     [deg]
#   7 A_WORLD                Profile RMS along major axis (world units)                 [deg]
#   8 B_WORLD                Profile RMS along minor axis (world units)                 [deg]
#   9 THETA_WORLD            Position angle (CCW/world-x)                               [deg]
#  10 FWHM_WORLD             FWHM assuming a gaussian core                              [deg]
#  11 ELONGATION             A_IMAGE/B_IMAGE                                           
#  12 ELLIPTICITY            1 - B_IMAGE/A_IMAGE                                       
         1 -10.9382     30.9630     15.8909   6.1151865618e+01   6.7825216143e+01    0.2671121    0.1302996 -38.92  0.001230211    1.600    0.375
         2 -11.1527     84.0173      8.4912   3.7944310827e+01   6.1244993262e+01    0.1852852    0.1769718  59.40 0.0009494128    1.420    0.296
         3 -10.4791     54.5984     11.0594   4.9325522898e+01   6.5734722785e+01    0.2358586     0.167677  17.77  0.001471078    1.406    0.289
         4 -10.5278     78.9492      7.9662   3.9291996593e+01   6.2234421559e+01    0.1955638    0.1640737   4.78 0.0003912783    1.030    0.029
         5 -11.4348     20.7120      4.7133   6.0810036144e+01   7.0586332528e+01    0.1857822     0.133972  48.83  0.001189294    2.533    0.605
         6 -10.1845      4.3176      5.6778   6.9116123362e+01   7.1684812426e+01   0.09215962   0.07976202 -67.03 0.0007043174    1.666    0.400
         7 -10.4820     88.1736      4.3747   3.4803795978e+01   6.0918189888e+01    0.1703383    0.1243382  60.14 0.0006520388    1.719    0.418
         8  -9.9505    101.5185      2.4879   3.0290050098e+01   5.8400040679e+01    0.1362172     0.114613  17.35 0.0001686609    1.019    0.019
         9 -11.0845     91.0128    236.4888   8.6626278556e+01   1.7251168833e+01    0.2732194    0.1628447  52.19  0.001429104    1.285    0.222
        10 -10.4700     93.1942    249.1754   8.7321128447e+01   1.5087115083e+01    0.1463647    0.1174564 -75.81 0.0006728619    1.497    0.332
        11 -10.2705     84.1629    250.6165   8.8795946769e+01   1.6086831047e+01    0.2493021   0.07806426  42.52 0.0009872759    2.688    0.628
        12 -14.1201     32.8896    206.4196   9.3730275282e+01   2.9336971700e+01     0.862384    0.5936648  81.26  0.003869317    1.096    0.088
        13 -14.6270     65.8460    243.9316   9.1069108791e+01   1.9407471489e+01     1.549732    0.7078022  78.51  0.009166852    2.544    0.607
        14 -15.5136     94.7274    194.1245   8.1820035894e+01   2.3755462325e+01     1.698432     1.063707 -80.04   0.01019417    1.711    0.416
        15 -15.4992     72.2851    209.8089   8.7410246248e+01   2.4095084387e+01     2.766652     0.459758  47.87     0.010525    4.344    0.770
        16 -11.2613    214.9770    226.4622   6.4869539306e+01  -1.0454947381e+00    0.1683786    0.1669256  68.29 0.0005106141    1.449    0.310
        17 -11.5444    125.6235    221.9052   7.9465836685e+01   1.4388329266e+01    0.2954397    0.2061993 -64.84  0.001622633    1.692    0.409
        18 -17.1433     68.3586    188.3080   8.6089140807e+01   2.8473698195e+01     3.237368     2.887776 -81.66   0.02465198    1.297    0.229
        19 -14.9825     20.6498    218.7154   9.6365006703e+01   2.8493971858e+01    0.9773809    0.4315706 -84.56  0.006562024    1.946    0.486
        20 -10.7949    159.9618    221.7193   7.3520357341e+01   8.8216252656e+00    0.2498168    0.1533077  31.87 0.0009221315    1.730    0.422
        21 -11.1730    223.2734    220.2959   6.2544131488e+01  -1.7423765278e+00    0.2062821    0.1664621  38.71   0.00033425    1.202    0.168
        22 -11.4890    173.5162    220.0448   7.0951095783e+01   6.7560441925e+00     0.228326    0.2018192 -66.69  0.001125267    1.461    0.316
        23 -15.6868      6.0236    224.7005   9.8801626574e+01   2.8913314467e+01     1.347469      0.52118 -84.75  0.008243824    2.157    0.536
        24 -10.9907    118.1202    216.0902   8.0107643596e+01   1.6467301476e+01     0.167099    0.1426816  43.67 0.0005538909    1.280    0.219
        25 -11.6407    183.9969    212.8535   6.8087270273e+01   5.9111620675e+00    0.3139364    0.1688532 -50.29  0.001239312    2.528    0.604
        26 -11.4241    125.0918    213.0036   7.8525309546e+01   1.5861834447e+01    0.2726898    0.1724192 -50.73  0.001165342    1.950    0.487
        27  -9.9599    103.1160    213.8891   8.2481810548e+01   1.9102026250e+01     0.140883    0.1187849  49.59 0.0003426428    1.257    0.205
        28  -9.8588    247.3067    212.6975   5.7362776999e+01  -4.8901184773e+00    0.1002385   0.09109242  50.98 0.0002492886    1.600    0.375
        29 -12.1606    153.8354    210.8097   7.3130312762e+01   1.1438787758e+01      0.30451    0.2641787  27.17  0.002101468    1.286    0.222
        30 -10.1871    227.4901    211.5428   6.0422558652e+01  -1.4739177330e+00    0.1225765   0.09535249  27.37  3.57526e-05    1.004    0.004
        31 -10.7301    209.7886    211.5779   6.3421460532e+01   1.5656395024e+00    0.1724105    0.1000516  50.19 0.0006744108    1.673    0.402
        32 -11.0585    138.6895    209.5148   7.5668190675e+01   1.4196379768e+01     0.289748    0.2356224   7.98  0.001845432    1.828    0.453
        33 -11.5418    227.7420    207.1383   5.9640238485e+01  -1.0136847943e+00    0.4927661    0.2135474  54.02   0.00208149    3.194    0.687
        34 -10.2000    248.2186    206.3851   5.6127164458e+01  -4.3790403530e+00    0.1667583   0.09974495  47.00 0.0008655653    1.719    0.418
        35 -10.7432    166.5807    205.2480   7.0047322973e+01   1.0049343377e+01    0.2130577    0.1223222 -51.53  0.001150532    2.179    0.541
        36 -10.6889    142.5061    212.0135   7.5311040330e+01   1.3171835192e+01    0.1557572    0.1195795 -55.42 0.0009801583    1.565    0.361
        37 -10.8843    123.9669    205.7277   7.7840695303e+01   1.7221676084e+01    0.1856888    0.1638931 -89.71 0.0005542901    1.198    0.165
        38 -12.1762    142.4883    199.6344   7.3640343693e+01   1.5130981441e+01    0.3082224     0.210587  77.82   0.00172158    1.886    0.470
        39 -12.5829    146.3809    203.7110   7.3495093080e+01   1.3809236603e+01    0.4060583     0.298263  11.85  0.002296872    2.140    0.533
        40 -10.2154    212.3872    200.1952   6.1082813419e+01   2.5253498967e+00    0.1536688    0.1180738 -43.53 0.0006391309    1.676    0.403
        41 -10.0857    121.4930    200.4944   7.7634644494e+01   1.8495871277e+01    0.1788484    0.1272345  74.04 0.0006097471    1.461    0.315
        42 -12.6191    124.1541    196.1148   7.6571936913e+01   1.8808246609e+01    0.3867082    0.3712851  -9.98   0.00274126    1.396    0.284
        43 -11.9261    134.7449    198.5290   7.4922631736e+01   1.6633043750e+01    0.2255809    0.1917371  65.90 0.0005368692    1.084    0.077
        44  -9.4549    107.2939    199.3043   8.0102048808e+01   2.0943442340e+01    0.1023147   0.09426278  10.56 0.0003401428    1.578    0.366
        45 -10.1791    245.2526    197.9581   5.5114583118e+01  -2.9655124084e+00    0.1697921    0.1366193  13.15 0.0003938965    1.064    0.060
        46 -12.4644    189.8542    195.0975   6.4222832949e+01   7.3160128865e+00    0.4700227    0.3427262  21.31  0.002695475    1.463    0.317
        47 -11.1971    194.0216    193.6496   6.3222829143e+01   6.7519603357e+00    0.3118082    0.1849494  29.31  0.001048387    1.747    0.428
        48 -11.1769    225.0025    199.2202   5.8737471782e+01   4.0041480988e-01     0.243242    0.2134421  54.25  0.001616684    1.441    0.306
        49 -10.5447    218.1411    193.8617   5.8973545181e+01   2.2959192628e+00    0.1869033    0.1649903  41.91 0.0009740777    1.236    0.191
        50 -10.8775    164.0083    193.2597   6.8683008900e+01   1.2336950653e+01    0.1909591    0.1450308  47.23  0.001149939    1.126    0.112
        51 -11.2442    111.7938    192.1871   7.8384899516e+01   2.1493473747e+01    0.2176503     0.205193 -75.71 0.0005032223    1.259    0.206
        52 -12.1757    110.4738    187.9972   7.8094169268e+01   2.2455452529e+01    0.4971654    0.2800969  34.47  0.002003637    2.092    0.522
        53 -10.9626    234.1639    191.7328   5.5833079813e+01  -3.1653406347e-01    0.2436636    0.1460502   5.78  0.001238938    2.075    0.518
        54 -11.7067     10.7831    183.5559   9.5978677653e+01   3.5605977259e+01    0.5303923     0.220357 -80.98  0.002753741    1.941    0.485
        55 -10.2798      6.4436    185.4478   9.6820716041e+01   3.5637197669e+01    0.1769106    0.1094544  80.02 -2.754129e-05    1.177    0.150
        56 -10.6181    133.3126    190.3282   7.4041969524e+01   1.8264880723e+01    0.1174201   0.09845558  10.38 0.0001755746    1.669    0.401
        57  -9.6806      1.8177    189.4942   9.7801121832e+01   3.5297481334e+01    0.2629821   0.08863394 -81.51  0.001508954    2.386    0.581
        58 -11.1150    173.5222    188.8364   6.6184490111e+01   1.1275587989e+01    0.2518562     0.141839  61.25  0.001155284    2.292    0.564
        59 -11.2031     17.4090    187.6689   9.5105222968e+01   3.4245441829e+01    0.3458509    0.1743155 -70.85  0.002334418    1.764    0.433
        60 -10.0516    219.9966    187.6962   5.7532580899e+01   2.7527851250e+00    0.1832758    0.1438279  31.41 0.0004675761    1.072    0.067
        61 -10.9012    123.5133    187.6873   7.5545865349e+01   2.0385840959e+01    0.2520117    0.1701134  58.20 0.0009232962    1.351    0.260
        62 -12.5487    135.5703    185.9615   7.2968946048e+01   1.8631889383e+01    0.3763936    0.2294074 -72.09  0.001901392    2.240    0.554
        63 -10.7071    248.4219    185.7686   5.2331318739e+01  -2.1193412992e+00    0.2415482    0.1652888  24.95 0.0006296307    1.249    0.199
        64 -11.8371    128.4849    184.8290   7.4175740719e+01   2.0054067934e+01    0.2784488    0.2612935  30.39  0.001049453    1.269    0.212
        65 -10.0809      2.2694    182.9186   9.7379008940e+01   3.6453203303e+01    0.1330116   0.09288988  82.44 0.0003762565    1.024    0.023
        66 -11.5920    144.6189    182.1171   7.0619335306e+01   1.7696465471e+01    0.2768353    0.1629879  48.10  0.001440951    1.498    0.332
        67 -11.1071     24.1485    179.1026   9.3353407811e+01   3.5203722923e+01    0.2914257    0.1634603  89.05   0.00167708    1.455    0.313
        68 -10.5281     22.0000    174.9971   9.3441575778e+01   3.6190518504e+01    0.2323319      0.10953 -81.87 0.0007986045    1.757    0.431
        69 -11.9972    190.6066    179.0967   6.1275419927e+01   9.5275623807e+00    0.3685317    0.2286605  -0.85  0.001596864    2.855    0.650
        70 -15.5012     15.5093    238.3385   9.8045800785e+01   2.5853205094e+01    0.7858099    0.4022431 -82.39  0.006158002    1.705    0.414
        71 -17.1515     27.6103    235.5590   9.6200313606e+01   2.5061356566e+01     2.180204     1.380448  79.67    0.0182342    1.183    0.154
        72 -11.9530     49.4956    165.9777   8.7442047523e+01   3.5103141901e+01    0.4126881    0.1732262  60.80  0.002006862    2.640    0.621
        73 -11.7920     46.2606    176.3793   8.9072323162e+01   3.3420621988e+01      0.37133    0.1754227  62.47  0.002065999    2.069    0.517
        74 -12.6538     47.0881    170.4247   8.8354877363e+01   3.4492266661e+01    0.3265108     0.236025 -50.83  0.001695073    1.810    0.447
        75 -11.0781     17.5381    179.7234   9.4567389938e+01   3.5710160138e+01    0.1857962     0.139441 -77.53 0.0007758473    1.308    0.235
        76 -12.6206     96.3254    176.7520   7.9383482057e+01   2.6750768267e+01    0.4018857    0.2725694 -56.93  0.001593104    1.583    0.368
        77 -13.6136     91.0349    167.4565   7.9211008713e+01   2.9357087614e+01    0.7163737    0.4038679 -84.12  0.002909368    2.245    0.555
        78 -11.9957     31.8048    176.9641   9.1806849858e+01   3.4853071093e+01    0.3596801    0.1686769  47.16  0.001471451    1.950    0.487
        79 -11.3586     26.9044    173.2866   9.2417205387e+01   3.6048843650e+01    0.3158922    0.1532861  87.33  0.001183387    1.893    0.472
        80 -11.4190    164.3251    177.5118   6.6010899417e+01   1.4828604101e+01    0.2611615    0.1171217  49.30 0.0007394305    2.052    0.513
        81 -11.6154    137.3093    177.0161   7.1248144825e+01   1.9908791179e+01     0.177597    0.1664086  84.27 0.0005462265    1.103    0.093
        82 -10.6878     38.3044    176.2979   9.0553405171e+01   3.4305736219e+01    0.1691342    0.1349872 -81.57 0.0005656792    1.212    0.175
        83 -11.0222    101.0283    175.9896   7.8345019482e+01   2.6176522292e+01    0.1795081     0.150495  75.44            0    1.045    0.043
        84 -11.1549      7.2537    189.7167   9.6923632370e+01   3.4790822112e+01    0.2962911    0.1511837 -58.41  0.001613787    2.437    0.590
        85 -13.4613    124.8269    168.7833   7.2454013174e+01   2.3632331771e+01    0.4811448    0.4106033  28.30  0.002857864    1.387    0.279
        86 -13.1007    131.0870    169.4568   7.1281505107e+01   2.2403497938e+01    0.5090963    0.2730024  37.24  0.002348298    1.981    0.495
        87 -10.5385      1.9806    170.8439   9.6742177061e+01   3.8724596000e+01    0.1531827    0.1325771 -56.14  0.001312585    1.679    0.404
        88 -11.2305    196.7195    170.5719   5.8521409342e+01   9.6314519791e+00    0.2700671    0.1161238  41.91  0.001129127    2.098    0.523
        89 -13.0770    153.3379    166.6797   6.6274427073e+01   1.8796672588e+01    0.5926236    0.3138986 -31.32  0.002472809    2.875    0.652
        90 -10.4926     54.3315    250.6411   9.3177067970e+01   1.9797163926e+01    0.2068998     0.061246  49.15 0.0009965845    2.329    0.571
        91 -11.4887     81.7544    169.0989   8.1321985671e+01   3.0373570329e+01    0.2850319    0.1581735  47.27 0.0007456234    1.691    0.409
        92 -10.6680     40.4869    168.4992   8.9448553231e+01   3.5596552038e+01    0.2409499   0.09243149 -72.21  0.001240466    2.273    0.560
        93 -11.6214     53.5458    246.3159   9.3034705272e+01   2.0531603532e+01    0.4078093    0.2566311  63.48   0.00291967    1.109    0.098
        94 -10.5096     32.3909    167.3871   9.0904053618e+01   3.6656304873e+01     0.299693    0.1388018  83.11  0.001598209    2.287    0.563
        95 -10.5625     11.0223    167.6136   9.4915106604e+01   3.8594569551e+01    0.2339831    0.1574615  46.77  0.001575101    1.570    0.363
        96 -10.7283     88.4804    230.7802   8.6546161473e+01   1.8476301469e+01    0.3134587    0.1868139 -77.29  0.001596263    1.816    0.449
        97 -11.9010    172.3653    166.9216   6.2514297641e+01   1.5048422230e+01    0.3663988    0.1673176 -47.06  0.001553671    2.501    0.600
        98 -10.1079     18.8605    166.9307   9.3420833237e+01   3.8038234251e+01    0.1509466    0.1200107 -77.59   0.00119199    1.275    0.216
        99 -10.5161     27.2243    166.3413   9.1800428191e+01   3.7371461482e+01     0.186466    0.1096694  54.84 0.0008524096    1.563    0.360
       100 -11.4028    205.4755    164.9707   5.5777453598e+01   8.7388554088e+00    0.2686971    0.1725408  30.63 0.0007078335    1.540    0.351
       101 -11.3985    103.9582    164.9267   7.6175063909e+01   2.7866491675e+01    0.1953443    0.1717409  74.60 0.0004754057    1.009    0.009
       102 -11.2398     83.7587    227.2992   8.7013523975e+01   1.9667148159e+01    0.3932554    0.1926733  70.89    0.0020955    2.282    0.562
       103 -10.7069     82.1444    234.3716   8.7857469443e+01   1.8774067793e+01    0.1918695     0.126927  86.23  0.001401965    1.454    0.312
       104 -10.7817     35.9270    162.9853   8.9825947962e+01   3.7170562438e+01    0.1695114    0.1281667  84.37 0.0003710357    1.030    0.029
       105 -12.6406    170.7100    160.1930   6.1550408961e+01   1.6528848740e+01    0.3810185    0.3339461  35.46   0.00222488    1.078    0.073
       106  -9.5741    224.9589    160.9551   5.1410005300e+01   5.4426616075e+00    0.1590402     0.137928  16.35 0.0003209439    1.013    0.012
       107 -10.6100    210.1257    160.8316   5.4071657994e+01   8.4261962263e+00    0.2013753    0.1475076  24.43  0.001068155    1.347    0.258
       108 -10.9233     10.9989    146.9637   9.3382024568e+01   4.2673033705e+01    0.2539229    0.1150365 -85.17 0.0008866336    1.842    0.457
       109 -11.6444     28.0303    160.1952   9.1122269740e+01   3.8512712754e+01    0.2680241    0.1680783  76.52 0.0008398139    1.374    0.272
       110 -13.8640     21.7780    152.9828   9.1728895367e+01   4.0542732945e+01    0.7188071    0.5879165 -73.28  0.004289681    1.276    0.216
       111 -11.5303     45.0983    159.2472   8.7629944147e+01   3.6950729019e+01     0.383631    0.2177159  16.98  0.001889537    3.730    0.732
       112 -11.8054    127.0250    156.1474   6.9869240764e+01   2.5676102623e+01    0.2513087    0.2143252  64.27 0.0002700802    1.107    0.097
       113 -12.5474    131.0163    155.7236   6.8941880544e+01   2.5033929866e+01    0.3955827    0.2583568 -50.37 0.0003490289    1.613    0.380
       114 -10.9734    214.5015    158.3040   5.2741763007e+01   7.9190056590e+00    0.2567044    0.1163409  46.63  0.001081783    2.054    0.513
       115 -13.3025    112.0808    156.6544   7.3157959237e+01   2.8179786073e+01    0.4767004    0.3258713  45.38  0.002625035    1.419    0.295
       116  -9.7267      4.5062    158.5810   9.5504369323e+01   4.0881011621e+01    0.1042653   0.07490951  85.56 8.682027e-05    1.015    0.015
       117 -11.1669    214.3230    233.1543   6.5969728858e+01  -1.6675968113e+00    0.2101026     0.141656  30.38 0.0003468944    1.194    0.163
       118 -10.3489      8.3895    156.7905   9.4645537406e+01   4.0922968149e+01    0.2575047   0.08541126  67.01 0.0007792535    3.885    0.743
       119 -11.8067    220.2175    230.9830   6.4689388984e+01  -2.3939808575e+00    0.2533086    0.1854838  37.96 0.0003996724    1.125    0.111
       120 -11.1085    114.0092    233.0311   8.2594366458e+01   1.4483778494e+01    0.2077249    0.1434475  81.91 0.0003379011    1.556    0.357
       121 -11.4029     24.9622    144.9544   9.0341389339e+01   4.1893357957e+01    0.2061027    0.1578666 -73.80 0.0003258053    1.187    0.158
       122 -10.4378      3.0914    154.1394   9.5467163303e+01   4.1861186076e+01    0.1983283     0.133262 -75.45  0.001503685    1.260    0.206
       123 -11.3142    212.2918    153.8978   5.2216511571e+01   9.0312067503e+00    0.2423592    0.1881962  52.53 0.0007356901    1.368    0.269
       124 -11.8919     88.3900    153.2033   7.7736384202e+01   3.2633974631e+01    0.2264037    0.1993224 -65.93  0.001474295    1.189    0.159
       125 -10.7208    112.9913    228.0218   8.2260519246e+01   1.5389226816e+01     0.196573    0.1752254  83.12  0.001087903    1.246    0.197
       126 -10.5462     98.0267    233.4608   8.5239400649e+01   1.6735208233e+01    0.1812709    0.1221167  80.48 0.0003016734    1.466    0.318
       127 -10.7525     37.5216    154.2426   8.8660883393e+01   3.8774056360e+01    0.1943778    0.1476326  49.54 0.0008700583    1.406    0.289
       128 -11.8657    126.2775    151.6293   6.9221712567e+01   2.6700308981e+01    0.3034588    0.2204769  53.65  0.000693981    1.317    0.241
       129 -11.9254    172.3378    150.9130   5.9353972428e+01   1.7821016550e+01    0.2946111    0.2045191  39.25  0.001478469    1.376    0.273
       130 -12.1931    147.2667    150.3699   6.4470264996e+01   2.2981559287e+01    0.3078236    0.2477403  62.24  0.001687132    1.262    0.208
       131 -13.3174    109.0904    148.4537   7.2425325734e+01   3.0342005424e+01    0.6226357    0.3271343 -46.47  0.002897536    2.097    0.523
       132 -13.8416    102.7391    142.5755   7.2824147865e+01   3.2608705159e+01    0.8174184    0.3792351  49.15  0.002536073    2.176    0.540
       133 -10.1612    130.9350    232.4746   7.9739155207e+01   1.1992009181e+01    0.1773392   0.08808281  46.06   0.00102642    1.574    0.365
       134 -10.7876    193.5076    229.6364   6.8899361733e+01   2.1620593625e+00    0.2993268    0.1427211 -51.37   0.00149453    3.440    0.709
       135 -11.2666    154.4305    149.1718   6.2713681385e+01   2.1787491499e+01    0.2369382    0.1593843  51.17 0.0006214482    1.428    0.300
       136 -10.0932     34.0459    149.4942   8.8896963240e+01   4.0098245074e+01    0.1422962    0.1071337  43.84 0.0004618917    1.506    0.336
       137 -10.0828    224.3614    148.2006   4.8789746977e+01   7.4016339629e+00     0.191913     0.124481 -40.27 0.0004945777    1.705    0.414
       138 -11.1456    128.9013    147.4583   6.7877711268e+01   2.7048435422e+01     0.203344    0.1287113  46.88 0.0003881706    1.516    0.340
       139 -11.2155     44.8288    150.4917   8.6743909134e+01   3.8775565187e+01    0.2166623    0.1379284 -75.47   0.00061711    1.322    0.243
       140 -11.9055     54.3256    144.6990   8.4010738943e+01   3.8920164276e+01    0.2770012    0.1627834  69.98  0.001540084    1.838    0.456
       141 -10.6330     57.5269    143.5045   8.3150695931e+01   3.8795378093e+01    0.3080332    0.1751626  58.73  0.001203039    1.830    0.453
       142 -10.1012      4.3878    146.6069   9.4672615065e+01   4.3257743761e+01    0.1897124   0.05146134  46.76 0.0009440956    3.330    0.700
       143 -11.4316     39.9216    142.7440   8.6920511619e+01   4.0908426901e+01    0.2930014    0.1431943  35.39  0.001355606    2.328    0.570
       144 -12.4744     93.6549    140.4899   7.4532046524e+01   3.4491628958e+01    0.4930051     0.229817 -70.85  0.001243286    2.873    0.652
       145 -11.5824     11.4135    140.9253   9.2792882343e+01   4.3865825349e+01    0.3487193    0.1864174  57.69   0.00224197    1.835    0.455
       146 -11.1833     12.8937    133.7271   9.1834800284e+01   4.5229776683e+01    0.3389377    0.1920369  84.09  0.001321287    1.574    0.365
       147 -11.8067    137.8572    130.7960   6.2498310829e+01   2.8669131760e+01    0.3358381    0.2710195 -59.33 0.0008981494    1.290    0.225
       148 -11.5299    133.7421    131.2091   6.3523660561e+01   2.9395077545e+01    0.2776655     0.207023  36.85  0.000844755    1.416    0.294
       149 -11.7370    140.5082    134.4875   6.2695855333e+01   2.7405599038e+01     0.264099    0.2343207  55.50 0.0007593401    1.097    0.088
       150 -13.1187    143.8167    132.3867   6.1502532287e+01   2.7158823047e+01     0.610624    0.3837396 -21.58  0.002510016    2.562    0.610
       151 -11.5005     30.6499    139.9401   8.8621090462e+01   4.2408919222e+01    0.2042491    0.1489239  58.83 0.0007266821    1.370    0.270
       152 -12.4523     84.8469    148.6468   7.7826307231e+01   3.4099435333e+01     0.440473    0.1609319 -60.60  0.001853611    2.618    0.618
       153 -11.6272     38.6437    138.1473   8.6669076751e+01   4.2005862901e+01    0.3511952    0.1992723  19.46  0.001898972    2.901    0.655
       154 -11.4438    159.4203    137.2566   5.9149202476e+01   2.3005410627e+01    0.3224147    0.1829105 -41.02  0.001076043    1.856    0.461
       155 -10.2329     50.9947    138.2589   8.3923057914e+01   4.0664672310e+01    0.1577111    0.1323503  89.44 0.0002313393    1.045    0.044
       156 -11.4198     52.7909    135.2009   8.3107636608e+01   4.1113910604e+01    0.3085805    0.1813783  55.01  0.001762571    1.773    0.436
       157 -10.9235    133.0820    135.4536   6.4568888267e+01   2.8665689361e+01    0.2130524    0.1348937  45.58 0.0006038691    1.547    0.354
       158 -11.8047     61.6487    134.5553   8.0975075370e+01   4.0204571173e+01    0.3908469     0.209673  42.07  0.002104751    1.966    0.491
       159 -12.8783    102.6664    132.8476   7.1069781345e+01   3.4666541298e+01    0.5830705    0.2305815  40.84  0.002354586    2.622    0.619
       160 -11.1854     68.7614    130.8544   7.8743237481e+01   4.0103851986e+01    0.3193914    0.2212425 -14.37   0.00157668    2.850    0.649
       161 -11.5488     35.8189    131.8597   8.6554010462e+01   4.3618842114e+01    0.1786073    0.1349517 -62.24 0.0008267557    1.277    0.217
       162 -13.0040    153.5334    129.8762   5.8787712475e+01   2.5648778967e+01     0.608978    0.2932896  51.27  0.002431132    2.116    0.527
       163 -12.9107    158.4982    128.9837   5.7496215202e+01   2.4771198134e+01    0.5124034    0.4134165 -77.32  0.002585954    1.545    0.353
       164 -11.6631     30.3623    129.8742   8.7559315184e+01   4.4557117031e+01    0.3122247    0.1567584  80.58  0.001596096    2.366    0.577
       165 -11.0388     92.3377    128.9820   7.2795480129e+01   3.7147368497e+01    0.1884647    0.1625546 -68.79 0.0007141429    1.074    0.069
       166 -12.1914     80.4758    148.5986   7.8784432176e+01   3.4735361186e+01    0.3660657    0.1929758  65.10  0.001704884    2.388    0.581
       167 -11.8607     59.4045    126.7469   8.0331062127e+01   4.2163109087e+01    0.3324858    0.1688448 -60.70  0.001728143    1.699    0.412
       168 -10.7105     15.1455    126.8723   9.0669752104e+01   4.6482284479e+01     0.249342     0.167705 -84.28   0.00121355    1.158    0.136
       169 -10.9950     11.3513    123.8347   9.1215589763e+01   4.7407070588e+01     0.274949     0.143509  56.12  0.001601583    2.034    0.508
       170 -11.3248     67.4041    122.4016   7.7683471155e+01   4.2114815554e+01    0.2331585    0.1885331 -88.79 0.0006067439    1.176    0.150
       171 -10.0649     48.8834    122.5878   8.2240997095e+01   4.4269416182e+01    0.2284723    0.1294136  77.59   0.00103795    2.256    0.557
       172 -10.8229    205.4998    121.4844   4.6079444328e+01   1.5658843414e+01    0.2549059    0.2359731  -6.82 0.0005876531    1.052    0.050
       173 -10.5965     36.5714    120.8164   8.4966562024e+01   4.5913341229e+01    0.2618202    0.1999878  51.57  0.001416083    1.437    0.304
       174 -12.0955     54.2505    117.3591   8.0110894056e+01   4.4810934923e+01    0.3808008    0.2255666  51.73  0.002116729    1.863    0.463
       175 -10.9154     49.1069    115.8554   8.1158867274e+01   4.5710986635e+01    0.2554061    0.2311841 -22.67 0.0009887515    1.447    0.309
       176 -11.2442     24.0486    117.9162   8.7600662421e+01   4.7661128318e+01    0.4692087    0.1886359 -81.90  0.002163963    2.658    0.624
       177 -11.0350    190.2391    122.1327   4.9212539484e+01   1.9008937126e+01    0.3715891    0.2440672 -89.12  0.001334205    3.308    0.698
       178 -12.0699    101.0664    120.0832   6.8927003596e+01   3.7655685828e+01    0.5556412    0.2968986  62.14  0.002267759    2.701    0.630
       179 -10.8795     31.5962    118.7394   8.5889895916e+01   4.6826143098e+01    0.2310048    0.1748805  89.25  0.001174758    1.174    0.148
       180 -11.6115     42.2207    121.1266   8.3644700700e+01   4.5287451171e+01    0.3994327    0.2785395 -19.17  0.002222263    2.443    0.591
       181 -11.2233    155.3368    117.5550   5.5492442758e+01   2.7652058177e+01    0.2852306    0.1443065  52.29 0.0008586076    2.052    0.513
       182 -10.5375    105.3615    114.8431   6.6742473294e+01   3.8050399480e+01    0.1990139    0.1216787 -43.95 0.0007296629    1.660    0.398
       183 -10.8336    108.6496    112.6325   6.5427417763e+01   3.7947684973e+01    0.2920462    0.1988816 -46.18  0.001395975    1.435    0.303
       184 -11.3686     70.3444    114.6152   7.5566360240e+01   4.3434305565e+01    0.2429485    0.1777103 -47.70 0.0001028947    1.382    0.276
       185 -11.6099    191.7894    112.1595   4.6416856451e+01   2.0386031383e+01    0.4065631    0.2799732  15.89 0.0005974891    1.891    0.471
       186 -10.3831     82.4900    113.9174   7.2330708446e+01   4.1897789350e+01    0.2100747    0.1198713 -57.93  0.001033738    1.593    0.372
       187 -10.1805     77.8504    228.8633   8.8097647548e+01   2.0206179524e+01    0.1489383    0.1173092  60.32 0.0006674596    1.168    0.144
       188 -11.7846     53.5341    110.8054   7.9203035660e+01   4.6326479675e+01    0.2921799    0.2255312  85.62  0.000742459    1.320    0.242
       189 -11.1200     50.2489    107.8655   7.9552628209e+01   4.7334870645e+01    0.2588862    0.1889994 -32.17  0.001457022    1.764    0.433
       190 -10.4261    242.0629    111.4667   3.7193146476e+01   9.0560037183e+00    0.2111779    0.1380191  48.11 0.0005766058    1.565    0.361
       191  -9.9863    210.5420    110.4829   4.2395674465e+01   1.6307391153e+01     0.149817    0.1411749   5.63 0.0001849871    1.007    0.007
       192 -11.0346    159.9207    108.2227   5.2125938771e+01   2.8434694149e+01    0.2901219    0.2016194  -7.30  0.001169556    2.089    0.521
       193 -10.1538    217.7091    108.0208   4.0470597188e+01   1.5045204628e+01    0.2069046     0.189402  -9.84 0.0004405426    1.045    0.043
       194 -10.2840     91.8588    108.1409   6.8706008793e+01   4.1728333009e+01    0.1808884    0.1568065 -32.13 0.0003506767    1.290    0.225
       195 -11.9224    153.0704    107.0588   5.3370292337e+01   3.0185421909e+01    0.3171114    0.2477034 -84.65  0.001484745    1.719    0.418
       196 -11.9944     56.7304    106.5124   7.7610158552e+01   4.6902097593e+01    0.3002877    0.1984695  67.94  0.001654643    1.848    0.459
       197 -10.2114    116.9877    103.5351   6.1167409147e+01   3.8343049449e+01    0.2273476    0.1892656 -46.98 0.0007645261    1.157    0.136
       198 -11.3452     78.9664    101.2603   7.0606653786e+01   4.5170043452e+01    0.3095819    0.2153201 -88.12  0.001164288    1.866    0.464
       199 -12.0578     45.8212     86.8248   7.6829789506e+01   5.2399815713e+01    0.3519034    0.1710856  43.06  0.001783847    2.448    0.592
       200 -11.3592     59.8601     92.0944   7.3902623346e+01   4.9689016317e+01    0.4400637    0.2430632 -65.20  0.002221411    1.719    0.418
       201 -11.8938     57.8607    100.1029   7.6096714308e+01   4.8175940877e+01     0.368808    0.3004489 -53.05  0.002339394    1.143    0.125
       202 -10.8360     59.9714     95.8119   7.4652986660e+01   4.8864403298e+01    0.3222901    0.2053627  55.08  0.001109321    1.906    0.475
       203 -13.3328     53.4185     85.0432   7.4230532254e+01   5.1968900675e+01    0.8005497    0.5290792  76.85  0.004179716    2.219    0.549
       204 -12.5763     50.9785     79.4803   7.3707947424e+01   5.3437914636e+01    0.6374547    0.2236018  41.26  0.002701955    3.390    0.705
       205 -10.1919    249.4043     99.2012   3.3026929610e+01   9.2235183263e+00    0.2131834    0.1201413 -38.08 0.0009570477    1.720    0.419
       206 -10.0650    237.8070     98.7697   3.4722824231e+01   1.1861611641e+01     0.188657    0.1686418 -60.65 0.0003379864    1.321    0.243
       207 -10.4924     21.7593     97.3687   8.5413142376e+01   5.2263261693e+01    0.1474956    0.1157736  34.24 0.0007089423    1.601    0.375
       208 -11.1794     54.2695     92.5583   7.5582773825e+01   5.0240148598e+01     0.213479    0.1712729  67.84  0.001006556    1.441    0.306
       209  -9.9403    197.4559     96.4438   4.1188284553e+01   2.1728346741e+01    0.1521761    0.1464265   7.55  5.94371e-05    1.007    0.007
       210 -10.9423    149.9054     95.8880   5.1126991668e+01   3.3050839772e+01    0.2334873    0.2060454   3.38 0.0004112607    1.243    0.195
       211  -9.5356     34.6936     94.2946   8.1399170807e+01   5.1848640693e+01    0.1162224   0.08233885  81.40 0.0003047768    1.583    0.368
       212 -10.0178     21.5135     91.4940   8.4585913964e+01   5.3547548517e+01    0.1172176   0.09054795 -69.60    5.953e-05    1.007    0.007
       213 -10.5931      3.6225     89.2465   8.9158332401e+01   5.5219514696e+01     0.363779   0.08002892 -60.40  0.001238586    2.779    0.640
       214 -10.2015     95.0781     89.4721   6.3380768863e+01   4.5209189428e+01    0.1932588    0.1391197  41.56   0.00034394    1.511    0.338
       215 -11.1038    208.0741     86.9802   3.6651308033e+01   2.0696645887e+01    0.2423457    0.2162285  40.63 0.0003223969    1.119    0.106
       216  -9.4665    178.2793    228.7123   7.1326669843e+01   4.8189264682e+00    0.1079345    0.0805715  63.10 0.0002099396    1.520    0.342
       217 -10.0837     11.5203     87.0213   8.6679635366e+01   5.5207553889e+01    0.1740747    0.0860922 -68.95 0.0004576792    1.522    0.343
       218 -10.4443    170.6452     84.7307   4.3343562172e+01   3.0263501354e+01    0.1609677    0.1176584  21.96 0.0003885771    1.634    0.388
       219 -10.7070     62.3570     82.9931   7.1127082254e+01   5.1354360779e+01      0.19377     0.147934 -52.89  0.001155765    1.117    0.105
       220 -11.2129    212.1467     81.4600   3.4423212830e+01   2.0567610081e+01    0.3974739    0.2675456  17.75  0.001144011    1.920    0.479
       221 -10.6054    207.5713     79.4375   3.4660837871e+01   2.2013968165e+01    0.3466727    0.2502654  -1.22 0.0008498001    1.665    0.399
       222 -11.9129     22.1207     79.6241   8.2416737405e+01   5.6050137161e+01    0.4149936    0.1082853 -57.28  0.001817918    2.573    0.611
       223 -12.0363     29.0751     80.0484   8.0423534321e+01   5.5412946332e+01    0.2820278    0.1536953  36.97  0.001628055    2.219    0.549
       224 -10.5488     88.4700     79.1803   6.2488760877e+01   4.8447132122e+01    0.2496313    0.2019983  36.68   0.00140965    1.367    0.268
       225 -10.6517    183.4762     77.5128   3.8609425305e+01   2.8342987595e+01    0.3264674    0.2540237  21.21  0.001530363    1.447    0.309
       226 -10.8267    112.0058     76.2938   5.5046550315e+01   4.4865031610e+01    0.2757121    0.2635762 -14.72 0.0008956217    1.041    0.039
       227 -10.9022    115.4457     74.7915   5.3664783798e+01   4.4486932923e+01    0.2930975    0.2511653   0.06   0.00133174    1.288    0.223
       228 -11.2405     75.1216     75.5453   6.5422677381e+01   5.1231150364e+01    0.2469049    0.2189887 -35.31  0.000397681    1.084    0.078
       229 -12.7004     30.6869     74.6622   7.8862608641e+01   5.6430712403e+01    0.5094052     0.107878 -57.70  0.001965178    3.127    0.680
       230 -11.5419     33.9986     73.5015   7.7590679363e+01   5.6392705481e+01    0.2058571    0.1503846  -6.06 0.0007540918    1.839    0.456
       231 -10.5391     51.3711     74.2336   7.2350087739e+01   5.4514431329e+01    0.2010724    0.1478157  60.75 0.0007021479    1.784    0.440
       232 -10.6144    153.0457     80.4624   4.5993469276e+01   3.5230370263e+01    0.2793832     0.212361 -16.99 0.0005247978    1.466    0.318
       233 -10.3494     94.4628     72.0603   5.8708860078e+01   4.8907674243e+01    0.2118026    0.1277757 -44.98   0.00036929    1.516    0.340
       234 -11.4577    100.3315     69.8721   5.6356909970e+01   4.8311704523e+01    0.4056618    0.1791864 -40.35  0.001626524    2.135    0.532
       235 -11.0988    197.9748     66.1151   3.2554989215e+01   2.6497955499e+01    0.4561688    0.2532186  32.85  0.001730136    2.296    0.564
       236 -13.3431     31.2130     63.4054   7.6208512360e+01   5.8761412955e+01    0.7073961    0.4234102  67.68  0.003547025    3.011    0.668
       237 -10.2429    101.4253     63.7366   5.4115677578e+01   4.9301657405e+01    0.2054758    0.1267195 -31.40 0.0009468819    1.635    0.388
       238 -10.5869    207.7699     62.2355   2.9755563155e+01   2.4581000692e+01    0.3677605    0.1929609   1.69   0.00107363    4.255    0.765
       239  -9.7860    113.6164     62.8008   5.0386162585e+01   4.7130708828e+01    0.1952615    0.1301053 -47.26 0.0001294052    1.537    0.349
       240 -10.8838     45.7862     61.1131   7.0789732766e+01   5.7857687199e+01    0.2298401    0.1459929 -19.61 0.0009809245    2.059    0.514
       241 -10.6857      3.8938     59.1529   8.4345491524e+01   6.1510407136e+01    0.1989348    0.1547291 -10.07  0.001380848    1.649    0.393
       242 -10.1666    166.0541     58.4920   3.6348305913e+01   3.5823211560e+01    0.2222576     0.151696  55.60 0.0003225357    1.473    0.321
       243 -11.7883     52.6071     56.7545   6.7274647537e+01   5.7994285151e+01    0.5147905    0.2538165  51.33  0.002250622    3.412    0.707
       244 -10.2587    153.5147     57.4950   3.8719198997e+01   3.9095175718e+01    0.1544942    0.1452934  11.24  0.000143695    1.036    0.035
       245 -10.4150    223.9938     57.0000   2.5755516394e+01   2.1227992912e+01    0.2451958   0.08461853  61.42  2.33795e-05    2.988    0.665
       246 -10.1332    188.4411     65.7516   3.4181446453e+01   2.8988579741e+01    0.3108448    0.1374038 -37.06  0.001130248    2.197    0.545
       247  -9.7938    167.0108     52.0029   3.4070646931e+01   3.6585917349e+01    0.1816659     0.175211  10.07 0.0003154586    1.008    0.008
       248 -10.2406     94.8044     51.4034   5.1932362122e+01   5.2793624206e+01    0.2468468    0.1772266  29.95  0.001287384    1.507    0.336
       249 -11.0070     45.3623     49.9050   6.7723650193e+01   6.0160737598e+01    0.2314292    0.1785965 -88.25  0.001365153    1.962    0.490
       250 -10.1923     31.0056     50.5194   7.2996513426e+01   6.1419409582e+01    0.1518403    0.1180813  20.09 0.0008250292    1.579    0.367
       251 -11.8088    177.7786     64.6886   3.5908141247e+01   3.1872436694e+01    0.3151613    0.2571664 -20.71 0.0005232977    1.247    0.198
       252 -10.6650      1.6810     47.7029   8.2807177010e+01   6.3958020164e+01    0.2038172   0.09969303 -60.26  0.000720094    1.443    0.307
       253 -10.4022    198.0108     45.9587   2.6560763124e+01   2.9414843114e+01    0.2118715    0.2094936  43.15 0.0003888411    1.011    0.011
       254 -10.9049    194.8609     43.8524   2.6434493147e+01   3.0524990918e+01    0.2296349    0.2232883 -87.89 0.0004720807    1.062    0.058
       255 -10.1893    122.4823     41.5302   4.0625269759e+01   4.8880408523e+01    0.1459072    0.1354865  -0.42 4.682317e-05    1.014    0.014
       256 -10.0693    105.3087     40.1920   4.4782746917e+01   5.2706973573e+01    0.2800745     0.112957  59.33  0.000852551    4.590    0.782
       257 -10.3955     36.3486     39.6901   6.7796124440e+01   6.3054745620e+01    0.1777451    0.1631633 -65.98 0.0007236811    1.353    0.261
       258 -10.8731     32.4642     40.0000   6.9361102614e+01   6.3358726543e+01    0.2631527    0.1712398  29.65  0.000984352    1.881    0.468
       259 -11.8193     55.4972     37.4842   5.9941457248e+01   6.1333098720e+01    0.3883434    0.2976401   1.52    0.0015439    1.412    0.292
       260 -11.0125      9.7789     36.8115   7.7151663918e+01   6.5678609137e+01    0.2366399    0.1359364 -27.27  0.001326507    1.836    0.455
       261 -10.1035    169.4297     36.2178   2.8425896734e+01   3.8203951558e+01    0.2138757    0.1351133 -39.21 0.0005915887    1.635    0.388
       262 -11.5058     31.7796     32.1263   6.7023058347e+01   6.4903837933e+01    0.3987638    0.1696566 -43.90  0.002065654    1.808    0.447
       263 -10.1989     21.8194     34.1628   7.1639495453e+01   6.5365288056e+01    0.1669344    0.1056668 -36.14 0.0007758943    1.323    0.244
       264 -11.0652    106.6193     32.0537   4.1293502966e+01   5.3691722526e+01    0.3055402    0.2236697 -26.29  0.001614259    1.290    0.225
       265 -10.1526     43.0448     33.5283   6.3139371271e+01   6.3513927658e+01    0.1637563     0.118215  24.70  0.001035425    1.605    0.377
       266 -11.3809     77.6940     31.0920   4.9744335055e+01   5.9197261387e+01    0.2277268    0.2050705 -77.71 0.0005798416    1.638    0.389
       267 -11.1615    156.0081     31.0133   2.9224172080e+01   4.2335680087e+01    0.2248916    0.2147452  18.96 0.0003353213    1.018    0.017
       268 -11.4323     71.9536     29.9767   5.1232225636e+01   6.0295810922e+01    0.2089837     0.175282 -17.50 0.0009615675    1.006    0.006
       269  -9.9450     18.3176     29.7234   7.1628877129e+01   6.6465047669e+01   0.09743705   0.08468619 -80.88 0.0001873323    1.571    0.364
       270  -9.6938    179.3176     28.2777   2.4093951031e+01   3.6618951679e+01    0.1552674    0.1067888  33.21 0.0002263806    1.573    0.364
       271  -9.7443    118.7890     25.9582   3.5670398628e+01   5.1934563196e+01    0.1824469    0.1103149 -24.37 0.0003168828    1.621    0.383
       272 -10.3890     45.9939     26.4917   5.9340358765e+01   6.4420797883e+01    0.1455119    0.1067648  60.31 0.0008101413    2.509    0.601
       273 -11.2827     84.8161     24.2975   4.4639426586e+01   5.9014995664e+01    0.2936391    0.2454671  60.68  0.001364269    1.629    0.386
       274 -10.2954    134.9700     22.4790   3.0514649607e+01   4.8618600878e+01    0.1861885    0.1287801 -84.28 0.0004425895    2.287    0.563
       275  -9.5840     55.3080     21.6774   5.3787782920e+01   6.4042768563e+01    0.1123256   0.09604713 -56.76 0.0003596886    1.645    0.392
       276 -10.2126    172.6988     20.6749   2.2688211907e+01   3.9249836096e+01    0.1564648    0.1050661  30.29 0.0003632797    1.636    0.389
       277  -9.7973    207.6827     19.3132   1.7230575859e+01   3.0165602599e+01    0.1522153    0.1034655 -61.40 0.0003400685    1.645    0.392
       278 -10.6706     99.9659     18.7367   3.7751613498e+01   5.6882926140e+01    0.1886348    0.1635613  16.50 0.0003494798    1.057    0.054
       279 -10.1323     74.9701     18.0000   4.5150484785e+01   6.1619023227e+01    0.1881242   0.07159706  44.95 0.0007823325    2.805    0.643
       280 -10.5090    238.0601    248.8231   6.4462164058e+01  -6.9117297456e+00    0.1730334    0.1380052   7.93 0.0009330544    1.267    0.211
       281 -10.6472    215.8404     15.6428   1.5192374634e+01   2.8441656390e+01    0.2231069    0.1957595  -0.99  0.000572134    1.261    0.207
       282 -11.3073     83.3158    243.6132   8.8399267873e+01   1.7219605504e+01    0.3086953    0.1539257 -71.18   0.00115875    2.248    0.555
       283 -11.1029    179.7777    244.6545   7.3141962210e+01   2.6376082725e+00     0.207405    0.1454407  48.66 0.0003828203    1.176    0.150
       284 -10.5212    214.0643     10.5200   1.3945204485e+01   2.9436402891e+01    0.2172929    0.1341034  72.90  0.001027617    1.582    0.368
       285  -9.8928    115.5327    245.4849   8.3540414856e+01   1.2465133789e+01     0.108397   0.07953659  57.22 3.108991e-05    1.004    0.004
       286 -10.2222    133.5105    240.8684   8.0210636135e+01   1.0416126998e+01    0.1890644    0.1197093  58.33 0.0007042274    1.341    0.254
       287 -12.6297    116.1484    240.1822   8.2943427849e+01   1.3124486903e+01     0.219091    0.1647872  59.85 0.0005532757    1.038    0.036
       288 -10.5834    108.8963    238.2661   8.3927247511e+01   1.4461933849e+01    0.2237972    0.1320396 -44.69   0.00137771    2.757    0.637
