#   1 NUMBER                 Running object number                                     
#   2 MAG_AUTO               Kron-like elliptical aperture magnitude                    [mag]
#   3 X_IMAGE                Object position along x                                    [pixel]
#   4 Y_IMAGE                Object position along y                                    [pixel]
#   5 X_WORLD                Barycenter position along world x axis                     [deg]
#   6 Y_WORLD                Barycenter position along world y axis                     [deg]
#   7 A_WORLD                Profile RMS along major axis (world units)                 [deg]
#   8 B_WORLD                Profile RMS along minor axis (world units)                 [deg]
#   9 THETA_WORLD            Position angle (CCW/world-x)                               [deg]
#  10 FWHM_WORLD             FWHM assuming a gaussian core                              [deg]
#  11 ELONGATION             A_IMAGE/B_IMAGE                                           
#  12 ELLIPTICITY            1 - B_IMAGE/A_IMAGE                                       
         1 -12.9898    221.2909     36.5309   3.5071328952e+01   2.6860747983e+01      1.00364    0.9060386  42.92  0.006275419    1.518    0.341
         2 -12.8997    228.3835     31.3540   3.3326138486e+01   2.6053778129e+01     1.491145    0.8315013  39.57   0.00163235    3.614    0.723
         3 -12.4012    247.5066     14.8507   2.8635238890e+01   2.4260056180e+01    0.6367722    0.3840939 -53.52  0.003107741    1.315    0.240
         4 -10.5599      1.7301     13.0924   8.7729112557e+01   7.3003355573e+01    0.3807875     0.103639 -47.01  0.001710201    3.198    0.687
         5  -9.9447      2.3346      3.3230   8.2564466870e+01   7.4378706241e+01    0.3689647    0.1385766 -42.37  0.001955046    2.535    0.605
         6 -12.6361     11.0243    231.3461   1.2063819609e+02   2.2744099290e+01     1.177514    0.6314728  77.56   0.00337573    1.662    0.398
         7 -14.1968    102.0158    227.6414   1.0051989949e+02   1.2309189312e+01     7.495047     2.976103  32.98   0.03055451    2.344    0.573
         8 -11.3255     49.6075    177.7832   1.0708303756e+02   3.1239117241e+01    0.5066218    0.3527105 -14.81  0.001435772    2.137    0.532
         9 -10.8951     56.4346    171.8774   1.0446195190e+02   3.1916334581e+01    0.3278331    0.2769022 -31.58 0.0004555549    1.390    0.280
        10  -8.0979    110.6991    167.3531   8.8781254103e+01   2.4886983730e+01    0.1590237    0.1203521  77.62 0.0007038116    1.700    0.412
        11 -10.2985     68.0885    162.3789   9.9771676152e+01   3.2840394334e+01    0.2680429    0.2589243 -25.68 0.0004350519    1.137    0.121
        12 -11.9397     75.8927    155.7741   9.6392541400e+01   3.3444560903e+01    0.8354638    0.6685362  58.02  0.001366687    1.338    0.253
        13 -12.1993     68.2205    144.1772   9.6558286892e+01   3.7551003542e+01     0.837966    0.5922135  73.65   0.00299708    1.788    0.441
        14 -12.4734     53.9534    158.4731   1.0321559720e+02   3.5684276823e+01    0.5470383     0.354092 -36.18  0.001540629    1.848    0.459
        15 -11.9889     17.4559    204.5198   1.1756801181e+02   2.8104057013e+01    0.3266983    0.2757974 -65.49 0.0008988781    1.299    0.230
        16 -13.0094     10.5509    206.7183   1.1924453635e+02   2.8231834186e+01    0.8990715    0.6770197   9.51   0.00418288    1.860    0.462
        17  -9.4082     92.9659    142.5030   8.8754125398e+01   3.4174310197e+01    0.3384981    0.3027581 -32.35  0.001082113    1.149    0.130
        18  -8.9520     95.6807    139.6592   8.7334145865e+01   3.4433591533e+01    0.3339988    0.1900861 -32.67  0.001253816    2.281    0.562
        19  -8.1117    134.2950    142.3384   7.7116656680e+01   2.6552331757e+01    0.1628239    0.1237129 -14.22 0.0007029549    1.652    0.395
        20 -11.1893     80.0641    140.5970   9.2239797597e+01   3.6740263641e+01    0.3490651    0.2772408 -47.07 0.0003381775    1.214    0.176
        21 -11.3312     57.0948    131.1471   9.7572235718e+01   4.2409620121e+01     0.640873      0.29882 -73.14  0.002294153    2.752    0.637
        22  -9.7755    105.9432    130.9720   8.2313975269e+01   3.4766916965e+01    0.3606297    0.3301643  -5.46  0.001001079    1.161    0.139
        23 -10.0742     92.4734    127.4979   8.5546491239e+01   3.8035652096e+01    0.2917728    0.2672853 -28.98 0.0001087393    1.095    0.087
        24  -8.3265    113.3444    125.3248   7.8786584510e+01   3.4731831034e+01    0.1658065    0.1243883 -10.74 0.0007050519    1.739    0.425
        25 -10.7100     53.1806    117.3690   9.6085803382e+01   4.6419939250e+01    0.4827607    0.2245054 -68.32  0.001821587    2.458    0.593
        26  -8.7162    104.0483    119.5240   8.0069402277e+01   3.7896611448e+01    0.2202231    0.2048412 -38.08  0.000420601    1.040    0.038
        27  -8.7486    204.8940    110.5724   5.4057086692e+01   1.8584236578e+01    0.2657199    0.1383902  47.32   0.00115076    2.135    0.532
        28  -9.8680     53.1431     91.5370   8.9974928341e+01   5.2709839310e+01      0.33795    0.2128917 -63.92  0.001574952    1.774    0.436
        29  -8.9695     41.4752     92.0926   9.4568248271e+01   5.3955235725e+01    0.2069988     0.125144 -56.13 0.0004090867    1.500    0.333
        30  -9.8492      7.8424     60.8271   1.0086559517e+02   6.3767485098e+01    0.1523256    0.1480884 -84.22 0.0007685245    1.348    0.258
        31  -9.6646     13.2519     60.0361   9.8148553243e+01   6.3591984640e+01    0.2008885    0.1624352 -18.62 0.0005015531    1.140    0.123
        32 -11.0921    204.4465     50.6001   4.0068718558e+01   2.8578717600e+01    0.4757245    0.2964755 -68.05  0.002463522    1.688    0.408
        33 -10.2658      1.8967     47.9310   1.0025425676e+02   6.6761302006e+01    0.5341496   0.01980642 -59.59  0.001347276    7.951    0.874
        34 -15.3087     28.2757    195.2345   1.1431915174e+02   2.9246395621e+01     9.237183     3.529091 -89.39   0.03383162    3.403    0.706
        35 -14.1962      6.2233    246.5688   1.2234007275e+02   2.0065664003e+01     4.967762     1.200863  30.94   0.02121573    3.785    0.736
        36  -9.7461     18.0238     47.0459   9.1912143988e+01   6.5847838065e+01    0.1923175    0.1530913 -24.74  0.000453255    1.009    0.009
        37  -9.8413    122.0388     30.0033   4.7750390298e+01   5.0416939864e+01     0.270942    0.2174466 -87.95 0.0004647477    1.447    0.309
        38 -10.2537      2.0000     29.0197   9.4096624567e+01   7.0339036851e+01    0.3759067   0.05574263 -55.11  0.001164646    6.018    0.834
        39  -9.3617    193.3190    194.9782   7.4508892209e+01   4.2815575002e+00     0.341547    0.1819968 -62.44  0.001128636    4.441    0.775
        40  -9.3520    189.5069     14.9683   3.3407053530e+01   3.6305345554e+01    0.1719054     0.116655 -37.01 0.0006960506    1.565    0.361
        41  -9.9300     26.2688    239.4400   1.1808911127e+02   1.9503614184e+01    0.2943274    0.1348846  49.00  0.001144495    1.796    0.443
