#   1 NUMBER                 Running object number                                     
#   2 MAG_AUTO               Kron-like elliptical aperture magnitude                    [mag]
#   3 X_IMAGE                Object position along x                                    [pixel]
#   4 Y_IMAGE                Object position along y                                    [pixel]
#   5 X_WORLD                Barycenter position along world x axis                     [deg]
#   6 Y_WORLD                Barycenter position along world y axis                     [deg]
#   7 A_WORLD                Profile RMS along major axis (world units)                 [deg]
#   8 B_WORLD                Profile RMS along minor axis (world units)                 [deg]
#   9 THETA_WORLD            Position angle (CCW/world-x)                               [deg]
#  10 FWHM_WORLD             FWHM assuming a gaussian core                              [deg]
#  11 ELONGATION             A_IMAGE/B_IMAGE                                           
#  12 ELLIPTICITY            1 - B_IMAGE/A_IMAGE                                       
         1 -14.4107    177.9359      4.2769   3.0222176325e+01  -4.4077666289e+01    0.0956125   0.03698884 -25.93   0.00744886    2.827    0.646
         2 -16.1781    181.2190     30.6892   3.0409280126e+01  -4.3773709291e+01    0.1582539    0.1080931 -58.00   0.01649136    1.760    0.432
         3 -16.5135    237.8194     14.7415   2.9396536332e+01  -4.3571751243e+01    0.1363036    0.1275997 -36.36   0.01731935    1.052    0.049
         4 -14.5960    189.5565     17.6947   3.0163751396e+01  -4.3858309184e+01   0.04899604   0.03864316  83.70  0.005271988    1.520    0.342
         5 -15.9754    195.9866     56.1349   3.0409530296e+01  -4.3405168095e+01    0.1353028   0.06558505 -11.65  0.009940099    3.569    0.720
         6 -14.2555    202.1299     13.9384   2.9936089273e+01  -4.3815996060e+01   0.03677481    0.0294516  78.65  0.004245198    1.447    0.309
         7 -12.8801    154.1369      4.2313   3.0591417049e+01  -4.4233063297e+01   0.02867981    0.0230824  11.79   0.00330754    1.405    0.288
         8 -12.1085    100.0590      5.4242   3.1449473073e+01  -4.4567816336e+01   0.01492818   0.01316086 -54.06  0.001822049    1.193    0.162
         9 -10.3003     47.2562    244.4476   3.4302340401e+01  -4.2288679486e+01  0.009425136  0.005658499 -39.62  0.000938471    1.632    0.387
        10 -12.4951    197.8779    247.9868   3.2035660786e+01  -4.1326429175e+01   0.01954177   0.01542509 -48.56  0.001811268    1.320    0.242
        11 -12.5627    183.8887    249.8023   3.2261058192e+01  -4.1394365537e+01   0.02601998  0.009021756 -27.34  0.001968002    2.915    0.657
        12 -13.7141    129.6097    247.6512   3.3064796742e+01  -4.1754150764e+01   0.03257328   0.02925485  45.83   0.00404636    1.134    0.118
        13 -12.3411    126.9372    241.4918   3.3054798937e+01  -4.1837754004e+01   0.01483122   0.01123049  -9.63 0.0009037169    1.421    0.296
        14 -12.3118    123.0146    239.6972   3.3099823202e+01  -4.1881433443e+01   0.01208024   0.01095651 -68.24 0.0005919382    1.200    0.167
        15 -12.7712    119.1113    249.5895   3.3240637186e+01  -4.1797399482e+01   0.02378272   0.01426793 -30.53  0.002417959    1.593    0.372
        16 -12.8458    111.3611    249.7901   3.3360533835e+01  -4.1842599315e+01   0.02410871   0.01348712 -54.90  0.002185132    2.295    0.564
        17 -11.3609     77.9402    249.1470   3.3867286123e+01  -4.2052629493e+01   0.01422982   0.01131233 -76.74 0.0009876167    1.514    0.339
        18 -10.6423     67.5215    249.9524   3.4034096641e+01  -4.2106607743e+01   0.01333931  0.008156285 -43.80  0.001343131    1.673    0.402
        19 -13.0651     22.5326    218.9351   3.4480012326e+01  -4.2717038614e+01   0.04331824   0.02250879 -55.87  0.003471949    2.680    0.627
        20 -13.3822     14.8996    243.3245   3.4795341578e+01  -4.2493513994e+01   0.06217996   0.01885153  66.97  0.003962335    4.534    0.779
        21 -12.8807      5.8437    229.3986   3.4824831937e+01  -4.2700711697e+01   0.03439961   0.01709377  43.54  0.003106407    2.183    0.542
        22 -12.8660      2.1764    225.6276   3.4851848507e+01  -4.2763997759e+01   0.08388004   0.01253044  56.90  0.004955112    4.964    0.799
        23 -13.8901     12.8129    214.2712   3.4593997069e+01  -4.2826245701e+01   0.05700369   0.02455407  54.35  0.004993612    2.257    0.557
        24 -13.3145      9.2184    209.3938   3.4610736972e+01  -4.2901356331e+01    0.0485712   0.02028148 -39.83  0.004122962    2.335    0.572
        25 -13.6666      7.3726    202.7745   3.4585989859e+01  -4.2985277825e+01   0.04754007   0.03072677 -65.26   0.00464978    2.082    0.520
        26 -11.4555     28.1329    242.2254   3.4580804284e+01  -4.2427168796e+01   0.01284447  0.008489401 -73.46  0.001243732    2.131    0.531
        27 -10.6328     55.5127    241.1458   3.4147998905e+01  -4.2275499171e+01   0.01340682  0.006785347  70.95   0.00116106    2.460    0.594
        28 -12.9165    152.3972    249.0266   3.2730137540e+01  -4.1598627724e+01   0.01990461   0.01680994 -46.73  0.001811008    1.211    0.174
        29 -12.7792     97.5761    248.3702   3.3559721156e+01  -4.1942133501e+01    0.0283233   0.01137368 -32.99  0.002393002    2.293    0.564
        30 -10.5543     93.0000    240.9623   3.3569352195e+01  -4.2051029887e+01   0.01060701  0.003726822  60.86 0.0006509056    2.936    0.659
        31  -9.8125     63.6763    241.2974   3.4023193534e+01  -4.2224762666e+01  0.006748581  0.004841224 -58.42 0.0004740846    1.625    0.385
        32 -11.2947    249.4865    240.0269   3.1197872651e+01  -4.1085705841e+01  0.009902077  0.006437288  58.50 0.0009376203    1.583    0.368
        33 -10.1830    206.4944    240.5197   3.1843925180e+01  -4.1353030174e+01  0.006467091  0.006232896 -11.37 0.0001190555    1.009    0.009
        34 -10.9136    184.4745    239.3162   3.2164871521e+01  -4.1504384326e+01   0.01150854  0.007222559 -48.65 0.0008091696    1.733    0.423
        35 -10.4887     46.0322    237.9940   3.4269126146e+01  -4.2366971465e+01   0.01101307  0.007582642 -61.18  0.001131607    1.780    0.438
        36 -11.4485     75.0143    240.7324   3.3843876433e+01  -4.2162575552e+01   0.01724788   0.01204149 -63.23  0.001243526    1.779    0.438
        37 -10.4128    114.7023    235.6717   3.3193612069e+01  -4.1976369931e+01   0.01090553   0.00703404 -62.42 0.0009295349    2.042    0.510
        38 -11.2816    239.7499    235.2359   3.1302283270e+01  -4.1199356467e+01  0.009094122  0.007404138  23.69 0.0006805317    1.341    0.254
        39 -11.1623    101.5151    235.4928   3.3393987043e+01  -4.2058986876e+01  0.006464631  0.006245062 -16.09 0.0005392965    1.002    0.002
        40 -10.8131     67.8025    235.0550   3.3908795257e+01  -4.2268396737e+01  0.009914491  0.008620409 -70.68 0.0006687114    1.287    0.223
        41 -10.4576    176.3217    239.3106   3.2287768885e+01  -4.1555433009e+01  0.006787785  0.004904368  21.24 0.0004035631    1.649    0.394
        42 -11.0319    186.9757    232.2945   3.2068480424e+01  -4.1564786240e+01  0.009126769   0.00840451 -20.62 0.0005123046    1.054    0.051
        43 -10.6559    167.4828    231.0022   3.2352086068e+01  -4.1700766192e+01  0.009914947  0.006369174  57.09  0.001027011    1.583    0.368
        44 -10.8237     63.4287    230.0591   3.3935627722e+01  -4.2349598087e+01   0.01161737  0.008144868  81.79 0.0009554395    1.765    0.433
        45 -11.2100    138.2326    229.2904   3.2781889815e+01  -4.1901066172e+01    0.0114647  0.009184046  68.68 0.0004912737    1.347    0.258
        46 -10.2236     48.1367    230.1776   3.4173189738e+01  -4.2440284376e+01  0.009100872   0.00735804 -54.91 0.0005936105    1.337    0.252
        47 -14.6385      5.7613    244.8090   3.4949540584e+01  -4.2531079691e+01    0.1480126   0.05136165  64.51   0.01105818    3.238    0.691
        48 -11.2750     73.5485    226.8264   3.3753009488e+01  -4.2323886941e+01   0.01801034   0.01108375 -62.83  0.001685413    2.241    0.554
        49 -12.2018     16.4762    223.6840   3.4612857830e+01  -4.2700743832e+01   0.01569662   0.01114894  47.31 0.0007771961    1.433    0.302
        50 -12.1214     95.6001    223.0367   3.3382388195e+01  -4.2231277495e+01   0.02153291   0.01221622 -25.38  0.001239083    1.748    0.428
        51 -10.2239    221.5028    221.9751   3.1462791534e+01  -4.1458340117e+01  0.009992599  0.006439611  58.60  0.001035197    1.596    0.374
        52 -10.4351    109.2062    222.1548   3.3166287147e+01  -4.2157642952e+01  0.009551828  0.008461764  -3.40  0.001159108    1.153    0.133
        53 -10.8052    229.1308    220.9320   3.1339765508e+01  -4.1421075364e+01   0.01008615  0.008425408 -59.85 0.0004838664    1.322    0.243
        54 -10.0131     64.5100    221.4796   3.3848891479e+01  -4.2437188093e+01  0.006615717  0.006077318 -51.36 0.0001770394    1.126    0.112
        55 -11.1260    237.5147    218.6348   3.1194950053e+01  -4.1392357542e+01   0.01401554    0.0103031 -57.52   0.00101362    1.565    0.361
        56 -12.0690    247.4235    216.8180   3.1031636163e+01  -4.1348531966e+01   0.02036024  0.009904074  70.00  0.001692792    2.752    0.637
        57 -11.6075    241.5185    215.1066   3.1105156954e+01  -4.1404736294e+01   0.01473544   0.01185403  72.00  0.001681694    1.376    0.273
        58 -12.0420    231.0370    214.1920   3.1254042096e+01  -4.1481534207e+01   0.02524269   0.01509521  39.25  0.002492268    1.858    0.462
        59  -9.9188    155.8667    213.1819   3.2379361274e+01  -4.1966694769e+01  0.008966152  0.007276701  21.85 0.0003994896    1.351    0.260
        60 -10.9302    209.4315    211.9937   3.1559480610e+01  -4.1642650438e+01    0.0113424  0.008531175 -46.32 0.0004666302    1.368    0.269
        61 -10.9668    249.8375    210.9752   3.0945819818e+01  -4.1395853995e+01   0.01130707  0.006823246  33.95  0.001082018    1.986    0.497
        62 -11.6014    132.6152    210.5720   3.2711918129e+01  -4.2139601155e+01   0.01131862   0.01043326 -52.15 0.0004556063    1.124    0.111
        63 -10.8481     23.0579    211.1593   3.4408761095e+01  -4.2799522057e+01    0.0108256  0.008805481  14.68  0.001247978    1.350    0.259
        64 -10.2835    122.3478    209.9834   3.2864056101e+01  -4.2209512183e+01  0.008792071  0.008546291  36.04 0.0004411035    1.049    0.047
        65  -9.6774     52.4905    208.5053   3.3928966632e+01  -4.2652102865e+01  0.006481198  0.006233384  -4.59 0.0001488466    1.020    0.020
        66 -10.0819    239.7622    206.5801   3.1058715518e+01  -4.1507688433e+01  0.009435064  0.005693449 -40.51 0.0009415816    1.631    0.387
        67 -10.5966     82.1298    243.6875   3.3758494014e+01  -4.2087139212e+01   0.01381379   0.00482838 -35.33    0.0010842    2.595    0.615
        68 -10.0788    121.0307    215.0034   3.2925943722e+01  -4.2162930447e+01  0.007755293  0.007267639  53.79 0.0005455966    1.098    0.090
        69 -12.8025      3.2801    190.5892   3.4551164219e+01  -4.3143892976e+01   0.03079593   0.01669398  56.25  0.002956089    1.838    0.456
        70 -10.3222    128.7236    198.4273   3.2670011977e+01  -4.2295895730e+01  0.008584348  0.006231207 -13.93 0.0004440322    1.467    0.318
        71 -11.9724     14.1808    197.1413   3.4433541602e+01  -4.3006807838e+01   0.01010355  0.008702396  22.58 0.0006147097    1.223    0.182
        72  -9.6471    136.5417    195.5129   3.2525951107e+01  -4.2279043454e+01  0.006452701  0.006237912  -8.91 0.0001059481    1.010    0.010
        73 -12.3988    246.9033    192.6013   3.0832300216e+01  -4.1612072686e+01   0.01977565   0.01175454  25.71  0.001682688    2.354    0.575
        74 -11.2042    231.7637    192.8380   3.1061006713e+01  -4.1706726571e+01   0.01887197   0.01258281  12.29  0.001854998    2.033    0.508
        75 -11.6590      9.0823    193.9378   3.4487359579e+01  -4.3072471762e+01   0.01207523   0.01074696 -50.67   0.00147803    1.164    0.141
        76  -9.9727    188.3570    193.4996   3.1720607108e+01  -4.1975878568e+01  0.006245559  0.006194144 -88.47  0.000141165    1.058    0.055
        77 -10.4994    218.1795    187.3972   3.1218518941e+01  -4.1852183030e+01  0.009778899  0.005636169 -39.50 0.0005843234    1.691    0.409
        78 -13.5335      2.6012    181.4560   3.4487364072e+01  -4.3248558110e+01   0.03228803   0.01902382  59.32  0.003255156    1.726    0.421
        79 -11.0905     15.8629    183.1123   3.4292599233e+01  -4.3151171091e+01   0.01000519  0.008635874 -57.68 0.0004799399    1.244    0.196
        80 -12.1579    244.4824    180.5035   3.0764450305e+01  -4.1757544552e+01   0.01270364   0.01139292 -45.46 0.0008689196    1.129    0.114
        81 -11.4886    241.3362    180.6881   3.0813172450e+01  -4.1775829438e+01   0.01239187    0.0106513 -84.90 0.0007981614    1.343    0.256
        82 -11.3888     10.0145    176.5038   3.4330282420e+01  -4.3258857520e+01   0.01012642  0.006275097 -26.42 0.0007985351    1.570    0.363
        83 -12.3021    246.1528    174.6691   3.0689095040e+01  -4.1809381845e+01   0.01549938   0.01021128 -53.85  0.001585377    1.756    0.431
        84 -12.2064    249.3911    183.2417   3.0714589605e+01  -4.1696511700e+01   0.01620951  0.009514787  47.02  0.001616772    1.744    0.427
        85 -12.4257     12.2933    158.5081   3.4146385923e+01  -4.3443137020e+01   0.01451642   0.01007342   0.18   0.00150204    1.737    0.424
        86 -11.8253      2.1643    154.2847   3.4271247621e+01  -4.3550279545e+01   0.01539178   0.01044707  25.54  0.001519642    1.772    0.436
        87 -12.4857      4.5978    148.9245   3.4188557331e+01  -4.3594658155e+01   0.01925021   0.00915908  47.02   0.00172207    2.169    0.539
        88 -12.1470    177.2018    148.0837   3.1502026989e+01  -4.2537221302e+01   0.01606471  0.007559273 -40.25  0.001433218    2.080    0.519
        89 -12.0201    237.4249    146.8297   3.0578735698e+01  -4.2164379079e+01    0.0210214  0.008443794 -40.09  0.001743071    2.419    0.587
        90 -11.1761    243.2990    139.0865   3.0422802197e+01  -4.2209268593e+01   0.01666837  0.009482245 -47.41  0.001342827    1.910    0.476
        91 -11.0028    242.9905    134.6828   3.0388937177e+01  -4.2258428606e+01   0.01513454   0.01047215  45.15 0.0009967043    1.487    0.328
        92 -11.9635    210.7611    145.2765   3.0967812784e+01  -4.2353004403e+01   0.01238784  0.007982587 -34.19   0.00129458    1.486    0.327
        93 -14.2890    200.9345    130.7574   3.0990864334e+01  -4.2572277983e+01   0.05797352   0.02699493  36.31  0.004634688    2.943    0.660
        94 -14.1824    192.7643    138.1169   3.1178966003e+01  -4.2545444709e+01    0.0322102   0.01916579 -39.80  0.003256141    1.643    0.391
        95 -13.0363    193.1438    133.8492   3.1136209857e+01  -4.2588973418e+01   0.01780254   0.01515296 -31.01  0.001440828    1.136    0.120
        96 -12.8423    183.4616    142.1216   3.1355233661e+01  -4.2561702942e+01   0.02005614   0.01283355 -11.61  0.001994517    1.852    0.460
        97 -10.4816     19.3178    143.3186   3.3909856708e+01  -4.3567709737e+01  0.006838264  0.004866967  23.46 0.0007040867    1.658    0.397
        98 -11.5055    247.9632    144.6422   3.0401205423e+01  -4.2119486659e+01   0.01655639   0.01003978  67.20  0.001506915    1.891    0.471
        99 -10.5472    230.1154    138.1021   3.0612858852e+01  -4.2305270419e+01   0.01051148     0.007656 -63.90  0.001115144    1.689    0.408
       100 -12.6326    157.3927    135.8982   3.1700112039e+01  -4.2794542825e+01   0.01364069   0.01106858  30.44 0.0009039914    1.318    0.241
       101 -10.5291    238.2132    136.0134   3.0472519276e+01  -4.2275195125e+01   0.01029637  0.007389628 -78.75 0.0005887045    1.901    0.474
       102 -10.6785    232.5164    132.8156   3.0530476412e+01  -4.2346402711e+01   0.01461577  0.009831881  19.22  0.001456842    1.945    0.486
       103 -11.3451    209.8747    131.3699   3.0860439906e+01  -4.2508193272e+01    0.0113425  0.009480511  61.66 0.0006074075    1.252    0.201
       104 -11.2538    247.5945    129.7013   3.0276004971e+01  -4.2281790721e+01   0.01606075   0.01024765 -46.57 0.0009692832    1.646    0.392
       105 -10.8233    231.2881    117.5651   3.0415416072e+01  -4.2517769688e+01   0.01684201   0.01099081 -76.32  0.001576277    2.368    0.578
       106 -11.1719    234.9822    112.4952   3.0314987541e+01  -4.2548020274e+01   0.01846721   0.01047176 -57.24  0.001286957    2.406    0.584
       107 -11.4024    240.5141    127.8659   3.0366529863e+01  -4.2347507525e+01   0.02020299   0.01234442 -32.25  0.001689352    1.569    0.363
       108 -12.1547    235.9433    123.3781   3.0396116058e+01  -4.2425268682e+01   0.02372476   0.01362556 -40.85  0.001586786    1.716    0.417
       109 -10.5644    235.7622    107.5953   3.0260015750e+01  -4.2595364995e+01   0.01066816  0.008250766 -53.43 0.0006452959    1.404    0.288
       110 -10.8674    246.0093    120.0219   3.0214828799e+01  -4.2395648395e+01   0.01382337   0.01267307 -54.06  0.001505869    1.137    0.121
       111 -11.5692    239.2923    118.8192   3.0305531564e+01  -4.2452283349e+01   0.02648329   0.01481723 -51.44  0.002240503    2.126    0.530
       112 -10.4338    227.0096    125.0322   3.0545586195e+01  -4.2465522578e+01    0.0108665  0.007557961 -61.86  0.001043703    1.793    0.442
       113 -15.4258    136.9590    119.2809   3.1871351936e+01  -4.3103482596e+01   0.04804336   0.03601984  75.13  0.005351472    1.537    0.350
       114 -11.9962      5.1981    127.2453   3.3999067682e+01  -4.3829277355e+01   0.01185682  0.008618844  44.78  0.001308926    1.412    0.292
       115 -12.8333    187.8771    122.3495   3.1116600188e+01  -4.2746528560e+01   0.01541989   0.01090389  39.25   0.00111772    1.506    0.336
       116 -14.2444    167.1309    120.6591   3.1419206671e+01  -4.2897294210e+01   0.02704383    0.0180668  77.50  0.002753979    1.884    0.469
       117 -14.0615    160.2223    120.2065   3.1521273942e+01  -4.2946138188e+01   0.02519823   0.01617468  47.08  0.002639321    1.592    0.372
       118 -13.8023    181.8150    128.3858   3.1261537326e+01  -4.2720296949e+01   0.01923783   0.01658318 -16.51  0.002140584    1.158    0.136
       119 -10.2899    219.8480    120.8489   3.0617373721e+01  -4.2556758946e+01  0.008936192  0.007488069 -59.31 0.0005733328    1.311    0.237
       120 -14.1829    192.7390    129.2086   3.1102101232e+01  -4.2641528390e+01   0.04820082   0.02658543  12.24  0.003597463    3.696    0.729
       121 -11.0303    240.0581    110.2901   3.0218868853e+01  -4.2538531713e+01   0.02136787   0.01226225  63.41  0.001867332    1.909    0.476
       122 -14.2269    183.8502    111.4020   3.1082747335e+01  -4.2890193379e+01   0.04118093   0.01091259  50.93  0.002877012    3.551    0.718
       123 -12.3353      5.5565    114.2313   3.3884630976e+01  -4.3969979339e+01    0.0192698  0.006672476  62.90    0.0014426    3.144    0.682
       124 -13.9153    176.1344    112.3684   3.1209235048e+01  -4.2929209578e+01   0.01951262   0.01750318 -74.74  0.002400004    1.239    0.193
       125 -11.0230    247.3501    112.1676   3.0125412431e+01  -4.2470854372e+01   0.01268861   0.01038421 -58.41  0.001034563    1.349    0.259
       126 -14.1409    159.6373    111.1794   3.1451999620e+01  -4.3047310291e+01   0.02418797   0.01553162 -41.05  0.002531194    1.540    0.351
       127 -15.0187    143.5327    101.1390   3.1612926806e+01  -4.3258091934e+01   0.06259736   0.03427037  85.69  0.004848954    3.514    0.715
       128 -11.2625    239.5805    103.0843   3.0162461476e+01  -4.2618689364e+01   0.01677378   0.01045336  49.54  0.001700946    1.624    0.384
       129 -13.8604    166.8612    103.0865   3.1270580808e+01  -4.3088522231e+01   0.02092484   0.01360545 -31.74  0.002210138    1.476    0.322
       130 -10.3005    224.1458    107.3627   3.0433843087e+01  -4.2673446901e+01  0.009588335  0.005513266 -40.52 0.0005004511    1.708    0.415
       131 -12.5623    178.8729    102.6589   3.1082576986e+01  -4.3016224586e+01   0.01190359  0.008878877  44.19   0.00128358    1.379    0.275
       132 -11.1976    247.4510    101.6559   3.0030963613e+01  -4.2582483689e+01   0.01133901   0.01066941  31.82 0.0007853369    1.081    0.075
       133 -12.9383     58.0661     99.6637   3.2932154112e+01  -4.3808921613e+01   0.01510334   0.01178677  81.13   0.00141075    1.497    0.332
       134 -12.2891    195.9587     99.4813   3.0793409464e+01  -4.2940473330e+01   0.01267611  0.009588258  87.33  0.001380571    1.658    0.397
       135 -13.3087    154.6047    115.0079   3.1562582770e+01  -4.3037974705e+01   0.01668729    0.0125779 -64.30  0.001832471    1.592    0.372
       136 -13.7543    180.1773     95.2337   3.0997585360e+01  -4.3087745925e+01   0.03254247   0.01800086  87.98  0.002456167    3.732    0.732
       137  -9.9854    237.3551     96.7490   3.0140065174e+01  -4.2700942015e+01  0.006686573  0.004753897 -55.14 0.0004476772    1.601    0.375
       138 -13.8880    163.8756     93.7564   3.1235016715e+01  -4.3208157867e+01   0.02215838   0.01530603   1.66  0.002267987    1.836    0.455
       139 -11.5819      3.2817     95.0224   3.3759325665e+01  -4.4194420448e+01    0.0151678  0.009510214 -27.29  0.001123796    1.547    0.353
       140  -9.9751    250.6268    109.5094   3.0052557553e+01  -4.2477827081e+01  0.006273148  0.006217715  16.00  0.000130593    1.035    0.034
       141 -12.5388    193.5540     85.7839   3.0709641492e+01  -4.3103072266e+01   0.01971596   0.01048339 -49.67  0.001786318    2.189    0.543
       142 -13.7452     44.1993     80.9138   3.2990570843e+01  -4.4098875403e+01   0.02558016   0.01742647  82.16  0.002625689    1.881    0.468
       143 -10.8219    118.8353     82.8238   3.1836555295e+01  -4.3612503672e+01  0.009185311   0.00772557 -64.42 0.0007728551    1.335    0.251
       144 -10.7529     78.1891     82.3463   3.2467534479e+01  -4.3872701134e+01   0.01267473  0.004778015  57.29  0.001019284    2.611    0.617
       145 -11.0075     25.4913     83.4989   3.3308871704e+01  -4.4185459452e+01  0.006472192   0.00624337 -10.30 0.0008106175    1.009    0.009
       146 -12.6167    170.6739     81.9123   3.1026582990e+01  -4.3292110890e+01   0.01401003  0.009447778 -36.80  0.001499955    1.431    0.301
       147 -11.5042    172.9855    249.4837   3.2422699989e+01  -4.1465838699e+01   0.01018786  0.006280485 -27.21 0.0007533306    1.584    0.369
       148 -15.2840    204.8794     67.8033   3.0377206540e+01  -4.3222368031e+01   0.07676889   0.05120431 -28.29   0.00821438    1.464    0.317
       149 -13.3739    140.9172    247.4981   3.2891636102e+01  -4.1686199211e+01   0.02618233   0.02443648 -14.63  0.003312545    1.045    0.043
       150 -13.5841    189.6649     48.8161   3.0441339932e+01  -4.3524661463e+01   0.04209441   0.01821873 -32.09  0.003413324    2.187    0.543
       151 -11.8159    158.8363     80.1200   3.1193209041e+01  -4.3387314919e+01   0.01006726  0.008963042 -59.14 0.0008442472    1.203    0.169
       152 -12.4796     54.4613     83.1591   3.2847788463e+01  -4.4011089711e+01   0.01477337  0.009360516 -58.97  0.001437684    2.008    0.502
       153 -12.5029    164.7643     65.4502   3.0972589493e+01  -4.3507165445e+01   0.01841107   0.01008406 -45.78  0.001740773    1.938    0.484
       154 -12.9876     52.9290     75.8614   3.2809331187e+01  -4.4100075174e+01   0.01843239   0.01343594  37.63  0.002034356    1.464    0.317
       155 -11.3633    246.9977     58.9431   2.9656802205e+01  -4.3040910744e+01    0.0202639  0.007969696 -52.00  0.001317648    4.355    0.770
       156 -13.1058    247.4878     46.4679   2.9537037406e+01  -4.3170431229e+01   0.04812942   0.03448913  26.03  0.005167028    1.652    0.395
       157 -12.1907     33.6483    248.2070   3.4543319984e+01  -4.2328481428e+01   0.01728049   0.01243657 -36.87  0.001916171    1.348    0.258
       158 -12.5076    232.7196     42.3267   2.9724219665e+01  -4.3312057924e+01   0.01434766   0.01047799   3.38  0.001132369    1.685    0.406
       159 -11.9279    165.6853     48.6984   3.0809972458e+01  -4.3681259104e+01   0.01269119   0.01147901  -9.69 0.0008922148    1.109    0.098
       160 -12.2980     78.1023     30.9209   3.2021396130e+01  -4.4431240053e+01   0.01355352   0.01269414 -80.61  0.000544203    1.158    0.136
       161 -12.4998     21.1774    245.0262   3.4711344234e+01  -4.2437579930e+01   0.01719915  0.009862434  76.37  0.001447679    2.258    0.557
       162 -13.0770    162.7017    248.3661   3.2568735208e+01  -4.1541930642e+01   0.02615041   0.01536136  28.96  0.002415123    2.245    0.555
       163 -13.8016    208.9288     23.7553   2.9920392840e+01  -4.3666612698e+01   0.03098478   0.01873519 -34.22   0.00316968    1.580    0.367
       164 -11.4787     37.9740    243.6954   3.4439980659e+01  -4.2352393294e+01   0.02357787   0.01073204  65.76  0.002018619    2.468    0.595
       165 -10.2587    206.2869    245.3500   3.1887488248e+01  -4.1302102185e+01  0.006824269  0.004831336  26.25 0.0004284519    1.661    0.398
       166 -14.2426    207.1337     76.2584   3.0417845229e+01  -4.3117165489e+01   0.04498633   0.02631223 -13.23  0.004186625    2.150    0.535
