#   1 NUMBER                 Running object number                                     
#   2 MAG_AUTO               Kron-like elliptical aperture magnitude                    [mag]
#   3 X_IMAGE                Object position along x                                    [pixel]
#   4 Y_IMAGE                Object position along y                                    [pixel]
#   5 X_WORLD                Barycenter position along world x axis                     [deg]
#   6 Y_WORLD                Barycenter position along world y axis                     [deg]
#   7 A_WORLD                Profile RMS along major axis (world units)                 [deg]
#   8 B_WORLD                Profile RMS along minor axis (world units)                 [deg]
#   9 THETA_WORLD            Position angle (CCW/world-x)                               [deg]
#  10 FWHM_WORLD             FWHM assuming a gaussian core                              [deg]
#  11 ELONGATION             A_IMAGE/B_IMAGE                                           
#  12 ELLIPTICITY            1 - B_IMAGE/A_IMAGE                                       
         1 -10.3250    238.7169     22.3844   4.0499805255e+01   2.3141611541e+01    0.3595263    0.3482662   7.12  0.001139678    1.333    0.250
         2 -10.2612     53.0086     20.8177   7.8856091719e+01   6.5794807356e+01    0.4767059    0.3064257   8.96  0.002657833    1.652    0.395
         3 -10.2760      2.1620     21.9688   1.0394453931e+02   7.0717323581e+01    0.2647803    0.1858256 -42.18  0.001275662    1.087    0.080
         4  -9.3222    141.3318     20.0909   5.2698570044e+01   4.7543661350e+01    0.4635837    0.3077376 -72.76  0.002148636    2.063    0.515
         5 -10.5878    111.2913     18.7556   5.8748108266e+01   5.4898832047e+01    0.4075585    0.3241242  16.93    0.0017693    1.257    0.204
         6 -10.0690     86.7726     17.2647   6.4943577302e+01   6.0343236702e+01    0.3488327    0.2844711 -16.83   0.00135332    1.221    0.181
         7 -10.5678    149.8397     18.0948   5.0471757448e+01   4.5622777511e+01    0.3493828    0.2874515 -13.86   0.00149688    1.354    0.261
         8  -9.6132     34.4141     14.4456   8.4219941595e+01   6.9197490708e+01     0.249904    0.1689021 -17.37 0.0008906879    1.252    0.201
         9 -10.0748    154.9518     16.7878   4.9177634014e+01   4.4466029123e+01    0.3562343    0.2100671 -14.77  0.001124093    2.045    0.511
        10 -10.2526     17.1927      4.1657   8.7989995796e+01   7.2541391753e+01    0.4093525    0.2659987  31.40  0.002726411    1.863    0.463
        11 -10.3040     10.2000     15.1960   9.7017056033e+01   7.1397899068e+01    0.3931249    0.3474835 -60.78  0.002951509    1.644    0.392
        12  -9.6864      8.0150     12.0470   9.6856863541e+01   7.2079648219e+01    0.3199297    0.1454412 -50.88  0.001782854    2.039    0.510
        13 -10.8142      7.2876      3.6055   9.3348081406e+01   7.3476531144e+01    0.4589571    0.4089076  45.29   0.00225588    1.979    0.495
        14 -10.7625     19.3208     10.9389   9.0190316027e+01   7.1328568206e+01    0.3122007    0.1809542  15.41   0.00139964    1.764    0.433
        15 -11.1898     15.9785      8.2978   9.0725240080e+01   7.2039199563e+01    0.4099822    0.2540291  29.09  0.001502361    1.881    0.468
        16 -10.3906    102.1030     14.8419   5.9517795870e+01   5.7384215707e+01    0.4832995    0.2919363 -13.86  0.002421104    1.798    0.444
        17 -10.4127     58.2942     13.8428   7.3410950367e+01   6.5930313634e+01    0.3873881    0.3561521  47.76  0.001958596    1.521    0.343
        18 -10.7826    182.1752     13.1752   4.4150761921e+01   3.7905694038e+01     0.642527    0.3250833  59.42  0.002875613    1.787    0.440
        19  -9.5656    187.2778      8.5744   4.2235746334e+01   3.7086672198e+01    0.2650828    0.2227139  24.47  0.001548162    1.461    0.316
        20 -10.6235    121.3703     11.9644   5.3782101272e+01   5.3258691925e+01    0.6072731    0.2934517  52.07  0.001655707    1.778    0.438
        21  -9.0117    129.1392     10.9054   5.1789512444e+01   5.1493063292e+01    0.1996489    0.1791452 -67.95 0.0005609773    1.283    0.221
        22  -9.8856    210.2584      9.7479   4.0113572753e+01   3.1272470454e+01    0.4089171     0.263875 -45.89  0.001651264    1.473    0.321
        23  -8.8164    212.5350      5.4910   3.8832519859e+01   3.1166208186e+01    0.2352375    0.1831806 -82.09 0.0009844357    1.140    0.123
        24  -9.4701     47.4043      9.0539   7.5586019555e+01   6.8211947787e+01    0.3037399    0.1858903   3.05  0.001702955    1.722    0.419
        25  -9.0413    238.3021      9.0205   3.7482596016e+01   2.4775729252e+01    0.1831661    0.1466259 -54.06  0.001122027    1.122    0.109
        26 -10.6207     22.1206     15.5515   9.0871795109e+01   7.0341223038e+01    0.5302171    0.3939513 -14.01  0.002694313    1.099    0.090
        27  -8.5620     40.8935      8.4187   7.8177617804e+01   6.9212077257e+01    0.2648981    0.2122922 -61.92   0.00157584    2.521    0.603
        28  -9.1248     37.8654      4.7842   7.7703832022e+01   7.0086187997e+01    0.1563826    0.1237987  10.22 0.0002390444    1.141    0.124
        29  -9.2953     78.6321      6.9957   6.2869337283e+01   6.3077260302e+01    0.2796654    0.1834524  17.89  0.001554313    1.496    0.331
        30  -8.7744    158.6978      6.9452   4.5437683834e+01   4.4489063904e+01     0.181519    0.1690002  86.89 0.0004684269    1.068    0.063
        31  -8.6134      1.5044      7.5542   9.8579786008e+01   7.3250971688e+01    0.1122362   0.07848471 -28.11 9.335044e-05    1.034    0.033
        32  -8.8730    108.3055      6.0151   5.4357444738e+01   5.6861886049e+01    0.1822938    0.1627539   8.72  0.001135654    1.131    0.116
        33  -9.1685    127.3165      5.1712   5.0034392325e+01   5.2460199751e+01    0.2553626    0.1836141  69.34 0.0009449635    1.351    0.260
        34  -9.0641     25.7428      4.5744   8.3610470602e+01   7.1599378773e+01    0.2004113    0.1465833 -38.89  0.001017703    1.588    0.370
        35  -8.9737     22.0506      3.1009   8.4785824593e+01   7.2202896447e+01    0.1929484    0.1439997  27.54 0.0007701973    1.575    0.365
        36  -8.4568    182.5926      3.8422   4.1446227216e+01   3.8725814999e+01    0.1836007    0.1126528 -43.11 0.0004748739    1.661    0.398
        37  -9.4764     90.5656      3.5862   5.7794167990e+01   6.0977728878e+01    0.2863646    0.2285489  77.58  0.001362068    1.649    0.393
        38  -8.8507     30.5926      3.6109   8.0620485546e+01   7.1163732557e+01    0.2154072   0.09167476 -29.29 0.0006900157    2.108    0.526
        39  -9.3335     50.8052      2.9473   7.0997790929e+01   6.8422087185e+01    0.3950661     0.137799  37.59  0.001766665    2.706    0.630
        40  -8.5207    231.4587      2.5053   3.6536218089e+01   2.7027392571e+01    0.1265889    0.1056248 -73.30 6.438576e-05    1.011    0.011
        41  -9.6799    189.8570      1.8645   4.0106857439e+01   3.7090834435e+01     0.343856    0.1631676 -88.46  0.001126385    2.430    0.589
        42  -9.6787    103.5503      1.7091   5.3695479921e+01   5.8310717565e+01    0.3154105    0.1820578  80.75 0.0004962125    2.598    0.615
        43  -7.9633     42.4568      1.9708   7.4090836538e+01   6.9790233505e+01    0.1661698    0.1003531 -24.50 0.0009979294    1.501    0.334
        44  -9.0582    242.1098      1.4586   3.5519426485e+01   2.4738672379e+01    0.1734927    0.1081101  81.23 0.0004626429    1.493    0.330
        45  -8.8452    137.5102      1.3368   4.6847619207e+01   5.0290135223e+01    0.2176523    0.1131277  66.78 0.0005636009    1.719    0.418
        46  -8.8497     85.3013      1.2253   5.8197138017e+01   6.2284290598e+01    0.2079866   0.09657849  56.33            0    2.050    0.512
        47  -9.0881     50.1121    112.0756   1.0796560615e+02   4.7365341133e+01    0.2052593    0.1493445  82.65 0.0004945297    1.584    0.369
        48  -9.0410    127.8315    110.0785   8.4720757426e+01   3.5074486810e+01    0.3067112    0.2151109 -25.31  0.001318917    1.750    0.429
        49  -8.4245     90.9829    111.5416   9.5503469486e+01   4.1761275339e+01    0.1989592    0.1468548  39.94 4.622184e-05    1.439    0.305
        50  -8.7283     63.0046    111.4749   1.0391623667e+02   4.5948376354e+01    0.1760364    0.1187626 -13.55 0.0004071656    2.257    0.557
        51  -7.8993    100.3549    109.2784   9.2198894050e+01   4.0657918861e+01    0.1507996    0.1184753  -9.40 0.0007010693    1.653    0.395
        52  -9.4463     71.9166    107.6593   1.0035604564e+02   4.5649386477e+01    0.2375311    0.1743023 -47.76 0.0004975548    1.267    0.211
        53 -10.7726      7.2241    107.8428   1.2017917114e+02   5.2035096784e+01    0.2916115    0.2087572  13.38 0.0002112042    1.845    0.458
        54  -9.9820      8.4315    102.1955   1.1908962863e+02   5.3276605376e+01    0.4045216    0.2317114 -85.46  0.002259905    1.645    0.392
        55  -8.9009     41.2862    106.3551   1.0961799429e+02   4.9679048044e+01    0.2628082    0.1487479 -67.26  0.001064454    1.553    0.356
        56  -8.7383     34.9975    107.0080   1.1168594691e+02   5.0129016315e+01    0.2098232     0.129163 -44.11 0.0007065154    1.617    0.382
        57  -9.2616    123.2303    103.9027   8.4309640280e+01   3.7411606624e+01    0.4616702    0.1760409 -43.24  0.001536092    2.597    0.615
        58 -10.4727     79.8631    103.4513   9.6912723631e+01   4.5466067767e+01     0.381678    0.2907848 -18.97  0.001910273    1.628    0.386
        59  -8.2317     48.7843    104.9955   1.0700794870e+02   4.9213819537e+01    0.1743274    0.0960942 -61.50 0.0002354678    1.558    0.358
        60  -9.8604     18.1010    104.0216   1.1640442086e+02   5.2216268029e+01     0.415367     0.259999  31.99  0.002443062    1.904    0.475
        61 -10.0055    108.2775    103.2007   8.8324889396e+01   4.0575984084e+01    0.3795021    0.2540318  31.20 0.0007581697    1.685    0.407
        62 -10.7253     58.5672    101.5104   1.0317123294e+02   4.8896923995e+01    0.5811824    0.2505734 -46.82  0.002411671    2.161    0.537
        63  -9.7910     41.1525    101.5193   1.0874661299e+02   5.0845735531e+01    0.3842626    0.2222963 -15.09 0.0008169474    2.867    0.651
        64 -10.1415     52.9916     99.1156   1.0444048550e+02   5.0136225633e+01    0.5305521    0.2289515 -60.86  0.002244039    2.064    0.516
        65  -9.8071     52.1883     91.6064   1.0301668515e+02   5.1993650080e+01    0.3469526    0.2206478 -69.51  0.001429419    1.637    0.389
        66  -8.8295    101.9928     99.2049   8.9088856860e+01   4.2672345221e+01    0.2826091    0.1796155  50.11  0.001245135    1.745    0.427
        67  -8.9929     27.8734     97.8425   1.1232728926e+02   5.2923545543e+01    0.1815409    0.1455942 -51.89 0.0003980848    1.130    0.115
        68  -9.1354     18.5760     97.9544   1.1532000226e+02   5.3605953968e+01    0.1960458    0.1784438  41.21  0.000569915    1.339    0.253
        69  -9.0609     15.4682     95.2080   1.1587371073e+02   5.4459115016e+01    0.1809639     0.160903  47.79 0.0007826883    1.362    0.266
        70  -9.6436     69.3432     96.4466   9.8523167076e+01   4.8662810270e+01    0.2956109     0.257503  85.98  0.001302149    1.319    0.242
        71  -9.0472    147.9403     96.2960   7.5753554602e+01   3.3559208103e+01    0.2213589    0.2021254  41.01 0.0003717775    1.109    0.098
        72  -9.5314     79.7273     95.1069   9.4850945824e+01   4.7430787484e+01    0.3231285    0.2695913 -44.98  0.001760264    1.104    0.094
        73  -9.9525    131.8018     86.7216   7.7076865289e+01   3.9210899226e+01    0.3364182    0.2670452 -29.94  0.000892804    1.296    0.229
        74 -10.9142    135.1702     83.0233   7.5078530491e+01   3.9190289618e+01    0.3000127    0.2698268 -31.51 0.0003214853    1.105    0.095
        75  -9.9798     37.7604     93.7110   1.0830292408e+02   5.3020600114e+01    0.2382867    0.1927412 -52.26  0.000174987    1.074    0.069
        76  -8.8257      5.2700     87.1379   1.1793290706e+02   5.6924405186e+01    0.2488286   0.08568837 -38.19  0.001041369    3.388    0.705
        77  -8.9017    153.4709     92.9896   7.3472774726e+01   3.2930621947e+01    0.2345383    0.1537738 -41.64 0.0003525131    1.508    0.337
        78 -10.0422     89.3385     92.3332   9.1068277716e+01   4.6488739268e+01    0.2904669    0.2596954 -22.55 0.0007231096    1.145    0.127
        79  -8.5970      9.3047     93.0459   1.1751606180e+02   5.5344623806e+01    0.1686155    0.1273273 -70.20 0.0004680626    1.062    0.059
        80  -9.8914    139.7133     88.6338   7.5591254007e+01   3.7022453909e+01    0.3501418    0.2399934 -21.52  0.001078555    1.786    0.440
        81  -8.1554     19.3381     92.2428   1.1412728463e+02   5.4884046023e+01    0.1217211   0.07881223 -39.63 0.0002165873    1.554    0.357
        82 -10.3414    132.5907     93.4974   7.8862547375e+01   3.7634359898e+01    0.4635743     0.296212 -52.77  0.001212825    1.686    0.407
        83  -9.3455     43.6289     91.0807   1.0578010549e+02   5.3054143567e+01    0.2992055    0.1736874  40.52   0.00110712    2.012    0.503
        84 -10.8355    121.0275     87.7334   8.0310200486e+01   4.1364736864e+01     0.464307    0.4062077 -70.31 0.0003334227    1.297    0.229
        85  -9.7729      1.6833     91.7975   1.1976727526e+02   5.6044053458e+01    0.4479644    0.1101374 -66.50  0.001869938    2.672    0.626
        86  -8.9556     15.5921     90.1059   1.1499916377e+02   5.5633776738e+01    0.2294684     0.143615 -27.84  0.001309695    1.888    0.470
        87 -10.3372    110.4747     88.4826   8.3549263801e+01   4.3395389419e+01    0.4359283    0.2523978  39.53  0.001722303    1.809    0.447
        88  -8.3870     56.8176     88.8480   1.0079486526e+02   5.2079941276e+01    0.1824304    0.1592541  81.16  0.000764085    1.356    0.263
        89  -9.5138    101.6899     86.8850   8.5696485855e+01   4.5459307693e+01    0.2974575    0.1712482  29.06  0.001209125    2.127    0.530
        90  -9.8192     85.6094     87.0328   9.0766879890e+01   4.8306569529e+01     0.244153    0.2017462  50.05  0.001293048    1.359    0.264
        91 -10.2935    174.3359     84.2451   6.6316845002e+01   2.9555852422e+01    0.3700671    0.2495195 -21.22 0.0009276773    1.765    0.434
        92  -8.7837    167.3370     85.6615   6.8208403907e+01   3.1008950351e+01     0.165422    0.1232838 -74.61 0.0004992077    1.755    0.430
        93  -8.9012     80.8360     80.7816   9.0514552263e+01   5.0469066749e+01    0.2216177    0.1852061 -14.55  0.000783862    1.276    0.216
        94  -9.2883     81.2280     84.9732   9.1600375076e+01   4.9484372532e+01    0.2755527    0.2387859  -3.06 0.0009816372    1.257    0.204
        95 -10.6356     75.8106     82.4324   9.2667145323e+01   5.0901644911e+01    0.3993267    0.2675169 -58.24  0.001092825    1.537    0.349
        96  -9.1197     65.7980     84.6905   9.6673792832e+01   5.1857865714e+01    0.2555327    0.1794637 -34.04 0.0008979277    1.433    0.302
        97 -10.2388     46.1542     83.9377   1.0326852308e+02   5.4438354908e+01    0.2455206    0.2057619 -47.87            0    1.027    0.027
        98  -9.8830     41.7784     84.1946   1.0485982701e+02   5.4835969174e+01    0.6523281    0.3605806  79.08  0.002245207    4.814    0.792
        99  -8.7889     26.9410     84.6426   1.1013564116e+02   5.6071880333e+01    0.1633096    0.1498975 -56.03 0.0005390462    1.124    0.110
       100  -7.9443     57.2820     84.3039   9.9490727219e+01   5.3062937189e+01    0.1386855   0.09460733 -31.15 0.0002523399    1.554    0.357
       101  -8.1918     33.7079     84.2656   1.0769859873e+02   5.5587085962e+01    0.1173011   0.09455666  79.41 0.0001949413    1.505    0.335
       102  -9.0457     96.7377     78.9881   8.4841716339e+01   4.8076550877e+01     0.223513    0.1914585 -11.90 0.0003698982    1.230    0.187
       103 -10.0682    100.5866     82.2448   8.4645235772e+01   4.6663274648e+01    0.3468796     0.233549 -42.15 0.0009311549    1.417    0.294
       104 -11.5083    104.7211     78.4599   8.2218989926e+01   4.6651874417e+01    0.5431036    0.4731356 -14.72  0.001232503    1.183    0.155
       105 -10.3060    110.4968     71.8003   7.8369147916e+01   4.6819034617e+01     0.398109    0.2938542 -16.26 0.0006546436    1.574    0.365
       106 -10.3669     98.4433     73.9037   8.2709261863e+01   4.8805752634e+01    0.4331242    0.3391168 -60.31  0.001576211    1.485    0.327
       107 -10.3195     97.0755     69.0881   8.1574710123e+01   5.0033660485e+01    0.3690144    0.2254335 -44.04 0.0008455976    1.591    0.372
       108  -8.5635     70.6830     83.4653   9.4682872126e+01   5.1440585032e+01     0.179706    0.1363254  10.61 0.0009291246    1.569    0.363
       109 -10.6031    144.0389     81.2253   7.2289596679e+01   3.7476359700e+01    0.4218532    0.3087797  68.59  0.001116799    1.638    0.389
       110 -11.2213    124.4910     85.4865   7.8677253199e+01   4.1082997047e+01    0.5779927    0.3939536 -37.38  0.002011674    1.459    0.315
       111  -9.4013     55.2932     80.3512   9.9150832735e+01   5.4201543875e+01    0.2759248    0.2355555 -35.50  0.001652098    1.089    0.081
       112  -8.9709     51.0684     81.0148   1.0081415112e+02   5.4554572523e+01    0.2000387    0.1868028  -0.65 0.0003486768    1.183    0.155
       113  -9.2503     49.2574     77.0139   1.0041866861e+02   5.5660019579e+01    0.2493573    0.2409201   8.75 0.0009562377    1.184    0.155
       114  -9.3087     53.5763     75.0274   9.8322152715e+01   5.5594592069e+01    0.4824604    0.2372742 -24.01  0.001740775    3.665    0.727
       115  -9.5794     57.9219     71.2230   9.5660549728e+01   5.5881495413e+01    0.2923003     0.224652  -1.75  0.001062217    1.482    0.325
       116  -8.7852     22.4564     80.5172   1.1087148250e+02   5.7358721787e+01     0.197859     0.167824 -41.21 0.0009160695    1.151    0.131
       117 -10.0243     21.0745     75.4419   1.1031522903e+02   5.8606356676e+01    0.3196034    0.2219318 -68.14 0.0006752888    1.296    0.228
       118 -11.0167      5.8372     79.2132   1.1646935492e+02   5.8691664789e+01     0.433116    0.2927635  83.39 0.0009991196    1.708    0.415
       119 -10.3211    154.0165     79.4716   6.9376078091e+01   3.5417440348e+01    0.3413628    0.2632611  65.75 0.0009413209    1.424    0.298
       120  -8.7174    130.0807     79.4612   7.5322395429e+01   4.1053335207e+01    0.2245118    0.1526027  49.27 0.0003617361    1.496    0.332
       121  -8.5579     43.2149     78.8261   1.0305905346e+02   5.5909812626e+01    0.1873014    0.1379167 -31.58  0.000797923    1.355    0.262
       122  -8.5220     15.5260     78.9596   1.1302108281e+02   5.8188320448e+01    0.1814132   0.09978972 -65.91 0.0003908729    1.478    0.324
       123  -8.6575     28.2938     78.0361   1.0825616215e+02   5.7469519465e+01    0.1757392    0.1310392 -52.87 0.0003144071    1.085    0.079
       124  -8.5608     35.9774     76.4652   1.0510170324e+02   5.7153179524e+01    0.2004476    0.1403009 -56.67 0.0005854816    1.205    0.170
       125 -11.0166    137.0773     73.3184   7.1583642624e+01   4.0619454490e+01    0.7250445    0.2650343 -44.31  0.002364171    2.853    0.649
       126  -9.3274     82.8179     74.1432   8.7841632353e+01   5.1562459056e+01     0.376449    0.1861025  30.77  0.001065346    2.376    0.579
       127 -10.0175     78.0001     74.9898   8.9725683636e+01   5.2173027398e+01    0.2906655    0.2353823   4.33  0.000664049    1.379    0.275
       128  -9.1106     74.3053     75.3283   9.1089560565e+01   5.2680694431e+01    0.2754026    0.1826992 -32.42  0.001346319    1.525    0.344
       129 -11.0207    157.9607     73.7786   6.6762470381e+01   3.5496995740e+01    0.5564097    0.3176503 -29.22  0.001271942    1.917    0.478
       130 -11.3706    163.5364     67.5661   6.3670946875e+01   3.5201703452e+01    0.7246886    0.3918391  52.85  0.002120352    1.813    0.448
       131 -11.0611    151.9659     73.2853   6.7971273775e+01   3.7056557832e+01     0.427114    0.3896353 -32.02 0.0007838641    1.102    0.092
       132 -11.3672    151.9341     65.4296   6.5538066903e+01   3.8452984466e+01    0.6154539    0.3801221 -43.30   0.00265971    1.653    0.395
       133  -9.3124     10.5195     73.7539   1.1382143554e+02   5.9661772831e+01    0.2938336    0.1776269  63.40  0.001192918    2.418    0.586
       134  -9.5732     45.1710     72.7268   1.0076780062e+02   5.7062347926e+01    0.3436377    0.2369173  37.81  0.001264581    1.709    0.415
       135  -8.5044     42.6999     68.3515   1.0049819007e+02   5.8281237803e+01     0.206822     0.113523 -58.62  0.001017993    1.697    0.411
       136 -10.5882     44.6420     63.1836   9.8272468337e+01   5.9179395193e+01    0.3556642    0.3145515  -1.75  0.000958099    1.202    0.168
       137  -8.8445    177.5111     72.0550   6.2171741310e+01   3.0932895521e+01    0.2336387    0.1499985 -35.78  0.001017821    1.546    0.353
       138  -8.7556     16.2139     71.7472   1.1132460789e+02   5.9762781488e+01    0.2916062    0.1236066 -28.73 0.0006339232    3.143    0.682
       139  -8.8549     15.3829     67.8792   1.1080832545e+02   6.0671645275e+01     0.261322    0.1810368  32.27  0.001104435    1.791    0.442
       140 -11.2715    142.5111     68.4740   6.8703245025e+01   4.0214987805e+01    0.5061929    0.4364032  18.12  0.001536713    1.263    0.208
       141  -9.8272     64.5035     70.4460   9.3048704204e+01   5.5163472909e+01    0.3851136    0.2543771  47.58  0.001915643    1.877    0.467
       142  -8.8426     38.9014     71.4545   1.0276343517e+02   5.7988618164e+01    0.1692867    0.1281294  16.78 0.0004413883    1.525    0.344
       143  -9.9261    105.1373     67.4549   7.8538192305e+01   4.8763543405e+01    0.3973874    0.2690812 -53.93  0.001824206    1.706    0.414
       144  -9.8390     88.6290     66.4424   8.3423824825e+01   5.2124724811e+01    0.3852173    0.2784518 -67.18   0.00181269    1.959    0.490
       145  -8.5485     28.2937     68.5067   1.0602686200e+02   5.9594109143e+01    0.1631748     0.113526 -10.88 0.0003791149    1.677    0.404
       146  -8.2163    116.5205     66.5343   7.4892929720e+01   4.6544054954e+01    0.1507546    0.1424271   0.71 2.257674e-05    1.027    0.026
       147 -10.7576      2.2359     62.4599   1.1472395510e+02   6.2570774775e+01    0.2643747    0.1608152 -66.40 0.0003777321    1.331    0.249
       148 -10.2123      5.6035     59.1408   1.1271328842e+02   6.3125049703e+01    0.2500907    0.2344584 -26.74 0.0007411755    1.256    0.204
       149 -10.6219    172.6142     62.4591   6.0300950664e+01   3.3769779542e+01    0.4410046    0.3128461   3.43  0.001859067    2.016    0.504
       150  -9.9539    109.7101     62.5464   7.5514434273e+01   4.8740326148e+01    0.4354828    0.4190984  55.36  0.002454967    1.147    0.128
       151  -9.5222    111.9786     55.5260   7.2417230953e+01   4.9505576923e+01    0.2914945    0.2129475 -30.12 0.0005864054    1.365    0.267
       152  -8.5871     78.8990     63.7255   8.5804027375e+01   5.4346297131e+01    0.2070653    0.1597676 -67.73  0.001047284    1.745    0.427
       153  -9.8263     32.3630     63.1022   1.0304602863e+02   6.0417589400e+01    0.4105773    0.2750001 -80.66  0.001956506    2.094    0.522
       154  -9.3537     34.7759     47.5538   9.7374737480e+01   6.3397251332e+01    0.2535216    0.2005396 -70.89 0.0007771762    1.673    0.402
       155  -8.7711     34.4770     57.5433   1.0062608926e+02   6.1398670862e+01    0.2311403    0.1665374 -85.41 0.0008329204    2.141    0.533
       156  -9.6221     35.9244     53.2928   9.8742844559e+01   6.2134749470e+01    0.2982904    0.2148418 -62.99  0.001626579    1.545    0.353
       157  -8.9820     30.4762     56.1152   1.0183576674e+02   6.2061329798e+01    0.1943354    0.1472958 -22.95  0.000630771    1.275    0.216
       158  -9.0584     29.4639     52.5276   1.0119174891e+02   6.2890980452e+01    0.1788454    0.1572703 -33.42 0.0001036145    1.108    0.097
       159  -8.1059     73.3019     63.6727   8.7748304265e+01   5.5260176865e+01    0.1319328    0.1120642 -83.15 0.0001463306    1.642    0.391
       160  -8.4708     66.7939     62.8349   8.9811938910e+01   5.6416698684e+01    0.1752271    0.1551721 -58.97 0.0002303793    1.294    0.227
       161  -9.9836    131.4109     62.1251   6.9405017457e+01   4.3973228474e+01    0.6262873    0.2199171  58.69  0.001812735    3.927    0.745
       162  -8.8299    219.1401     61.1972   5.2267235679e+01   2.2436717405e+01    0.2111786    0.1981072  10.55 0.0006028535    1.247    0.198
       163  -8.9669    120.9267     60.9499   7.1785889958e+01   4.6584929848e+01    0.2457906    0.1786357  13.49  0.001117628    1.720    0.419
       164  -9.4296    162.9743     60.0124   6.1477092061e+01   3.6602563001e+01    0.2511538    0.1862302  18.98  0.001091142    1.726    0.421
       165 -10.8708     95.8164     56.9041   7.7800634841e+01   5.2589827307e+01     0.624818    0.3688043 -14.00  0.002278384    2.539    0.606
       166 -10.1737     59.7533     57.2887   9.0585334530e+01   5.8528122120e+01    0.4085373    0.2964947   4.15  0.001827817    1.559    0.359
       167  -7.9806     59.6788     53.3324   8.9254052303e+01   5.9313862561e+01    0.1396261    0.1193776 -23.81 0.0003886173    1.009    0.009
       168  -8.8437     50.3654     59.8375   9.5027338183e+01   5.9220057270e+01    0.1818394    0.1384622 -39.20 0.0003972229    1.121    0.108
       169 -10.2048    159.4419     57.2736   6.1353987837e+01   3.7934015535e+01    0.4208191    0.2611249 -21.84  0.001250763    1.888    0.470
       170  -9.9305    162.6031     53.1111   5.9411917652e+01   3.7788390063e+01    0.4050183    0.2940105 -17.13  0.001030659    1.595    0.373
       171  -9.2439     69.1556     57.4379   8.7129097444e+01   5.7135670464e+01    0.2825056      0.20302 -35.90 0.0008966846    1.258    0.205
       172  -8.6073     65.7334     58.3334   8.8696162040e+01   5.7472709067e+01    0.2071173    0.1593835 -56.43 0.0005968873    1.472    0.321
       173 -11.4650    203.4061     52.7685   5.2303947738e+01   2.7518956239e+01    0.8176714    0.6914769  21.93  0.004361766    1.454    0.312
       174  -8.9226    184.1316     57.4190   5.6703494725e+01   3.1653643359e+01      0.25071    0.2202827  54.18 0.0006027708    1.148    0.129
       175 -10.4075    150.5587     57.9283   6.3464726589e+01   4.0050639804e+01    0.3720851    0.2742968  58.63  0.001774949    1.355    0.262
       176  -8.5225    144.6729     57.6706   6.4711187219e+01   4.1545273488e+01    0.2545292    0.1508133  49.55 0.0006333884    1.636    0.389
       177 -10.3210    148.2171     54.9812   6.3032998571e+01   4.1107026077e+01    0.2786031    0.2128094 -15.98 0.0006152996    1.474    0.322
       178  -9.1911    105.1340     56.0335   7.4607562359e+01   5.0869542749e+01    0.2331961    0.1966555  35.09 -0.0009232552    1.175    0.149
       179  -8.7679     78.2165     56.0557   8.3393990114e+01   5.5945270250e+01    0.2526562    0.1827406   5.09 0.0006522629    1.616    0.381
       180  -8.8096     81.4831     53.0362   8.1169009710e+01   5.5944266731e+01    0.3588611    0.2169698 -19.78  0.001594131    2.010    0.503
       181  -8.9997     81.0000     49.0213   7.9855238311e+01   5.6748933986e+01    0.3172579    0.1818333 -37.75   0.00136839    1.656    0.396
       182 -10.0046     84.1619     47.1884   7.8077206357e+01   5.6501586990e+01    0.3614761    0.2971411  26.85  0.001374733    1.202    0.168
       183  -8.9368     26.0638     56.0898   1.0363904448e+02   6.2440095256e+01    0.1796899    0.1502872 -42.33 0.0004323825    1.055    0.052
       184  -8.7519    222.0332     55.3079   5.0367068145e+01   2.2628828351e+01    0.1968644    0.1744866 -83.19 0.0004168126    1.106    0.096
       185 -10.7091    174.1682     52.4413   5.7008664660e+01   3.4948040006e+01    0.5443897    0.2297937 -34.65  0.002033763    2.334    0.572
       186  -8.9259     86.1153     54.5884   8.0149709387e+01   5.4835914620e+01    0.2248167    0.1922296 -45.56  0.001257076    1.262    0.208
       187  -9.4120    135.0525     54.0000   6.5772997969e+01   4.4477986960e+01    0.2311229    0.2124097 -81.22 0.0006893623    1.231    0.188
       188  -9.7318    125.6187     50.6856   6.6998758670e+01   4.7241346973e+01    0.5291849    0.3506943  22.37  0.002330613    1.898    0.473
       189  -8.9861    121.5867     48.5652   6.7303148574e+01   4.8510713956e+01    0.3082546    0.2343388 -82.59  0.001437764    1.938    0.484
       190 -10.1616    178.7449     50.3286   5.5565177897e+01   3.4096894406e+01     0.431394    0.2163495 -49.33  0.001582626    2.211    0.548
       191 -10.3127    106.8143     51.2027   7.2375333944e+01   5.1347344454e+01    0.2636719      0.23561  45.25 0.0003351541    1.166    0.142
       192 -11.5774     58.9749     48.0273   8.7627038874e+01   6.0418966833e+01    0.5164905    0.3750667  29.08  0.001769346    1.462    0.316
       193  -9.1998     14.7252     51.6783   1.0716215026e+02   6.4183311092e+01    0.1863602    0.1106638 -43.50 0.0002737531    1.326    0.246
       194  -8.6965    233.8027     51.4035   4.7918051691e+01   2.0452226102e+01    0.1807855    0.1239888  54.91 0.0004288335    1.595    0.373
       195  -8.0482    125.9646     56.9480   6.9072566643e+01   4.6130062669e+01    0.1744923    0.1670232  12.20 0.0002976075    1.007    0.006
       196  -9.3751    213.2725     49.4746   5.0032106766e+01   2.5575549154e+01    0.3316689    0.2251505  54.87  0.001157521    1.535    0.349
       197  -9.1412     49.0173     49.4989   9.2120159541e+01   6.1446318722e+01    0.2359642    0.1661399 -15.67  0.000808337    1.463    0.317
       198  -9.6098     46.0505     47.4718   9.2620607034e+01   6.2193079883e+01    0.3732325    0.2309495  19.60  0.001271285    1.796    0.443
       199  -7.9488    111.6866     49.2800   7.0268922814e+01   5.0616047194e+01    0.1380097    0.1172502 -79.72 0.0003107021    1.569    0.363
       200 -10.2960     96.5041     48.2824   7.4443604160e+01   5.3959459405e+01    0.4068878    0.2951871  18.50  0.001575459    1.517    0.341
       201  -8.7698      5.6718     48.3782   1.1017256695e+02   6.5388651484e+01    0.2302208    0.1001676 -36.75  0.001133528    2.034    0.508
       202  -9.2159     10.4684     48.2935   1.0808150802e+02   6.5143772700e+01    0.1933243    0.1482736  -7.39 0.0008914149    1.427    0.299
       203  -8.6467    231.2924     47.4553   4.7249918086e+01   2.1585372184e+01    0.2423847    0.1248989  60.23 0.0007042869    1.992    0.498
       204 -10.4309     18.2179     50.7729   1.0543193316e+02   6.4136626245e+01    0.4826795    0.2558583   1.45  0.002207691    2.405    0.584
       205  -8.3078     15.5367     46.5629   1.0539662540e+02   6.5180717244e+01    0.1177208   0.09598876 -45.59 -1.38748e-05    1.086    0.079
       206  -9.0291    175.1782     44.8032   5.4534136347e+01   3.5809059224e+01    0.1935329    0.1658922  33.44 0.0003473086    1.282    0.220
       207 -10.9825    167.3033     43.1929   5.5434678183e+01   3.8051868887e+01    0.3736224    0.3227155  36.54  0.001123602    1.225    0.184
       208 -10.4747    142.6580     42.3898   6.0082733334e+01   4.4393042169e+01    0.5191478    0.3980829  -3.83  0.002573812    1.529    0.346
       209  -9.1446    108.8765     44.0973   6.9167459555e+01   5.2053382577e+01     0.339085    0.1885855  45.62  0.001510128    1.738    0.424
       210  -8.8826    187.3867     43.0588   5.2021567278e+01   3.2936899027e+01    0.2018051    0.1808405 -47.06 0.0007124651    1.116    0.104
       211  -9.4935     75.7363     43.6323   7.9662410453e+01   5.8595616531e+01    0.3867176    0.1268053  42.72   0.00141507    3.188    0.686
       212  -8.3860     69.8871     43.1669   8.1620119661e+01   5.9646293502e+01    0.1740191    0.1373267  -0.56 0.0009896287    1.245    0.197
       213  -9.6321     55.6618     41.6539   8.6547542579e+01   6.2041628391e+01    0.3401289    0.2556859  11.48  0.001466307    1.354    0.261
       214 -10.2266     47.0463     37.2438   8.8395530749e+01   6.3958729212e+01    0.4825621    0.3042129 -28.54  0.002699995    1.426    0.299
       215  -8.1676      8.7792     42.9685   1.0736935074e+02   6.6324554501e+01    0.1515098   0.07560911 -56.34 0.0002241908    1.567    0.362
       216  -9.4064    204.3508     40.7958   4.8932058672e+01   2.8978668298e+01    0.4318688    0.2029788 -55.34  0.001673349    2.511    0.602
       217  -9.1820     99.1425     41.4008   7.1021785767e+01   5.4534224404e+01    0.3171617    0.2039897 -65.04   0.00127639    3.008    0.668
       218  -9.7944     63.5197     41.1343   8.3242379219e+01   6.0994571210e+01    0.2562519    0.2061815 -23.34  0.000789093    1.094    0.086
       219 -10.7900     32.3170     37.4114   9.4906258501e+01   6.5580736596e+01    0.6249301    0.1891993 -46.20  0.002074343    2.624    0.619
       220  -8.8937    150.0653     34.1219   5.5772334051e+01   4.3667678588e+01    0.2380884    0.1978841  -7.27 0.0003021858    1.343    0.256
       221 -10.2927    161.5961     37.7904   5.4780601735e+01   4.0253422561e+01    0.2981505    0.2660007  28.22 0.0002966242    1.201    0.167
       222 -10.0849    157.5202     37.5140   5.5449367744e+01   4.1329796181e+01    0.5574251     0.321224  35.94  0.002344836    2.079    0.519
       223  -9.8477    150.3498     40.7074   5.7897287516e+01   4.2709064603e+01    0.4307771    0.2533754  73.88  0.001794713    2.065    0.516
       224  -8.7789    148.6818     37.7223   5.7246337049e+01   4.3538669855e+01    0.2226028    0.1996665  35.52 0.0004525956    1.116    0.104
       225  -9.1235     18.2366     41.2631   1.0259510873e+02   6.6051395653e+01    0.1809319   0.09160817 -65.69 0.0008825147    2.397    0.583
       226  -8.8778    227.6814     39.6023   4.5735937936e+01   2.3499327148e+01    0.2522506     0.173527  68.70  0.001337462    1.467    0.318
       227 -10.4522    127.3062     36.8271   6.1655462324e+01   4.8908279572e+01    0.5095454    0.3869579  58.71   0.00196385    1.315    0.240
       228  -8.6155    122.4485     38.5166   6.3462096147e+01   4.9818028199e+01    0.2148331    0.1367601  52.77 4.556005e-05    1.509    0.337
       229  -8.9177      3.1351     39.6837   1.0901277806e+02   6.7281665283e+01    0.2148681    0.1264722  30.26 0.0009241766    2.188    0.543
       230  -9.3532     75.0843     37.8064   7.7592249110e+01   5.9672564670e+01    0.2127992    0.1743297 -25.15  0.000315811    1.147    0.128
       231  -9.5934    246.7157     35.7035   4.2816950641e+01   1.9686058894e+01    0.4633851    0.2448059 -84.89  0.002107469    2.382    0.580
       232  -9.8679     81.2911     26.2384   7.0604562647e+01   6.0272604990e+01    0.3432903    0.2596989 -44.46  0.001922504    1.610    0.379
       233  -9.7571     82.5562     35.9841   7.4234441740e+01   5.8620655472e+01    0.3238816    0.2288649 -27.97  0.001314278    1.356    0.262
       234  -9.1940     69.3766     36.5701   7.9186514989e+01   6.0834041054e+01    0.2664969    0.2063548  -5.48  0.001326677    1.233    0.189
       235  -9.0843     27.7408     36.3929   9.6609327145e+01   6.6205793133e+01    0.1907548    0.1385632 -47.69 0.0007533726    1.288    0.223
       236 -10.1383    192.8624     33.4294   4.8481267082e+01   3.2833034532e+01    0.5282729    0.3049233  37.05  0.001541817    2.310    0.567
       237  -8.0024    102.2757     36.3843   6.8144899090e+01   5.4630945510e+01    0.1483756    0.1023943   9.57 0.0006999851    1.716    0.417
       238  -9.1810     62.6587     36.0461   8.1541534591e+01   6.1986560317e+01    0.2295223    0.1774701  15.01 0.0004142453    1.259    0.206
       239  -9.1531    170.0181     34.6518   5.2326164322e+01   3.8510425419e+01    0.2063869    0.1832986  68.89 0.0006105471    1.066    0.062
       240  -8.2342    106.6330     34.8848   6.6310377220e+01   5.3907109308e+01    0.1843577    0.1256059 -40.25 0.0003756584    1.593    0.372
       241  -9.1471    106.7692    247.1504   1.1293354830e+02   1.0104798098e+01    0.1909403    0.1650292 -39.62  0.001348324    1.641    0.391
       242 -10.5917    236.6754     31.5081   4.2825251907e+01   2.2475639716e+01    0.5877594    0.4004949  64.67  0.003038579    1.518    0.341
       243  -9.6136    237.3990     26.7812   4.1643927133e+01   2.2903969293e+01    0.2226869     0.189603  78.67 0.0008486342    1.196    0.164
       244 -10.7361     78.3655     31.5541   7.3857849407e+01   6.0057327364e+01    0.3923393    0.2677875 -25.00 0.0007033569    1.400    0.286
       245  -9.6740    185.4208     30.2051   4.8614551161e+01   3.5130625839e+01    0.5232931    0.2249278 -17.28  0.001810547    3.536    0.717
       246 -10.4921    181.9133     27.5124   4.8337586780e+01   3.6356326013e+01    0.6604903      0.35048  34.70  0.002622318    2.711    0.631
       247  -7.9519    162.0000     32.9056   5.3158501808e+01   4.0789264545e+01    0.2212486    0.0832186 -28.21 0.0004122426    2.816    0.645
       248  -9.2535    143.3016     31.9245   5.6384602941e+01   4.5648468099e+01    0.3368143    0.2180764  34.32   0.00118543    1.702    0.412
       249  -9.2811    114.4054     32.8405   6.3414933800e+01   5.2456388012e+01     0.298177    0.2437912 -79.16  0.001056825    1.667    0.400
       250  -8.9082    111.2000     29.4208   6.2947553276e+01   5.3633722391e+01    0.2704908    0.2037223  81.47  0.001352956    1.840    0.456
       251  -8.6113    100.1227     33.2981   6.7567472552e+01   5.5527379884e+01    0.2928473    0.1055757  44.85  0.001091106    2.616    0.618
       252  -9.5038     43.4348     33.2189   8.8347436732e+01   6.5107192638e+01    0.2525992    0.1559635 -48.82  0.001386893    1.727    0.421
       253 -10.0200    205.7152     27.8959   4.5309789637e+01   3.0309553665e+01    0.6302086    0.3534401  -8.35  0.002571383    2.935    0.659
       254 -10.0430    201.3493     29.2288   4.6203344358e+01   3.1229779694e+01     0.448443    0.2004753  67.70 0.0002856325    2.143    0.533
       255  -9.0944    120.2007     31.9550   6.1603997712e+01   5.1239459289e+01    0.2229053    0.1911078  63.41 0.0004451427    1.239    0.193
       256  -9.6934    125.4826     30.1205   5.9649477678e+01   5.0231744945e+01    0.2983497    0.1859509  47.82 0.0002909905    1.481    0.325
       257  -8.7225    197.5143     40.9717   4.9927128820e+01   3.0662536595e+01    0.2275809    0.1817656  73.06  0.001211257    1.218    0.179
       258  -9.4310    221.4512     31.1975   4.4345970273e+01   2.6068920236e+01    0.2311939    0.1784872  77.31 0.0002974328    1.259    0.206
       259  -8.7319     57.6719     31.0187   8.1433888221e+01   6.3554360471e+01    0.1877128    0.1485858 -24.09 0.0008494018    1.126    0.112
       260  -9.8700    179.2110     22.8642   4.7361888999e+01   3.7596474308e+01    0.3673723    0.2654928 -65.08  0.001485563    1.479    0.324
       261  -8.7302     27.8641     29.1630   9.3812503348e+01   6.7506438240e+01    0.2574643    0.1471378 -52.58  0.001429524    1.840    0.456
       262  -8.1799     21.4797     30.6076   9.7412766054e+01   6.7819380833e+01    0.1178645   0.09294753 -28.38 0.0001726349    1.032    0.031
       263  -8.7471    229.8533     29.1200   4.2942885515e+01   2.4349507526e+01    0.2068011    0.1531513 -62.14 0.0003118284    1.236    0.191
       264  -9.5889     47.4164     27.8288   8.4364399521e+01   6.5502499700e+01    0.2898233    0.1874956 -15.86 0.0009529381    1.517    0.341
       265  -9.8186     16.3118     27.7002   9.8839808555e+01   6.8759263135e+01    0.3071477     0.165104 -32.79   0.00140874    1.548    0.354
       266  -9.5286    215.5326     27.6130   4.4098437924e+01   2.7940443872e+01    0.3800182    0.2035815  77.86  0.001747458    1.923    0.480
       267  -9.8530     29.0489     18.3183   8.8640234956e+01   6.9206323842e+01    0.2395322    0.1818974 -39.12 0.0005006194    1.359    0.264
       268  -9.2982     31.4693     26.5014   9.1026017265e+01   6.7607198154e+01    0.2376794    0.1613669 -55.59  0.001137597    1.896    0.472
       269  -9.8829     29.6787     23.0806   9.0434344964e+01   6.8367519488e+01    0.2834429    0.1708754 -24.57  0.001133167    1.467    0.318
       270  -9.1763    222.0974     26.5868   4.3128158824e+01   2.6490528010e+01    0.2176356    0.1622075 -51.49  0.001222154    1.231    0.188
       271  -8.5687    154.2034     27.1599   5.2695745315e+01   4.3488526021e+01    0.1955863    0.1622121 -85.24  0.000980637    1.310    0.237
       272  -9.4855    120.4801     26.3438   5.9432868796e+01   5.1885884828e+01    0.5660899    0.1653402  47.85   0.00192576    3.027    0.670
       273  -8.9018    117.8941     23.1182   5.8830409622e+01   5.2877125907e+01    0.2010942    0.1878498 -88.52 0.0009398281    1.253    0.202
       274  -8.9728    197.1438     25.8839   4.5823899125e+01   3.2691509680e+01    0.2199227    0.1716867 -67.99 0.0005679477    1.261    0.207
       275  -9.4825    227.5074     23.2123   4.1751271816e+01   2.5623242885e+01      0.37075    0.2169512 -85.24  0.001646383    1.839    0.456
       276  -9.1946    222.6348     20.1153   4.1478435425e+01   2.7139910535e+01    0.2557342    0.1736367  63.37 0.0009586256    1.481    0.325
       277  -9.2184     69.5241     25.0000   7.4226876646e+01   6.2565291038e+01    0.2684478   0.07028077  44.70 0.0009228372    3.839    0.740
       278  -9.4447     58.3533     24.0318   7.8115654722e+01   6.4522729374e+01    0.1802882    0.1413574 -16.10 0.0004427377    1.111    0.100
       279 -10.4827    163.9159     22.0276   4.9402862125e+01   4.1607353245e+01    0.4454068    0.2401288  49.11 0.0007511495    1.802    0.445
       280  -8.2608     98.5322     23.5576   6.4100295810e+01   5.7152310617e+01    0.1365278    0.1213533  21.33 0.0003336463    1.011    0.011
       281 -12.6445     76.4381    218.8691   1.1592570085e+02   1.9615674661e+01     1.212719     0.619102  39.01  0.005191865    1.828    0.453
       282 -11.0608     69.3016    217.8435   1.1723331713e+02   2.0794075258e+01    0.3891853    0.2721218  71.94  0.001207131    1.252    0.202
       283  -8.9365    131.8782     20.4109   5.4693475542e+01   4.9842859319e+01    0.3943443    0.2434182 -65.33  0.001703764    2.466    0.594
       284  -9.0586    124.0087    205.9925   1.0459161849e+02   1.4799238680e+01    0.1869176    0.1646349  49.82  0.001150872    1.041    0.040
       285  -9.5378      1.3692    184.9810   1.2811741068e+02   3.5038871926e+01     0.336696   0.08216785 -77.75  0.001275252    3.240    0.691
       286  -8.6786     89.3697     20.8051   6.5670943033e+01   5.9395034274e+01    0.2208194    0.1734864 -10.08 0.0004367372    1.236    0.191
       287 -10.8821      6.5722    168.6181   1.2602331459e+02   3.8144620962e+01    0.3069103    0.1861582  64.65  0.001829478    1.461    0.316
       288  -8.2355    197.5027     20.4922   4.4310418803e+01   3.3235448183e+01    0.1398343    0.1219759 -78.28 2.594367e-06    1.057    0.053
       289  -9.0963     13.6393    168.6930   1.2451118696e+02   3.7539681213e+01    0.1122318   0.07920308 -51.13 0.0007039929    1.735    0.424
       290  -9.2866    119.9874     19.0283   5.6777866932e+01   5.2851007061e+01    0.2157172    0.1827796  36.01 0.0004830606    1.082    0.076
       291  -8.8568     43.8348     18.5393   8.1780140059e+01   6.7409923113e+01     0.186086    0.1572232 -31.55  0.001250154    1.346    0.257
       292 -10.7117     38.4672     17.7902   8.3883796035e+01   6.8208606417e+01     0.305462    0.2045476  12.87 0.0002716043    1.457    0.314
       293 -11.1639     18.0104    158.4524   1.2269073116e+02   3.9470285743e+01    0.4065194    0.2110715  81.52  0.001503564    1.852    0.460
       294 -10.8702      2.2614    153.3451   1.2586336030e+02   4.1874248618e+01     0.280285    0.1899222 -83.00 0.0006192995    1.131    0.116
       295 -10.1742      5.2291    150.1863   1.2493985368e+02   4.2372961053e+01    0.2138828    0.1641975  87.07 0.0006345937    1.048    0.045
       296  -9.5798     11.7804    151.1897   1.2349849711e+02   4.1646559961e+01    0.1586655    0.1156918 -64.55 0.0002975186    1.314    0.239
       297  -9.7616     11.6340    145.1408   1.2299270290e+02   4.3047730725e+01    0.1778216   0.08257427 -65.67 0.0004413397    1.743    0.426
       298 -11.0153      5.9640    140.7333   1.2396885741e+02   4.4479410557e+01    0.3526139    0.3230049  61.01  0.002663597    1.297    0.229
       299  -9.8767      8.5116    138.5018   1.2314104001e+02   4.4812943344e+01    0.4443215    0.1168704  23.28  0.001788835    4.669    0.786
       300  -9.5064     44.4497    141.6777   1.1431549583e+02   4.0837267166e+01    0.2039994    0.1591168 -15.99   0.00108759    1.852    0.460
       301  -8.4550     36.1597    141.8290   1.1649400908e+02   4.1666343477e+01    0.1700286     0.137727 -52.71 0.0005841589    1.328    0.247
       302  -9.0559     21.6878    141.9188   1.2019611478e+02   4.2983557602e+01     0.173485    0.1312743 -82.92 0.0004104214    1.061    0.057
       303  -9.1941      8.1362     22.1937   1.0091174932e+02   7.0323780843e+01    0.2020442    0.1607214  -4.61 0.0006811477    1.289    0.224
       304  -9.0109     29.3594    138.2283   1.1781421583e+02   4.3175634598e+01     0.200781    0.1575443   6.19  0.001236222    1.781    0.439
       305 -11.9388    227.7468    134.9060   6.9048670618e+01   8.1770589156e+00    0.5720605    0.4189023  69.75  0.002524842    1.943    0.485
       306  -8.5499    144.5640     14.2577   5.0100886480e+01   4.7350332162e+01    0.1759201    0.1342851   1.88 0.0009337374    1.529    0.346
       307  -9.0068      1.2919    136.8457   1.2476983607e+02   4.5686496221e+01    0.2356267   0.08507987 -84.35  0.000905758    2.477    0.596
       308  -8.6707     45.4078    135.4722   1.1318784572e+02   4.2225659165e+01     0.132732    0.1109073 -76.30  4.31819e-05    1.019    0.019
       309  -8.5423     67.5135     12.7758   6.9383888960e+01   6.4507201771e+01    0.2912314    0.1225278  36.06  0.001302197    2.332    0.571
       310  -8.0111     78.2777     12.7123   6.5622370558e+01   6.2533600594e+01    0.1116708    0.1022764 -55.24            0    1.517    0.341
       311  -8.2556     10.5642    133.5239   1.2214178195e+02   4.5820669113e+01    0.1226098   0.09406968 -85.69 4.215894e-05    1.048    0.046
       312  -8.3210     78.0383    131.8300   1.0357935310e+02   3.8926193586e+01    0.2070011    0.1467678 -83.83 0.0003560352    1.568    0.362
       313  -8.8275     93.3028     10.4170   6.0034570757e+01   5.9744483526e+01    0.1698443    0.1229184  63.70 0.0003778285    1.581    0.367
       314 -10.3452     37.6119    126.9059   1.1408191347e+02   4.5100245455e+01    0.3420596    0.1931074 -67.92 0.0005171626    1.483    0.326
       315 -10.2819     30.2214    124.3658   1.1578558118e+02   4.6405827840e+01    0.3613026    0.2676472 -21.63  0.001265881    1.835    0.455
       316 -12.1027    231.5560    125.2271   6.6148685135e+01   9.0665196364e+00    0.5829461    0.4552443 -50.42  0.002730427    1.371    0.271
       317  -8.3004     12.9401    128.1605   1.2096137230e+02   4.6902493757e+01    0.1818903    0.1118263  83.73  0.001039397    1.547    0.354
       318  -9.7503     32.9090    127.8558   1.1552241540e+02   4.5323495951e+01    0.3261748    0.1438669 -61.57 0.0009195851    1.837    0.455
       319  -8.3971     53.1884    125.8474   1.0951500403e+02   4.3677187966e+01    0.1868508    0.1418286 -45.68 0.0004801017    1.370    0.270
       320  -9.2610     48.5223    124.7169   1.1065822123e+02   4.4484637632e+01    0.3282842    0.2097936 -56.02  0.001744025    1.395    0.283
       321  -9.2229     13.0098    123.0458   1.2036888744e+02   4.8097756034e+01    0.2405271    0.1679378 -52.73 0.0008494398    1.406    0.289
       322  -8.5740      9.3079    122.6969   1.2133222049e+02   4.8434791423e+01    0.2977025    0.1259172 -40.96  0.001345311    3.093    0.677
       323  -9.3689     75.2045    121.6370   1.0237491192e+02   4.1812123473e+01    0.4585159     0.300134 -50.53  0.001368152    1.434    0.303
       324  -8.8623      3.1256    122.9515   1.2301220136e+02   4.8772085035e+01    0.2216567    0.1268401 -37.31  0.001249953    2.212    0.548
       325  -8.4038     93.6274    122.1914   9.7192972703e+01   3.8782284268e+01    0.2110231    0.1294744 -47.12 0.0008414831    1.587    0.370
       326  -9.8070     69.5941    117.8276   1.0324251293e+02   4.3530363484e+01    0.3610348    0.2408153 -84.76  0.001440951    1.833    0.454
       327  -9.8359     98.3755    117.4402   9.4752595779e+01   3.9094131740e+01    0.2791446    0.2486553   2.56 0.0007300667    1.312    0.238
       328 -10.2087     57.7881    117.2663   1.0663654946e+02   4.5207724712e+01      0.31565    0.2643808  83.69    0.0016694    1.250    0.200
       329  -9.4413     27.3898    108.8395   1.1431502840e+02   5.0359694394e+01    0.5523999    0.2058684 -73.54  0.002242069    2.631    0.620
       330  -9.8111     26.4974    116.5683   1.1574275151e+02   4.8592465453e+01    0.2513706     0.179776 -50.32   0.00061809    1.354    0.261
       331 -10.0566     23.0317    116.4615   1.1672887081e+02   4.8901079158e+01     0.257342    0.2221854 -28.43  0.001201961    1.410    0.291
       332 -10.0857     38.7240    114.8854   1.1189042613e+02   4.7886010374e+01    0.3875874    0.2248357 -77.82  0.001889159    1.691    0.409
       333 -10.2964     11.4500    114.8353   1.1982713478e+02   5.0132550143e+01    0.2430205    0.1922351 -44.76 0.0005422149    1.376    0.273
       334  -9.5185      2.1902    113.4301   1.2226775849e+02   5.1032521147e+01    0.3457175     0.198114  85.02  0.001784908    1.687    0.407
       335 -10.9497     19.3625    109.2556   1.1678789036e+02   5.0890913377e+01    0.5273315     0.212173  43.36  0.002434413    2.901    0.655
