#   1 NUMBER                 Running object number                                     
#   2 MAG_AUTO               Kron-like elliptical aperture magnitude                    [mag]
#   3 X_IMAGE                Object position along x                                    [pixel]
#   4 Y_IMAGE                Object position along y                                    [pixel]
#   5 X_WORLD                Barycenter position along world x axis                     [deg]
#   6 Y_WORLD                Barycenter position along world y axis                     [deg]
#   7 A_WORLD                Profile RMS along major axis (world units)                 [deg]
#   8 B_WORLD                Profile RMS along minor axis (world units)                 [deg]
#   9 THETA_WORLD            Position angle (CCW/world-x)                               [deg]
#  10 FWHM_WORLD             FWHM assuming a gaussian core                              [deg]
#  11 ELONGATION             A_IMAGE/B_IMAGE                                           
#  12 ELLIPTICITY            1 - B_IMAGE/A_IMAGE                                       
         1 -12.0188    104.4118     13.5322   1.2837017579e+01   5.7149461872e+01    0.5599633    0.3804662  -7.74  0.002725927    1.757    0.431
         2 -12.3832    105.7532     20.2614   1.5558217282e+01   5.6059784266e+01    0.3766714    0.3374787 -33.89 0.0003468439    1.170    0.146
         3 -11.6557    164.2341     27.7718   8.9841169174e+00   4.0011714390e+01    0.4095447    0.3167994 -47.67 0.0004163035    1.189    0.159
         4 -11.9078     26.8046     28.4162   5.3424383062e+01   7.1861874358e+01    0.7391725    0.5091167 -19.87  0.003572359    1.587    0.370
         5 -12.0750     48.8598     12.9658   3.0428828194e+01   7.0743141012e+01    0.9410633     0.293523  48.52  0.003401127    2.934    0.659
         6 -11.8541     20.4870     21.9497   5.4644468528e+01   7.3997637930e+01    0.6780028     0.418631 -34.66  0.002394563    1.564    0.361
         7 -10.9989      8.4962     20.3424   6.3891790267e+01   7.5560785667e+01     0.586337    0.2995235 -20.91  0.001463059    2.329    0.571
         8 -11.5705      6.9901     10.1824   5.9700259320e+01   7.7829079051e+01    0.5913132    0.4567666  38.80  0.002930575    1.558    0.358
         9 -11.4270     12.9286      8.1575   5.2444526216e+01   7.7597876082e+01      0.71805    0.2497896 -52.51  0.002843302    3.111    0.679
        10 -12.2127     16.8824     12.2391   5.1669589276e+01   7.6351242716e+01    0.8884511    0.3395687 -35.99  0.003494604    2.928    0.658
        11 -12.1548     23.0439     10.9088   4.5552446217e+01   7.5747692072e+01    0.5593361    0.3978609  -5.00  0.002840831    1.529    0.346
        12 -11.0145    178.5571     20.9143   5.3936542526e+00   3.7289739118e+01    0.5083119    0.2563668  45.50   0.00222159    2.606    0.616
        13 -10.8449     68.1641     19.2307   2.5835778984e+01   6.5605733000e+01    0.3728361    0.3183876 -54.55  0.001471427    1.345    0.256
        14 -11.8857    165.2135     17.6984   5.7235325624e+00   4.0885784329e+01    0.5006038    0.3038375  43.97  0.001479321    2.030    0.507
        15 -11.2970     85.9803     14.2386   1.7452547581e+01   6.1856017102e+01    0.5182291    0.3213934   4.87  0.001282886    2.190    0.543
        16 -10.4167     89.3017      8.4651   1.3676347106e+01   6.1601865411e+01    0.3172066    0.2217574 -22.44 0.0009570366    1.538    0.350
        17 -10.3560    137.4874     14.4982   7.8505131432e+00   4.8311562923e+01     0.284415    0.2432215  87.34   0.00084586    1.090    0.082
        18 -11.0591    127.1328     16.6222   1.0128773136e+01   5.0818616994e+01    0.6365165    0.3360741 -12.57  0.002159094    2.404    0.584
        19 -11.3756    132.1990     15.5744   8.9748878340e+00   4.9591071063e+01    0.4820661    0.3254155  54.96  0.001729746    1.478    0.323
        20 -10.7146    225.6799     13.6931   1.1803217896e-01   2.7677458943e+01    0.2316612    0.1666326 -38.21 0.0007357606    1.168    0.144
        21 -11.3894    186.0106     14.6150   2.9497466070e+00   3.6188357169e+01    0.4293717    0.2032776 -66.55  0.001592123    2.250    0.556
        22 -10.1035    218.4321     13.3060   4.3094497807e-01   2.9187580491e+01       0.2226    0.1089392 -23.71  0.000959878    2.017    0.504
        23 -11.5373    192.6239      8.1966   7.0475749506e-01   3.5294864390e+01    0.5166824    0.2572707 -14.04  0.002375757    2.526    0.604
        24 -11.4743    206.5510      2.2539   3.5834612945e+02   3.2757749925e+01    0.6625987    0.2276889 -81.33  0.002620986    3.525    0.716
        25 -11.6659    211.9715     10.3723   8.2926104580e-02   3.0828481282e+01    0.3974299    0.2945398 -22.92  0.001264727    1.419    0.295
        26 -10.6366    213.5001      5.5204   3.5880259254e+02   3.0972386605e+01     0.197554    0.1637482 -80.50 0.0008085668    1.198    0.165
        27 -10.3015    164.5884      4.6324   1.7037953535e+00   4.2310222053e+01    0.3514901    0.2201322  32.10  0.001472299    2.228    0.551
        28 -10.9272    168.9185      9.5773   2.8698069955e+00   4.0783527927e+01    0.5189621    0.2061137  61.23   0.00198233    2.478    0.597
        29  -9.8145    163.4915      9.5322   3.3296795606e+00   4.2131137655e+01    0.2317657    0.1731253 -13.80 0.0008049069    1.546    0.353
        30 -11.0647    155.1423      7.1871   3.3430820680e+00   4.4451307922e+01    0.5163377     0.165292  67.20    0.0019697    2.759    0.638
        31 -10.2971    145.6812      8.6237   4.7806158322e+00   4.6745400217e+01    0.4651028    0.2565682  26.23  0.001757063    2.814    0.645
        32 -10.1920      1.1808      8.2614   6.4690529710e+01   7.8693451639e+01    0.4125217   0.08288898 -58.87  0.001390267    3.986    0.749
        33 -10.5249      2.0137      2.0839   5.9660032244e+01   7.9872770173e+01    0.2692184     0.169497 -28.75  0.001480908    1.455    0.313
        34 -11.2646    185.0051      7.1960   9.4085530650e-01   3.7149269552e+01    0.2497198    0.1875252  70.69  0.001025962    1.397    0.284
        35 -10.8992    183.6616      4.0022   1.3331672445e-01   3.7759568256e+01    0.2922084    0.1911485   8.28  0.001318832    2.264    0.558
        36  -9.6570     77.9787      7.5335   1.6059664383e+01   6.4582634668e+01    0.2121126    0.1302094  65.79 0.0006444982    1.542    0.352
        37 -10.2053     62.5267      6.4787   2.0334275939e+01   6.8470082862e+01    0.4139356    0.2242889  66.83  0.001860995    1.966    0.491
        38 -11.0930    243.4158      4.1621   3.5714467634e+02   2.5188573589e+01    0.2886732    0.1339552 -52.56  0.001398611    1.662    0.398
        39  -9.2852    245.7946      1.3282   3.5644595470e+02   2.5014278522e+01    0.1308747   0.09461676  77.77 0.0003102068    1.617    0.381
        40 -10.2890    231.9643      6.4652   3.5813688398e+02   2.7143794775e+01    0.1828488    0.1391933  86.41 0.0006740363    1.423    0.297
        41 -11.1057    233.7771      2.7610   3.5722279328e+02   2.7140915957e+01    0.3859768    0.1697306 -52.50  0.001168365    1.773    0.436
        42 -10.6589    176.6095      5.7092   1.1093504011e+00   3.9277456629e+01    0.2916799    0.1768093 -64.43  0.001001858    1.526    0.345
        43 -11.4441    137.8575      4.1983   4.0531735832e+00   4.9175537430e+01    0.4622584    0.2412745  75.43 0.0004589412    1.769    0.435
        44 -11.8951    133.2555      2.4645   3.9173917107e+00   5.0527427801e+01    0.8126181    0.2956143  77.01  0.001179737    2.583    0.613
        45 -10.7630    112.9990      1.9910   6.2796589375e+00   5.5926899095e+01    0.3888406    0.2374969 -76.06  0.001259073    1.778    0.438
        46 -10.6399    218.6429      3.4503   3.5804787963e+02   3.0095768123e+01    0.2519377    0.2098033 -86.91 0.0008657115    1.257    0.205
        47 -10.7186    223.7253      2.7414   3.5764757396e+02   2.9126033741e+01    0.2539318    0.1719535 -61.97 0.0004240692    1.240    0.193
        48  -9.9529     73.7918      3.1891   1.4750759410e+01   6.6042439488e+01    0.3454829    0.1858131  69.17  0.001542954    1.817    0.450
        49 -10.1444    105.1671      1.7976   7.3829273493e+00   5.8020619742e+01    0.3104014    0.1800317 -85.72  0.001405096    1.893    0.472
        50  -9.9804     64.2964      2.1171   1.6960918724e+01   6.8478376118e+01    0.1923361    0.1658816  28.84 0.0008843552    1.120    0.107
        51 -10.5523     38.8354     22.1778   4.1918821602e+01   7.1217439485e+01    0.3560773    0.2223364 -36.99 0.0003838662    1.584    0.369
        52 -10.6021    121.9995      5.6371   6.5340902511e+00   5.3232980255e+01    0.2526902     0.175813 -22.49 0.0008469219    1.550    0.355
        53  -9.6825    152.4399      1.4448   1.6884101654e+00   4.5641952574e+01     0.254097    0.1223857  80.36 0.0005940052    1.956    0.489
        54 -11.8159     35.5389     18.7821   4.1892902616e+01   7.2382509718e+01    0.6353346    0.3105118 -34.62   0.00259257    2.113    0.527
        55 -10.9691     41.3285      3.9493   2.7985544694e+01   7.3482096952e+01    0.3935253    0.2358651  30.71  0.001892343    1.729    0.422
        56  -9.0123     81.9402      1.0000   1.1450664940e+01   6.4162461579e+01    0.2241425   0.07265632  68.60 0.0005175357    2.817    0.645
        57 -12.0013     25.7839    105.8463   7.5627926172e+01   5.2379667285e+01    0.8889921    0.5870202 -63.08  0.003584479    1.396    0.284
        58 -11.5724     28.0068    113.0745   7.5749515108e+01   5.0215011557e+01    0.3819096     0.308046  26.96 0.0009896613    1.314    0.239
        59 -12.2648      2.6708    111.5384   8.5430697041e+01   5.2459391162e+01    0.6284986    0.3815531  57.03  0.002136687    1.607    0.378
        60 -11.3736      4.2275    105.3236   8.4331226144e+01   5.4044972940e+01    0.4582854    0.3641097  38.62   0.00226066    1.316    0.240
        61  -9.1203    104.5287    112.5761   4.8428726248e+01   3.8867191939e+01    0.1525069    0.1503893  53.70 8.037079e-05    1.014    0.014
        62 -10.0686     49.2578    112.1116   6.7388547408e+01   4.8137582170e+01    0.2809019    0.2103072  39.01 0.0007389946    1.339    0.253
        63 -11.7972     79.8707    108.1979   5.5332073941e+01   4.4516287920e+01     0.555703    0.3486839  31.72  0.000938878    1.665    0.399
        64 -10.9460     15.6577    109.6198   8.0178718565e+01   5.2169140268e+01    0.4423145    0.2595231  23.80  0.002130546    1.796    0.443
        65  -9.5267    101.8335    109.3713   4.8433898462e+01   4.0146304244e+01    0.2253962     0.147164  28.23 0.0005617172    1.747    0.428
        66 -11.3262     51.8816     99.8599   6.3886353162e+01   5.1058165417e+01    0.8282515    0.4442034 -27.92  0.002913242    3.053    0.672
        67  -9.7662     85.8462    103.6649   5.2138590759e+01   4.4570202226e+01    0.2602521    0.2080639 -42.02 0.0006353529    1.286    0.222
        68 -11.9165      9.1797     96.9926   8.1465309743e+01   5.6018416892e+01    0.4539364     0.430907  52.64 0.0006357778    1.128    0.114
        69 -11.4653     22.1760    114.3691   7.8173620590e+01   5.0376229303e+01    0.5471323    0.2837985   4.11  0.002273738    2.554    0.608
        70 -10.7052    246.4951     99.5038   1.7722102628e+01   1.3565181762e+01    0.1218595   0.09499042 -29.62 0.0008106668    1.000    0.000
        71 -11.9619     67.7345     95.3745   5.6545398232e+01   4.9829096255e+01    0.6070234    0.4307257  33.31   0.00199217    1.448    0.309
        72  -8.8485    210.2873     98.3279   2.2012756290e+01   1.9936688055e+01    0.1306737   0.09676668  -2.01 0.0004120021    1.613    0.380
        73 -11.4764     79.1753     93.5191   5.1758834135e+01   4.8292865575e+01    0.8986906    0.6827462 -54.22  0.004269727    1.301    0.231
        74 -12.1550     76.2712     79.8964   4.8789650911e+01   5.2127211380e+01     0.944562    0.6437702  71.76  0.003869506    2.154    0.536
        75  -9.1754     33.4883     98.5046   7.1240763440e+01   5.3633374040e+01    0.2288151    0.1618568  57.54 0.0008537559    1.516    0.341
        76 -10.1606     30.5069     96.0485   7.2081159632e+01   5.4599911474e+01    0.3006685    0.2157705  87.29 0.0008451796    1.462    0.316
        77 -11.6448     22.2457     94.0739   7.5366542351e+01   5.5885124740e+01    0.5412812    0.3336971  51.05  0.001451346    1.734    0.423
        78 -10.7414     26.5832     86.1521   7.2024974202e+01   5.7648971276e+01    0.5896623    0.5240402 -56.42  0.002829606    1.069    0.064
        79 -10.4146     19.2636     86.4512   7.5495430292e+01   5.8190278638e+01    0.4237721    0.2847328   1.83  0.002092534    1.753    0.430
        80 -12.1042    126.0252     94.5479   3.7436640689e+01   3.8360884822e+01     0.277061    0.2568237 -49.22 0.0001505591    1.068    0.064
        81  -9.7834    121.6826     93.4578   3.8278461373e+01   3.9550010734e+01    0.2971515    0.2152041 -43.61 0.0007866588    1.363    0.266
        82 -10.4003     50.5312     91.7829   6.2589461116e+01   5.3376786749e+01     0.425255     0.296038  60.62  0.001946419    1.678    0.404
        83 -10.4082     52.1018     87.0134   6.0734500494e+01   5.4402464480e+01     0.245902     0.206123 -60.60 0.0003387294    1.147    0.128
        84 -11.7947     42.2381     91.5567   6.6090529176e+01   5.4515579809e+01    0.6571095    0.4513171  69.95  0.001339886    1.757    0.431
        85 -10.3890     35.5903     92.5293   6.9200308141e+01   5.5023555822e+01    0.3509457    0.2467431  84.98  0.001175653    1.592    0.372
        86 -11.7127     44.8820     84.4680   6.3258105238e+01   5.6055983012e+01    0.6324284    0.4805052  25.09  0.001859532    1.396    0.284
        87 -10.3539     37.1477     85.7680   6.7068737906e+01   5.6659629186e+01    0.4317099    0.2892586   0.01   0.00161068    1.893    0.472
        88 -10.9050     98.5520     91.0485   4.4402112547e+01   4.5067560886e+01    0.3282696      0.22514  46.09   0.00145478    1.472    0.321
        89 -10.7272     90.2810     87.6171   4.6114547408e+01   4.7557512194e+01    0.6949494    0.2983147 -46.49  0.002457871    2.311    0.567
        90 -11.6754      7.1477     88.4483   8.1395391692e+01   5.8445011122e+01    0.6139353    0.4160566   2.39  0.002463826    1.715    0.417
        91 -10.0458     66.8765     88.5756   5.5048462192e+01   5.1692690597e+01    0.3218545    0.2239234 -30.67 0.0008126053    1.722    0.419
        92 -10.2032    143.1507     84.4681   3.0321696824e+01   3.6470260735e+01    0.2613808     0.204068 -44.49 0.0003731692    1.242    0.195
        93 -10.5267    112.0155     82.7648   3.7745606140e+01   4.3961608532e+01    0.5332652    0.2866989  61.94  0.001911947    2.529    0.605
        94 -10.2672     67.2706     81.6694   5.2885679600e+01   5.3341628075e+01    0.3635416    0.2999541 -17.50   0.00178188    1.410    0.291
        95  -9.5087     92.4840     71.5221   4.0131524080e+01   5.0695691358e+01    0.2844848    0.1919387 -71.43  0.001141797    2.130    0.531
        96 -10.7564     89.2507     77.6658   4.3323021700e+01   5.0042302711e+01    0.4740454    0.3987018  75.92  0.002310507    1.383    0.277
        97 -10.5160     94.5212     76.2653   4.1063916785e+01   4.9228456456e+01    0.4193664    0.3079363  37.19  0.001043369    1.421    0.296
        98  -9.2232     71.9401     84.4988   5.1879810819e+01   5.1820656864e+01    0.2142916     0.152988  37.04 0.0003044162    1.426    0.299
        99 -11.2501     53.4934     76.5069   5.7209712291e+01   5.6882654386e+01    0.5216314    0.3946851 -69.33  0.002534769    1.402    0.287
       100 -10.5971     52.7949     72.7694   5.6389378536e+01   5.7922753706e+01    0.2703896    0.2565079 -60.88   0.00112167    1.046    0.044
       101 -10.3287     58.0745     77.7713   5.5566300940e+01   5.5848430703e+01    0.2596488    0.2156029 -57.48  0.000571748    1.177    0.150
       102 -11.7075    245.4366     75.1228   1.2597111597e+01   1.6889068438e+01    0.2806436    0.1957542 -84.02  0.001718708    1.993    0.498
       103 -11.1162      1.9405     71.9273   8.1899198936e+01   6.3122257193e+01    0.6159552    0.1936378 -72.64  0.002316454    2.597    0.615
       104  -8.9237    181.9920     76.2105   2.0660628073e+01   2.9073362969e+01    0.1639264    0.1152912  60.12 0.0008265589    1.561    0.359
       105  -9.9817     46.7035     75.8324   6.0119757514e+01   5.8044715953e+01    0.3035296    0.2035189 -40.44   0.00106083    1.539    0.350
       106 -11.1706     13.9937     74.3213   7.6004907006e+01   6.1830653520e+01    0.4628751    0.3074503  83.88  0.001939001    1.623    0.384
       107  -9.9330     14.2791     67.4286   7.4550312417e+01   6.3637893826e+01    0.4081141    0.1734508  10.88  0.001626095    2.746    0.636
       108  -9.8528    103.2746     74.8671   3.7787757855e+01   4.7589699887e+01    0.2789619    0.2190555  62.40  0.001312111    1.382    0.276
       109  -9.7979     24.8453     73.6079   7.0279758992e+01   6.1156815157e+01    0.2682619    0.1729997 -58.18 0.0009692045    1.393    0.282
       110 -10.0360     28.9406     71.5584   6.7695480559e+01   6.1298214094e+01    0.2787343    0.2065236  12.50 0.0008528692    1.488    0.328
       111 -11.9994     40.9363     69.8471   6.1160258055e+01   6.0344510705e+01    0.5234486    0.3341612 -56.45 0.0005618621    1.465    0.318
       112 -10.5598     34.5244     71.6252   6.4868257756e+01   6.0675294208e+01     0.436762    0.2182984  39.18  0.001619676    2.104    0.525
       113 -10.1148     80.9776     72.3184   4.4501358717e+01   5.2951178278e+01    0.5303771    0.2625216 -50.75  0.002017532    2.063    0.515
       114 -10.0366     78.1725     67.7743   4.3967040376e+01   5.4535243335e+01     0.373426    0.2652928  81.64  0.001543787    2.183    0.542
       115  -8.7549    154.3150     72.3210   2.4370696019e+01   3.6026557519e+01    0.1494838    0.1171228  14.42 0.0004485322    1.658    0.397
       116 -10.6027    122.7871     68.7579   3.0243588477e+01   4.4228706982e+01    0.4242726    0.2772562  49.63  0.001500905    1.541    0.351
       117 -10.0898     13.0944     46.4502   7.0179238721e+01   6.9096007355e+01    0.3415255    0.1723562 -41.26  0.001328536    1.873    0.466
       118 -10.4165     10.8837     51.6292   7.3011754170e+01   6.7950586126e+01    0.2806019      0.20335 -51.06 0.0003112919    1.216    0.178
       119 -11.0496     13.5370     57.3037   7.2760040136e+01   6.6323916003e+01    0.5802159    0.2202476 -50.37  0.001382623    2.248    0.555
       120 -12.4055      6.2591     61.9846   7.8007179028e+01   6.5547062039e+01    0.6557705    0.4466762  -8.21  0.003478459    1.642    0.391
       121 -10.7302      9.4916     56.4995   7.5011398860e+01   6.6792761145e+01    0.3426791    0.2363999  50.99  0.001554842    1.675    0.403
       122 -10.1959    202.0452     64.8374   1.4873397972e+01   2.6450176344e+01    0.2040272    0.1595507 -59.54 0.0004204706    1.276    0.216
       123  -8.7458    192.4522     65.5207   1.6280772064e+01   2.8396896114e+01    0.1383265    0.1210768 -44.86 0.0001307461    1.012    0.012
       124 -10.3542     87.9775     56.2588   3.6023866237e+01   5.4830531197e+01    0.6070886    0.2170682 -37.35  0.001943779    3.037    0.671
       125  -9.6223     96.7020     65.3449   3.6539968678e+01   5.1040069100e+01    0.2403918    0.2202781 -70.62  0.000555869    1.156    0.135
       126 -11.1965     92.2163     62.6762   3.7037010108e+01   5.2596444958e+01    0.5816038    0.3163692  56.67 0.0007058285    2.072    0.517
       127  -9.8119    158.8608     62.9461   2.0702201479e+01   3.6479296992e+01    0.2538119    0.1735376  44.01 0.0005342854    1.640    0.390
       128  -9.7311    105.7624     63.4140   3.3042437648e+01   4.9314670435e+01    0.2268239    0.1438619  42.11 0.0009614639    1.647    0.393
       129  -9.9306     58.1225     62.3409   5.0421891082e+01   5.9557705172e+01    0.3012144    0.2329661  71.54  0.001426395    1.692    0.409
       130 -10.8734     40.7284     57.0010   5.7112949138e+01   6.3544921534e+01    0.5608695    0.2657812  29.27  0.001180247    2.212    0.548
       131 -11.0615     43.4190     61.7493   5.7352652344e+01   6.2019930951e+01    0.3987863    0.2528262 -60.14  0.001697015    1.579    0.367
       132 -10.1546     50.9525     61.2897   5.3431228490e+01   6.0995853221e+01    0.3472166    0.2045244  52.01  0.001450652    2.096    0.523
       133 -11.4765     46.4855     59.4981   5.5008853177e+01   6.2113169609e+01    0.7534863    0.4409079  20.06  0.003048319    2.054    0.513
       134  -9.5849     84.5136     61.9542   3.9453757248e+01   5.4450148177e+01    0.2407831    0.1508816 -44.60  0.001033514    1.597    0.374
       135  -9.6558     65.0529     60.8402   4.6767818813e+01   5.8647532381e+01    0.4002193    0.1854256 -53.14  0.001489803    2.288    0.563
       136  -9.7157    113.5690     60.7333   2.9873573974e+01   4.7942976409e+01    0.2909782    0.1527653 -33.13  0.001125766    2.031    0.508
       137 -10.7756     31.6527     53.1030   6.0787820931e+01   6.5661502741e+01    0.5386499    0.2583353  17.77  0.002149988    2.520    0.603
       138 -10.5473     27.3615     59.7724   6.5371990483e+01   6.4490492586e+01    0.6353108    0.2971099  27.95  0.002685154    2.192    0.544
       139 -11.0591     25.5442     55.6253   6.5172575129e+01   6.5718510192e+01    0.4417909    0.3004782 -33.51  0.001356612    1.505    0.336
       140 -11.0608    119.0102     56.5954   2.6968344299e+01   4.7342302598e+01     1.723771    0.8868853 -70.09  0.004236786    6.243    0.840
       141  -9.8957    122.9053     44.5138   2.1610430540e+01   4.8327946747e+01    0.2921994    0.2330728  74.59 0.0007169261    1.285    0.222
       142 -10.5948    110.5019     40.6276   2.3027161576e+01   5.2088279535e+01    0.6838818    0.6116226   4.37  0.003643063    1.263    0.208
       143 -11.6317    117.3049     45.0358   2.3095202224e+01   4.9676136857e+01    0.6468239    0.4762464 -26.07   0.00237848    1.460    0.315
       144 -12.0094    119.5057     38.0908   1.9920376009e+01   5.0153001757e+01    0.7091033    0.3842816 -46.61  0.002958711    1.928    0.481
       145  -9.8976     80.2782     57.8170   3.9421750366e+01   5.6218758637e+01    0.3708509    0.2264774 -21.57  0.001424142    2.406    0.584
       146 -11.6673     75.8087     53.0888   3.9236014240e+01   5.8134879557e+01    0.4874811    0.3951156  10.57 0.0009599584    1.463    0.316
       147 -11.5766     72.9632     47.7352   3.8101538595e+01   5.9799014018e+01     1.126345     0.392179 -52.03  0.003169246    4.393    0.772
       148  -8.9876    136.4112     58.4607   2.3606641897e+01   4.2698099249e+01    0.1481909    0.1436432 -56.24  0.000188968    1.025    0.025
       149  -9.0849    106.5349     58.5156   3.1022794237e+01   5.0053150346e+01    0.1535148    0.1483578 -81.26 0.0001341403    1.044    0.043
       150  -9.6895     91.8096     57.5510   3.5224607842e+01   5.3705463635e+01    0.2872815    0.2004866 -77.57  0.001176929    2.178    0.541
       151 -10.0506    156.7583     54.5586   1.8482694296e+01   3.8281693877e+01    0.4653597     0.264167 -57.36  0.001955861    2.031    0.508
       152 -10.4900    155.0117     49.1957   1.7082391882e+01   3.9503113033e+01    0.2888835     0.208621 -20.29 0.0004101751    1.545    0.353
       153  -9.6675    124.5360     56.1196   2.5455325270e+01   4.6048832846e+01    0.2290464    0.1489071 -35.19 0.0007316298    1.543    0.352
       154 -10.0031    100.1243     55.0125   3.1589586596e+01   5.2237015769e+01     0.297985     0.214748  78.15 0.0007384848    1.780    0.438
       155  -9.1381     67.2075     54.9964   4.3548790298e+01   5.9505949027e+01    0.2000889    0.1189419 -45.53 0.0005604648    1.672    0.402
       156  -9.7932     55.4851     50.4786   4.7028423015e+01   6.2681008786e+01    0.2365869    0.2113196  -3.27 9.451717e-05    1.160    0.138
       157  -9.7049     51.9935     48.4599   4.7898348901e+01   6.3732726534e+01    0.2029846    0.1862563  21.72 0.0003971148    1.092    0.084
       158 -10.5004     60.5027     52.0115   4.5301249427e+01   6.1431833656e+01    0.4815342     0.237921 -52.19  0.001892753    2.164    0.538
       159 -10.7772     61.0833     46.9338   4.2861519827e+01   6.2382208541e+01    0.4822352    0.3468529  -7.99  0.001992426    1.865    0.464
       160  -8.5851     93.5205     52.4970   3.2669463678e+01   5.4266648365e+01    0.1518798    0.1476113  22.81 0.0008099041    1.046    0.044
       161 -10.8361    243.7672     51.3631   7.5155466825e+00   2.0094286545e+01    0.1836596    0.1429763 -87.99   0.00065742    1.507    0.336
       162 -10.0758    239.8585     51.1387   7.7775921408e+00   2.0822230916e+01    0.1886486    0.1532308 -38.67 0.0007307805    1.055    0.052
       163 -10.3383    144.9553     50.5163   1.9263029679e+01   4.1816378785e+01    0.2521751    0.2045207 -11.69 0.0003285647    1.441    0.306
       164  -9.2901    189.0299     49.7075   1.2441100968e+01   3.1351992479e+01    0.1809053    0.1632782 -58.72 0.0002931259    1.043    0.041
       165 -10.7355     46.7751     48.4331   5.0578944941e+01   6.4613686138e+01    0.3046136    0.2427187  -4.29 0.0006991076    1.419    0.295
       166 -11.9796     42.7904     44.5649   5.1090527793e+01   6.6099506527e+01    0.7033772    0.5278052  35.63   0.00196097    1.367    0.269
       167  -9.6467      1.8952     48.8860   7.8188064199e+01   6.9125242613e+01    0.2118557    0.1602101 -45.41 0.0008670101    1.188    0.158
       168 -11.0137     20.9804     46.1658   6.4921186594e+01   6.8496582023e+01    0.4108013    0.2670846 -56.15  0.001808309    1.396    0.283
       169  -9.5369     82.6999     46.8246   3.4003135376e+01   5.7818943304e+01    0.2360285    0.1880641 -11.22 0.0007766724    1.479    0.324
       170  -9.8710    146.2367     45.4720   1.7353785206e+01   4.2236216999e+01    0.3916778    0.1561468 -47.08  0.001376892    2.629    0.620
       171 -10.5791     31.6682     44.9935   5.7762503635e+01   6.7580695192e+01    0.4572926    0.2404265  26.75  0.001294664    1.988    0.497
       172 -10.2959     26.3139     42.9722   6.0315845052e+01   6.8696059670e+01    0.2360109    0.2201529 -43.28 0.0006340301    1.065    0.061
       173 -10.6347     23.3053     37.4642   6.0084111120e+01   7.0306213694e+01    0.5447001    0.2678451  39.06  0.002156431    2.262    0.558
       174 -10.4563    234.4739     45.1375   6.8447786236e+00   2.2526382523e+01    0.2052995    0.1414635 -60.31  0.001274117    1.395    0.283
       175 -10.0440    200.0658     44.9693   9.9285513227e+00   2.9520988709e+01    0.2856856    0.1778086  81.64  0.001480981    1.832    0.454
       176 -10.4377    156.1241     42.5029   1.4765375038e+01   4.0168177818e+01    0.3002105    0.2540648 -58.24  0.001148134    1.122    0.109
       177  -9.3761    139.9564     43.5552   1.7823886019e+01   4.4106018269e+01    0.2225557    0.1426358  66.23  0.001017251    1.565    0.361
       178 -10.3840     98.5355     41.5081   2.6606842369e+01   5.4957899523e+01    0.3503499    0.2580336  80.94 0.0007945935    1.638    0.389
       179 -10.0540     57.0400     41.9463   4.2501655654e+01   6.4165064406e+01    0.2964439    0.2057121  47.49  0.001209957    1.506    0.336
       180 -10.3954      3.8316     39.6633   7.4710274515e+01   7.1344799693e+01    0.4961221    0.2253776  53.83  0.001957086    3.317    0.699
       181 -10.8424      4.4031     35.8319   7.3212854822e+01   7.2250518574e+01    0.3619894    0.3429562   4.05  0.001555754    1.168    0.144
       182 -10.5434     10.5045     31.5375   6.7055031444e+01   7.2875532598e+01    0.4962996    0.2369664 -26.42   0.00212174    2.459    0.593
       183 -10.2114      7.1838     30.6045   6.9329781615e+01   7.3330376956e+01     0.586544    0.2433207 -20.30  0.002210966    3.337    0.700
       184  -9.5855     77.5884     40.7103   3.3166408856e+01   6.0080066873e+01    0.5617951    0.2593631  34.11  0.001852414    3.068    0.674
       185 -10.6996     78.3092     34.1553   2.9828964262e+01   6.1020612269e+01    0.7088207    0.5906364 -48.07  0.003740307    1.284    0.221
       186 -10.2860     18.0508     40.5928   6.4912800810e+01   7.0109541706e+01    0.2495778    0.1832824 -55.88 0.0004277921    1.254    0.203
       187 -10.9003     61.1125     36.1315   3.7790189201e+01   6.4466595311e+01    0.5131691     0.351165 -11.57  0.001532252    1.946    0.486
       188 -10.3168     68.2467     32.7029   3.2982485638e+01   6.3545651497e+01    0.4825647    0.3165609  62.12  0.002210721    1.780    0.438
       189 -10.4452     60.0644     22.9157   3.1234292339e+01   6.6904319225e+01    0.3889512    0.2067427 -33.88  0.001330561    1.928    0.481
       190 -12.3075     58.0602     29.9778   3.6037172359e+01   6.6184200987e+01    0.4210899    0.3405884   8.41  0.001347227    1.357    0.263
       191 -11.6726     49.3474     30.3838   4.0600304244e+01   6.7832539465e+01    0.6734893    0.3163488  39.34  0.002344264    2.132    0.531
       192  -9.8760    231.5103     37.4265   5.2909919147e+00   2.3983399392e+01    0.1215189   0.09843115 -45.09 -0.0001189786    1.026    0.025
       193 -10.6751    152.9040     36.1645   1.3191019256e+01   4.1820546378e+01    0.3035237    0.2148827  48.58 0.0003852331    1.545    0.353
       194 -10.9683    175.3309     34.0673   9.5994021436e+00   3.6548695665e+01    0.5233413    0.2542848 -44.82  0.001269973    1.852    0.460
       195 -10.5262    177.3361     29.2959   7.9705457783e+00   3.6638952935e+01    0.2631873    0.1887189  49.12  0.001193102    1.619    0.382
       196 -11.0953     48.7805    246.0050   8.1149982193e+01   1.7697555463e+01    0.1953834    0.1609461 -31.63  0.001417382    1.698    0.411
       197  -9.1750     34.6851    245.3363   8.4069003468e+01   1.9208330718e+01    0.1224729   0.05807322  51.43  0.000704719    1.693    0.409
       198 -12.3448    104.7406     32.4531   2.1087490679e+01   5.4758434866e+01    0.7872897    0.3743646  42.97            0    2.357    0.576
       199 -12.1771    113.8237     24.9232   1.5849415007e+01   5.3387621194e+01    0.8164201    0.3591121  61.76  0.002499429    2.088    0.521
       200 -10.2823    240.9106     31.8751   3.3786174612e+00   2.2835142497e+01    0.1691286    0.1499876 -27.45 0.0008747685    1.250    0.200
       201 -10.2685    183.0149     31.8671   8.1160199365e+00   3.4991161402e+01    0.2832479    0.1311324 -51.24  0.001039145    2.071    0.517
       202 -11.3726    126.5090    241.5032   6.4425926790e+01   9.5932131136e+00     0.285255    0.1735879  44.25  0.001733307    1.681    0.405
       203 -10.7334    160.2921     29.3506   9.9674269177e+00   4.0808027166e+01    0.3140432    0.2499999   0.88 0.0009272154    1.578    0.366
       204 -10.7180    157.0288     29.0013   1.0274174326e+01   4.1669928137e+01    0.2926658    0.2122191  76.49 0.0008095878    1.364    0.267
       205 -10.5855    131.6748    240.8676   6.3302132283e+01   9.0633294969e+00    0.2048691    0.1314893  21.02 0.0008887619    1.279    0.218
       206 -11.3427     67.7310    240.8131   7.6789030474e+01   1.6580586511e+01    0.2794905    0.1885098  -4.89  0.001651425    2.135    0.532
       207 -11.0243    147.0576    238.4893   5.9933234724e+01   7.5434860973e+00    0.2768593    0.2508472  65.76  0.002046608    1.673    0.402
       208  -9.8881     14.0473     22.5251   6.0182592350e+01   7.4586629639e+01    0.2334707    0.1944038 -27.51 0.0004617385    1.065    0.061
       209  -9.3362    167.3791    238.2433   5.5961845380e+01   5.1411654374e+00    0.1290219    0.1072692 -39.95  0.000942007    1.615    0.381
       210 -10.8355     76.1044    239.9213   7.4918833286e+01   1.5799209388e+01    0.2728517    0.2020092  23.81  0.001285048    1.215    0.177
       211  -9.0468     15.4942    233.9914   8.7676231288e+01   2.3009013081e+01    0.1375741   0.08034431 -51.06 0.0008096002    2.473    0.596
       212  -8.8655     75.3181    224.3173   7.3809729775e+01   1.8651415451e+01    0.1158667   0.08951803  -8.25 0.0005066748    1.656    0.396
       213  -9.2551    120.5317    223.5004   6.3625781418e+01   1.3175105566e+01    0.1238909     0.100469  22.33 0.0008096939    1.026    0.026
       214 -11.1289    182.9445     25.4239   6.2814196096e+00   3.5752013056e+01    0.3078473     0.261687 -57.03  0.001073625    1.025    0.024
       215 -11.3587    189.1726     27.3087   6.2254979106e+00   3.4089322822e+01    0.3637202    0.3428201 -34.37  0.001573259    1.171    0.146
       216 -12.4792    125.5280     27.6485   1.4667495779e+01   4.9979290659e+01    0.4681273    0.3656889 -70.47 0.0008349518    1.340    0.254
       217  -9.4777    187.5211     22.9403   5.1575347986e+00   3.4958154161e+01     0.196838    0.1822407  34.16 0.0006640754    1.334    0.250
       218 -10.2084     98.1193     27.9660   2.0817492364e+01   5.7070393869e+01    0.3912615     0.229206 -38.20  0.001378256    1.742    0.426
       219 -10.7944    229.9007     27.1454   3.0118218802e+00   2.5439855080e+01    0.2332267    0.1860227  54.90 0.0009004671    1.595    0.373
       220  -9.9186    151.0061     26.9671   1.0403084137e+01   4.3440867519e+01    0.2270968    0.1644143  35.02  0.001129702    1.708    0.415
       221 -10.6286    144.3184     25.5304   1.0843259243e+01   4.5329181312e+01    0.4296951    0.2374596 -87.30  0.001593012    2.170    0.539
       222 -10.5683    147.3757     22.4267   9.3484655589e+00   4.4894627073e+01    0.3921843    0.1500153  52.39  0.001299505    2.728    0.633
       223 -10.8290    154.9084     22.8843   8.5413819891e+00   4.2914851892e+01    0.4815655    0.3032538 -33.38  0.002391531    1.528    0.346
       224  -9.0806     85.9529     23.9322   2.2326374885e+01   6.0679817575e+01    0.1688568    0.1529058  53.06  0.000931157    1.048    0.046
       225  -9.6636     49.6547    222.6734   7.9556788070e+01   2.1840231585e+01    0.1135055   0.08918536 -15.89 0.0007050419    1.746    0.427
       226  -9.5675    169.2703     23.4464   7.0774843364e+00   3.9262039131e+01     0.262191    0.1190505  65.89  0.001137168    2.147    0.534
       227 -11.2620    135.1864     22.4025   1.1073404144e+01   4.8067153015e+01    0.5808944    0.2984984  72.59  0.002495559    1.910    0.476
       228  -8.8147     91.3090     23.3159   2.0490887718e+01   5.9415286812e+01     0.151396    0.1064807  29.60 0.0005682764    1.633    0.388
       229  -9.3380    223.6772     22.2961   2.2716297723e+00   2.7192221475e+01    0.1309601   0.07043782 -55.25 0.0003045161    1.620    0.383
       230  -9.1740     44.6941    215.3262   8.0228944912e+01   2.3801103063e+01    0.1319322   0.07121131  53.89 0.0007035501    1.649    0.394
       231 -10.4276    246.8612     20.3426   4.9457543358e-01   2.2968918303e+01    0.1753443    0.1113655 -44.90  0.001144293    1.176    0.150
       232  -9.9685    216.5203     19.9228   2.1601352939e+00   2.8904576735e+01    0.2073765    0.1357428 -56.35 0.0007281424    1.306    0.234
       233  -9.4146    164.7408    211.7896   5.2791891732e+01   9.2139491180e+00    0.1533733    0.1314913  31.11 0.0004975239    1.316    0.240
       234  -9.7256     74.6936     19.4326   2.3604926731e+01   6.4030825864e+01    0.2667331    0.1923626  16.19 0.0007363175    1.654    0.395
       235  -9.7168     46.7183     20.1474   3.6126701726e+01   7.0100157058e+01    0.2350919     0.186203  52.50  0.001219218    1.377    0.274
       236 -10.2079      8.9857    211.4845   8.8385245419e+01   2.7933393903e+01    0.1793946   0.09750948  28.94  0.001037664    1.606    0.377
       237  -8.6143     61.3644    206.7309   7.5581226123e+01   2.3698003208e+01    0.1375188   0.07586724  50.57 0.0006995444    1.655    0.396
       238  -9.5448    199.1058     17.6111   2.7743839075e+00   3.2893045360e+01    0.1701484    0.1087188  62.90 0.0009358074    1.729    0.422
       239  -9.4496     78.8956    204.2209   7.1058348056e+01   2.2085091434e+01    0.2552357    0.1419873  69.15 0.0009972211    2.561    0.609
       240 -11.3796      6.1030    199.2329   8.8665094149e+01   3.0724018738e+01    0.3988695    0.1342676 -64.58  0.001762451    3.275    0.695
       241 -12.5574      4.6339    183.8786   8.8505458063e+01   3.4216494051e+01    0.6065196    0.4089378  77.01  0.002900397    1.319    0.242
       242 -11.1675    228.7925     15.8407   4.4888659123e-01   2.6843401980e+01     0.229001    0.1917591 -72.31 0.0004301521    1.186    0.157
       243  -9.6944     28.1669    175.8402   8.1789702258e+01   3.4077429927e+01    0.1669067    0.1531385 -50.36 0.0006218759    1.304    0.233
       244 -10.1460    211.0724     16.0782   1.5601295690e+00   3.0447454901e+01    0.1849706    0.1505563 -50.91 0.0003116718    1.019    0.019
       245 -10.0787    147.4709     16.0210   7.1344079153e+00   4.5558793813e+01    0.3182935    0.1316691  54.77  0.001269235    2.433    0.589
       246  -9.2443    112.6254     16.2888   1.2456967382e+01   5.4692615610e+01    0.1538424    0.1019084 -68.20 0.0007020241    1.724    0.420
       247 -11.0856    237.6884     16.5945   1.4411205166e-01   2.5048987046e+01    0.2525728     0.145906  70.34  0.001470653    1.999    0.500
       248 -10.5928     15.9166    174.2643   8.5071494734e+01   3.5542930493e+01    0.3052266    0.1514844  73.94  0.001466896    1.968    0.492
       249  -9.1465     39.4765    173.5051   7.8453403948e+01   3.3498010282e+01    0.1355873    0.1161092  57.42 0.0008101094    1.021    0.021
       250 -12.1244      8.9684    166.8474   8.6627555463e+01   3.7864598091e+01    0.5290051    0.2629133  35.20  0.002679647    1.753    0.430
       251 -13.2666     12.8100    160.1211   8.5168578645e+01   3.9205966192e+01    0.9012541    0.5365059 -74.61   0.00476177    1.620    0.383
       252 -12.9342     23.0067    148.5821   8.1264297651e+01   4.1259682334e+01    0.5535887    0.3213838 -41.86  0.001516759    2.152    0.535
       253 -10.7957     18.4627    165.2164   8.3828728770e+01   3.7497375637e+01    0.2980026    0.2129461 -29.05  0.001623363    1.877    0.467
       254  -9.1252    114.5035     12.5077   1.0519633243e+01   5.4584564041e+01    0.1419673    0.1315001  82.27 -2.917931e-05    1.002    0.002
       255  -9.9100    120.6056     11.6039   9.1505674269e+00   5.3054568675e+01    0.2808976    0.1172869  65.12 0.0009290553    2.122    0.529
       256  -9.9730    205.1057    163.3250   3.6814577363e+01   1.0870872506e+01    0.2300251    0.1630981 -31.38 0.0006824569    1.297    0.229
       257 -10.3993     28.3762    161.3792   8.0654847436e+01   3.7550441946e+01    0.2496782    0.2128579 -82.43  0.001504287    1.168    0.144
       258 -10.4941     31.2885    156.4507   7.9364917361e+01   3.8498113894e+01    0.3280576    0.1450768  62.04  0.001120722    2.494    0.599
       259  -9.3581    152.5565     10.5115   4.6993404900e+00   4.4799179571e+01    0.1955255    0.1210525 -85.33 0.0006013833    1.612    0.380
       260  -9.6064    104.3037    155.0190   5.7564282745e+01   2.9040087199e+01    0.2046598    0.1951751 -62.97  0.001164773    1.115    0.103
       261 -11.0913      4.5069    153.6327   8.7291227321e+01   4.1420073754e+01    0.2389994    0.1819782  46.90 0.0007249443    1.196    0.164
       262  -9.4894     64.9396     10.4730   2.1927436416e+01   6.7458268326e+01    0.2147813    0.1297007  58.52  0.001024226    1.570    0.363
       263 -11.1991     47.1368    147.6125   7.3492121376e+01   3.9048582145e+01      0.70421    0.4177697 -47.29  0.003242258    1.907    0.476
       264  -9.2649     61.0193    152.2185   6.9750864770e+01   3.6169348141e+01    0.1938088     0.112567  29.43 0.0005646625    1.675    0.403
       265 -11.1159     16.6889    147.8654   8.3202858966e+01   4.1973014559e+01    0.3077576    0.2189068 -81.02 0.0005148355    1.319    0.242
       266 -12.2226      4.4761    143.2697   8.6778532335e+01   4.4033262785e+01    0.8320176    0.3639568  53.11  0.002906434    2.077    0.519
       267 -10.7073     33.1081    144.4082   7.7641684715e+01   4.1388778826e+01    0.2971006    0.2491975  63.49 0.0007729218    1.098    0.089
       268 -10.3516     40.6816    138.9269   7.4527913668e+01   4.2023668666e+01    0.4106516    0.2335873 -73.22  0.001684478    1.714    0.417
       269 -10.9421     80.2655    138.6615   6.1615607880e+01   3.6796810827e+01    0.2777938    0.2440246  47.49 0.0004930357    1.101    0.092
       270 -10.9829     30.1785    132.6945   7.7366322337e+01   4.4743606585e+01    0.5384877    0.3958877  -1.49  0.001858554    1.694    0.410
       271 -11.4992     23.6752    137.1052   8.0039980574e+01   4.4175331436e+01    0.4951351    0.3721247  33.29  0.001419326    1.329    0.248
       272  -9.9363     20.5057    134.4818   8.0872101061e+01   4.5134665279e+01    0.2555249    0.2266709  -1.48  0.001280674    1.329    0.248
       273 -11.4839     12.2834    135.6929   8.3753947825e+01   4.5454732894e+01    0.5886889    0.3054472 -44.92  0.002650631    2.284    0.562
       274  -9.6112     32.0192    137.5238   7.7270892473e+01   4.3291294328e+01    0.2035903    0.1360528  25.85 0.0004265521    1.538    0.350
       275 -11.2135      9.9129    127.5701   8.3964346659e+01   4.7755937985e+01    0.4235014    0.3209032 -52.69  0.002371926    1.401    0.286
       276  -9.0803     22.9542    126.7461   7.9265068574e+01   4.6980813140e+01     0.162172    0.1205762  21.72 0.0003033701    1.449    0.310
       277  -9.9747      2.1298    125.9407   8.6582161692e+01   4.8667496650e+01    0.2244495    0.1552716  64.79  0.001225221    1.324    0.245
       278 -10.8343    104.6099    122.3752   5.0778910643e+01   3.6553854674e+01    0.3585879    0.3498162  87.49  0.001227847    1.052    0.049
       279  -9.4142     84.9951    123.0141   5.7004201326e+01   3.9922394184e+01    0.2184708    0.1794094 -17.68  0.001057422    1.465    0.318
       280 -10.0478     56.1471    121.8608   6.6620239094e+01   4.4642225400e+01    0.2315188    0.1919231  65.19 0.0004968806    1.228    0.186
       281  -9.6723     33.6644    125.9981   7.5336270550e+01   4.6184353037e+01    0.2075136    0.1804511  89.66  0.001158326    1.074    0.069
       282 -10.0855     44.5314    120.0267   7.0521787852e+01   4.6597242634e+01    0.2820026     0.200639  86.66 0.0006760871    1.492    0.330
       283 -10.0691     43.4734    116.0055   7.0262261802e+01   4.7800291490e+01    0.2971709    0.2343514  84.02 0.0009335235    1.294    0.227
       284  -9.8738     78.9572    115.0622   5.7252489367e+01   4.2941978756e+01     0.234455    0.2304222 -15.91 0.0007896327    1.069    0.064
       285 -10.6303     35.9110    102.7196   7.0976191923e+01   5.2236606902e+01    0.5764461    0.3242925  -0.47  0.001714366    2.598    0.615
       286 -11.2009     17.2267    100.7855   7.8488544422e+01   5.4453271090e+01     0.367596    0.2620128  38.65 0.0004571505    1.447    0.309
