#   1 NUMBER                 Running object number                                     
#   2 MAG_AUTO               Kron-like elliptical aperture magnitude                    [mag]
#   3 X_IMAGE                Object position along x                                    [pixel]
#   4 Y_IMAGE                Object position along y                                    [pixel]
#   5 X_WORLD                Barycenter position along world x axis                     [deg]
#   6 Y_WORLD                Barycenter position along world y axis                     [deg]
#   7 A_WORLD                Profile RMS along major axis (world units)                 [deg]
#   8 B_WORLD                Profile RMS along minor axis (world units)                 [deg]
#   9 THETA_WORLD            Position angle (CCW/world-x)                               [deg]
#  10 FWHM_WORLD             FWHM assuming a gaussian core                              [deg]
#  11 ELONGATION             A_IMAGE/B_IMAGE                                           
#  12 ELLIPTICITY            1 - B_IMAGE/A_IMAGE                                       
         1 -15.5056    245.0990    122.7234   9.1497407048e+01   9.3442315302e+00      5.41434     1.311553 -27.71   0.01828771    4.003    0.750
         2 -13.7254    247.3942     39.8715   7.1472887900e+01   1.8792910491e+01     1.225383    0.5644135 -24.81  0.005650587    1.925    0.481
         3  -9.6799    233.5116    247.3784   1.1492863687e+02  -2.0180947774e+00    0.1659933    0.1209135   3.71 0.0007846922    1.260    0.207
         4  -8.9494    219.3873    250.1750   1.1744337797e+02  -4.8856204949e-01    0.1075433   0.09122021 -17.72 0.0005899896    1.626    0.385
         5  -9.0694    224.4123    248.2205   1.1642244996e+02  -9.5320663851e-01    0.1101436   0.09089787 -16.63 0.0007359169    1.602    0.376
         6  -8.8007    219.4649    245.4934   1.1683766805e+02  -8.6077574500e-02    0.1036141   0.07267884  24.66 0.0001687175    1.066    0.062
         7  -9.5312    248.9774    241.0057   1.1176872086e+02  -3.3959134798e+00    0.1379362     0.105844  35.46   0.00096294    1.676    0.403
         8  -8.7291    214.6387    241.3153   1.1705573960e+02   9.1914040771e-01   0.09504006   0.07202049  46.09  0.000704219    1.758    0.431
         9  -9.2571    226.5188    240.0982   1.1503727074e+02  -5.1202181282e-01    0.1283628   0.09155998 -14.92  0.001012287    1.538    0.350
        10  -9.1113    219.4757    240.2646   1.1615676631e+02   3.8415600104e-01    0.1123747    0.0963681 -22.03 0.0009374922    1.649    0.394
        11  -9.4536    231.4876    238.4544   1.1405050176e+02  -1.0039556872e+00    0.1058113   0.07195947  20.55 0.0008087583    1.011    0.011
        12  -9.3595    244.0122    236.8392   1.1193054671e+02  -2.4460366094e+00    0.1462241   0.09883978  43.55 0.0008614528    1.956    0.489
        13 -10.0944    226.0206    231.9927   1.1401356948e+02   2.8578596816e-01    0.1790335    0.1621131 -87.55 0.0007960203    2.570    0.611
        14 -10.6389    247.1521    233.2477   1.1095808912e+02  -2.5379472958e+00    0.2751792     0.202501  56.32  0.001782788    3.171    0.685
        15 -10.0502    219.5408    233.3626   1.1522314620e+02   1.0163978698e+00    0.1894868    0.1642952  55.57  0.001468321    2.007    0.502
        16 -10.0072    241.1002    232.8933   1.1181690809e+02  -1.7463866814e+00    0.1497727    0.1141531  26.29 0.0008126063    1.325    0.245
        17 -10.4275    235.4785    231.6754   1.1250222893e+02  -9.2030133617e-01    0.1890375    0.1744624  -1.94  0.001290239    1.684    0.406
        18  -9.2303    213.4131    233.2548   1.1618646336e+02   1.8468612185e+00    0.1169408   0.09840777 -23.66 0.0009414559    1.596    0.374
        19  -9.2761    195.3934    231.2829   1.1887438790e+02   4.5139599283e+00    0.1733662    0.1000973 -27.70  0.001138118    2.126    0.530
        20 -10.6830    229.6562    228.3715   1.1293770757e+02   1.3975810469e-01    0.2131375    0.1609206  43.42  0.001589042    1.741    0.426
        21  -9.2703    211.4248    227.9267   1.1578273832e+02   2.6429697158e+00    0.1147557    0.0965155 -63.76 0.0007448722    2.469    0.595
        22 -10.1548    247.1425    227.1948   1.1009135918e+02  -2.0243335245e+00    0.1656627    0.1032634  15.02 0.0006446815    1.216    0.177
        23 -10.1789    233.7518    224.1143   1.1168895121e+02  -9.8441419855e-03    0.1671204    0.1245525 -47.89  0.001131963    2.684    0.627
        24  -9.2740    218.2240    225.2365   1.1430733865e+02   1.9780099560e+00    0.1368848    0.1099489  31.88 0.0008450954    1.349    0.259
        25 -11.0086    242.7005    223.2261   1.1018206132e+02  -1.1059146824e+00    0.2268275    0.1762618  58.12  0.001513827    2.779    0.640
        26  -9.4712    241.6809    192.3568   1.0547810577e+02   1.9866741608e+00    0.2476782    0.1654928 -13.04  0.001157271    1.402    0.287
        27  -9.5892    237.3672    193.2267   1.0630148960e+02   2.5206709177e+00    0.3177137    0.2482735  78.94  0.001661534    4.036    0.752
        28 -10.5303    248.8546    217.1277   1.0833787309e+02  -1.3638514374e+00    0.2042213     0.154425 -22.50 0.0008575968    1.623    0.384
        29 -11.2684    245.2732    219.0148   1.0916451573e+02  -1.0648647237e+00     0.417299    0.2313565 -46.73  0.002059338    4.967    0.799
        30 -10.5326    249.5682    213.0610   1.0760695584e+02  -1.0921568976e+00     0.209742    0.1651923  14.03 0.0009390836    1.220    0.181
        31 -10.5132    247.9967    208.0971   1.0706930112e+02  -4.2760962194e-01    0.2555599    0.2132884  -2.21 0.0009545055    1.364    0.267
        32 -10.5177    241.8224    210.4460   1.0838250346e+02   1.8576746110e-01    0.3391825    0.2436384 -49.62  0.002115205    3.027    0.670
        33 -10.5740    237.2721    204.8126   1.0820505919e+02   1.3587146109e+00    0.3134484    0.2490031  67.83  0.001920216    3.020    0.669
        34 -10.4237    245.4044    202.7455   1.0661177186e+02   4.3168439874e-01    0.2476383    0.1648272 -25.70  0.001442075    1.656    0.396
        35 -10.0933    243.3893    198.2449   1.0619053576e+02   1.1514800354e+00    0.2584144    0.1880621 -35.83  0.001230318    1.923    0.480
        36 -10.5066    237.5165    222.0163   1.1079882838e+02  -3.1588117348e-01    0.2016971    0.1303778 -43.36  0.001294608    2.790    0.642
        37 -10.6412    233.9959    216.3159   1.1049825475e+02   6.9070554575e-01    0.2014104     0.171682 -43.01  0.001511746    2.065    0.516
        38  -9.4791    224.5129    221.9537   1.1283029574e+02   1.4395969597e+00    0.1403242   0.09773995 -19.89 0.0008519438    1.571    0.363
        39 -10.4921    227.9679    218.6884   1.1180296749e+02   1.2847219008e+00    0.2279024    0.1236936 -44.63   0.00127259    3.374    0.704
        40  -9.0612    217.3439    220.1610   1.1372466979e+02   2.6068679423e+00    0.1265536   0.09729274 -31.51  0.000807779    1.715    0.417
        41  -9.5641    210.8361    218.2827   1.1452013388e+02   3.7161667176e+00    0.1658917     0.151536 -61.16   0.00125429    1.967    0.491
        42 -10.6985    234.7049    208.2377   1.0914846647e+02   1.3783640723e+00    0.4978965    0.3887561  88.37  0.002223354    6.419    0.844
        43 -10.2712    238.6327    213.8885   1.0940691455e+02   2.9227599821e-01    0.1834672    0.1198539 -32.20  0.001015752    1.938    0.484
        44 -10.6183    231.6580    210.5506   1.0998912004e+02   1.5740582082e+00    0.2792805    0.2196014  73.88  0.001580737    3.714    0.731
        45 -10.1528    217.8969    209.2453   1.1201331988e+02   3.6605270694e+00    0.2675585    0.1482409 -28.50  0.001440822    2.011    0.503
        46  -9.8835    225.5224    209.0481   1.1073957689e+02   2.5890205314e+00    0.2463722    0.1027711 -31.05    0.0013431    2.661    0.624
        47 -11.3944    242.2533    180.8769   1.0341144002e+02   3.1004764518e+00    0.3773029    0.2352854 -37.33   0.00209638    2.048    0.512
        48  -9.0989    250.5643    191.4956   1.0396619380e+02   8.1002047905e-01    0.1519309   0.08936039 -11.10 0.0001544195    1.596    0.374
        49 -10.4518    243.7050    187.6803   1.0436884359e+02   2.1740956783e+00     0.267318    0.1728139 -36.12  0.001191421    1.990    0.498
        50 -10.1942    248.5035    185.4612   1.0324710162e+02   1.7072086560e+00    0.3830822    0.1901906 -41.78  0.001939891    3.244    0.692
        51  -9.9067    249.9103    202.1365   1.0582635110e+02  -1.2698472539e-01    0.2674298    0.1523258 -34.33 0.0009744412    2.206    0.547
        52 -10.2033    249.0797    196.9554   1.0510476109e+02   4.8352298061e-01    0.2450113    0.2309277 -87.26  0.001801976    2.259    0.557
        53 -10.0593    246.2741    192.9808   1.0487157281e+02   1.2678922420e+00    0.2227909     0.153883 -14.70 0.0008698923    1.369    0.269
        54  -8.5537    223.2778    202.6237   1.1010034555e+02   3.5839650745e+00   0.09352069   0.09094336  47.70 0.0005551034    1.702    0.412
        55 -10.1223    237.5125    199.5085   1.0731449556e+02   1.8558428086e+00    0.3279792    0.1771877 -40.48  0.001868134    2.722    0.633
        56  -9.7400    230.0089    200.0231   1.0859226889e+02   2.8800222528e+00    0.1837938    0.1344674  16.59  0.001117886    1.038    0.036
        57  -9.4018    224.4701    197.9832   1.0916130502e+02   3.9069030542e+00    0.1546196    0.1041418 -23.46 0.0007663344    1.572    0.364
        58  -9.6744    215.5067    196.4737   1.1040452854e+02   5.4144538252e+00    0.1747509    0.1058166 -42.34  0.001003919    2.301    0.565
        59  -9.2438    186.0000    194.9996   1.1533784291e+02   1.0176561667e+01      0.16841   0.06811765 -38.68 0.0007973131    2.907    0.656
        60  -9.4211    232.8847    191.7507   1.0676819171e+02   3.3326041765e+00     0.174554    0.1394891 -29.39 0.0009220489    1.586    0.369
        61 -10.2542    227.2412    190.2319   1.0742671562e+02   4.3389631023e+00    0.2585036    0.2070262 -71.69  0.001476936    3.140    0.682
        62  -9.8168    237.2854    188.8238   1.0557136734e+02   2.9939374036e+00    0.1794078    0.1627622  -8.80 0.0008330664    1.455    0.313
        63  -9.4260    229.6149    186.6827   1.0643675007e+02   4.3716131913e+00    0.1996841    0.1642009 -30.46  0.001115397    1.564    0.361
        64  -9.3479    233.5330    185.5051   1.0560098734e+02   3.9089559296e+00    0.1992029     0.103159 -32.22  0.001001689    2.086    0.521
        65 -10.6182    235.4925    181.8332   1.0464797785e+02   4.0137762243e+00    0.2044529     0.182626  -2.69  0.001129057    1.343    0.256
        66  -9.2705    224.5084    183.5328   1.0673162807e+02   5.5083034645e+00    0.1811295    0.1051596 -39.83  0.001018584    2.218    0.549
        67  -8.7365    177.3391    184.6622   1.1530333006e+02   1.2973503272e+01    0.1181936    0.0948379  65.86 0.0007050901    1.759    0.432
        68  -9.3307    134.0000    183.9818   1.2380631988e+02   2.0168340137e+01    0.1794236   0.07253488 -51.14 0.0008019183    2.939    0.660
        69  -8.7145    229.2773    182.6354   1.0579184545e+02   4.8736690330e+00   0.09874573   0.09497099 -43.82 0.0003403356    1.673    0.402
        70  -9.1534    226.0199    179.3178   1.0574369665e+02   5.7567835234e+00    0.1671004    0.1323935  18.80 0.0006391921    1.060    0.056
        71 -10.7874    249.2461    176.6914   1.0158781271e+02   2.5038919021e+00    0.2950651    0.2048974 -41.27  0.001499603    2.126    0.530
        72 -10.5739    248.9117    168.3139   1.0011168656e+02   3.4442129121e+00    0.3195469    0.1486567 -31.10  0.001385983    2.144    0.534
        73  -9.1765    243.2177    249.4356   1.1374896411e+02  -3.3683937255e+00    0.1316148   0.07270927  37.89 0.0009387678    1.651    0.394
        74 -10.2156    234.3733    164.4567   1.0166365805e+02   6.1539577856e+00    0.2639765    0.1010206 -34.68  0.001213921    2.715    0.632
        75  -8.7105    213.3131    165.6278   1.0540339435e+02   9.4926249845e+00    0.1120501    0.1023487 -79.21 0.0007033587    1.782    0.439
        76  -8.5940    207.6651    161.3011   1.0557670667e+02   1.1026048493e+01    0.1135769    0.1032257  75.27 0.0007035144    1.658    0.397
        77 -11.6374    226.9126    157.8375   1.0161132397e+02   8.1762558418e+00    0.3956133    0.1475295 -37.02   0.00172696    2.890    0.654
        78  -9.0187    158.3412    154.6684   1.1388244583e+02   2.0905802265e+01    0.1330356    0.1049443  74.29 0.0007051372    1.748    0.428
        79  -8.9722    204.4787    155.4920   1.0502308999e+02   1.2373289412e+01    0.1308465    0.1108976  15.42 0.0003048317    1.002    0.002
        80 -10.0336    233.0714    174.7251   1.0377076846e+02   5.1785705967e+00    0.1921752    0.1482064 -25.67 0.0009599818    1.432    0.301
        81 -11.8673    244.5249    169.2561   1.0095930743e+02   4.0125554120e+00    0.7605683    0.1828196 -37.45  0.002687009    5.203    0.808
        82  -9.0412    227.2954    170.6503   1.0397017078e+02   6.5663981903e+00    0.1038041   0.09879325 -58.44 0.0007032981    1.679    0.404
        83  -9.0982    217.3195    167.6747   1.0509512279e+02   8.5612994234e+00    0.1076782    0.1017122  85.34 0.0007046107    1.678    0.404
        84  -8.4657    179.6758    167.3234   1.1189431553e+02   1.5078610379e+01    0.1210732    0.1018632  71.69 0.0007047639    1.684    0.406
