#   1 NUMBER                 Running object number                                     
#   2 MAG_AUTO               Kron-like elliptical aperture magnitude                    [mag]
#   3 X_IMAGE                Object position along x                                    [pixel]
#   4 Y_IMAGE                Object position along y                                    [pixel]
#   5 X_WORLD                Barycenter position along world x axis                     [deg]
#   6 Y_WORLD                Barycenter position along world y axis                     [deg]
#   7 A_WORLD                Profile RMS along major axis (world units)                 [deg]
#   8 B_WORLD                Profile RMS along minor axis (world units)                 [deg]
#   9 THETA_WORLD            Position angle (CCW/world-x)                               [deg]
#  10 FWHM_WORLD             FWHM assuming a gaussian core                              [deg]
#  11 ELONGATION             A_IMAGE/B_IMAGE                                           
#  12 ELLIPTICITY            1 - B_IMAGE/A_IMAGE                                       
         1 -12.7331    215.6586     49.7153   7.7578453442e+01   2.4773163863e+01     3.630663     1.760865  35.04   0.01210941    2.854    0.650
         2 -13.5168    247.5956     89.1211   8.3509717658e+01   1.3000585751e+01     8.145476     1.388281 -30.72   0.02491525    4.380    0.772
         3 -14.6827    243.8368     15.7507   6.5701743557e+01   2.2048157932e+01     6.241689          nan  60.36   0.01234525    8.256    0.879
         4 -13.6526    232.9293      5.7595   6.3935950242e+01   2.5442541629e+01     1.244586    0.7693202  62.16  0.006675502    1.713    0.416
         5 -12.9568    243.7464     25.6141   6.8205751028e+01   2.1085618769e+01     1.181224    0.6292357 -48.24  0.003688931    1.805    0.446
         6 -10.7512    202.3776     59.5331   8.2175158603e+01   2.6657500637e+01     0.842949    0.7020317  39.02  0.003795242    1.244    0.196
         7 -12.4974    249.6498      3.7087   6.2311664612e+01   2.1903235210e+01    0.6099311    0.5137783  84.81  0.002749585    1.272    0.214
         8  -8.5096    196.1087     11.8406   6.8841675313e+01   3.3848945542e+01     0.242344    0.1987068 -23.74 0.0006726854    1.219    0.179
         9  -9.0577    217.6069      2.7442   6.4260467214e+01   2.9330920459e+01    0.2672053    0.2075189 -30.04 0.0006655372    1.220    0.180
        10  -8.1277    138.7272      3.3763   7.3331137897e+01   4.9882555069e+01    0.2694168     0.156299 -31.15   0.00121455    1.738    0.425
        11  -9.7189    208.8541      2.3858   6.4855780782e+01   3.1508981857e+01    0.2682583    0.2262788 -72.64 0.0006971022    1.151    0.131
        12  -7.4120    135.5367      1.4363   7.3065172173e+01   5.0907979068e+01    0.1427547    0.1349592  54.45 7.782434e-05    1.008    0.008
        13  -9.8881    247.1156    154.8377   9.7823520295e+01   5.2140051288e+00    0.5976823    0.2462624  53.29  0.002480394    3.807    0.737
        14  -7.4085     14.6748    250.7182   1.5146823063e+02   2.4187026473e+01   0.07336338   0.06670041  37.38 0.0004351024    1.596    0.374
        15  -7.5563     19.5355    151.4503   1.4636122132e+02   4.1303484877e+01    0.1127692   0.09224024  76.26 -5.740154e-05    1.045    0.043
        16  -9.6987    234.0216    146.8087   9.8267059753e+01   8.3264908225e+00     0.519676    0.3557598  77.08  0.002230505    4.161    0.760
        17  -9.3539     69.6535    145.8465   1.3334315903e+02   3.7105121198e+01    0.3249209    0.2433887  64.55    0.0017128    1.256    0.204
        18  -8.7675     66.2239    144.1096   1.3399552785e+02   3.7922912196e+01     0.458615    0.2395064 -80.56  0.002190559    2.207    0.547
        19 -10.4350    238.4983    141.4802   9.6472668125e+01   8.2104857497e+00    0.4736119    0.3045957 -50.45  0.002419922    2.518    0.603
        20  -8.7348    249.0155    138.0352   9.4166505161e+01   6.8378169738e+00    0.2372207    0.1563219  40.05 0.0006844254    1.535    0.349
        21  -8.2371    205.4707    136.0123   1.0084486575e+02   1.4929553293e+01    0.1989868    0.1264322 -29.31 0.0006166001    1.574    0.365
        22  -8.2962    136.0618    135.3701   1.1508609824e+02   2.8513226239e+01    0.1977118    0.1673595  41.96 0.0004186514    1.102    0.092
        23 -10.8265    239.1868    127.3664   9.3386909830e+01   9.8280287546e+00    0.5644018    0.4386496 -85.20  0.003001858    2.542    0.607
        24  -8.1306    216.1400    130.8873   9.7867514864e+01   1.3621447579e+01    0.1840192    0.1799602 -42.85  0.000635308    1.323    0.244
        25  -8.5198     73.0136    243.0673   1.4140734266e+02   1.9285720277e+01    0.1487021    0.1083052  48.17 0.0002901561    1.055    0.052
        26 -11.3890    244.8734    113.9511   8.9595438268e+01   1.0460711070e+01    0.7167038    0.4770412  51.30 0.0009664359    1.711    0.416
        27  -8.3113      7.8749    233.3060   1.5211001878e+02   2.7393447749e+01    0.1288923   0.08737101  51.91 0.0004240051    1.110    0.099
        28  -7.4220    139.0228    228.2744   1.2834414921e+02   1.2831113054e+01    0.1442166    0.0758099  38.04 0.0003763231    1.436    0.304
        29  -9.3243    226.0790    108.6810   9.1204595767e+01   1.4718080372e+01    0.3575667    0.2522617 -61.72  0.001759916    2.255    0.556
        30  -8.7080    206.1677    110.0199   9.4812111654e+01   1.8571030748e+01    0.2404553    0.1540619   4.02  0.001086237    2.030    0.507
        31  -9.1746    191.1921    108.7229   9.7211921060e+01   2.1922818723e+01    0.2231491    0.1899342  72.56  0.001169646    1.478    0.324
        32  -9.0035    134.3101    107.1648   1.0922019045e+02   3.4358338673e+01    0.5255608    0.1890792 -39.06  0.001752259    3.151    0.683
        33  -7.1892     56.6948    109.7459   1.3168870829e+02   4.6836397896e+01    0.1212441   0.09922957 -31.55 0.0001894374    1.510    0.338
        34  -7.3092    175.2508    108.3755   1.0025533575e+02   2.5409819848e+01    0.1482043    0.1094424   1.79 0.0005030627    1.643    0.391
        35  -8.5624    230.6326    106.8230   9.0068149925e+01   1.4067656289e+01    0.1987913    0.1594446  52.20 0.0005571762    1.418    0.295
        36  -8.2241    220.8374    105.1518   9.1197599336e+01   1.6248038979e+01    0.2355783    0.1852401  -6.37 0.0007086736    1.220    0.180
        37  -9.4987    191.9540    101.4040   9.5248472511e+01   2.2902470847e+01    0.2595185    0.2026025 -14.80 0.0004647154    1.303    0.233
        38 -10.7041    188.9328     90.5713   9.3003531386e+01   2.5265010441e+01    0.7122825    0.4798838   2.77  0.002217234    1.950    0.487
        39  -8.5365    196.0142     96.0159   9.3134323166e+01   2.2841415078e+01    0.2230294    0.2017993   2.70 0.0004865159    1.052    0.050
        40  -9.1085    155.1543     93.4779   1.0070925793e+02   3.2453174700e+01     0.490489     0.296529  18.86  0.001835995    2.720    0.632
        41  -8.3568    218.5572     90.4500   8.7953502927e+01   1.8745564213e+01    0.4916398    0.1591947 -45.22   0.00147113    4.509    0.778
        42  -7.5374     50.3859    222.8166   1.4423259922e+02   2.4918250316e+01    0.1183659   0.09026351 -75.23 0.0004964264    1.551    0.355
        43  -9.7704    170.1128     82.9708   9.4578987745e+01   3.0835184124e+01    0.4873802    0.3334039   4.18  0.001371321    2.016    0.504
        44 -10.1132    182.8635     78.1431   9.0732498632e+01   2.8608446145e+01    0.3640832    0.2940315 -58.48  0.001841584    1.443    0.307
        45  -9.5780    176.6944     77.7363   9.1786067874e+01   3.0133847814e+01    0.3425443    0.2504938  37.79 0.0006105116    1.409    0.290
        46  -9.6099    152.9569     83.2906   9.8363176782e+01   3.4783236491e+01    0.3316996    0.2581292 -20.77 0.0004838914    1.385    0.278
        47  -8.5670    222.9279     74.9324   8.3346417886e+01   1.9890430829e+01    0.2782805    0.1805283  42.37  0.001052104    1.624    0.384
        48  -7.7525    206.4573     75.2398   8.5888157954e+01   2.3537339492e+01    0.1981497    0.1260255 -39.32 0.0008712631    1.546    0.353
        49  -7.6556    215.7752     74.1556   8.4177304560e+01   2.1577027392e+01    0.1894917    0.1541163  20.82 0.0002866208    1.297    0.229
        50  -8.0176    193.8715     73.8207   8.7561232503e+01   2.6664170420e+01     0.296062    0.1928602 -65.51 0.0009638837    2.288    0.563
        51  -9.6309    184.8299     71.8392   8.8581884536e+01   2.9107944278e+01    0.3900822    0.2733139  32.24  0.001070274    1.573    0.364
        52  -9.5317    189.7560     68.4891   8.6757263524e+01   2.8425150121e+01    0.3649622    0.2815991  33.25  0.001836746    1.369    0.270
        53 -10.6561    167.8325     67.8701   9.0626677366e+01   3.3842922587e+01     0.524704    0.3728129  19.07  0.001113027    1.750    0.429
        54  -9.6174    170.1441     61.8726   8.8345491052e+01   3.4211963978e+01     0.442039    0.2795236 -54.59  0.001316643    1.926    0.481
        55 -11.9132     19.5926    193.1676   1.4859007327e+02   3.3111665787e+01    0.7169601    0.5181351  66.70  0.004070694    1.054    0.051
        56 -10.0720    192.1922    187.6997   1.1304682665e+02   1.0134746486e+01    0.2053283    0.1737574  22.23 0.0002896982    1.075    0.070
        57  -9.3993    158.2886     50.0178   8.6874336938e+01   3.8988519993e+01    0.3248831    0.2370272 -47.95  0.001178104    1.457    0.313
        58  -7.9506    160.6472     57.9932   8.8998222857e+01   3.7176251258e+01    0.2259449    0.2016831  10.73 0.0004326453    1.175    0.149
        59  -8.8602    160.1509     54.1711   8.7866142675e+01   3.7890131998e+01    0.6225548    0.3008203  49.56  0.002431557    2.029    0.507
        60  -8.8467    189.9642     51.6678   8.1790585917e+01   3.0749566710e+01    0.2668953    0.1971857 -38.86 0.0003929139    1.323    0.244
        61  -8.7708    198.0385     53.0422   8.0960926144e+01   2.8575055955e+01    0.2082349    0.1985398 -31.44            0    1.025    0.025
        62  -8.5611    100.9827    175.9772   1.2979449703e+02   2.6667233827e+01     0.172478    0.1508876  50.93  0.001150321    1.039    0.037
        63  -9.3481    201.1091    123.5658   9.8880854962e+01   1.7600218124e+01     0.404055    0.2162195  39.38  0.001856937    1.822    0.451
        64  -8.1545    209.4587     38.7138   7.5265374575e+01   2.7586693398e+01    0.3376183    0.1850789 -53.50   0.00136809    2.092    0.522
        65  -9.1127    227.7036    122.1261   9.4023278220e+01   1.2613233851e+01      0.24036    0.1488857 -30.68  0.001258693    1.541    0.351
        66  -9.1426    186.4528    120.5781   1.0095021210e+02   2.1042561882e+01    0.2968441    0.1362491 -34.59  0.001220383    2.219    0.549
        67  -8.9868    134.0000    116.9656   1.1162292112e+02   3.2487047023e+01    0.3271067    0.1667511 -45.95 0.0008845745    2.043    0.510
        68  -9.7415    134.5352     34.5991   8.6433662928e+01   4.7302527780e+01    0.3818864    0.2413662 -44.39  0.001072971    1.682    0.405
        69  -9.0217    211.3239    115.6436   9.5250527290e+01   1.6702723265e+01    0.2775532    0.1776539 -52.70  0.001292959    2.196    0.545
        70  -8.8316    168.3282    114.5245   1.0319844330e+02   2.5843056628e+01    0.2764316    0.2602054 -69.36 0.0007367061    1.241    0.194
        71 -10.3204    146.2248     20.2234   7.8609289189e+01   4.6128610644e+01    0.2620261    0.2404542   3.61 0.0003331917    1.122    0.109
        72  -8.9584    187.1553    112.1526   9.8816381337e+01   2.2239572322e+01    0.1957077    0.1782118 -72.21   0.00109345    1.378    0.274
        73  -7.7414    156.4728     14.7636   7.4867111190e+01   4.4006887584e+01    0.1901888    0.1421022   1.58 0.0002573219    1.510    0.338
        74 -10.9176     60.3819    162.4455   1.3752920431e+02   3.4801658066e+01     0.670012    0.3880388  67.21  0.002171471    1.767    0.434
        75  -7.6826    189.2782     12.6822   6.9839443095e+01   3.5528163939e+01    0.1485785   0.09814199 -54.77 0.0002626262    1.574    0.365
        76 -11.2946     54.9615    167.8477   1.3931628201e+02   3.4348996818e+01    0.7062182    0.5423286  64.49  0.003092337    1.101    0.092
        77  -7.6808    192.3588    173.0555   1.1051905173e+02   1.2067556038e+01    0.1661793    0.1451349  16.84 0.0004507022    1.074    0.069
        78 -10.5518     48.4888    172.7863   1.4121479633e+02   3.4097371301e+01     0.370893    0.3317814 -30.21  0.001480008    1.594    0.373
