#   1 NUMBER                 Running object number                                     
#   2 MAG_AUTO               Kron-like elliptical aperture magnitude                    [mag]
#   3 X_IMAGE                Object position along x                                    [pixel]
#   4 Y_IMAGE                Object position along y                                    [pixel]
#   5 X_WORLD                Barycenter position along world x axis                     [deg]
#   6 Y_WORLD                Barycenter position along world y axis                     [deg]
#   7 A_WORLD                Profile RMS along major axis (world units)                 [deg]
#   8 B_WORLD                Profile RMS along minor axis (world units)                 [deg]
#   9 THETA_WORLD            Position angle (CCW/world-x)                               [deg]
#  10 FWHM_WORLD             FWHM assuming a gaussian core                              [deg]
#  11 ELONGATION             A_IMAGE/B_IMAGE                                           
#  12 ELLIPTICITY            1 - B_IMAGE/A_IMAGE                                       
         1 -12.7294     43.2571     19.9867   1.0693847455e+02   6.8952899360e+01    0.9237858    0.5277711  19.31  0.003314442    2.070    0.517
         2 -12.9464    216.7587     15.9950   6.3647093806e+01   2.8966226901e+01    0.8174022    0.6011419  72.34  0.002537462    1.437    0.304
         3 -10.6328    127.2914     17.1845   7.5969407830e+01   5.1277198673e+01    0.5012575    0.2062773 -19.52  0.001837932    2.649    0.622
         4 -10.9900    134.5354     17.0363   7.4488893513e+01   4.9422086187e+01    0.3723564    0.2402667   6.06 0.0009711379    1.876    0.467
         5 -13.5129    188.7158      7.5714   6.3793262063e+01   3.6414838824e+01    0.9800583     0.569212 -75.80  0.004581431    2.002    0.500
         6 -11.7003     54.4059      2.4097   9.0883706233e+01   6.9844998538e+01    0.4946275    0.3289842  59.55  0.002524719    2.022    0.506
         7 -12.1748     43.5488      8.3446   1.0018132734e+02   7.0903214182e+01    0.3525744    0.2711704  30.72  0.000708839    1.330    0.248
         8 -12.5260     58.4182      8.2007   9.2610854956e+01   6.8307323942e+01    0.9067846    0.3744285  41.11   0.00379279    2.373    0.579
         9 -12.4573    166.8649      2.1720   6.4325453750e+01   4.2401969534e+01    0.8018525    0.2415997  72.46   0.00276456    3.198    0.687
        10  -9.7197     29.6132      2.2400   1.0473682984e+02   7.3951979061e+01    0.1798686    0.1032225 -29.20   0.00068326    1.571    0.364
        11  -9.6099    160.3581    235.3214   1.2196836169e+02   8.1085876020e+00    0.1168465   0.07297983   9.21 0.0007044564    1.766    0.434
        12 -10.4515     73.3310    250.0314   1.3958060925e+02   1.6684064741e+01    0.1741184    0.1299219  15.79  0.001203642    1.603    0.376
        13 -11.5798     75.7945    225.9700   1.3742186874e+02   2.0135850506e+01    0.3691465     0.178642  43.57  0.001428902    1.610    0.379
        14 -11.9066     11.9330    226.9575   1.4972919450e+02   2.6275898303e+01    0.3262471    0.1348218  45.11  0.001193129    1.690    0.408
        15 -10.8549    104.0603    224.6383   1.3166915038e+02   1.6950922548e+01    0.1897596    0.1671097 -46.38  0.001053928    1.424    0.298
        16 -10.5899    150.0194    219.4772   1.2194855832e+02   1.1629769135e+01    0.2337464    0.1356733 -22.10  0.001263874    2.466    0.594
        17  -9.8209    173.6746    221.4701   1.1768222919e+02   8.1067212376e+00    0.1812526    0.1050916 -37.75  0.001097996    2.038    0.509
        18  -9.6963     36.3016    222.6460   1.4496734530e+02   2.4842457258e+01     0.114949    0.0568448  57.46 0.0007038541    1.704    0.413
        19 -11.2445    226.2868    220.4958   1.0821504293e+02   1.2502189200e+00    0.2291086    0.1353241 -15.32  0.001502853    1.605    0.377
        20 -10.0960    211.0011    217.8082   1.1039907166e+02   3.5175455223e+00    0.1924165    0.1435931 -11.24  0.001067075    1.288    0.224
        21 -11.0509    102.4616    218.4880   1.3138186589e+02   1.8135519737e+01    0.2494489   0.09294661  34.24   0.00120504    2.148    0.534
        22  -9.9671    218.6496    212.3205   1.0822880390e+02   3.1306016691e+00    0.0991355    0.0870806  37.31 0.0007048257    1.743    0.426
        23  -9.9740    232.5104    210.9873   1.0569076548e+02   1.4732759386e+00    0.1565393   0.07741084  -5.80  0.000808584    2.403    0.584
        24 -12.3229      5.4623    199.2760   1.5009122886e+02   3.1696979813e+01    0.5413729    0.2366554  57.10   0.00219835    1.796    0.443
        25 -10.0584    236.6329    197.7737   1.0282499859e+02   2.3814128673e+00    0.1500373   0.09496551 -29.51 0.0009563862    1.685    0.407
        26  -9.9423     11.8001    197.1230   1.4872438142e+02   3.1607620085e+01    0.1698961     0.110117  58.32 0.0005826589    1.214    0.176
        27 -12.7387    160.4047    191.5085   1.1585325947e+02   1.4285190869e+01    0.6568089     0.526848  65.19  0.003189344    1.870    0.465
        28  -9.8769     12.3210    192.9295   1.4845049356e+02   3.2366296844e+01    0.1513203    0.1151426  72.08 0.0006368044    1.097    0.088
        29 -10.3722    183.5502    182.0874   1.0961944835e+02   1.2119283949e+01    0.3486233    0.1463238 -28.61  0.001471347    2.958    0.662
        30  -9.7147    164.6954    183.4653   1.1365618244e+02   1.4876610870e+01    0.2231202     0.146146 -14.50  0.001183812    1.831    0.454
        31  -9.9254    210.5465    182.6981   1.0465181002e+02   7.8851131011e+00    0.2300584    0.1089082 -27.44  0.001147953    2.140    0.533
        32  -9.8236     67.8516    180.3804   1.3511262221e+02   2.9396288046e+01    0.1692767    0.1111984  20.39 0.0009464495    1.721    0.419
        33 -10.5215    100.9910    175.9923   1.2671995342e+02   2.5946319824e+01    0.1801587    0.1608659  42.45            0    1.013    0.013
        34  -9.2595     28.6687    176.6920   1.4401004002e+02   3.4229236307e+01    0.1068922   0.08521567 -39.38 0.0004471593    1.665    0.399
        35  -9.2932    224.6663    171.6810   1.0013511931e+02   7.1891578722e+00    0.1324218   0.07994825   6.02 0.0007048845    1.697    0.411
        36 -10.5337    121.2810    169.3165   1.2092352051e+02   2.4216488411e+01     0.251123    0.1682864 -84.30  0.001174788    2.535    0.606
        37 -12.2607     55.5049    166.7458   1.3673420421e+02   3.3650923980e+01     0.508918    0.3026918  82.47   0.00227359    1.904    0.475
        38 -11.6924     51.1101    159.5279   1.3711999197e+02   3.5695134029e+01    0.4211433    0.2189707  51.33   0.00171971    1.848    0.459
        39  -9.9897     44.6683    167.6822   1.3950858256e+02   3.4600400526e+01    0.1161589   0.09022557 -34.81  0.000526349    1.689    0.408
        40  -9.6944    138.3291    164.6436   1.1616160167e+02   2.2357794984e+01    0.1349749    0.1053962  69.50 0.0007044607    1.783    0.439
        41  -9.3508     14.9736    169.0000   1.4675846902e+02   3.6975077628e+01    0.1696397   0.06037325  24.25 0.0007939178    2.884    0.653
        42 -10.9216    106.3092    158.5043   1.2282607418e+02   2.8675232077e+01    0.4443735    0.1978126  50.50   0.00175736    2.678    0.627
        43 -11.8042     28.0113    156.1234   1.4274665765e+02   3.8685837301e+01    0.4465942    0.2584103 -89.92  0.001561411    1.645    0.392
        44 -11.3003     23.4944    153.5288   1.4371258378e+02   3.9641696115e+01    0.2600787    0.1811749  42.05 0.0009011001    1.357    0.263
        45 -10.8261    167.7638    157.4900   1.0827580372e+02   1.8615149797e+01    0.3651173    0.2624746  71.51  0.001680257    2.678    0.627
        46 -11.8202    120.1201    157.5127   1.1923705004e+02   2.6703692943e+01    0.5282592    0.2637362  42.85  0.002361999    1.905    0.475
        47 -10.3063    218.4878    156.0392   9.8139216249e+01   1.0222884900e+01    0.2877423    0.1099788 -37.72  0.001224419    2.687    0.628
        48  -9.8530    144.4597    155.5158   1.1307248864e+02   2.3011791033e+01     0.138055    0.1253258  19.30 0.0001913159    1.016    0.016
        49 -10.8023     39.8900    152.2961   1.3933675752e+02   3.8450224722e+01    0.2746013    0.1717706  57.85  0.001543494    1.529    0.346
        50 -10.1803    189.7260    150.2872   1.0229794909e+02   1.5938214807e+01    0.2936669    0.1918997 -55.09  0.001376985    2.447    0.591
        51 -10.6473    233.5520    147.0356   9.3757489292e+01   8.9984536937e+00      0.19456    0.1083432 -27.13 0.0007786627    1.599    0.375
        52  -9.2584    194.6164    144.2839   1.0007410652e+02   1.6007900771e+01    0.1245278    0.1117479  80.97 0.0007009587    1.735    0.423
        53  -9.9166     12.1763    148.6368   1.4630519712e+02   4.1598436754e+01    0.1451414    0.1116282   6.25 0.0009436205    1.671    0.402
        54 -10.7899    245.9749    137.9749   8.9927613867e+01   8.1856741460e+00    0.2226227    0.1488763 -61.93   0.00095745    4.120    0.757
        55 -11.3042     98.9960    128.9417   1.1948453017e+02   3.6188691383e+01       0.5301    0.3183143  82.69  0.001863261    3.700    0.730
        56 -10.9932     43.9230    124.1157   1.3504548865e+02   4.4625313994e+01    0.4284248    0.2200016  72.52  0.001810841    2.632    0.620
        57 -10.1603    249.5045    124.0087   8.6429928577e+01   9.3771862280e+00    0.1737655   0.09002136 -44.31 0.0008100631    2.498    0.600
        58 -10.7077     27.5705    122.2273   1.3983245179e+02   4.6571507979e+01    0.5044168    0.1782513  78.76  0.001358381    6.678    0.850
        59 -11.9608    193.2565    118.4520   9.4462243097e+01   2.0346359014e+01    0.6113904    0.4738098 -54.71  0.002939286    1.710    0.415
        60 -11.3785     37.6876    121.0474   1.3657475330e+02   4.5971996515e+01    0.2214487    0.1926749  39.11 0.0003776365    1.217    0.179
        61  -9.8544     71.7923    121.1752   1.2601329447e+02   4.2039364904e+01     0.245771    0.1357321  66.77 0.0009490451    2.859    0.650
        62 -10.6840     16.1339    120.7081   1.4317115463e+02   4.7792248270e+01     0.309663    0.1717267  39.26   0.00140151    1.806    0.446
        63 -10.2073    232.0475    115.0174   8.7003476063e+01   1.3530314465e+01    0.1984773    0.1513583 -48.58   0.00068571    1.677    0.404
        64 -10.2289     79.2373    113.4987   1.2223384846e+02   4.2807483670e+01    0.3482816    0.2067797  78.20  0.001297144    3.135    0.681
        65 -11.6134    160.9458    112.2739   9.9652765521e+01   2.7952943930e+01    0.6502079    0.2988305  47.46   0.00253056    2.252    0.556
        66 -10.8078    158.6551    107.1381   9.8854646052e+01   2.9372377881e+01    0.3908097    0.2525246 -54.67   0.00169443    1.992    0.498
        67 -11.4626     16.4358    111.9817   1.4227159451e+02   4.9875246103e+01    0.5455764    0.2501627  32.58  0.002707701    2.218    0.549
        68 -10.9561    174.6169    110.9543   9.6342069104e+01   2.5359861647e+01     0.409696    0.2615629 -35.31  0.001278711    1.523    0.343
        69 -10.3202     60.0309    109.8994   1.2769554676e+02   4.6273912142e+01    0.2072043     0.194347 -51.47 0.0007380296    1.074    0.069
        70 -12.0821    142.4810    105.7205   1.0234200475e+02   3.3022400018e+01    0.5978835    0.2325777  52.20  0.001922594    3.283    0.695
        71 -11.7050     44.9892    102.1581   1.3139821090e+02   4.9882994138e+01    0.5782813    0.3174852  67.40  0.002457558    2.552    0.608
        72 -10.4261     41.6918     98.3112   1.3189478286e+02   5.1169394626e+01     0.218777    0.1992426 -59.85 0.0004904304    1.054    0.051
        73 -11.4733    151.2747    103.8812   9.9716463184e+01   3.1534989568e+01    0.3348535    0.2524227  80.26  0.001489537    2.094    0.522
        74 -11.4693    127.6843    100.8132   1.0487245502e+02   3.7050646332e+01    0.5091963    0.3021884 -55.80  0.002086997    2.062    0.515
        75 -11.3178    109.1372     99.9090   1.0987360227e+02   4.0886641123e+01    0.8541571    0.4537115  61.77   0.00279197    3.635    0.725
        76 -10.0034     81.9416    100.5300   1.1851606244e+02   4.5460016101e+01    0.2163831    0.1425558  35.76 0.0005872831    1.561    0.359
        77 -13.1780    170.6723     90.3861   9.1701386332e+01   2.9740643915e+01    0.6276794    0.4309901 -25.46   0.00142987    1.444    0.307
        78 -11.8844     42.1787     87.5869   1.2973802890e+02   5.3778480735e+01    0.7402467    0.4023141  -1.96   0.00276766    2.967    0.663
        79 -11.0786     45.1077     81.6403   1.2736875985e+02   5.4940334701e+01    0.5868751    0.2221767 -44.81  0.002214258    2.693    0.629
        80 -10.3279     87.3132     87.8540   1.1350435634e+02   4.7528579644e+01    0.3961935     0.222952  60.44  0.001451581    2.941    0.660
        81 -10.2571    105.2507     84.1658   1.0665186902e+02   4.5053877320e+01    0.2844479    0.2028459  69.05  0.001121983    2.041    0.510
        82 -10.6757     24.4507     81.1422   1.3543376496e+02   5.6933669175e+01    0.3506037    0.1675983  67.92  0.001361719    3.280    0.695
        83 -11.1627      2.6461     78.5857   1.4369661898e+02   5.8810567051e+01    0.3559791    0.1963573 -46.71  0.001924735    1.736    0.424
        84 -10.5107     82.3209     73.2584   1.1097648531e+02   5.1690904132e+01     0.370181    0.2524957 -87.79  0.001466875    2.741    0.635
        85 -10.4508     62.8886     70.7710   1.1755160365e+02   5.5335989339e+01    0.3138229    0.2512927 -28.04  0.001672241    1.277    0.217
        86 -11.6655    223.2005     70.8693   7.7513939450e+01   2.1195849640e+01    0.3092071    0.2802644 -83.40  0.000774327    1.343    0.255
        87 -10.9717    219.8015     65.1425   7.6478733042e+01   2.2656245070e+01    0.3588274    0.2847384 -29.98  0.001448254    1.125    0.111
        88 -10.4719     51.8148     69.7305   1.2173410073e+02   5.7057418483e+01    0.3085686    0.1827929 -57.11 0.0009893278    1.542    0.352
        89  -9.4674    196.5361     68.4883   8.0776026250e+01   2.7319736981e+01    0.3283601   0.07774856  43.70 0.0008100907    6.001    0.833
        90 -11.7043     12.1480     59.3618   1.3686592551e+02   6.3095010842e+01    0.6764065    0.2160876  31.66  0.002777823    3.362    0.703
        91 -11.9161     24.7969     53.4148   1.2951374082e+02   6.3707402411e+01    0.8764586    0.3902059  15.20  0.003881033    2.689    0.628
        92 -11.2097     19.4731     59.2253   1.3342244996e+02   6.2688413918e+01    0.3149455    0.2749833 -33.61  0.001297642    1.163    0.140
        93 -13.5456     31.3730     59.5233   1.2795709040e+02   6.1688672379e+01     1.450482    0.8227359  31.34  0.007264921    1.955    0.488
        94 -11.9247     40.1126     52.1632   1.2175913763e+02   6.2561521571e+01    0.5819261    0.2559431 -46.73  0.001995922    1.974    0.493
        95 -10.6252      9.7823     65.9082   1.3905799468e+02   6.1611138119e+01    0.3050075     0.126138  36.98   0.00137943    2.751    0.637
        96 -12.2198    232.8798     60.5652   7.3670705245e+01   2.0505119178e+01    0.6828362    0.3373474 -59.17  0.002670325    3.372    0.703
        97  -9.1775    160.7032     60.7546   8.4900924119e+01   3.6919380023e+01    0.1480525    0.1117519  23.55 0.0001555492    1.483    0.325
        98 -10.1231     98.3925     60.1432   1.0100195908e+02   5.1413494346e+01    0.2739163     0.186076  47.59  0.001257413    1.555    0.357
        99 -11.6035     48.5657     56.9083   1.1935814189e+02   6.0473255717e+01    0.6846375    0.3924155 -13.13    0.0025734    2.768    0.639
       100 -10.1372    162.1469     53.1444   8.2163438681e+01   3.7716848182e+01    0.2404962    0.2015826  22.73  0.001231091    1.258    0.205
       101 -11.1325    149.9139     52.5856   8.4449701072e+01   4.0818089422e+01    0.3900649    0.2806708  74.46  0.001785048    1.710    0.415
       102  -9.4020    173.4547     49.4504   7.8929390432e+01   3.5458287440e+01    0.1464674    0.1388956   3.30 0.0006875413    1.044    0.042
       103 -10.1290    191.6496     46.7411   7.5242571165e+01   3.1405881324e+01    0.2623475    0.1620734  49.52 0.0009202896    1.678    0.404
       104 -10.4291     81.9521     46.4056   1.0156419062e+02   5.7381358318e+01    0.3599222    0.1858034 -48.23  0.001168837    2.096    0.523
       105 -10.5384    157.2842     44.9059   8.0361543823e+01   4.0107311365e+01    0.2733432     0.209885  49.15 0.0004446027    1.298    0.229
       106 -11.3208     75.0142     43.1677   1.0292313791e+02   5.9317083927e+01    0.5360646    0.3186327  18.22  0.002200469    2.360    0.576
       107 -11.1426     70.8262     42.6164   1.0439112439e+02   6.0183557553e+01    0.4053995     0.325457  65.25  0.002060613    1.726    0.421
       108 -10.7912     10.0243     43.7882   1.3468846393e+02   6.6964872856e+01    0.2873242    0.1951562  23.09  0.001097013    1.725    0.420
       109 -10.8603      5.7968     43.1828   1.3681159215e+02   6.7307825810e+01    0.3818318    0.2251899  82.36  0.001949805    2.115    0.527
       110 -12.3681     42.4879     38.6858   1.1583941497e+02   6.5303269132e+01    0.6604795     0.471672   4.27  0.001412706    1.578    0.366
       111 -11.1045     47.9707     35.0700   1.1158849524e+02   6.5340488521e+01    0.4554357    0.2916246  10.33  0.001655429    1.907    0.476
       112  -9.2912    154.3208     41.3219   7.9702326129e+01   4.1348572975e+01    0.1582364    0.1106468  24.37 0.0007045053    1.673    0.402
       113 -11.1934     82.7117     38.2994   9.7888353552e+01   5.8735462285e+01    0.4019801    0.2570884  47.54  0.001643721    1.659    0.397
       114 -11.4316    104.1647     30.2219   8.7232033394e+01   5.5340194128e+01    0.6499043    0.3785043  63.93    0.0024529    2.084    0.520
       115 -11.0521    120.0338     33.9742   8.4492263307e+01   5.0977183925e+01     0.336881    0.3283574 -82.60 0.0008893733    1.147    0.128
       116 -10.9008    219.0000    246.4511   1.1315870023e+02  -4.9266789784e-01    0.1834292    0.1038189 -32.52  0.001263679    2.146    0.534
       117 -11.0422    239.7839     20.6737   6.2997628388e+01   2.3502795375e+01     0.263276    0.2284319  78.69  0.000756493    1.282    0.220
       118 -10.7105    187.3919    248.1693   1.1871026857e+02   3.1523644132e+00    0.2952834    0.1400383  15.68  0.001591114    2.424    0.587
       119 -12.3872    204.5746     20.6568   6.6065737331e+01   3.1322989815e+01    0.6243335    0.2058154  65.98     0.002396    2.951    0.661
       120 -13.3814     22.5595    240.5818   1.4826380966e+02   2.3147726472e+01    0.9742332    0.2131953  50.19  0.004980994    2.896    0.655
       121 -11.9640     33.7937    242.0115   1.4631458531e+02   2.1903949962e+01    0.2772923    0.1508695  33.98  0.001512459    1.512    0.339
       122 -10.0479     89.8309     18.4295   8.6171726278e+01   6.0311628248e+01    0.2648226    0.1407898  57.34  0.001127442    1.997    0.499
       123  -9.3743      3.0416     17.9840   1.3169171933e+02   7.3236202996e+01     0.144475      0.11756 -39.26 0.0003590478    1.070    0.065
       124 -12.5249     30.0388    234.0333   1.4666496209e+02   2.3526376745e+01    0.6875752    0.2042243  52.01  0.002873848    2.527    0.604
       125 -10.5342     82.8094    247.4369   1.3766912677e+02   1.6017719819e+01    0.1859615    0.1329152  18.50  0.001352358    1.560    0.359
       126 -10.0303     41.2109    247.9163   1.4524560785e+02   2.0289415212e+01    0.1560285   0.09472641  51.57 0.0005842001    1.226    0.185
       127 -11.5712      7.8015    240.7311   1.5085063278e+02   2.4374713079e+01    0.1898387    0.1574777 -74.77  0.001705847    1.558    0.358
       128 -11.0672      3.0453    238.8672   1.5162548041e+02   2.5051397882e+01     0.213893    0.1909789 -30.60  0.001936163    1.788    0.441
