#   1 NUMBER                 Running object number                                     
#   2 MAG_AUTO               Kron-like elliptical aperture magnitude                    [mag]
#   3 X_IMAGE                Object position along x                                    [pixel]
#   4 Y_IMAGE                Object position along y                                    [pixel]
#   5 X_WORLD                Barycenter position along world x axis                     [deg]
#   6 Y_WORLD                Barycenter position along world y axis                     [deg]
#   7 A_WORLD                Profile RMS along major axis (world units)                 [deg]
#   8 B_WORLD                Profile RMS along minor axis (world units)                 [deg]
#   9 THETA_WORLD            Position angle (CCW/world-x)                               [deg]
#  10 FWHM_WORLD             FWHM assuming a gaussian core                              [deg]
#  11 ELONGATION             A_IMAGE/B_IMAGE                                           
#  12 ELLIPTICITY            1 - B_IMAGE/A_IMAGE                                       
         1 -14.4673    245.6547     71.8284   5.8234271228e+01   1.5265612161e+01     5.400973     1.717309 -28.45   0.02118379    2.574    0.611
         2 -13.0677    247.7771     18.7549   4.4735313283e+01   2.0536421433e+01     2.896849     1.166438 -21.31   0.01274612    2.257    0.557
         3 -12.2091    171.4243     21.1944   5.2818957601e+01   3.8897315301e+01     1.243467    0.9827369  13.49  0.006322586    1.434    0.303
         4 -11.7774    180.1177      7.0119   4.7025899115e+01   3.7995782545e+01       1.1197     0.720264   5.13    0.0051889    1.893    0.472
         5 -11.4028     62.2840      3.5332   6.9706159211e+01   6.8392593866e+01    0.6044959    0.3373805  36.50  0.002882271    1.854    0.461
         6 -10.1234     74.4732      2.4801   6.4615114538e+01   6.5908980481e+01    0.2850115    0.1331203  57.90  0.001215443    2.184    0.542
         7  -9.6709    126.3770    244.3163   1.1058289955e+02   1.2546652145e+01     0.224629    0.1145797  34.66 0.0008206309    1.516    0.340
         8 -12.8411    240.6374    238.8659   9.1337750149e+01  -1.8780171517e+00     1.946618    0.9252551  12.34   0.01188416    2.254    0.556
         9 -13.3233    241.7055    183.3941   8.2588936582e+01   3.0703326529e+00     2.717643     1.249167  -9.33   0.01311451    2.865    0.651
        10 -11.6226     44.8345    247.0938   1.2490219113e+02   2.1886508079e+01     1.002356     0.338916  56.02  0.005903388    2.339    0.572
        11 -10.6960    146.1240    247.3560   1.0749004143e+02   9.5795702658e+00    0.7388776    0.4002499  20.89  0.004435606    2.253    0.556
        12  -9.3738    160.5048    234.4140   1.0362913384e+02   9.1478697759e+00    0.2187657    0.1466815  25.99  0.001101274    1.274    0.215
        13  -7.6069     76.3461    235.2768   1.1871844890e+02   2.0098746564e+01   0.09339456   0.07423556  19.87 0.0007005205    1.631    0.387
        14 -10.5359     61.0188    234.0737   1.2139887448e+02   2.2060138868e+01    0.2336201    0.1360001 -89.71  0.001303527    1.969    0.492
        15  -7.9422    134.5087    235.4926   1.0829540610e+02   1.2582019035e+01    0.1095619   0.08134839  35.00 0.0002431291    1.070    0.065
        16  -8.6619    142.7542    241.7843   1.0749967802e+02   1.0687300930e+01     0.186438    0.1098124  31.44 0.0007377941    1.368    0.269
        17  -7.4598    138.1485    231.6068   1.0724150222e+02   1.2583593422e+01    0.1575732   0.08174398  30.68 0.0007556656    1.699    0.411
        18 -12.5291     31.7712    247.1108   1.2710193650e+02   2.3208232022e+01     1.109753    0.5485068  31.86  0.007687978    1.904    0.475
        19  -9.9560    117.1237    240.2492   1.1182916578e+02   1.4280457360e+01    0.3357248   0.09619331  36.43  0.001582594    2.690    0.628
        20  -7.9568    153.9927    232.5655   1.0454811812e+02   1.0270327115e+01    0.1667649     0.081709  36.22 0.0009396106    1.532    0.347
        21  -9.2860    121.4550    248.7537   1.1183346047e+02   1.2629563320e+01    0.1725533    0.1140575  34.72 0.0008189967    1.188    0.158
        22  -8.2863    133.5129    229.5025   1.0784878747e+02   1.3497926548e+01    0.1842028    0.1306517  14.48 0.0007890453    1.707    0.414
        23  -9.3160    122.2342    243.3422   1.1121371750e+02   1.3211724137e+01     0.156512    0.1186135  32.34 0.0007179938    1.179    0.152
        24  -8.2193    117.9816    234.9568   1.1118856924e+02   1.4872906276e+01    0.1336272   0.09700033  41.35 0.0007638331    1.018    0.017
        25  -8.3444    148.0323    231.0417   1.0542380261e+02   1.1286373423e+01    0.1683403    0.1118584  18.42 0.0008187654    1.643    0.391
        26  -7.9224    153.2627    228.5735   1.0421666594e+02   1.0862445038e+01    0.1590092   0.08278409  31.38  0.000944338    1.605    0.377
        27 -10.3607     72.8461    227.4827   1.1881417783e+02   2.1691664829e+01    0.2158599    0.1472339  44.50   0.00159261    1.120    0.107
        28  -8.0636    146.5519    226.9135   1.0521947792e+02   1.2016304261e+01    0.1356083   0.08892994 -11.94 0.0008066239    2.482    0.597
        29  -8.8786    139.0408    245.0355   1.0846637643e+02   1.0790270170e+01    0.1885268    0.1378089  29.86 0.0008443493    1.170    0.145
        30  -9.5206    130.8097    249.5232   1.1030284781e+02   1.1327867107e+01    0.2720865    0.1488776  47.99  0.001846016    1.535    0.349
        31  -8.9817    125.9666    249.4980   1.1112696770e+02   1.1957033479e+01    0.2205545    0.1156999  37.24 0.0008534449    1.376    0.273
        32  -8.6735    138.7813    226.4295   1.0656401574e+02   1.3171262722e+01    0.1574766   0.08500257  31.50 0.0007769004    1.592    0.372
        33  -9.0167    134.7250    247.7036   1.0946427809e+02   1.1037298119e+01    0.2086361    0.1327865  24.87 0.0009238039    1.540    0.351
        34  -8.2921     12.9782    239.8016   1.3000990974e+02   2.6074192997e+01    0.1234436    0.1044842   4.93   0.00106283    2.007    0.502
        35  -9.0340    131.1991    224.2422   1.0770584480e+02   1.4527083540e+01     0.170802      0.10895   6.57 0.0009411609    2.696    0.629
        36  -8.2526     25.0106    224.4911   1.2741282524e+02   2.7350424908e+01    0.1190651   0.08488604   5.47 0.0008104829    2.558    0.609
        37 -13.4138     53.6673    245.3550   1.2331209498e+02   2.1201126866e+01      1.76227    0.7965541  41.58   0.01191902    1.535    0.349
        38  -8.7558    155.9279    237.5831   1.0477784532e+02   9.4042378558e+00    0.1753991    0.1342864   5.16 0.0007710152    1.516    0.340
        39 -10.6410     79.8252    244.5484   1.1873044324e+02   1.8351518133e+01    0.3771809    0.1717933 -74.02  0.002350671    2.967    0.663
        40  -8.2399     22.0113    228.2003   1.2808716180e+02   2.7041547214e+01    0.1431832   0.09724101  53.43 0.0008834297    1.047    0.045
        41  -8.8841    131.0749    239.2016   1.0927353063e+02   1.2571410119e+01    0.1803475   0.09224293  51.65  0.001087351    1.917    0.478
        42  -7.6000    174.3396    221.2766   9.9610665946e+01   8.7467005437e+00    0.1132235   0.07109889  18.49 0.0004689927    1.616    0.381
        43  -8.1033    128.7965    234.4113   1.0920082147e+02   1.3495862725e+01    0.1524005   0.08182838  31.27 0.0004600761    1.620    0.383
        44 -12.5209     37.7721    231.9715   1.2544522397e+02   2.4891164383e+01    0.7108134    0.5665337 -20.20  0.005394395    2.397    0.583
        45  -8.8083    126.0261    239.1553   1.1015713401e+02   1.3250147469e+01     0.164094     0.115092  28.30 0.0007921226    1.320    0.243
        46  -8.5690    138.2433    237.7385   1.0786835911e+02   1.1791873679e+01     0.142475    0.1041222  23.12  0.001045327    1.349    0.259
        47 -13.0583    169.7981    243.4299   1.0308547740e+02   6.8666357029e+00     2.033659    0.9483682  25.25    0.0115375    2.219    0.549
        48  -8.9585    109.2218    239.5983   1.1316991285e+02   1.5393046137e+01    0.1523795   0.08049824  31.85 0.0004427102    1.670    0.401
        49 -11.3155     72.0246    241.5685   1.1990360484e+02   1.9690043663e+01    0.4550292    0.2595234  75.68  0.003133572    2.011    0.503
        50  -8.2505     70.5192    212.4797   1.1815294113e+02   2.4369588297e+01    0.2047605   0.06722141  44.42  0.001023367    2.211    0.548
        51  -8.8667    143.0938    237.1393   1.0695666671e+02   1.1208350452e+01     0.165617    0.1161818  25.77 0.0008210851    1.306    0.234
        52  -8.1863     43.6473    202.3064   1.2276981952e+02   2.9211890712e+01    0.1207185   0.05835653  57.74 0.0007042173    1.713    0.416
        53  -9.3007    249.7929    199.3898   8.4073296245e+01   3.8196330453e-01    0.1654258    0.1239668 -11.60 0.0006476666    1.318    0.241
        54 -13.1697    203.1710    236.0374   9.6718365976e+01   3.1595651381e+00     2.886844     1.312218  12.95   0.01257119    4.381    0.772
        55  -9.6207    195.6084    174.5980   8.8658779765e+01   1.1309493987e+01    0.2073248    0.1783416  25.82  0.000821056    1.123    0.109
        56  -8.0235     81.5030    175.0134   1.1232675303e+02   2.9650196057e+01    0.1593608    0.1172787 -72.89 0.0003552761    1.463    0.316
        57  -8.0625     81.2362    159.9779   1.1057126246e+02   3.2656391842e+01    0.1675989    0.1487938  79.73  0.001092908    1.089    0.081
        58  -7.7892    215.6373    157.7051   8.2025927401e+01   1.0110607622e+01    0.1342183   0.08361046  14.82 0.0007030951    1.709    0.415
        59  -9.3966    135.1854    241.1712   1.0874974010e+02   1.1774953780e+01    0.1589674    0.1168762  26.75 0.0007924924    1.264    0.209
        60  -9.8829    101.1529    247.8568   1.1526002511e+02   1.5311385134e+01    0.2934894    0.1090098  39.58  0.001694865    1.875    0.467
        61  -7.9940    159.7560    108.2401   8.1705087100e+01   2.8575845937e+01    0.1945648    0.1631565  11.30 0.0003580354    1.294    0.227
        62  -8.9766    216.0098    103.3274   7.0033672741e+01   1.7298775115e+01    0.1887925    0.1720675  26.36 0.0006311518    1.125    0.111
        63  -9.5439    118.2995     65.3689   7.9276272474e+01   4.5926612973e+01    0.2544185    0.2433284 -56.96 0.0003668208    1.070    0.065
        64  -9.8391    214.4211     54.9728   5.7600137205e+01   2.4061984863e+01    0.3327366    0.2269601 -21.24   0.00130345    1.390    0.281
        65  -7.7578    214.3233    246.2659   9.6276301190e+01   7.6560031458e-01    0.1035282   0.05707082  18.88  0.000313598    1.563    0.360
        66  -8.2650    113.4130    245.7473   1.1296189215e+02   1.4042184731e+01    0.1128945    0.0980185 -31.53 0.0006471914    1.653    0.395
        67  -8.7695    109.6631    246.3539   1.1366423367e+02   1.4440824700e+01    0.1607229   0.09258895  55.53 0.0008392126    1.655    0.396
