#   1 NUMBER                 Running object number                                     
#   2 MAG_AUTO               Kron-like elliptical aperture magnitude                    [mag]
#   3 X_IMAGE                Object position along x                                    [pixel]
#   4 Y_IMAGE                Object position along y                                    [pixel]
#   5 X_WORLD                Barycenter position along world x axis                     [deg]
#   6 Y_WORLD                Barycenter position along world y axis                     [deg]
#   7 A_WORLD                Profile RMS along major axis (world units)                 [deg]
#   8 B_WORLD                Profile RMS along minor axis (world units)                 [deg]
#   9 THETA_WORLD            Position angle (CCW/world-x)                               [deg]
#  10 FWHM_WORLD             FWHM assuming a gaussian core                              [deg]
#  11 ELONGATION             A_IMAGE/B_IMAGE                                           
#  12 ELLIPTICITY            1 - B_IMAGE/A_IMAGE                                       
         1 -11.2494     18.4429     32.3454   1.1256747052e+02   7.1853630318e+01    0.9616292    0.4479572 -12.28  0.003399573    3.926    0.745
         2 -11.1582     78.5821     21.8018   7.5387303920e+01   6.2721019161e+01    0.7356023    0.2638931 -28.75  0.002698767    3.100    0.677
         3 -11.2617     75.1836     21.8262   7.6553127752e+01   6.3528074779e+01     0.441393      0.28956 -42.73   0.00150424    1.729    0.422
         4 -11.1218     42.4443     18.6188   8.9481967806e+01   7.0937361038e+01    0.5305423    0.3167549 -17.80  0.001922972    2.106    0.525
         5 -10.4266     22.2022      9.6557   9.7336292532e+01   7.5658728857e+01    0.3343696    0.2002458  18.70  0.001005907    1.736    0.424
         6 -11.5953     30.0513      7.2004   8.9840124113e+01   7.4799590809e+01    0.3881377    0.3091277  38.84  0.001862607    1.259    0.206
         7 -11.8412     34.9057     12.9766   9.0533945903e+01   7.3131607093e+01    0.5309548    0.3045449 -47.39  0.002611025    2.203    0.546
         8 -12.0955     40.2223      9.6442   8.5128820069e+01   7.2633245691e+01    0.4460613    0.2486399 -24.36  0.001953945    1.986    0.496
         9  -9.8369     88.8242      8.6524   6.6056012512e+01   6.1613175563e+01    0.3279334    0.1818917 -19.35  0.001530303    2.094    0.523
        10 -10.9032     92.8499      9.0215   6.5279223618e+01   6.0547008183e+01    0.3755855    0.2624277  22.58  0.001450153    1.706    0.414
        11 -10.7025     89.1875     13.1534   6.8104366655e+01   6.1079741220e+01    0.5524594    0.2699724  77.92  0.002165054    2.540    0.606
        12 -10.5080    155.2270     14.7149   5.7449687568e+01   4.3646172386e+01    0.3193301    0.1992822  58.65  0.001217489    1.583    0.368
        13 -10.6601    203.0365     11.9574   5.2527961673e+01   3.2396906641e+01    0.1900252    0.1526333 -65.71 0.0003334117    1.016    0.016
        14  -9.7726    118.8573     12.1872   6.1539230545e+01   5.3431899048e+01    0.1938459    0.1475017  51.54  0.000351021    1.293    0.226
        15 -11.2501     55.5638      7.2028   7.5967037718e+01   6.9755875008e+01    0.4211705    0.4052257  47.41  0.001478364    1.153    0.133
        16 -10.4304     15.0141      8.9060   1.0282145259e+02   7.6732312596e+01    0.2295158    0.1845408  -6.14 0.0004275581    1.084    0.078
        17 -10.5805     11.0628      6.5473   1.0483580859e+02   7.7595561442e+01    0.4297993    0.2761894 -36.91  0.002533826    1.459    0.314
        18 -10.3662     10.0339      1.9762   1.0255887370e+02   7.8481492861e+01    0.2065168    0.1582268 -26.83 0.0005652646    1.206    0.171
        19 -10.8766      4.2365      9.9657   1.1359483763e+02   7.7620744783e+01    0.2756793    0.1981048  15.29 0.0003541209    1.351    0.260
        20 -10.3491      2.7717      6.3983   1.1299499388e+02   7.8411638863e+01    0.3781087    0.1746098   1.23  0.001455144    2.604    0.616
        21 -11.5564    151.5932      8.1734   5.5789323866e+01   4.5209836087e+01    0.4002597    0.2792773 -52.42  0.002196793    1.376    0.273
        22 -11.2523     70.2692      5.1023   6.9354218991e+01   6.6557283168e+01    0.3617134    0.3211227 -46.05  0.001264662    1.309    0.236
        23 -10.1619     67.4018      1.5227   6.8230717836e+01   6.7567845266e+01    0.2176968    0.1480778  54.58 9.062923e-05    1.249    0.199
        24 -10.2451     64.9435      7.0311   7.2227890199e+01   6.7636607426e+01     0.205183     0.180324  40.70 0.0004334541    1.026    0.026
        25 -10.5057    199.3023      4.1257   5.0843400926e+01   3.3997393505e+01    0.2261706    0.1140308 -17.31    0.0010889    2.551    0.608
        26 -11.3032    107.4595      4.8311   6.0511244765e+01   5.7103913975e+01    0.3246868    0.1977602  75.90  0.001597537    1.478    0.323
        27 -10.4182    235.4919      4.5032   4.9042487330e+01   2.6342516790e+01    0.1145382   0.08914489 -57.96 -6.108629e-05    1.036    0.035
        28 -10.9578    130.2498      3.3837   5.6607637185e+01   5.1200958350e+01    0.2742366    0.1891551  89.32  0.001234238    1.319    0.242
        29  -9.5229    120.9835      4.0019   5.8063995972e+01   5.3598355755e+01    0.1684269    0.1424401  79.49 0.0003717691    1.022    0.021
        30 -11.1620     57.8358      2.1234   7.1904125134e+01   6.9758707194e+01    0.2861428    0.2338052  37.37 0.0002956904    1.088    0.081
        31 -10.8295     16.8191      3.4285   9.7341341469e+01   7.7391311194e+01    0.2296693    0.1928227   8.54 0.0006067549    1.050    0.047
        32 -10.7202     20.2900      2.3558   9.3576437468e+01   7.7052623364e+01    0.2481436    0.1844979   7.66 0.0007835145    1.255    0.203
        33 -10.6050    160.7556      2.6502   5.3217568785e+01   4.3367848838e+01    0.2213992    0.1709084  -3.47  0.001270059    1.705    0.413
        34 -10.7436     90.5596      2.4362   6.2692317738e+01   6.1708084622e+01    0.3979113    0.2077838  68.23  0.001398815    1.660    0.398
        35 -10.2491    173.0340      2.7763   5.2264829744e+01   4.0305597220e+01    0.1727349   0.09475361  82.04 0.0004203383    1.641    0.391
        36 -11.4081     80.1920      1.7921   6.4778731003e+01   6.4398885057e+01    0.3580628    0.1700062  62.79  0.001271549    1.763    0.433
        37  -9.5203      2.5222      2.7103   1.1090893492e+02   7.9109571802e+01    0.2049961   0.09686734  20.08  0.001057378    2.022    0.505
        38 -10.9054    194.4157      4.2742   5.1182841344e+01   3.5095011086e+01     0.219186    0.1194976 -22.73  0.001134312    2.060    0.515
        39  -9.6670    187.1536      1.2756   5.0876977567e+01   3.7055266679e+01     0.174397   0.09454986 -86.09 0.0002529743    1.693    0.409
        40 -10.9832    210.7877      7.7129   5.1024439280e+01   3.1114952094e+01    0.1793011    0.1420537  72.11  0.001182512    1.386    0.279
        41  -9.7064    104.3191      1.3118   5.9557410716e+01   5.8213137983e+01     0.144817   0.08927343  44.14 0.0003357894    1.646    0.392
        42  -9.2435     28.0206      1.1899   8.6796614330e+01   7.5954294695e+01    0.1636021   0.08712807  42.16 0.0003668669    1.706    0.414
        43 -10.7314     22.4602    143.1900   1.3269904677e+02   4.3654328006e+01    0.2576894    0.1195868 -70.52  0.001122266    2.012    0.503
        44 -11.6215     11.2948    244.0999   1.4107516968e+02   2.2121704901e+01    0.2380756    0.1852501  12.52  0.001652636    1.592    0.372
        45 -11.6852      6.0859    241.4475   1.4208948383e+02   2.3072212087e+01    0.2359093    0.1911014  56.84  0.001198615    1.134    0.118
        46 -11.2628      1.6680    248.3353   1.4316697925e+02   2.2198379329e+01    0.3188469    0.1510165 -88.64  0.001937252    2.230    0.552
        47 -11.7679      6.3171    246.7357   1.4218066462e+02   2.2084409980e+01    0.3208162    0.1928984  84.80  0.002164043    1.697    0.411
        48 -10.8910     11.9823    141.2374   1.3601699623e+02   4.4996703958e+01    0.2308974    0.1764488 -85.85 0.0004770216    1.208    0.172
        49 -10.9193      6.2351    142.3689   1.3798301694e+02   4.5109314701e+01     0.187639    0.1061032  34.98 0.0007130103    1.672    0.402
        50 -10.0812      2.3244    139.3204   1.3907803987e+02   4.6132202350e+01    0.1336251   0.08967686 -46.62 0.0003818411    1.678    0.404
        51 -11.0057      8.9820    135.5010   1.3660153070e+02   4.6681985631e+01    0.2504879    0.1626333  75.06 0.0003710559    1.456    0.313
        52 -10.5305    213.8279    134.5201   7.9982812304e+01   1.3331464525e+01    0.4117444    0.2395834  65.28  0.001825885    3.168    0.684
        53 -10.8051      2.9282    132.9816   1.3849273697e+02   4.7713550592e+01    0.3239468    0.1687663  32.28  0.001593189    1.853    0.460
        54 -10.1354     35.1662    130.7135   1.2693354327e+02   4.5695016009e+01    0.2647512    0.1891668 -62.73 0.0005213393    1.370    0.270
        55 -11.8108     11.2077    129.3946   1.3535244843e+02   4.8110039997e+01    0.4757935    0.2450389  49.72  0.002220425    1.886    0.470
        56 -10.2788     28.9206    128.5776   1.2891417758e+02   4.6877329550e+01    0.3236271    0.1844438 -88.36 0.0008714098    1.845    0.458
        57  -9.5042     20.4805    125.4485   1.3163418494e+02   4.8444694386e+01    0.1397148    0.1238731  71.36 -2.500748e-05    1.061    0.057
        58 -11.7006     23.5064    121.2777   1.3003790999e+02   4.9290555083e+01     0.534062    0.2469417  74.43  0.001085258    2.811    0.644
        59  -9.2907    119.4463    115.5232   9.5670505574e+01   3.5666664156e+01     0.154208    0.1504007  33.19 2.913083e-05    1.020    0.020
        60 -11.0205     65.4124    111.1007   1.1232462190e+02   4.6909748707e+01    0.4721987    0.2087089 -59.49  0.001751633    2.269    0.559
        61 -10.3984      7.9966    121.2496   1.3583426920e+02   5.0442991098e+01    0.1823707    0.1663718  63.83 0.0004405759    1.074    0.068
        62  -9.9287    249.3110    111.6756   7.0407420612e+01   1.0855464505e+01    0.1175682   0.08015805 -53.86            0    1.656    0.396
        63 -11.8821      3.8686    108.8644   1.3635792747e+02   5.3913435155e+01    0.4009055    0.3012602  20.45    0.0019803    1.446    0.308
        64 -11.3512     57.2449    108.0433   1.1476726524e+02   4.8922509147e+01    0.3645866    0.2201657  14.67  0.001504032    2.078    0.519
        65 -10.3046     40.3608    105.7559   1.2104911958e+02   5.1712153736e+01    0.2151585    0.1232663 -56.92  0.000949075    1.657    0.396
        66 -10.5993     24.6971    106.7522   1.2765718516e+02   5.3029795054e+01    0.2276467    0.0924471  34.06 0.0005453924    2.347    0.574
        67 -10.4826     89.7184    104.9816   1.0214498122e+02   4.4155780614e+01    0.2194501    0.2130016 -64.41 0.0005300758    1.055    0.052
        68 -10.8924     72.2593    113.0024   1.1023766670e+02   4.5324822959e+01    0.2562131    0.2126322  43.18 0.0002829341    1.177    0.150
        69 -10.3419     17.9985    104.8313   1.3016572692e+02   5.4078740764e+01    0.2218835    0.1408255 -24.46  0.001054989    1.898    0.473
        70  -9.4507    187.1266    103.3504   7.7410000580e+01   2.3420086860e+01    0.1822782    0.1323036  67.13 0.0005708875    1.637    0.389
        71  -9.8581    113.5041    102.5066   9.3953147205e+01   3.9810353591e+01    0.1562195    0.1519121  48.79 0.0008106376    1.007    0.007
        72 -10.4015     57.4303    102.1074   1.1337832005e+02   5.0421520293e+01    0.3307877    0.1789075  46.64  0.001342637    1.958    0.489
        73  -9.8048    139.1433     99.1508   8.6169595468e+01   3.4770516678e+01     0.207611    0.1803329 -82.42 0.0002579233    1.300    0.231
        74 -10.5404     61.9874     98.4567   1.1069623328e+02   5.0656451375e+01    0.2492159    0.2020906 -60.49  0.001246598    1.240    0.193
        75  -9.1954    194.4965     98.5650   7.5034145829e+01   2.2684007355e+01    0.1358708     0.125908 -42.61 0.0008069912    1.018    0.018
        76 -10.1975    100.1053     96.0847   9.6272061754e+01   4.4115220151e+01    0.4670213     0.271335  65.03   0.00166052    2.636    0.621
        77 -12.0026     11.3188     89.3811   1.3100681525e+02   5.8585873669e+01    0.9142757    0.1997102 -73.23  0.002815837    3.975    0.748
        78  -9.9950     91.5686     95.9736   9.9068324749e+01   4.5907235955e+01    0.2346493    0.1540737 -49.61 0.0005601543    1.562    0.360
        79 -10.3715      3.6400     95.3916   1.3517591341e+02   5.7438310276e+01    0.2494699    0.2017488 -50.70 0.0006356331    1.204    0.170
        80 -10.5159     78.8651     94.6408   1.0320584224e+02   4.8693356007e+01    0.2437716    0.2074521 -37.83 0.0002819824    1.238    0.192
        81 -11.2545     18.1249     94.8936   1.2872123257e+02   5.6684225096e+01    0.3480135    0.1915301  22.87  0.001185204    1.885    0.469
        82 -10.0745     43.7537     93.2558   1.1706246553e+02   5.4559696785e+01    0.2457101   0.09526118 -51.73  0.000888939    2.423    0.587
        83 -10.6478     28.3740     92.2821   1.2368662959e+02   5.6502610108e+01    0.3954532    0.2213334  12.29  0.001295432    2.044    0.511
        84 -10.4848     24.6279     89.2914   1.2484380370e+02   5.7622666942e+01    0.3680382     0.243846  59.66  0.001786167    1.730    0.422
        85 -10.7448     57.7947     91.9152   1.1075583370e+02   5.2948233150e+01    0.3011383    0.2416103  -2.35 0.0007310771    1.467    0.319
        86 -11.1707     76.4817     89.2462   1.0257175073e+02   5.0421542303e+01    0.2903506     0.275743  38.79 0.0006814144    1.034    0.033
        87 -10.2285    107.8168     88.8405   9.1733788261e+01   4.4027170897e+01    0.2204263    0.1887076  82.38  0.000671328    1.328    0.247
        88  -9.5844      1.6486     89.1743   1.3541085363e+02   5.9142027778e+01    0.2008623    0.1008233 -65.56 0.0009426636    1.712    0.416
        89 -10.2966     33.1597     88.2047   1.2069830042e+02   5.7082771443e+01    0.2055116    0.1771573 -44.11 0.0004164485    1.139    0.122
        90  -9.5930    123.9536     87.0005   8.6573099111e+01   4.0707887154e+01    0.2509649    0.1957772  11.05  0.001132527    1.715    0.417
        91 -11.2872     54.9189     84.9137   1.1012363912e+02   5.5124824932e+01    0.3521131    0.2790062 -81.02  0.001168631    1.458    0.314
        92 -10.4721     42.4835     88.6768   1.1657278397e+02   5.5891600468e+01    0.5162522    0.1511236  47.76  0.001280978    5.877    0.830
        93 -11.0296     18.5214     87.4543   1.2736292339e+02   5.8597085074e+01    0.4260965    0.3104077 -74.42  0.001829356    1.305    0.234
        94 -10.7475    145.9471     83.5703   8.0213199692e+01   3.6147856057e+01    0.2603342    0.2110414 -49.59 0.0003642699    1.240    0.194
        95 -10.8039      3.7723     82.4504   1.3364125171e+02   6.0782774460e+01    0.4524565    0.2151475 -80.52  0.001552135    1.989    0.497
        96 -10.0625    100.3783     83.1771   9.2327186220e+01   4.6890478161e+01     0.219281    0.1473767 -56.93 0.0005243849    1.670    0.401
        97 -11.1566     64.4623     79.6294   1.0451384677e+02   5.4855585278e+01    0.6085665    0.3210533 -61.10   0.00238996    2.189    0.543
        98 -10.0784     42.3949     81.8945   1.1495418835e+02   5.7619118663e+01    0.2407027    0.2173528 -66.26 0.0009333795    1.111    0.100
        99 -10.0861     89.2289     80.6443   9.5278436761e+01   4.9848372394e+01    0.2574462     0.212068 -64.38 0.0006703393    1.345    0.257
       100  -9.3837    124.4851     78.9944   8.3999871439e+01   4.2150245530e+01    0.2272019    0.1522381 -44.29 0.0005185719    1.528    0.346
       101  -9.3354     85.4284     79.4788   9.6261901066e+01   5.0897302936e+01    0.1531629    0.1485236  14.19 7.224419e-05    1.051    0.049
       102 -10.4131    176.9871     77.0372   7.2453436964e+01   2.9961558268e+01    0.2252333    0.2118582 -62.66  0.001312541    1.007    0.007
       103 -10.3438     28.0945     77.0542   1.2067080473e+02   6.0445853677e+01    0.1995445    0.1915588 -47.49 0.0003428774    1.017    0.017
       104  -9.5350    170.2078     76.4107   7.3433876000e+01   3.1631308552e+01    0.1952996    0.1377626  75.11 0.0004828273    1.594    0.372
       105 -11.7838      5.9041     74.8998   1.3154517652e+02   6.2615418906e+01    0.3789365    0.2950079   8.98  0.002203613    1.397    0.284
       106 -11.3262     55.8018     75.1698   1.0691079547e+02   5.7346458074e+01    0.3861056    0.3309805  14.03  0.001678489    1.215    0.177
       107 -10.0572     70.9534     75.1799   1.0042607918e+02   5.4715086719e+01    0.2597968    0.1812553   5.83  0.001094455    2.050    0.512
       108 -11.7321     32.1440     72.9965   1.1764744525e+02   6.1046944384e+01    0.5751922    0.2440537  42.14 0.0002498127    2.615    0.618
       109 -11.0572     36.3039     72.2911   1.1536195534e+02   6.0750667017e+01    0.3892253    0.2833478 -30.50   0.00127477    1.456    0.313
       110  -9.4072    136.5363     74.4731   7.9639829994e+01   4.0066599382e+01    0.1509073    0.1465586  69.11 8.916369e-05    1.030    0.029
       111  -9.8127     47.8060     74.4336   1.1037073697e+02   5.8728125519e+01    0.2098038    0.1405433  11.77  0.000949387    1.764    0.433
       112 -10.6198     92.6795     72.7042   9.1471698080e+01   5.0794524987e+01    0.3451878    0.2484982  52.54 0.0006356057    1.384    0.277
       113 -10.0635    105.8718     71.8108   8.6921965191e+01   4.7967240351e+01    0.2311707    0.2034718  31.62 0.0004685821    1.190    0.159
       114  -9.4055     81.3179     72.6843   9.5538986065e+01   5.3225840688e+01     0.154904     0.122365  81.68 0.0007038622    1.652    0.395
       115 -11.0240     16.3585     75.7876   1.2633931310e+02   6.1759268064e+01    0.3887503    0.1982911  17.36  0.001768962    2.073    0.518
       116  -9.8181     46.3381     69.4045   1.0955377716e+02   6.0140694119e+01    0.2746225    0.1425551  24.17  0.001124007    2.100    0.524
       117 -11.3381     14.4463     63.9071   1.2492386910e+02   6.4879002708e+01    0.3423553    0.3135538  54.04 0.0003420526    1.217    0.178
       118 -11.3659      2.6483     59.7828   1.3086085212e+02   6.6555225999e+01    0.3371515    0.2316155 -69.03  0.001401998    1.318    0.241
       119 -11.9474      6.6177     63.6441   1.2928418099e+02   6.5414670201e+01    0.3276532     0.286158  44.80  0.002023173    1.279    0.218
       120 -10.9522     34.3066     65.1416   1.1436247565e+02   6.2722933865e+01    0.3160223    0.2569924 -22.66 0.0005303408    1.260    0.206
       121 -10.9917     39.1936     62.6132   1.1101253073e+02   6.2717277515e+01    0.8164586    0.2660979 -40.27  0.002458435    4.108    0.757
       122 -11.0601     10.0093     60.0296   1.2661719380e+02   6.6121560724e+01    0.2623069    0.2213895 -16.02 0.0003895295    1.194    0.163
       123 -10.3251    133.1963     65.6129   7.7636869288e+01   4.2445074592e+01    0.2241372    0.1333371  47.10 0.0005541405    1.699    0.412
       124 -10.9033     75.4643     64.7813   9.5033342164e+01   5.6100483630e+01    0.3389778    0.1895264  42.76 0.0009402797    1.730    0.422
       125 -11.1381     64.7172     61.3890   9.8271227027e+01   5.8913488338e+01    0.5239444     0.335644  23.98  0.001509762    1.818    0.450
       126 -10.4070    100.7797     61.9856   8.5078147019e+01   5.1045262795e+01    0.2514422     0.211807  54.48  0.000407656    1.139    0.122
       127 -10.2304     55.5035     60.2449   1.0204519623e+02   6.0802952853e+01    0.3725631    0.2738041 -14.99  0.001784043    1.667    0.400
       128 -13.6420     19.9782     57.3524   1.2011892599e+02   6.6050432724e+01    0.4315356    0.3941242 -58.42  0.001062731    1.096    0.088
       129 -11.5721     83.6587     56.9265   8.8968014176e+01   5.5930080699e+01    0.3038405    0.2507358  65.30 0.0004856277    1.323    0.244
       130 -11.9027     88.1708     53.1712   8.5905823291e+01   5.5608838503e+01    0.6731406     0.425122  50.71  0.002159729    1.509    0.337
       131  -9.1600     48.3249     58.2681   1.0482962351e+02   6.2403828477e+01    0.1446938    0.1085028  -9.88 0.0002407006    1.570    0.363
       132 -10.5339     33.9082     54.3463   1.1113185037e+02   6.5299234594e+01     0.436215    0.2049373 -41.53  0.001817186    2.170    0.539
       133  -9.2285    158.3200     56.6459   6.9863527290e+01   3.7593891117e+01     0.157968     0.104025 -66.80  0.000704669    1.752    0.429
       134  -9.4598     71.5048     56.5151   9.3531780024e+01   5.8594182705e+01    0.1478194    0.1421016  38.84 -2.998256e-05    1.042    0.040
       135 -11.2274     26.7702     43.7925   1.1155938931e+02   6.8505223808e+01    0.5289329    0.3108403  42.21  0.002552492    1.948    0.487
       136 -11.5596     18.0290    249.0675   1.3983078574e+02   2.0601171189e+01    0.2667109    0.1731036   4.43  0.001625372    2.232    0.552
       137 -10.4385     25.9122     29.5424   1.0600890942e+02   7.1585278073e+01    0.2185263    0.1807994 -54.01 0.0003277587    1.356    0.263
       138 -13.5658      5.9553     50.7290   1.2701587902e+02   6.8604789943e+01    0.5540907    0.3477192 -21.59 0.0008261647    1.625    0.385
       139 -11.0027     18.8553     44.8551   1.1701308030e+02   6.9071616391e+01    0.8291016    0.3924166  40.98   0.00362756    2.490    0.598
       140 -10.8448     22.9192     38.4930   1.1199060078e+02   7.0081459659e+01    0.2516188    0.2136587  31.27 0.0004519356    1.269    0.212
       141 -11.3107     26.6167     35.1248   1.0810780890e+02   7.0370651029e+01     0.408361    0.2499045 -24.06  0.001460057    1.842    0.457
       142 -10.0105    225.5286     54.4589   6.0721793767e+01   2.2725723375e+01    0.2219301    0.1159279 -20.76   0.00103803    2.404    0.584
       143  -9.1768    174.4263     55.5022   6.6990189056e+01   3.3825259424e+01    0.1406426    0.1275955 -66.45 0.0001114318    1.014    0.014
       144 -11.3333    114.7484     53.7598   7.8131667044e+01   4.9070415043e+01    0.3243979    0.2977764  53.97 0.0006947165    1.054    0.051
       145 -10.0570     96.8283     55.1604   8.3804766460e+01   5.3225873756e+01    0.2021271    0.1753946  19.58 0.0002978588    1.281    0.219
       146  -9.2574     54.2069     55.4111   1.0085488381e+02   6.2065904341e+01    0.1841351    0.1332421  45.59 0.0001643245    1.443    0.307
       147  -9.4714    163.0141     54.2214   6.8371103340e+01   3.6788486390e+01    0.1907435    0.1137725  64.72 0.0005277597    1.650    0.394
       148 -12.0093     66.0947     52.6918   9.4307633243e+01   6.0435893799e+01    0.5951547    0.2499029  39.70  0.001838736    2.338    0.572
       149  -9.8348    105.7290     53.3632   8.0448978053e+01   5.1381820764e+01    0.2997155    0.1413314  58.58  0.001065299    2.144    0.534
       150  -9.9502     98.2482     49.4666   8.1180779540e+01   5.3868980074e+01    0.3221741     0.209286 -25.75  0.001427214    1.824    0.452
       151 -11.0249     77.2286     47.5970   8.7640735222e+01   5.9074343443e+01    0.5587383    0.3686353   1.20  0.002257705    2.533    0.605
       152  -9.7014     47.1253     48.7281   1.0177927683e+02   6.4646587843e+01    0.4431984    0.1488441 -47.47  0.001566984    2.938    0.660
       153  -9.5509     53.5062     47.9775   9.8213811414e+01   6.3725642832e+01    0.2108435    0.1392218 -43.10 0.0009484109    1.541    0.351
       154  -9.5601    154.5694     47.5458   6.7745412670e+01   3.9854736520e+01    0.1444983    0.1318039 -79.69 8.316113e-05    1.020    0.019
       155  -9.2405    135.4844     46.4335   7.0845901925e+01   4.4901094465e+01      0.14942    0.1354154  89.69 6.877942e-05    1.052    0.049
       156  -9.7460    104.5191     46.5096   7.8201912165e+01   5.2807579533e+01    0.1504963    0.1408699  64.13 5.054261e-05    1.017    0.016
       157  -8.9749     65.3101     46.6676   9.2145993500e+01   6.1753610444e+01    0.1432939    0.1175925  87.54 0.0007042634    1.672    0.402
       158 -10.4813    181.1607     41.5059   6.2228521674e+01   3.4106760817e+01    0.3230513    0.2847537 -40.39  0.001270383    1.167    0.143
       159 -10.1092    110.8014     42.9277   7.5151359385e+01   5.1775409570e+01     0.212271    0.1902301  38.85 0.0002996068    1.159    0.137
       160  -9.1035     95.2391     42.3581   7.9270508171e+01   5.5756822034e+01    0.1452546    0.1136872  13.02 0.0006918245    1.588    0.370
       161 -10.0733     69.9662     41.6900   8.7988740232e+01   6.1690927977e+01    0.2749883    0.2053362  -0.13  0.001064347    1.706    0.414
       162 -10.0704     35.1985     41.6750   1.0552802225e+02   6.7900046798e+01    0.3662631    0.1623552  23.41  0.001447274    2.589    0.614
       163 -10.7642      3.6249     41.6044   1.2633586525e+02   7.0876713125e+01    0.4460363    0.1940116 -27.49  0.001958475    2.436    0.589
       164 -10.8935    139.8203     40.4060   6.8008436556e+01   4.4624358475e+01    0.3817507    0.2635815 -56.25  0.001213796    1.516    0.340
       165  -9.2485     42.9917     40.7372   1.0061159419e+02   6.6933800833e+01     0.169124    0.1156868  31.84 0.0004253477    1.418    0.295
       166 -12.0806    121.5980     37.3106   7.0517528265e+01   4.9791846306e+01    0.5008349    0.4268493  86.63  0.001386075    1.159    0.137
       167 -10.3049    127.8031     38.6361   6.9699295759e+01   4.7993352109e+01    0.2926275    0.2158386 -75.09  0.001172516    1.513    0.339
       168  -9.2891     51.2888     39.6551   9.5677164501e+01   6.5739457513e+01     0.134767    0.1142251  86.72 0.0005511701    1.653    0.395
       169  -9.9339    131.7845     38.5715   6.8887297794e+01   4.6963626764e+01    0.2108606    0.1351993  78.64 0.0006983878    1.636    0.389
       170  -9.3798    146.4066     37.1933   6.5823273755e+01   4.3344108694e+01    0.2053617    0.1245889 -44.14 0.0009505763    1.638    0.390
       171 -10.9133      3.7360     34.9536   1.2439634181e+02   7.2397054345e+01    0.4339255    0.2308539 -31.09  0.002093483    1.787    0.440
       172 -10.7699    134.2822     34.2380   6.6917091896e+01   4.6881332097e+01    0.2468707    0.1942721  42.94 0.0004128177    1.387    0.279
       173 -10.5648     89.5902     32.2510   7.6723494292e+01   5.8649105652e+01    0.3570067    0.2486693 -77.17 0.0008023665    2.056    0.514
       174  -9.2220    145.0337     33.0152   6.4684132035e+01   4.4230800245e+01    0.1676708    0.1524243 -88.06 0.0003195449    1.010    0.010
       175  -9.1367     50.2793     33.6310   9.3327873438e+01   6.7022697876e+01    0.1328619    0.1127104 -85.42 0.0007011419    1.688    0.408
       176 -10.6893    166.2446     31.0131   6.1081200362e+01   3.9056261937e+01     0.230798    0.1984948 -57.29 0.0004158108    1.100    0.091
       177 -11.2632     39.0211     30.7921   9.8184622998e+01   6.9470960115e+01    0.4624895    0.2993112  -7.93 0.0008603262    2.074    0.518
       178 -11.0821     43.4941     30.5049   9.5437326575e+01   6.8781799919e+01    0.7419442    0.4502923 -20.86  0.003412899    2.103    0.524
       179  -9.7896    205.4190     31.1944   5.7061332676e+01   2.9784032162e+01    0.1913497   0.09428229 -43.69 0.0007846644    1.712    0.416
       180 -10.1279    128.7259     31.0953   6.6832703237e+01   4.8735909758e+01    0.4009064    0.1742752  62.00  0.001480062    2.045    0.511
       181 -10.5805      8.0967     28.6611   1.1889014992e+02   7.3521502668e+01    0.2876561    0.2205745  43.86  0.001720199    1.601    0.375
       182  -9.6535     69.8189     28.7826   8.2001822913e+01   6.3804137386e+01     0.182129     0.167168 -79.69 0.0004658597    1.300    0.231
       183  -9.8836     82.4407     17.4667   7.2050328133e+01   6.2302314047e+01    0.3283511   0.09984326  52.73  0.001144432    2.676    0.626
       184  -9.9851    229.6464    248.0467   9.7078384232e+01  -4.0226379537e+00    0.1448523    0.1006946  -7.50 0.0006262416    1.155    0.134
       185  -9.7120    224.9699    246.6882   9.7649901628e+01  -3.3912146112e+00    0.1528965    0.1015469   9.20   0.00102174    1.100    0.091
       186  -9.2811    229.5370     25.9737   5.4012374810e+01   2.5305440424e+01    0.1485032    0.1019733   2.23 0.0008081932    2.445    0.591
       187  -9.2174    140.3338     26.6936   6.3320908598e+01   4.6218177929e+01    0.1519147   0.09888051 -68.42 0.0007040025    1.667    0.400
       188 -10.2901    113.6333     25.0423   6.7550706617e+01   5.3437930063e+01    0.2665555    0.2234595  89.17 0.0006535343    1.184    0.155
       189 -10.0227    101.4855     26.1529   7.0787698406e+01   5.6461660032e+01    0.3026542     0.189903  85.77  0.001321081    1.992    0.498
       190  -9.3610     18.3435     26.3030   1.0992136884e+02   7.3107903452e+01    0.1383838   0.08768328 -19.43 0.0007039724    1.682    0.406
       191  -9.7770    153.9173     25.5386   6.0996620874e+01   4.2823450868e+01    0.2136624    0.1279404  76.02  0.001017148    1.570    0.363
       192 -10.1518    172.3928     23.7501   5.8265339993e+01   3.8364837266e+01    0.1788529    0.1313498 -14.90 0.0009571463    1.691    0.409
       193 -10.1990    147.1116     26.4060   6.2211965770e+01   4.4483325129e+01    0.2212012    0.1887961 -48.60 7.574596e-05    1.186    0.157
       194 -10.0902     59.2035     24.1271   8.4090435861e+01   6.6799583672e+01    0.2866246    0.1747797  36.31  0.001077434    1.597    0.374
       195 -10.2826      1.9026     21.8748   1.2139319397e+02   7.5365413047e+01    0.2433709    0.1658057 -63.80 0.0007900851    1.488    0.328
       196 -11.1051     14.0281     21.1483   1.1078029563e+02   7.4576465845e+01    0.3415523      0.22754  40.22  0.001899685    1.784    0.440
       197 -10.3279     30.8636     20.4910   9.7804215158e+01   7.2579019366e+01    0.2477129    0.1723469 -29.98 0.0007188232    1.432    0.301
       198 -10.2361    100.2754     19.0016   6.8025247510e+01   5.7612234878e+01    0.3207253    0.2012452 -59.58  0.001469258    1.971    0.493
       199  -9.6653    136.5024    245.5662   1.1408436897e+02   7.3156669646e+00    0.1222177   0.09253724  27.54 1.765371e-05    1.059    0.056
       200  -9.8586     60.8657    240.9754   1.3014757224e+02   1.7579703441e+01    0.2169842    0.1271809  22.00 0.0008968129    1.661    0.398
       201 -10.1570     50.3804    241.2144   1.3249543963e+02   1.8721963099e+01    0.1583013   0.09906416  75.82 0.0009514652    1.773    0.436
       202  -9.6105    202.5569    240.2530   1.0057030001e+02  -1.7233994499e-01     0.143745   0.08900255 -17.01 0.0008147612    1.539    0.350
       203 -11.3096     14.2023    238.8950   1.4029398230e+02   2.2822345988e+01    0.2133282    0.1352623  54.35 0.0005120187    1.214    0.176
       204  -9.5841     84.7973     21.3591   7.3213301519e+01   6.1261257914e+01    0.2108272    0.1133861  50.61 0.0005279319    1.648    0.393
       205  -9.2656     68.9868     18.1998   7.6919151458e+01   6.5435492557e+01     0.191143    0.1009459  55.33 0.0005143445    1.720    0.419
       206  -9.7842    199.6848     17.0659   5.4028268080e+01   3.2624724560e+01    0.1761782    0.1450639 -53.80 0.0005475817    1.089    0.082
       207 -11.8368    108.5562     16.2843   6.5070570359e+01   5.5743097001e+01    0.2424009    0.2133299  75.74 0.0002709219    1.036    0.035
       208 -10.4336     20.1892     16.9166   1.0351691023e+02   7.4688744201e+01    0.2125099    0.1686806  16.05 0.0006716274    1.171    0.146
       209 -10.8997     14.5236     15.9662   1.0759429176e+02   7.5522283503e+01    0.4216483    0.1657614  27.32  0.001556514    2.442    0.590
       210 -11.9761     26.4808    235.7813   1.3750111740e+02   2.2243827658e+01      0.31201    0.2639072 -87.09  0.001934738    1.371    0.271
       211 -11.9923      4.1879    232.5106   1.4225275803e+02   2.4920614303e+01    0.2812539    0.1623594  47.74  0.000245118    1.263    0.208
       212  -9.9508     90.3183     16.3140   6.9291456639e+01   6.0459046034e+01    0.1856505    0.1458458  11.98  0.000485584    1.498    0.332
       213 -13.1614      9.8286    228.6394   1.4090706507e+02   2.5180996482e+01    0.6380593    0.3492264 -89.60  0.002061743    1.878    0.468
       214 -10.1074     49.0806     15.8246   8.4240593356e+01   7.0065558867e+01    0.2246183    0.1888987 -59.45 0.0007081504    1.590    0.371
       215  -9.4550     26.7658     16.6385   9.8384360312e+01   7.3847420897e+01    0.1682613    0.1122785  38.56  0.000456711    1.536    0.349
       216 -11.0947    234.8164     15.1696   5.1342808734e+01   2.5410658686e+01    0.1937995    0.1310966 -74.15 0.0003390439    1.332    0.249
       217 -10.1045    175.4097     14.8850   5.5459362411e+01   3.8567395166e+01    0.2297425    0.1594292 -82.50 0.0007019267    1.317    0.240
       218  -8.9047    183.3149    236.3142   1.0354187273e+02   2.6459260153e+00    0.1206217   0.07415964   1.83 0.0005430503    1.642    0.391
       219 -10.2345    190.7744     13.8191   5.3881284465e+01   3.5005474453e+01    0.1819488    0.1646152 -82.19 0.0009624641    1.136    0.120
       220 -10.0271    162.1780     13.1684   5.6235261576e+01   4.2030709126e+01    0.1949252    0.1670706  68.90 0.0004335974    1.195    0.163
       221  -9.7539     95.0068     13.3996   6.6785008482e+01   5.9566131878e+01    0.1981018    0.1560595  65.28 0.0004482921    1.128    0.114
       222  -9.2731     42.6147    236.2592   1.3393184372e+02   2.0491273221e+01    0.1326229   0.06237981  48.53 0.0006972599    1.681    0.405
       223  -9.2833    210.6814    235.7099   9.8489619722e+01  -5.5879838894e-01    0.1149667   0.06754564   2.07 0.0003230594    1.599    0.375
       224  -9.9429    249.3310    234.0814   9.1978054416e+01  -4.5175465223e+00    0.1655854    0.1036264   7.71 0.0004457135    1.237    0.192
       225  -9.2063    209.5310    229.5154   9.7775600890e+01   3.3516066590e-01    0.1142723   0.08572286   5.26 8.072228e-05    1.021    0.020
       226 -10.3844    140.1719    227.9169   1.1111558154e+02   9.5704251022e+00    0.2337444    0.1854442 -66.91  0.001460485    1.854    0.461
       227  -9.7277    109.9889    226.9747   1.1769006827e+02   1.3881900029e+01    0.1564658    0.1303522  30.28 0.0007742187    1.037    0.035
       228 -11.0358      1.5482    225.3021   1.4263640687e+02   2.6545693503e+01    0.2069347   0.09508865  82.72 0.0009104701    2.117    0.528
       229 -10.0172     33.2589    225.4613   1.3546226688e+02   2.3569318858e+01     0.315749   0.03939183  35.37  0.001141355    3.461    0.711
       230 -11.6665      8.1832    218.3932   1.4093947698e+02   2.7370341160e+01    0.3483737    0.2218059   5.26  0.002017306    2.135    0.532
       231 -10.9608      7.6556    215.3033   1.4095703057e+02   2.8048700010e+01    0.2633644    0.1398269  46.64  0.001045893    1.427    0.299
       232 -10.5910     15.6214    213.0637   1.3900285314e+02   2.7811676088e+01    0.2656661     0.188643  -8.74  0.001563177    2.081    0.520
       233 -10.3231     20.5886    209.9869   1.3767312467e+02   2.7999794421e+01    0.2318737    0.1238336  44.27 3.799145e-05    1.459    0.315
       234  -9.5777    247.0000    207.0898   8.8154977467e+01  -1.2510331484e+00     0.170679     0.051097 -34.31 0.0008034697    2.950    0.661
       235  -9.4732    197.2214    204.0247   9.5987448471e+01   5.3143686032e+00    0.1519114   0.09125797 -33.20 0.0006039705    1.651    0.394
       236 -11.5779      9.4052    203.6336   1.4011693126e+02   3.0360250288e+01    0.2492043    0.1740685  25.94  0.001216541    1.423    0.297
       237 -10.3390     23.1460    197.4228   1.3638383257e+02   3.0484886127e+01    0.2108236     0.187075 -51.78 0.0005710133    1.409    0.290
       238 -10.9318     13.8364    193.0580   1.3855028879e+02   3.2307511514e+01    0.1996879    0.1360685  57.16 0.0005512017    1.219    0.179
       239 -10.9146      6.2416    191.8926   1.4044687270e+02   3.3203405375e+01    0.2107954    0.1598381  40.06  0.001348424    1.180    0.153
       240  -9.6351     15.4739    185.4665   1.3774105952e+02   3.3893057647e+01    0.2321791    0.1007166  79.65  0.001028663    2.402    0.584
       241  -9.2657     22.6399    179.6976   1.3545300991e+02   3.4595112859e+01    0.1262039   0.09649431 -33.40 0.0006522852    1.721    0.419
       242  -9.8456    249.3546    168.6785   8.1261410031e+01   3.2272665967e+00    0.1019686   0.08608793 -50.47 4.556624e-05    1.757    0.431
       243 -11.1862      5.3685    167.5675   1.3962891026e+02   3.8927322407e+01    0.2866049    0.1732434  61.81  0.001034353    1.451    0.311
       244  -9.4843    226.5880    164.1908   8.3834093816e+01   6.9172195484e+00     0.169928   0.09835072 -23.58 0.0004928004    1.602    0.376
       245 -10.0958     14.6094    163.6054   1.3672455023e+02   3.9174160866e+01    0.2575308   0.07500641 -62.39 0.0009534021    3.254    0.693
       246  -9.2582     41.5032    158.0085   1.2805106262e+02   3.7972514034e+01    0.2001141    0.1028992  71.15 0.0008074138    2.350    0.574
       247  -9.5767    247.4843    155.5020   7.9119964344e+01   5.2012292898e+00    0.1173054   0.09182747 -17.13 2.744711e-06    1.011    0.011
       248 -11.1861      3.0486    153.9464   1.3964158852e+02   4.2416119074e+01    0.3064501    0.1739355  41.33  0.001612502    1.586    0.369
       249 -10.8700     23.9112    150.8412   1.3290909042e+02   4.1566886304e+01    0.2032314    0.1818202 -44.39 0.0005805559    1.283    0.221
       250 -10.6379      2.4044    146.7828   1.3946751468e+02   4.4243541500e+01    0.1889949    0.1066534 -70.66 0.0006302927    1.675    0.403
