#   1 NUMBER                 Running object number                                     
#   2 MAG_AUTO               Kron-like elliptical aperture magnitude                    [mag]
#   3 X_IMAGE                Object position along x                                    [pixel]
#   4 Y_IMAGE                Object position along y                                    [pixel]
#   5 X_WORLD                Barycenter position along world x axis                     [deg]
#   6 Y_WORLD                Barycenter position along world y axis                     [deg]
#   7 A_WORLD                Profile RMS along major axis (world units)                 [deg]
#   8 B_WORLD                Profile RMS along minor axis (world units)                 [deg]
#   9 THETA_WORLD            Position angle (CCW/world-x)                               [deg]
#  10 FWHM_WORLD             FWHM assuming a gaussian core                              [deg]
#  11 ELONGATION             A_IMAGE/B_IMAGE                                           
#  12 ELLIPTICITY            1 - B_IMAGE/A_IMAGE                                       
         1 -10.4394     78.6310     24.8171   6.5763056217e+01   6.0630547867e+01    0.7208591    0.4912097  67.62  0.003525143    2.430    0.589
         2  -8.7835     34.0475     13.1646   7.8646167635e+01   6.9274295861e+01    0.2555593    0.1467054  -0.79  0.001386376    1.892    0.471
         3 -10.3034     30.1259     23.6465   8.5467742473e+01   6.8177347660e+01    0.5717914    0.1773622 -36.03  0.002374585    2.938    0.660
         4 -10.1680     29.3554     17.8410   8.3219082312e+01   6.9162116346e+01    0.3399107     0.196923 -19.00 0.0004067476    1.586    0.370
         5 -10.8123    101.6176     16.3692   5.5374957304e+01   5.6842358550e+01     0.532344    0.3585413  24.48  0.001258877    1.493    0.330
         6 -11.6315    111.7493     19.3635   5.4009745775e+01   5.4252616626e+01    0.5296035    0.3962072  34.43  0.002763734    1.231    0.187
         7 -11.5366     57.0468     15.4461   6.9516154563e+01   6.5631315478e+01    0.8247375    0.4844616   5.39  0.004257996    1.933    0.483
         8 -10.9938    149.8674     18.4933   4.6046958032e+01   4.5189540844e+01    0.3095932    0.2954961 -57.51 0.0005279524    1.139    0.122
         9 -10.3767    154.5334     16.0620   4.4530571869e+01   4.4280555159e+01     0.452313    0.3734353  13.51  0.002386752    1.414    0.293
        10  -9.9563    156.1311     10.1591   4.2475407630e+01   4.4452294481e+01    0.5682146    0.2916807  28.86   0.00237897    2.844    0.648
        11 -10.4201     86.6391     16.6988   5.9715450871e+01   5.9999200607e+01    0.5414041    0.2540511 -41.38  0.001641012    2.794    0.642
        12  -9.8958     38.2701     17.2091   7.8573835933e+01   6.8169852844e+01    0.5302328    0.2741236   6.66  0.002384991    2.637    0.621
        13 -10.1658     17.1402      3.0827   8.2365211520e+01   7.2582492274e+01    0.4379191    0.2522442 -37.61  0.002738558    1.717    0.418
        14 -10.2284     23.0448     16.3517   8.5762036540e+01   7.0066194757e+01    0.3405063    0.2833841 -50.10  0.001837875    1.785    0.440
        15  -9.8181      6.7865      2.8801   8.8319756737e+01   7.3570915582e+01    0.2693847    0.2263458  15.54  0.001247537    1.551    0.355
        16 -10.3399     19.1988     10.8367   8.5184083678e+01   7.1281000306e+01    0.2607495    0.2015577  -4.99 0.0004588623    1.108    0.097
        17 -11.0576     12.6104      6.6121   8.6779474194e+01   7.2525045843e+01    0.3655205    0.3446784 -41.22    0.0027958    1.799    0.444
        18  -9.9839     10.7415     15.6292   9.2094360008e+01   7.1290247621e+01    0.3289522    0.1929411 -15.52  0.001237906    1.517    0.341
        19  -8.8471      8.2938     10.0354   9.0939965823e+01   7.2372360483e+01    0.2899225   0.09264705 -43.54   0.00113751    2.502    0.600
        20 -10.2053    185.8539     13.6064   3.9583620273e+01   3.6810922565e+01    0.2725185    0.2320776  86.12  0.001195268    1.049    0.046
        21 -11.3327    181.6851     13.0593   3.9930180344e+01   3.7881586559e+01    0.9299968    0.3417348  48.32   0.00359958    3.014    0.668
        22 -11.9438    122.3193     11.0513   4.8586830681e+01   5.2600278441e+01    0.6972352    0.3813663  58.73 0.0006888669    1.585    0.369
        23 -10.5149    127.0970      4.9461   4.5493745579e+01   5.1989411274e+01    0.3395334     0.245873  53.90 0.0004608869    1.177    0.151
        24  -9.8524    216.3629      7.7636   3.5062587118e+01   3.0214883707e+01     0.287728    0.2123231 -43.32  0.001408472    1.326    0.246
        25 -10.7191    210.8135     10.7076   3.6249903507e+01   3.1182737238e+01    0.4127224    0.2677824 -47.90  0.001213239    1.452    0.311
        26 -10.0737    212.5299      6.0344   3.4993474574e+01   3.1264539043e+01    0.3445759     0.205802 -37.72  0.001402698    1.645    0.392
        27  -9.3437     47.1783      9.6097   7.0797970496e+01   6.7899070277e+01    0.2881376    0.1874922   3.72  0.001242025    1.437    0.304
        28  -9.2740     92.8238     10.1440   5.5163388287e+01   5.9365528816e+01    0.3384403    0.1695325  55.98 0.0009105726    1.854    0.461
        29 -10.1009     25.3505      7.1965   8.0048286343e+01   7.1133061709e+01    0.2407031     0.159681 -25.36 0.0002058892    1.297    0.229
        30  -9.3254     24.0433      3.2287   7.8649810147e+01   7.1804787227e+01    0.3516143    0.1745154  27.67  0.002026348    1.911    0.477
        31  -8.9113    102.0006      8.0686   5.1953805381e+01   5.7548556464e+01    0.2036063    0.1708471  31.54 0.0006514348    1.052    0.049
        32 -10.2747     78.4001      6.6998   5.7844812908e+01   6.2670443445e+01     0.349295    0.2712077  33.61   0.00183522    1.082    0.076
        33  -8.5247     69.4951      7.4864   6.1107415573e+01   6.4318933693e+01    0.1298571    0.1020066  20.28 0.0008101584    1.042    0.040
        34  -9.3430      2.4148      5.8270   9.2435808097e+01   7.3462074072e+01    0.3046887    0.2257458 -47.06  0.002178826    1.620    0.383
        35  -9.9578    106.8604      2.6558   4.8687749555e+01   5.6905057660e+01    0.5451496    0.3503974 -47.58  0.002880976    2.051    0.512
        36  -9.3173    102.4998      1.5132   4.9209380070e+01   5.7979670872e+01    0.2360622    0.1541024  49.41 0.0006872987    1.272    0.214
        37 -10.6453     90.2462      3.2996   5.2954871722e+01   6.0521680644e+01    0.3386019    0.2863637  75.15  0.001288859    1.470    0.320
        38 -10.8851     84.5785      1.3715   5.3650727743e+01   6.1874635691e+01    0.2377219    0.1243501  56.29 0.0003477304    1.760    0.432
        39  -9.8720     38.5880      4.9159   7.2263603390e+01   6.9716921912e+01    0.3088053    0.1701836  34.78  0.001023152    1.710    0.415
        40  -9.8646     40.0689      1.3968   6.9709034862e+01   6.9900022400e+01    0.3173268    0.1400129  44.03   0.00103367    2.412    0.585
        41  -8.8429     30.4759      3.1633   7.5273627171e+01   7.1023567003e+01    0.2662899   0.09910171 -34.86  0.001292859    2.585    0.613
        42  -8.8193    170.6266      1.4455   3.8039176030e+01   4.1662715795e+01    0.2268353    0.1119546  50.52 0.0009188302    1.980    0.495
        43  -8.4736     69.0363      2.0454   5.8682587855e+01   6.4917795754e+01    0.1508572    0.1195435  24.32 0.0004248902    1.010    0.010
        44  -8.7014    185.6732      1.9289   3.6523360086e+01   3.7973390143e+01    0.1682885    0.1532644 -59.77 0.0004573978    1.151    0.131
        45  -8.6104    241.9871      1.5318   3.1755659462e+01   2.5254123902e+01    0.1673598    0.1016799  80.76 0.0004538141    1.521    0.343
        46  -8.1421    137.0120      1.2001   4.2531754031e+01   4.9898889788e+01    0.1739753   0.09066032  66.05 0.0003538386    1.652    0.395
        47  -8.8542     64.9926      1.4265   5.9755876411e+01   6.5731931128e+01    0.1861116    0.1056261  47.09  0.001023722    1.599    0.374
        48  -9.2016     57.6724      1.6543   6.2516266449e+01   6.7029275730e+01    0.3998301   0.07329876  45.16  0.001392009    4.101    0.756
        49 -10.9414     11.5689    114.6337   1.1635439272e+02   5.0202628651e+01    0.2687886    0.2377679 -29.89 0.0008624396    1.310    0.237
        50  -9.3624     38.5608    114.9715   1.0807158432e+02   4.7976738320e+01    0.2458995    0.1730576  51.19 0.0009544928    1.661    0.398
        51  -9.1263      2.2390    113.0840   1.1894619837e+02   5.1114774780e+01    0.3370023    0.1590822  86.65  0.001183931    2.429    0.588
        52  -9.3516     45.6777    112.9729   1.0544707982e+02   4.7746036653e+01    0.2483954     0.176538 -27.82  0.001310907    1.612    0.380
        53  -9.4369     62.8721    111.8150   9.9698877861e+01   4.6004673981e+01    0.2279346    0.1797923 -36.22 0.0005749695    1.268    0.211
        54  -9.4983     49.9478    111.6798   1.0382484495e+02   4.7597315404e+01     0.262132    0.1853271 -69.54 0.0007291634    1.368    0.269
        55  -9.3356     28.1196    110.1608   1.1055215520e+02   5.0078374994e+01     0.289216    0.1655026 -33.26  0.001133265    2.018    0.505
        56 -10.4788     20.9192    110.0485   1.1281657415e+02   5.0665315465e+01    0.3761263    0.2334465  43.69  0.002070714    1.901    0.474
        57  -9.0971    127.8938    109.7734   7.9556662899e+01   3.5220365962e+01     0.247026    0.2144508  10.80  0.001216515    1.250    0.200
        58 -10.8317      6.8044    107.7423   1.1689447990e+02   5.2130023356e+01    0.4046937    0.2963216  82.96  0.001277404    1.421    0.296
        59 -10.0636      9.8588    102.9287   1.1526165505e+02   5.3095193096e+01    0.4194297    0.2727135 -35.69  0.002239836    1.614    0.380
        60  -8.7991    100.2974    109.0317   8.7298067341e+01   4.0820758466e+01    0.2196688    0.1855161 -43.88 0.0006690394    1.131    0.116
        61  -8.0832     91.6656    108.6990   8.9848601637e+01   4.2419196827e+01    0.1550399    0.1154468 -15.32 0.0005307829    1.657    0.396
        62  -9.0229     35.1792    107.3164   1.0777465278e+02   5.0154354904e+01     0.271007    0.0816594 -61.74  0.001008093    2.645    0.622
        63  -8.8979    122.7916    107.0640   8.0228174927e+01   3.6882595809e+01    0.2147526    0.1236942 -45.79 0.0008617672    1.707    0.414
        64  -8.4348    118.6884    107.6961   8.1554619866e+01   3.7583054877e+01    0.1586287    0.1226043  -5.56 0.0005903425    1.613    0.380
        65  -9.3721     72.5756    105.1640   9.5026038383e+01   4.6270839577e+01    0.4616536    0.1506836 -50.97   0.00159457    2.680    0.627
        66  -8.5207     60.5750    106.9513   9.9366106183e+01   4.7475500592e+01    0.2068372   0.09625828 -39.43 0.0003862208    2.361    0.576
        67 -10.7474     79.9886    103.9761   9.2330499931e+01   4.5436168919e+01    0.4128614     0.375173  39.55  0.001452078    1.195    0.163
        68  -9.8981     17.1862    104.0726   1.1307451414e+02   5.2360764970e+01     0.348854    0.2351842 -28.65  0.001680703    1.672    0.402
        69  -9.7591    108.4111    103.2748   8.3326407629e+01   4.0611040105e+01    0.4056231    0.2507203  27.55 0.0007561774    1.894    0.472
        70  -9.0605     64.9468    103.9940   9.7245735008e+01   4.7613475925e+01    0.2161481     0.183998 -43.11  0.001202966    1.070    0.066
        71  -9.2329    134.4918    102.9990   7.5917040757e+01   3.5271709193e+01    0.2466797     0.153625 -41.47 0.0007032838    1.583    0.368
        72  -8.6176     56.4446    102.7966   9.9794341194e+01   4.8986183047e+01    0.1978178    0.1715166 -55.21 0.0005116335    1.056    0.053
        73 -10.1756     53.2696     99.2521   1.0005505198e+02   5.0210282192e+01    0.4758289    0.2396137 -54.15  0.002149783    1.706    0.414
        74 -10.0921     45.1916    101.9612   1.0339129930e+02   5.0462224381e+01    0.2737552    0.2329936  51.09 0.0005987802    1.378    0.274
        75  -8.8066    142.5478    102.5133   7.3686345447e+01   3.3591003770e+01    0.1566981    0.1527369 -17.86 0.0001983446    1.012    0.012
        76  -8.5079     94.6385    101.1868   8.6946063711e+01   4.3640212663e+01    0.2205305    0.1319459 -40.11 0.0006922603    1.640    0.390
        77  -8.9696    103.3262     95.6658   8.2721076338e+01   4.3279045395e+01    0.2302076    0.1855243 -89.52 0.0007014003    1.735    0.424
        78  -8.3407     29.5660     98.3267   1.0795670782e+02   5.2800914774e+01    0.2955619    0.1648642  59.75  0.001328096    2.746    0.636
        79 -10.1970     69.2280     96.4696   9.3955806969e+01   4.8795591190e+01    0.3621501    0.2326067 -54.25 0.0009971911    1.457    0.314
        80  -9.3601    107.7944     97.2755   8.1830230467e+01   4.2062671354e+01    0.2193128    0.1784292  -7.00  0.001058795    1.395    0.283
        81 -10.4820     15.6961     95.1300   1.1210129444e+02   5.4579307831e+01    0.6163184    0.2415354  41.17  0.002688764    3.258    0.693
        82  -9.6124    148.0791     96.2075   7.0521116096e+01   3.3624608155e+01    0.2414321    0.2114543  16.20 0.0003826745    1.222    0.182
        83  -9.5431     78.9844     94.8775   9.0268002667e+01   4.7702203495e+01    0.3637876    0.2526313 -37.22  0.001141725    1.389    0.280
        84  -9.8670     35.2673     95.1529   1.0535848624e+02   5.3057929378e+01    0.4499348    0.2186872 -37.36  0.001501503    2.170    0.539
        85  -8.9577    117.1552     94.1426   7.8175785168e+01   4.0853832625e+01    0.2690313    0.2080271 -49.93 0.0006032832    1.335    0.251
        86  -9.9099    132.6360     93.3518   7.3652151080e+01   3.7693722007e+01    0.3342676    0.2680987  19.81  0.001017524    1.389    0.280
        87  -8.6570      1.3816     94.0600   1.1674062026e+02   5.5623805861e+01    0.2291015   0.09635321 -74.04 0.0004789821    2.018    0.504
        88  -9.4581     89.3374     92.3092   8.6158361555e+01   4.6569785634e+01    0.3524663    0.2606055   3.38  0.001663526    1.669    0.401
        89  -9.9586     87.0222     89.0786   8.5982150851e+01   4.7683189235e+01    0.4551848    0.2849486 -65.37  0.001271635    2.230    0.552
        90 -10.5538    138.8800     90.2521   7.1108902243e+01   3.6917465543e+01    0.6039754    0.3337528 -23.85   0.00218499    2.484    0.597
        91 -11.9011    132.2746     86.3936   7.1684535295e+01   3.9175423284e+01     0.623973      0.36569  32.08 0.0005678002    2.010    0.502
        92 -10.9779    120.3792     87.9755   7.5424522691e+01   4.1462840406e+01     0.471462    0.3743466  51.08 0.0006438871    1.341    0.254
        93 -10.2726    124.4762     85.4979   7.3526786670e+01   4.1080426639e+01    0.3776727     0.274181 -26.92  0.001148807    1.459    0.314
        94  -9.9500    126.0862     91.5190   7.4887950559e+01   3.9507081438e+01    0.3009804    0.2655335  36.35  0.001531386    1.138    0.121
        95 -10.1031    109.3791     88.5005   7.8787027684e+01   4.3634746974e+01    0.5812616    0.2516574 -46.61  0.002107684    2.325    0.570
        96  -8.0977     73.6680     92.7330   9.1466645790e+01   4.9008299161e+01    0.1458954     0.106954 -16.25 0.0004449134    1.582    0.368
        97  -8.7972     52.0746     91.1025   9.8527864563e+01   5.2265095696e+01    0.2752076    0.1621851 -43.90  0.001337954    1.511    0.338
        98 -10.4324     35.2244     89.6474   1.0419169931e+02   5.4355718839e+01    0.5034146    0.2495025   7.20  0.002190532    2.891    0.654
        99  -9.3504     39.2364     85.2360   1.0172400772e+02   5.4999042431e+01    0.2273252    0.1669638 -18.07 0.0006754833    1.476    0.322
       100  -8.6573     56.7589     88.9767   9.6332260094e+01   5.2190826331e+01    0.1916542    0.1457027  51.44 0.0007993786    1.647    0.393
       101  -9.0543     47.8384     88.9405   9.9503606565e+01   5.3248004141e+01    0.2051605    0.1570381 -34.54 0.0002944854    1.222    0.182
       102  -8.5498     16.0409     87.4533   1.1061107595e+02   5.6352312774e+01    0.2608556    0.1398077 -83.69  0.001228237    2.319    0.569
       103  -8.6744      4.9945     87.4977   1.1451258204e+02   5.6969797022e+01    0.1655541   0.07756788 -31.62 0.0007313897    2.358    0.576
       104  -9.4994     28.2269     85.6809   1.0585483206e+02   5.5880540334e+01    0.2831628    0.1936086  33.24  0.001132011    1.733    0.423
       105  -9.6295    174.0640     84.8744   6.1446159964e+01   2.9651628298e+01    0.2602649    0.2188005 -37.68  0.001312535    1.171    0.146
       106 -10.8079    176.5925     81.5762   6.0013939608e+01   2.9630915977e+01     0.641596    0.3674826  19.95  0.002068532    3.717    0.731
       107 -11.3004    158.3660     83.8346   6.4525883666e+01   3.3595700722e+01     0.461883     0.321056  57.30  0.002088972    1.507    0.336
       108  -9.1507     81.9395     84.9283   8.6455380485e+01   4.9446845767e+01    0.2147647    0.1996796 -23.81 0.0003052793    1.027    0.026
       109  -9.4045     70.9079     83.3389   8.9783427875e+01   5.1527602788e+01    0.2834231    0.2376773 -34.51  0.001569255    1.078    0.072
       110 -10.0792     75.9719     83.0946   8.7949431711e+01   5.0807474544e+01    0.3027267    0.2753905 -62.55 0.0008621395    1.250    0.200
       111  -9.3420     80.0535     80.9555   8.5905479992e+01   5.0615180149e+01    0.2124061    0.1927835 -26.11  0.001191313    1.016    0.016
       112  -8.5690     45.8670     83.8447   9.8947211433e+01   5.4634071284e+01    0.1745504    0.1529386 -70.56 0.0003856261    1.270    0.213
       113  -9.1506     33.5428     83.9639   1.0351917986e+02   5.5823852558e+01    0.2175678    0.1806799  54.18 0.0007673969    1.524    0.344
       114  -8.8787     17.0281     82.1642   1.0923043565e+02   5.7509079261e+01    0.2944698    0.1582823 -84.19   0.00135622    2.521    0.603
       115 -10.2712      6.3025     80.6994   1.1288751342e+02   5.8463834855e+01    0.4167586    0.1898523 -40.68  0.001383074    1.967    0.492
       116  -8.7285      2.0051     73.2133   1.1312554527e+02   6.0358042221e+01    0.1764873     0.148586  23.14 0.0007333342    1.502    0.334
       117 -10.1597    144.0462     81.2902   6.7140887788e+01   3.7456287991e+01    0.3104739    0.2465443 -68.31  0.001288708    1.571    0.364
       118 -10.1798    108.7706     80.4404   7.6494577714e+01   4.5416073093e+01    0.3225665    0.2489108  15.98 0.0008052137    1.451    0.311
       119 -11.4699    104.7095     78.5043   7.7117339515e+01   4.6624696448e+01     0.868426    0.5357816  -8.47  0.003253506    2.722    0.633
       120  -9.7019    101.4950     68.0401   7.4696951313e+01   4.9301468162e+01    0.4149508    0.2376713 -59.51  0.001226999    2.906    0.656
       121 -10.0536     98.4503     76.0577   7.8289849368e+01   4.8343737350e+01    0.3730462    0.3058479  81.45  0.001174642    1.769    0.435
       122 -10.9798     97.4801     69.5967   7.6484394021e+01   4.9798489639e+01    0.5003333    0.3269736 -45.60  0.001447773    1.585    0.369
       123  -9.9684     55.0807     80.2234   9.4590450377e+01   5.4378265914e+01    0.3679778    0.2725242  -7.99  0.001974354    1.506    0.336
       124  -9.4580     37.5928     79.5594   1.0094731230e+02   5.6452482749e+01    0.4624695    0.3320916  70.53   0.00240743    2.147    0.534
       125 -10.8302    154.4241     79.5318   6.4158185261e+01   3.5323662211e+01     0.459932    0.2656956  39.15  0.001870769    1.882    0.469
       126  -8.5897     22.4211     80.4902   1.0687798162e+02   5.7520277389e+01    0.1312434    0.1020625 -48.19 0.0001012441    1.045    0.043
       127  -8.5564    130.2775     79.0110   6.9957638009e+01   4.1057716754e+01    0.2127677    0.1984193 -27.01 0.0003838792    1.065    0.061
       128  -8.7517    121.6736     78.2648   7.2067926645e+01   4.3114653654e+01    0.1467056     0.123621  88.01 0.0001856237    1.567    0.362
       129  -8.9284     48.8322     77.0249   9.6031927501e+01   5.5834198297e+01    0.3141759    0.1869078 -35.61  0.001554035    1.592    0.372
       130 -10.4508     45.7078     73.0745   9.6118436993e+01   5.7054050124e+01     0.313908    0.2042569 -47.70 0.0003307046    1.321    0.243
       131  -9.1838     57.6623     72.0047   9.1237122597e+01   5.5837283970e+01    0.3895183    0.1696769 -33.03  0.001470259    2.765    0.638
       132  -9.2447     54.0264     74.7254   9.3418443698e+01   5.5717020608e+01    0.4858702    0.2201987 -26.17  0.001648065    3.772    0.735
       133  -8.3222     28.3542     78.2422   1.0413032394e+02   5.7572373667e+01    0.1308823   0.08275734 -29.74 0.0002067995    1.585    0.369
       134 -11.4335     76.9843     75.0829   8.5153149969e+01   5.2355796346e+01    0.7442454    0.3455241  27.67  0.002027156    2.601    0.615
       135 -12.0922    152.8831     72.8340   6.2504160978e+01   3.6884753976e+01    0.6813105    0.5521219  26.76  0.003322614    1.348    0.258
       136 -10.7259    175.4477     73.3002   5.7910384137e+01   3.1329254160e+01    0.6172095    0.3277737  29.78  0.002112699    3.188    0.686
       137 -10.1675    130.1134     75.1996   6.8808973974e+01   4.1810770467e+01    0.3996626    0.1878827  39.49  0.001229684    2.287    0.563
       138  -9.2350      4.6612     75.9605   1.1263184759e+02   5.9618668802e+01    0.1887265     0.148291 -54.63 0.0004210771    1.019    0.019
       139 -11.5803    152.4802     66.0607   6.0532146224e+01   3.8135674311e+01    0.4993437    0.4511999 -61.77   0.00265776    1.196    0.164
       140 -11.9341    137.4237     69.9437   6.5275606288e+01   4.1071415716e+01    0.7295841    0.4105009  42.11 0.0006875096    1.796    0.443
       141  -8.7051     31.0237     72.7058   1.0174117278e+02   5.8586450373e+01    0.1730476    0.1493859 -18.95   0.00063703    1.162    0.140
       142  -8.2847     92.9869     72.7803   7.8986945413e+01   5.0033572504e+01    0.1850654    0.1188547  38.24 0.0005285994    1.587    0.370
       143  -8.9005    184.0888     70.8730   5.5610758558e+01   2.9635393149e+01    0.2220015    0.1902825 -68.53 0.0004404739    1.239    0.193
       144 -10.2390     64.4242     70.6386   8.8282743118e+01   5.5197124027e+01    0.3614407     0.244878  38.04  0.001366101    1.639    0.390
       145 -10.1723     60.1068     65.9679   8.8415696888e+01   5.6767793009e+01    0.4506627    0.2670971 -17.87   0.00145859    2.154    0.536
       146  -8.2999     39.1731     71.3324   9.8175536275e+01   5.8124776581e+01    0.1593434    0.1180994  31.80 0.0002434585    1.567    0.362
       147  -9.6170     17.6571     70.1121   1.0638850208e+02   6.0185372554e+01    0.3330544    0.1512554 -50.20  0.001101778    1.671    0.401
       148  -8.8767     51.8022     69.7525   9.2792466956e+01   5.7058911112e+01    0.1973074    0.1593705 -27.98 0.0004877716    1.096    0.088
       149 -10.9799    163.9633     67.6783   5.8574298258e+01   3.5067079292e+01    0.4101016    0.2914997 -84.51  0.001796998    1.968    0.492
       150  -9.8911    120.7554     68.1479   6.9069329728e+01   4.5203198152e+01    0.4271623    0.2956165  14.29  0.001232296    1.872    0.466
       151  -9.4709     89.1077     66.6172   7.8217984534e+01   5.1954484386e+01    0.4077118    0.2921016  51.09  0.001380646    1.651    0.394
       152  -8.9582     94.0013     64.0000   7.5709551829e+01   5.1527254914e+01    0.4246303    0.2114756  46.55  0.001746426    2.141    0.533
       153  -8.4161    194.2170     67.6138   5.2967507681e+01   2.7720021814e+01    0.2017098    0.1306489  48.63 0.0006417561    1.613    0.380
       154 -10.6059    109.9785     63.7763   7.0683324592e+01   4.8328745896e+01     0.476367    0.4200186 -74.66  0.002358735    1.463    0.316
       155  -8.8185     70.9427     66.6041   8.4575068382e+01   5.5047563814e+01    0.1915635    0.1697914  10.81 0.0005631474    1.126    0.112
       156  -8.3787     49.4823     65.5367   9.2406671357e+01   5.8226806219e+01    0.1365249    0.1150981 -28.25  6.84777e-05    1.008    0.008
       157 -10.5684     43.3673     63.0891   9.4093222031e+01   5.9440587927e+01    0.4021795     0.367301  -0.17  0.002597917    1.181    0.153
       158  -9.5682     32.7007     64.1684   9.8763670432e+01   6.0291413701e+01    0.2777609    0.2316506  -7.02  0.001113767    1.221    0.181
       159  -8.6472      8.4536     65.4920   1.0903093227e+02   6.1752892801e+01    0.1251847    0.0944083 -47.95 0.0002311772    1.026    0.025
       160 -10.8747      4.4062     59.5029   1.0935490496e+02   6.3255057083e+01    0.6180902    0.2508037 -55.88  0.001567257    1.764    0.433
       161 -12.0241      7.8259     56.8057   1.0726765186e+02   6.3657466887e+01    0.2448288    0.1962736 -40.48 0.0002558132    1.062    0.058
       162  -8.4779    127.3091     64.0391   6.5953461009e+01   4.4445270916e+01    0.2095457    0.1985493 -18.72 0.0006478327    1.064    0.061
       163 -11.0957    172.9191     61.7328   5.5079606382e+01   3.3823362941e+01    0.4454971    0.3268826  10.81  0.002001469    1.859    0.462
       164 -10.5368    171.0167     59.0000   5.4641625283e+01   3.4714923196e+01    0.3400469    0.2028081  61.95 0.0008815599    1.693    0.409
       165 -10.2778    146.7096     62.7218   6.0789435986e+01   4.0084338947e+01    0.3213284    0.2517589  69.49  0.001060477    1.416    0.294
       166 -10.3557     69.3503     62.2214   8.3685255617e+01   5.6161230662e+01    0.5653935     0.292352  37.12   0.00255409    2.030    0.507
       167  -9.8124     69.5709     55.6136   8.1284623397e+01   5.7382896636e+01    0.4213271    0.2893141 -20.58  0.002174168    1.468    0.319
       168  -8.9490    219.4604     61.6578   4.7659261971e+01   2.2738278144e+01    0.2302745    0.1278294  63.21  0.001067622    1.882    0.469
       169  -9.3338    121.1959     60.4697   6.6392839888e+01   4.6442743548e+01    0.3163611    0.2257208  15.10 0.0007705967    1.707    0.414
       170  -9.0629     89.0725     60.4539   7.6101515366e+01   5.3114236043e+01    0.3411229    0.1749295  46.29  0.001440571    2.102    0.524
       171  -8.5441     97.5532     61.2176   7.3603228569e+01   5.1341512356e+01    0.1970278    0.1342053 -23.30 0.0003576012    1.542    0.351
       172 -10.4892     94.8476     56.9219   7.2952281065e+01   5.2636264093e+01    0.6045793    0.4204961  16.50  0.002912804    1.635    0.388
       173  -8.1319     76.5021     61.5616   8.0848297802e+01   5.5135266015e+01    0.1422337    0.1261531  -9.87 0.0002036026    1.008    0.008
       174 -10.4312     59.3542     57.7534   8.5955035390e+01   5.8508309238e+01    0.4078901     0.358661 -49.00  0.002455162    1.316    0.240
       175  -9.0380     50.8490     59.5114   8.9927006511e+01   5.9291126434e+01     0.185883    0.1556814 -25.73 0.0004864605    1.010    0.010
       176 -11.6278    149.7401     57.1109   5.8354850982e+01   4.0242794249e+01    0.7010163     0.440196  79.24  0.002853258    2.312    0.567
       177  -8.9562    214.2903     57.6307   4.7360184419e+01   2.4509535250e+01    0.2285504     0.147477 -65.51 0.0006684986    1.759    0.432
       178  -9.3809    212.4240     49.5057   4.5576681457e+01   2.6096648597e+01    0.3852719     0.184653  67.70  0.001669341    2.179    0.541
       179 -10.5316    199.9868     56.3174   4.9056952149e+01   2.8057198859e+01     0.617686    0.4063064   7.19  0.002617835    2.633    0.620
       180  -9.1462    200.8112     48.9565   4.7007237035e+01   2.8910772567e+01    0.3979628    0.2546419 -57.13  0.001170542    1.648    0.393
       181 -10.1088    206.2005     53.4587   4.7417653835e+01   2.6996621774e+01    0.4371718    0.3016424 -48.92  0.001429514    1.393    0.282
       182  -9.5757    207.5914     49.7906   4.6288350354e+01   2.7186919410e+01    0.2728985    0.1858244 -61.86 0.0006624865    1.540    0.351
       183  -9.5933    159.6253     57.0020   5.6255865803e+01   3.7832389747e+01    0.3410409    0.2562608  23.66 0.0008513934    1.597    0.374
       184 -10.8824    162.6124     52.5840   5.4330562558e+01   3.7757271827e+01    0.5327098    0.3285145 -44.43  0.002425536    1.695    0.410
       185  -9.3866     34.5900     57.7001   9.6055170782e+01   6.1465430828e+01    0.2240313    0.1740422 -60.62 0.0005056264    1.452    0.312
       186  -9.0611    185.1025     56.9468   5.1571283247e+01   3.1562793210e+01    0.3534558    0.1956818  51.60  0.001551126    1.800    0.444
       187  -9.7733    112.0479     56.0187   6.7408885010e+01   4.9215223481e+01    0.3640691      0.24184  27.44 0.0008892977    1.653    0.395
       188  -9.0960    105.4465     56.3475   6.9455128866e+01   5.0575081718e+01    0.2914004    0.2084205  32.18  0.001077308    1.387    0.279
       189  -8.6816    224.1703     56.3806   4.5762839320e+01   2.2446121086e+01    0.1878234    0.1244782  83.37  0.000942505    1.711    0.415
       190 -10.1752     80.8313     53.3686   7.6379366963e+01   5.5888088202e+01    0.6093002    0.3255841 -19.81  0.002445035    2.538    0.606
       191  -9.8983     84.7616     47.8015   7.2939768986e+01   5.6117132113e+01    0.3636238    0.2817187  -5.70  0.001136786    1.287    0.223
       192  -8.5439     25.9708     55.8726   9.9181338174e+01   6.2619276340e+01    0.2449715    0.1954538  89.07  0.001343117    1.916    0.478
       193  -9.3804     22.0753     56.0793   1.0092483833e+02   6.2887416653e+01    0.2580859     0.136423 -45.43 0.0003197958    1.484    0.326
       194 -11.5137    173.9333     51.9258   5.2056810796e+01   3.5048862207e+01    0.8958907    0.2266057 -32.70  0.002711443    3.882    0.742
       195  -9.2034    170.0946     48.1098   5.1619041920e+01   3.6544829533e+01    0.2540496    0.1993025  58.43 0.0004028686    1.223    0.182
       196 -11.1266    167.4651     43.0843   5.0594806089e+01   3.7890122655e+01    0.4643575    0.4368717   9.89  0.002386372    1.166    0.142
       197  -9.6824    125.2627     55.1923   6.3530675286e+01   4.6380430497e+01    0.5050902    0.1775327  48.90  0.001360318    2.665    0.625
       198  -9.8925    126.5227     50.3479   6.1558841864e+01   4.6841389218e+01     0.312507    0.2618985  22.07 0.0002140908    1.211    0.174
       199  -9.4101    121.9575     48.9787   6.2251238091e+01   4.8105830026e+01    0.3129577    0.2475769 -83.88  0.001536278    1.785    0.440
       200  -8.9039     86.0422     54.3584   7.4940631445e+01   5.4766981173e+01    0.2024123    0.1751098  30.37  0.001141219    1.166    0.143
       201  -9.9705    136.2790     51.9085   5.9714497955e+01   4.4298616271e+01    0.3531188    0.3204273 -24.85  0.001948202    1.138    0.121
       202  -9.9786    116.0234     50.9686   6.4526693037e+01   4.9147810849e+01    0.5633232    0.3519353  77.08  0.002149256    3.023    0.669
       203 -11.1295    106.2956     50.5625   6.7137567729e+01   5.1342656893e+01    0.5545676    0.3483329  64.56  0.002400937    2.231    0.552
       204 -10.0117     44.0369     52.4516   9.0343534896e+01   6.1505778503e+01    0.2710568     0.214506  22.19 0.0007255384    1.362    0.266
       205  -8.8945     29.2912     52.6914   9.6763496593e+01   6.2980546060e+01    0.1702473    0.1145922 -29.31 0.0004935013    1.290    0.225
       206  -9.4427    183.1310     52.1643   5.0564110303e+01   3.2746221154e+01      0.20506    0.1819504  70.14 0.0004334484    1.099    0.090
       207  -9.8329    149.3620     50.3392   5.6298860418e+01   4.1356952389e+01    0.3637126    0.2306822 -55.39  0.001347404    1.955    0.489
       208 -10.8711    153.1767     46.0196   5.4155413703e+01   4.1035077867e+01    0.6100612     0.281525  53.60  0.000455525    1.995    0.499
       209  -9.4038    150.7183     41.1823   5.3114821386e+01   4.2303920574e+01     0.329187    0.1977074  68.79  0.001468832    1.785    0.440
       210  -8.9595    148.9193     37.7012   5.2357168992e+01   4.3205069846e+01    0.2102086    0.2029263  79.50 0.0004296944    1.065    0.061
       211  -9.8167     95.4502     48.1044   6.9541276588e+01   5.3989207025e+01    0.5550743    0.3095757 -19.69  0.002132536    2.173    0.540
       212  -8.5327     73.1419     50.1507   7.7950333710e+01   5.7782365626e+01     0.168433    0.1638784  21.81 0.0004869323    1.277    0.217
       213  -8.6934     55.4702     50.0149   8.4742502620e+01   6.0512867265e+01    0.2228462    0.1445209 -22.24 0.0006563548    1.520    0.342
       214 -10.4870     59.3948     47.4506   8.2208386536e+01   6.0419971938e+01    0.3765768     0.269095 -11.31  0.001360587    1.387    0.279
       215  -8.9568     42.6097     45.7508   8.8571334919e+01   6.2945584581e+01    0.3146065    0.1081597 -45.36  0.001056512    2.539    0.606
       216  -9.8532     49.2245     49.5522   8.7142574603e+01   6.1427262889e+01    0.2574716    0.1817614 -16.25 0.0004790956    1.359    0.264
       217 -10.1020     45.9337     47.1559   8.7657614845e+01   6.2285468711e+01    0.2185815    0.1927032   9.90 0.0002685679    1.216    0.178
       218  -8.7621    233.4997     48.9775   4.2908646835e+01   2.1421346684e+01    0.2042648    0.1169128 -37.92  0.001029108    1.588    0.370
       219  -9.2997     25.4557     48.2438   9.7041366241e+01   6.4205170576e+01    0.2545938    0.1818257   0.13 0.0009651204    1.434    0.303
       220 -10.4581      5.8567     48.2172   1.0593135277e+02   6.5551766091e+01    0.2219331    0.1503359 -35.66 0.0002860829    1.190    0.160
       221  -9.2517     34.4368     46.6364   9.2478726745e+01   6.3676436695e+01    0.2469014    0.1844241 -56.29  0.001139081    1.554    0.356
       222 -10.1329    186.8713     48.2736   4.8886225091e+01   3.2380334332e+01    0.4110164    0.2666476 -18.29  0.001920015    1.892    0.472
       223  -9.1945    180.8418     46.1260   4.9239178985e+01   3.4159645286e+01     0.197147    0.1642957  35.63 0.0004845438    1.339    0.253
       224 -10.7078    142.7716     43.8424   5.5603998153e+01   4.3895620184e+01    0.5054606    0.3874031  18.73  0.001503233    1.506    0.336
       225  -9.3826     69.3657     43.9065   7.6967467725e+01   5.9476478246e+01    0.4328528    0.2388085 -10.77  0.001191842    2.752    0.637
       226 -10.2139    109.0667     43.9112   6.3921033913e+01   5.1759958599e+01    0.4048982    0.2813007  54.32 0.0008026058    1.490    0.329
       227  -9.1321     20.0604     43.8417   9.8075864192e+01   6.5510069716e+01    0.2436851    0.2032965  76.61  0.001536657    1.983    0.496
       228  -8.7999      1.3608     44.8970   1.0710559391e+02   6.6448627930e+01    0.1667919   0.08766675 -56.72 0.0003166639    1.495    0.331
       229  -9.0328     76.0480     43.9981   7.4536010957e+01   5.8321073828e+01    0.2084227    0.1746316   3.67 0.0003155773    1.071    0.066
       230 -10.0969     69.7460     36.8023   7.3981676681e+01   6.0551397444e+01    0.5847318    0.2347284  42.96  0.002441712    2.540    0.606
       231  -9.0507     54.0000     43.9307   8.3056941649e+01   6.1813123404e+01    0.4373682    0.1594474 -45.47  0.001679605    2.730    0.634
       232  -9.3097     56.5318     41.5464   8.1085963610e+01   6.1866543841e+01     0.333497    0.2039415  -1.55  0.001211535    2.027    0.507
       233 -10.1283     63.5579     40.7460   7.7953030309e+01   6.0937437021e+01    0.3224273    0.2523095  32.12  0.001349029    1.330    0.248
       234  -9.2171     62.7993     36.3009   7.6448498656e+01   6.1773667394e+01    0.3281927    0.2193736  23.86 0.0007207168    1.450    0.310
       235 -10.0433     17.0693     50.6114   1.0154214450e+02   6.4379420404e+01    0.3591457    0.2623346  -6.04  0.001964909    1.403    0.287
       236  -8.9308      8.7349     43.1269   1.0315979343e+02   6.6421212290e+01    0.2259459    0.1250215  11.87   0.00131372    2.015    0.504
       237  -9.0549    213.3224     41.3028   4.3422358829e+01   2.6996935358e+01    0.2088109   0.09929766  44.89 0.0007766794    2.741    0.635
       238  -8.4889    118.0198     42.0254   6.0817357664e+01   5.0023919529e+01    0.1737881    0.1590887  27.07 0.0009852881    1.001    0.001
       239  -8.8660     99.4277     41.7443   6.5921318506e+01   5.4147194204e+01    0.2535593    0.2159966 -82.96  0.000932776    1.707    0.414
       240  -9.9691     36.3230     39.6570   8.9085593903e+01   6.4775026085e+01    0.3955258    0.1986889 -44.60  0.001447842    1.772    0.436
       241 -10.5632     33.3189     35.5188   8.8870175844e+01   6.5838142291e+01    0.4246168    0.1968112 -32.24  0.001068796    1.988    0.497
       242  -9.2822     27.7865     41.3842   9.3642957452e+01   6.5321754493e+01    0.2497677    0.1426519 -22.31 0.0003580604    1.726    0.421
       243  -9.2124    204.1409     40.2464   4.4303718770e+01   2.9292464115e+01    0.3143243    0.1052316 -48.90  0.001079974    3.336    0.700
       244  -8.7514    197.4796     40.9937   4.5379408406e+01   3.0788080974e+01    0.2163713     0.173706  73.60 0.0006759702    1.203    0.169
       245 -10.1052    106.9627     35.0005   6.1190385941e+01   5.3469994159e+01    0.2379716    0.1817991  39.85  0.001283583    1.197    0.165
       246  -9.8721    112.4780     39.3501   6.1309856807e+01   5.1653340766e+01    0.2921252    0.2747021 -30.51  0.001364346    1.176    0.150
       247  -8.5000    110.3350     36.2918   6.0755514488e+01   5.2549460262e+01     0.194475    0.1803439   0.02  0.000248853    1.087    0.080
       248  -8.2491     40.7440     39.2195   8.6927560036e+01   6.4349553386e+01    0.1003096   0.09638367   5.97 0.0006630361    1.386    0.278
       249  -8.6360      2.7858     39.1691   1.0482907913e+02   6.7526587085e+01    0.2542183   0.08454738   9.01  0.001130188    3.656    0.727
       250  -9.0556    181.8155     37.9133   4.6780197256e+01   3.5010300655e+01    0.1969069    0.1504958 -59.10 0.0005749148    1.356    0.263
       251  -9.7166    161.6537     36.9750   4.9773565653e+01   4.0136885090e+01    0.3737122     0.242168 -31.36  0.001152945    1.623    0.384
       252  -8.3399    157.6550     38.6665   5.1008152005e+01   4.0914726986e+01    0.1531284    0.1034077  30.69 0.0007049885    1.764    0.433
       253  -8.9401    132.0035     37.7505   5.5928709872e+01   4.7323573176e+01    0.2166023    0.1935344 -86.27 0.0006597106    1.296    0.229
       254  -9.8329    127.6123     36.6081   5.6539493786e+01   4.8520412589e+01    0.3223301    0.2748024  51.60 0.0009421029    1.109    0.098
       255  -9.0488    106.8592    246.8548   1.0917952741e+02   9.4989391370e+00    0.2119295    0.1663891 -46.23  0.001292947    1.620    0.383
       256 -11.5119     79.2216     32.1347   6.8639602133e+01   5.9541873359e+01    0.5124656     0.435012 -69.83  0.002896749    1.874    0.466
       257  -8.5884     86.3530     33.8184   6.6928933737e+01   5.7937763442e+01      0.19453    0.1620368  -7.92  0.001004878    1.136    0.120
       258  -9.6513     48.1977     36.5990   8.2609445717e+01   6.3863616480e+01    0.2605089    0.2042533 -67.63  0.001426542    2.284    0.562
       259  -9.1282    249.3478     36.6912   3.8569619802e+01   1.9680134032e+01    0.2285854    0.1203976 -53.23  0.001186624    1.701    0.412
       260  -8.2313     27.6171     37.2433   9.2210305754e+01   6.6104566580e+01     0.106033   0.09421458  43.25 0.0006936258    1.645    0.392
       261  -9.1625    215.4894     34.5020   4.1499760530e+01   2.7369572654e+01    0.3965485    0.1991633 -59.71  0.001356675    2.249    0.555
       262  -9.7677    192.4433     34.0866   4.4227826304e+01   3.2890247110e+01    0.4211302     0.240104  48.59  0.001983446    1.879    0.468
       263 -10.9887    236.1210     30.9014   3.8528074565e+01   2.3200331932e+01    0.5275251    0.3972138 -67.90  0.003244248    1.196    0.164
       264  -9.7451    237.4755     26.4906   3.7424941859e+01   2.3444132751e+01    0.2603073    0.1681268 -52.91 0.0006303385    1.359    0.264
       265 -10.1394    239.2826     22.2497   3.6339168396e+01   2.3558676191e+01     0.305702    0.2686765  81.65  0.001039552    1.199    0.166
       266  -9.8190    114.6120     32.1420   5.8095404915e+01   5.2121705513e+01    0.2545699    0.2299728  51.05 0.0003020542    1.125    0.111
       267 -10.0789    110.5918     29.1573   5.8011767758e+01   5.3404128696e+01    0.3351576    0.2670324  49.32 0.0009498557    1.180    0.153
       268  -8.4387    143.6021     31.7424   5.1466631741e+01   4.5259310573e+01    0.1927215    0.1283315 -39.91 0.0009459881    1.617    0.382
       269  -8.1483     53.3285     32.2769   7.8625054500e+01   6.3849345432e+01    0.1326194   0.08723888  -0.42 0.0006993022    1.594    0.373
       270  -8.7847    221.2614     30.9970   4.0030123057e+01   2.6483658910e+01    0.1733873    0.1506861 -62.05 0.0002438147    1.047    0.045
       271  -8.8369    150.8575     30.9494   4.9833724270e+01   4.3563315319e+01    0.2345583    0.1531304  20.55  0.001074337    2.032    0.508
       272 -10.1620     43.0037     29.3923   8.1894720268e+01   6.5724180377e+01    0.2812842    0.1732214 -32.45 8.808385e-05    1.439    0.305
       273  -9.0675    229.4053     28.6549   3.8663772055e+01   2.4944402502e+01     0.413434     0.129747 -40.22  0.001699045    2.645    0.622
       274  -9.3831    226.8447     22.9686   3.7609971603e+01   2.6188666486e+01    0.2787238    0.1681242  86.08 0.0008540087    1.663    0.399
       275  -8.9825    125.7113     29.8204   5.4587758728e+01   4.9819459223e+01    0.3925133    0.1709782  40.10  0.001528995    2.430    0.589
       276  -8.1365     65.4140     30.1482   7.2843464018e+01   6.2276716881e+01    0.1766172    0.1163434 -40.90  0.000938785    1.730    0.422
       277  -9.5379    216.3249     27.8047   3.9789690045e+01   2.7998564616e+01    0.4018949    0.2260034  57.17  0.001968962    1.825    0.452
       278  -8.8523    201.2080     29.3963   4.1889233877e+01   3.1351967565e+01    0.1851784    0.1187978  85.94 0.0002948425    1.616    0.381
       279 -10.2927    182.1188     27.2439   4.3765890299e+01   3.6239075458e+01    0.4941009    0.2951162  33.53  0.001690904    2.279    0.561
       280  -9.9494    178.8069     23.1043   4.3066243904e+01   3.7525321244e+01    0.2969788    0.2652656  49.45 0.0008528871    1.179    0.152
       281  -8.0599    158.4631     29.4201   4.8013293133e+01   4.1855107290e+01    0.1398526    0.1263085  56.84  0.000447697    1.045    0.043
       282 -10.1532     15.7580     28.3542   9.4667149244e+01   6.8733163424e+01    0.3935479    0.1895115 -27.12  0.001654856    1.931    0.482
       283  -9.4082     14.7882     23.9205   9.3414545454e+01   6.9584285330e+01    0.3414957    0.1119436 -41.08  0.001136253    2.346    0.574
       284  -9.6845    206.5085     26.2655   4.0482633764e+01   3.0466829650e+01    0.2723505    0.2357156 -13.69  0.001086959    1.409    0.290
       285  -8.6927    154.9723     27.2678   4.7943112424e+01   4.2972519563e+01    0.1964356    0.1626808  59.87  0.000303489    1.105    0.095
       286 -10.0526     47.6381     28.3161   7.9367574147e+01   6.5272754987e+01    0.2683016    0.2425297  -8.79  0.001232709    1.267    0.211
       287 -12.3831     75.8770    219.0236   1.1252214892e+02   1.9149912570e+01    0.9648036    0.6269751  52.70  0.004822178    1.349    0.259
       288 -10.1697     69.4574    217.5069   1.1371052508e+02   2.0321876697e+01    0.2437166    0.1776592  85.36 0.0007315181    1.338    0.253
       289  -9.7484     91.0923    214.7735   1.0881165320e+02   1.7867078708e+01    0.2889621    0.1962824  32.83 0.0009808616    1.493    0.330
       290  -8.5292    197.5367     26.0449   4.1467624485e+01   3.2627237096e+01    0.1854751    0.1268362 -35.56 0.0003886702    1.489    0.328
       291 -10.0556    120.9948     25.9063   5.4262905848e+01   5.1390615833e+01    0.4049075    0.2152639  53.89  0.001121859    1.675    0.403
       292  -9.1314     56.7403     25.1183   7.4090761704e+01   6.4401832946e+01    0.3908805    0.1718313  21.62  0.001479296    3.480    0.713
       293  -9.2668     22.6069     24.8633   8.9758716021e+01   6.8744245580e+01    0.3330356   0.08377469 -43.51  0.001165127    3.155    0.683
       294  -8.0812     95.3169     24.3028   6.0302429307e+01   5.7330940728e+01    0.1429486   0.09202566  23.22  0.000702423    1.622    0.383
       295  -9.0734     98.8045     23.5427   5.9002878255e+01   5.6674275357e+01    0.2392018    0.2010854  -2.04 0.0009726617    1.179    0.152
       296  -8.5808    132.5193    210.6985   9.9192560265e+01   1.2165884594e+01    0.1667819    0.1339159 -73.44 0.0005872866    1.500    0.333
       297 -10.0086    164.3668     22.0214   4.4825156036e+01   4.1220788619e+01    0.3089763    0.2315235  43.44 0.0007318077    1.375    0.273
       298  -9.5458      1.3867    185.1479   1.2529590791e+02   3.4526944476e+01    0.3236825     0.086331 -76.54  0.001354593    2.989    0.665
       299  -9.0967      8.3880     22.3560   9.6198866532e+01   7.0329898555e+01    0.3138698    0.1739458   3.37  0.001647799    1.860    0.462
       300  -9.7687      1.7512     21.7894   9.9593890516e+01   7.0844379043e+01    0.2285633    0.1432104 -44.26 0.0007217333    1.266    0.210
       301  -9.4611    217.7634     22.0189   3.8264191607e+01   2.8347372253e+01    0.2647842    0.1679132  62.01 0.0004660375    1.574    0.365
       302 -10.3691    142.0676     21.1955   4.8286293794e+01   4.6830968169e+01    0.3101948    0.2768312 -46.35 0.0004744936    1.237    0.191
       303  -9.7273     13.1639    174.1287   1.2200009448e+02   3.6030786577e+01    0.1773363    0.1446983 -66.48 0.0007002137    1.274    0.215
       304  -8.9118    222.5974     20.1618   3.7363906652e+01   2.7462991802e+01    0.2367335    0.1422134  55.56 0.0008632641    1.804    0.446
       305 -10.1278      6.3528    168.5724   1.2310234990e+02   3.7839283926e+01    0.3851017    0.1140548  46.96  0.001687645    3.184    0.686
       306 -10.1635      7.2755    163.7032   1.2251709715e+02   3.8883313999e+01    0.1939604    0.1633773  12.72 0.0008509521    1.609    0.379
       307  -8.9635     23.3216    162.6287   1.1862670351e+02   3.7815742284e+01    0.1951398    0.1187325  69.34 0.0007214489    1.647    0.393
       308  -8.8323    130.8515     19.8351   4.9979106301e+01   4.9704530593e+01    0.2181915    0.1647473  42.47 0.0008620328    1.224    0.183
       309 -10.1735     19.6832    159.6628   1.1922212666e+02   3.8830377887e+01    0.2912554    0.1613348   2.47   0.00138678    3.194    0.687
       310  -8.6849     69.5011     20.0935   6.6900298491e+01   6.2914345346e+01    0.1848515    0.1180048 -20.63  0.000619531    1.531    0.347
       311  -8.7007     26.0131    157.5818   1.1745398512e+02   3.8768500221e+01    0.1644614    0.1208277  35.20  0.000445845    1.531    0.347
       312  -9.1978     43.4757     15.5215   7.5354240830e+01   6.7695468917e+01    0.2136267    0.1534644 -10.32 0.0007788597    1.178    0.151
       313  -9.2377    119.0115     18.8997   5.2153697393e+01   5.2618291228e+01    0.2114491    0.1829283  43.69 0.0007777478    1.020    0.019
       314 -11.0279      3.1625    152.6858   1.2259906618e+02   4.1725775651e+01    0.4012925    0.2595024 -56.26   0.00248962    1.525    0.344
       315  -9.9096     21.4210    152.7157   1.1809720613e+02   4.0328697705e+01    0.2589601    0.1070244 -77.95  0.001062137    2.186    0.543
       316 -10.3430     10.5221    151.9803   1.2074554115e+02   4.1367497556e+01    0.2107394    0.1674974 -26.27  0.001371963    1.685    0.406
       317  -8.4375     25.2411    148.6341   1.1667649172e+02   4.0977720062e+01    0.1305842   0.08289069  78.81 0.0003124374    1.606    0.377
       318  -9.8938     11.8769    145.2283   1.1976374002e+02   4.2862934423e+01    0.2157151     0.154423 -66.66 0.0002036026    1.200    0.167
       319  -9.7124    247.7872    144.3835   6.2628244143e+01   3.5515508426e+00    0.1810744    0.1215151  29.27 0.0009495604    1.680    0.405
       320 -10.3353     36.7182    141.1992   1.1268128455e+02   4.1722501405e+01    0.3421989    0.2084274 -45.85  0.001388104    1.725    0.420
       321  -9.8821     21.8908    141.9293   1.1679461681e+02   4.2875915332e+01    0.2060547    0.1740984  48.66 0.0003903355    1.315    0.239
       322 -10.2417     16.3639    142.1178   1.1827914762e+02   4.3268704210e+01     0.253361    0.1388127  49.67  0.001349129    1.973    0.493
       323 -10.6007      4.2967    141.5239   1.2134721091e+02   4.4262439738e+01    0.3669606    0.2618017  16.09  0.002349209    1.833    0.454
       324 -10.1608     29.7399    138.0893   1.1419282778e+02   4.3134634567e+01    0.2728938    0.2211711  18.39 0.0007395667    1.520    0.342
       325  -8.8018    144.1799     14.1599   4.5610396783e+01   4.7021815018e+01     0.207512    0.1635515  38.73 0.0007210483    1.268    0.211
       326  -8.8525     77.9984     12.9586   6.0785303399e+01   6.2129107355e+01    0.1579278    0.1264197  29.86 0.0004238343    1.071    0.067
       327  -8.5685     67.0497     12.9470   6.4524170073e+01   6.4195433877e+01    0.2081677    0.1266535  20.19 0.0005137285    1.620    0.383
       328  -8.8173     45.6882    135.3663   1.0930939257e+02   4.2237287474e+01    0.1649693    0.1324912  10.83 0.0009368696    1.542    0.352
       329  -9.6159    226.7404    134.2113   6.3912269834e+01   9.1238470652e+00    0.3853475    0.2388891  58.85  0.001766139    2.145    0.534
       330  -9.5796     15.9840    132.2649   1.1727461321e+02   4.5663730302e+01    0.2629622    0.1572679 -83.35  0.001402875    1.504    0.335
       331  -9.4141     36.0591    132.1625   1.1159146978e+02   4.4001013534e+01    0.2008908    0.1594461 -43.12 0.0008280954    1.324    0.245
       332  -9.8855      5.1803    126.1704   1.1958032094e+02   4.7843412557e+01    0.4142801     0.108233 -65.35  0.001594091    2.610    0.617
       333  -8.8785     88.0045     10.0000   5.6444940691e+01   6.0398251064e+01    0.2170024   0.06622487  55.20 0.0008074494    2.977    0.664
       334 -10.3569      8.5091    123.5013   1.1834681046e+02   4.8274551706e+01    0.3382634    0.1475476 -61.71   0.00106213    1.766    0.434
       335  -8.0246     80.6947    129.3129   9.7951320296e+01   3.9220026853e+01    0.1475568     0.112765  77.60 0.0007023192    1.618    0.382
       336 -11.0514     12.7507    126.1600   1.1745646090e+02   4.7360191663e+01    0.6583722   0.06041569 -61.80  0.002110185    4.189    0.761
       337 -10.3419     29.4525    124.7878   1.1243563077e+02   4.6407260907e+01    0.5013646    0.2438841 -42.07  0.002307222    2.249    0.555
       338 -10.5114    230.8042    124.3211   6.0951866738e+01   1.0050568139e+01    0.4793791    0.3915417 -52.11   0.00211133    1.317    0.241
       339  -8.7350    205.8309     21.1759   3.9291859997e+01   3.1212220004e+01    0.1652592    0.1395626  57.57 0.0002410502    1.271    0.213
       340 -10.1569     48.7118    125.3081   1.0676013082e+02   4.4390488408e+01    0.3659572    0.2847053 -25.78  0.001402389    1.508    0.337
       341  -9.4499     38.0558    125.9064   1.1005404312e+02   4.5345600759e+01    0.2248051    0.1349355 -42.67   0.00112683    1.730    0.422
       342  -9.2824     23.5645    125.1080   1.1421074994e+02   4.6817390971e+01    0.1946951    0.1675154  68.66 0.0005687127    1.251    0.200
       343  -8.2910     69.0000    123.9867   1.0035526005e+02   4.2212564145e+01    0.2385558   0.07610974 -58.52 0.0007761294    2.867    0.651
       344  -9.2307     94.0388    122.6500   9.2530461557e+01   3.8700313091e+01    0.2547658    0.2038224 -54.02 0.0004292158    1.198    0.166
       345  -9.4545     90.0868    122.0038   9.3556082871e+01   3.9515792011e+01    0.2260532    0.2129772  36.64 0.0003073794    1.119    0.107
       346  -8.7840     78.1671    123.0032   9.7366764504e+01   4.1143228643e+01    0.2092174     0.185776 -86.14 0.0003499102    1.208    0.172
       347  -8.9301     73.9465    122.0177   9.8437893309e+01   4.2001840499e+01    0.1734934    0.1622691 -55.45 0.0009701899    1.014    0.014
       348  -9.4152     60.8128    120.9338   1.0224739705e+02   4.4039646324e+01    0.3546524    0.2065558  21.20  0.001617251    2.103    0.524
       349  -9.7003     57.5444    117.6584   1.0260991809e+02   4.5249035536e+01    0.2886839    0.2349017 -58.99 0.0006856851    1.097    0.089
       350  -9.5090     98.4827    117.2732   8.9927037845e+01   3.9214726439e+01    0.2461874     0.226167  13.45 0.0003260617    1.150    0.130
       351  -9.3230     69.8061    118.0088   9.8853496731e+01   4.3565983462e+01     0.241577    0.2196492  31.20 0.0009119327    1.199    0.166
       352  -8.9525    233.0071    117.0353   5.8910721113e+01   1.0865516401e+01     0.211555    0.1875461 -29.51 0.0003418325    1.006    0.006
       353 -10.1621     25.7542    116.3574   1.1228468668e+02   4.8768636743e+01    0.3163564    0.2295152  29.49  0.001871918    1.618    0.382
