#   1 NUMBER                 Running object number                                     
#   2 MAG_AUTO               Kron-like elliptical aperture magnitude                    [mag]
#   3 X_IMAGE                Object position along x                                    [pixel]
#   4 Y_IMAGE                Object position along y                                    [pixel]
#   5 X_WORLD                Barycenter position along world x axis                     [deg]
#   6 Y_WORLD                Barycenter position along world y axis                     [deg]
#   7 A_WORLD                Profile RMS along major axis (world units)                 [deg]
#   8 B_WORLD                Profile RMS along minor axis (world units)                 [deg]
#   9 THETA_WORLD            Position angle (CCW/world-x)                               [deg]
#  10 FWHM_WORLD             FWHM assuming a gaussian core                              [deg]
#  11 ELONGATION             A_IMAGE/B_IMAGE                                           
#  12 ELLIPTICITY            1 - B_IMAGE/A_IMAGE                                       
         1 -14.2546    247.0546    136.1385   5.9501664979e+01   4.8995699843e+00     3.575926     1.116954 -31.41   0.01151899    3.877    0.742
         2 -15.4402      2.4660    172.3667   1.2338436806e+02   3.7640641569e+01     9.631972          nan -75.43   0.01840447   13.844    0.928
         3 -15.7378     35.7750    196.4409   1.1776729481e+02   2.9054908774e+01      5.24177     2.031571  77.99   0.01857643    4.137    0.758
         4 -13.5934    218.2399     27.4239   3.8717918637e+01   2.7706428785e+01     1.090175    0.7252071 -55.57   0.00617863    1.366    0.268
         5 -14.3190    223.1662     51.1630   4.3696522644e+01   2.3447769341e+01     2.389471     1.150281  76.57  0.009979355    2.448    0.592
         6 -13.9955    205.4835     41.2943   4.3484637238e+01   2.8895330426e+01      1.07957    0.8209696  80.20  0.004304938    1.251    0.200
         7 -15.5851    188.2872     47.9309   4.7554430537e+01   3.2124950748e+01     2.405174     1.894019 -80.03  0.008611793    1.286    0.222
         8 -15.9462    175.9710     13.7028   4.0021548813e+01   3.9354650017e+01     1.826276     1.670478 -51.05  0.007635147    1.193    0.162
         9 -14.9226    202.5605      8.2819   3.5757311465e+01   3.3507154147e+01     1.597101    0.9016468 -87.17  0.005726534    1.726    0.420
        10 -15.5942    185.6396     78.4895   5.6156176228e+01   2.7972851850e+01     2.041603     1.477219 -59.56  0.007060669    1.483    0.326
        11 -14.3918    243.6307     23.9846   3.5646823654e+01   2.2558426168e+01     1.780185    0.7865773 -49.40  0.008996395    1.911    0.477
        12 -12.7566    247.2731      3.9444   3.1319318929e+01   2.4092477620e+01    0.6421102    0.4496422 -77.69  0.004306174    1.170    0.145
        13 -13.7136     12.3323     27.2977   9.5334425577e+01   6.9611695202e+01    0.9899724    0.3326843 -42.97  0.004654076    2.279    0.561
        14 -13.8577      7.2058     14.4113   9.2985336517e+01   7.2166310735e+01     1.155361    0.4830475 -28.62  0.005139819    2.224    0.550
        15 -15.2971     29.7158      8.1954   7.7483903663e+01   7.0852639576e+01     1.657217    0.8724445  24.01  0.006881491    1.790    0.441
        16 -14.9917    203.8082     96.3526   5.7502838819e+01   2.0592311621e+01     2.189922     1.026882 -45.53  0.008522333    2.062    0.515
        17 -12.8872    145.7210     15.1198   4.4774720003e+01   4.6702232339e+01    0.5034354     0.413269 -87.99  0.001775583    1.244    0.196
        18 -12.7735    142.8486      3.9564   4.1715450664e+01   4.8440160130e+01    0.6690391    0.4158986 -49.28  0.003234859    1.838    0.456
        19 -12.0449    148.7118      1.4136   4.0076271612e+01   4.7216069971e+01    0.8066586    0.1073824  68.79  0.002052247    6.160    0.838
        20 -12.6991    154.5931     29.1610   4.7624618592e+01   4.2959575221e+01    0.4595797    0.3932284  18.93  0.002374672    1.380    0.275
        21 -13.9696    241.6767    247.2517   8.1461096727e+01  -1.0807290646e+01     1.615694    0.5888358  35.55  0.008044857    2.484    0.598
        22 -13.3542    222.3614    224.3938   8.1150145694e+01  -5.1619931441e+00    0.9293974    0.5273808  39.80  0.004880789    1.801    0.445
        23 -13.7335    223.6063    237.4473   8.3112607034e+01  -7.1511441758e+00    0.6498715    0.4806748   1.15  0.002660986    1.166    0.143
        24 -12.2566    219.3697    232.4413   8.3070602180e+01  -5.8650546579e+00    0.4333659    0.2617759   6.88  0.001824003    1.807    0.447
        25  -9.8592    160.2195    250.2124   9.7297517621e+01   4.3597370468e-01    0.1647509    0.1317897  50.18  0.000897384    1.331    0.249
        26 -13.7673     85.5275    227.2291   1.0993409658e+02   1.6020450237e+01     1.476895     0.868966  89.60  0.003034822    2.135    0.532
        27 -11.0223     26.2837    249.9984   1.2328929102e+02   1.9100065878e+01    0.2534596     0.187659  31.32  0.001032674    1.672    0.402
        28 -12.3472     30.9882    247.3207   1.2229983083e+02   1.9079331677e+01    0.3922037    0.3119048  46.67  0.001943424    1.311    0.237
        29 -11.2844     15.1858    250.3471   1.2524527763e+02   2.0213152369e+01    0.4303145    0.1460604  31.95  0.002131945    3.161    0.684
        30 -11.2004      1.4410    224.7834   1.2650546165e+02   2.6457795414e+01    0.2478379    0.1153987  85.72 0.0004823556    1.819    0.450
        31 -12.4933     10.4858    232.1465   1.2520722090e+02   2.4147726422e+01    0.3445052    0.2616581 -57.85  0.002145816    1.781    0.438
        32 -13.2085      5.8113    229.0288   1.2590645180e+02   2.5210735546e+01    0.7148724    0.4494692 -53.03  0.003629619    2.271    0.560
        33 -12.4067      3.5415    248.6086   1.2715300448e+02   2.1693763269e+01    0.5567939    0.3219362  52.65  0.003583081    1.321    0.243
        34 -12.0704      2.2106    240.1608   1.2703571957e+02   2.3397190858e+01    0.4655479    0.2158073  81.84  0.002200902    1.822    0.451
        35 -15.8588    207.1733    154.1226   7.0397123031e+01   9.1396996328e+00     2.676053     1.723964 -44.28   0.01281243    1.548    0.354
        36 -13.1978    204.3054    227.0221   8.5035313755e+01  -2.8393527178e+00    0.7823697    0.5889125  15.42  0.003805821    1.153    0.133
        37 -14.3809     81.4878    249.3704   1.1291765624e+02   1.2358007443e+01     2.180205    0.6365676  30.92  0.007267563    4.893    0.796
        38 -13.3664    165.1923    189.8111   8.6597935756e+01   1.0252492861e+01     0.835551    0.6288807 -37.04  0.002617414    1.405    0.288
        39 -13.8734    163.3283    176.9370   8.4545842274e+01   1.3190757461e+01     1.065776    0.7027658 -58.61  0.003189171    1.851    0.460
        40 -13.6480    247.6697    204.6144   7.3058138744e+01  -5.9739807811e+00      1.48696    0.8228405 -50.92  0.006941573    3.096    0.677
        41 -11.7930    110.6368    189.1668   9.9244869421e+01   2.0192802447e+01    0.6979995    0.4090397 -62.65  0.003201849    1.860    0.462
        42 -14.5315    238.6687    164.4537   6.6803987649e+01   1.6300351936e+00     1.415086    0.8558818 -40.95  0.005698497    1.577    0.366
        43 -11.6829     54.9579    180.3753   1.1167484300e+02   3.0520195736e+01    0.3762335    0.2593048 -35.40  0.001841335    2.055    0.514
        44 -11.8096     60.9912    174.5123   1.0945756955e+02   3.1148040364e+01    0.2995988    0.2437449 -44.61 0.0006532953    1.447    0.309
        45 -11.1047    158.5682    162.4023   8.2678553798e+01   1.7169712722e+01    0.4430681    0.3608266  87.68  0.001494788    1.627    0.385
        46 -11.7037    146.1202    173.4523   8.7875524856e+01   1.7231794142e+01    0.6040154    0.3640511  35.67  0.001829224    1.636    0.389
        47 -13.1584    149.0161    163.2453   8.5127005371e+01   1.8890337267e+01    0.9514821    0.8364844  83.42   0.00257439    1.330    0.248
        48 -11.3236     71.7419    164.5975   1.0529861317e+02   3.2091456028e+01    0.2548804    0.2322213 -67.83 0.0004003584    1.109    0.098
        49 -13.4414     58.2887    160.9399   1.0834246096e+02   3.4794870964e+01    0.5248182    0.3007357 -43.76  0.001514853    2.090    0.522
        50 -10.8101    131.0023    158.0004   8.8506679424e+01   2.3606223289e+01    0.7023267    0.3661731 -46.96  0.002811864    1.964    0.491
        51 -11.6797    134.7817    157.6024   8.7466682233e+01   2.2960790604e+01    0.6546542    0.4324588 -62.22  0.002718818    1.743    0.426
        52 -12.2986     79.2919    157.9888   1.0223026286e+02   3.2613153925e+01    0.5170761    0.4149264 -24.09  0.001199467    1.607    0.378
        53 -13.2388    249.5137    191.3239   7.0254872824e+01  -4.2991286087e+00    0.8489472    0.4028516 -34.09   0.00392623    1.893    0.472
        54 -11.7470     22.5199    156.3646   1.1719032149e+02   3.9762141385e+01    0.2632931    0.1843266  80.21  0.001344939    1.319    0.242
        55 -12.3164     69.7938    145.4138   1.0275121259e+02   3.7109075312e+01    0.4878027     0.448415  -0.13  0.001263748    1.286    0.222
        56 -12.4568     67.7637    142.5672   1.0284189994e+02   3.8101462476e+01    0.5402814    0.3254777  45.24  0.001378743    1.724    0.420
        57  -9.6541    123.3206    216.9667   1.0044903130e+02   1.2207743317e+01    0.2081558    0.1119384 -82.90  0.000704684    4.410    0.773
        58  -9.7027     94.7807    143.7860   9.5338011711e+01   3.3641076959e+01    0.2101423    0.1736951  74.46 0.0007730154    1.325    0.245
        59 -12.1909     82.6610    142.1625   9.8473061246e+01   3.6013155481e+01     0.298033    0.2508844 -52.28 0.0004925694    1.171    0.146
        60 -14.6372     10.1354    207.8125   1.2397649892e+02   2.9154119768e+01     1.105241    0.8490231  80.88  0.004244271    1.050    0.048
        61 -10.4936    106.6482    131.4969   8.9342929888e+01   3.4526653942e+01    0.3214797    0.2773229  47.61  0.001069736    1.177    0.150
        62  -9.8487    123.7669    152.6808   8.9272296185e+01   2.6236964223e+01    0.2523099    0.1752245  80.57   0.00103427    2.131    0.531
        63 -12.1909    167.5230    167.9862   8.1778512389e+01   1.4217420048e+01    0.6236207    0.4681089 -59.04  0.002121493    1.563    0.360
        64  -9.8065     94.4938    128.0478   9.2097269051e+01   3.7544583259e+01    0.2657967    0.1950171 -23.67  0.001149963    1.735    0.424
        65 -13.5752    154.9365    111.1320   7.1409735603e+01   2.8998309521e+01     1.695405    0.8911825 -51.81  0.004956015    2.108    0.526
        66 -13.5466    162.5176    108.3940   6.8911834814e+01   2.7823569874e+01      1.10543    0.8926501  85.60  0.003173692    1.534    0.348
        67 -12.2847    138.3056    123.1119   7.8655991478e+01   3.0095019942e+01    0.7695415    0.5149568  50.38  0.002172876    1.543    0.352
        68  -9.5743    105.0483    120.0399   8.7112876053e+01   3.7564799733e+01    0.1748623    0.1735292 -41.77            0    1.015    0.015
        69 -15.4925    235.3236    104.3885   5.4334424251e+01   1.2458810540e+01     1.788605     1.491042 -78.06  0.007399966    1.372    0.271
        70 -15.0516    239.8534     84.1609   4.9153051405e+01   1.4855545670e+01     1.658388     1.361587 -31.32  0.006614032    1.238    0.192
        71 -10.6342     20.9871    239.2023   1.2366144284e+02   2.1708463375e+01    0.1987245    0.1267159  78.54 0.0003993994    1.281    0.219
        72 -14.0494    212.4319     71.8019   5.0062295021e+01   2.2777279131e+01      2.16724     1.019351  70.52  0.008498268    2.681    0.627
        73 -12.1405     14.2280    239.3293   1.2488623630e+02   2.2381569293e+01    0.2663579    0.2407865  23.39  0.001718152    1.656    0.396
        74 -12.6267     36.5135    248.4777   1.2136594446e+02   1.8236731732e+01    0.5912067    0.2898805  36.45  0.003400216    1.909    0.476
        75 -13.4249    179.9234    231.1542   9.0548241091e+01   3.4182565680e-01    0.7774359    0.5951629   5.59  0.003033397    1.335    0.251
        76 -12.3801    160.0257    231.6170   9.4699069560e+01   3.4714050462e+00    0.4712228    0.4438375  88.09  0.001977089    1.341    0.254
        77 -11.0504     60.9685    234.1852   1.1566247981e+02   1.8000999959e+01    0.2653067     0.162581  76.65 0.0008631699    1.623    0.384
        78 -12.8315    117.5767    230.7835   1.0353348692e+02   1.0466288674e+01    0.5609692    0.1719595  35.88  0.002082985    2.952    0.661
        79 -10.3696    174.5076    110.3496   6.6753374346e+01   2.4664674831e+01    0.3036889    0.2219621 -40.57  0.001243472    1.346    0.257
        80 -10.8819     96.6781    108.8700   8.6838342067e+01   4.1746566492e+01    0.4500703    0.3563592  52.00  0.002219184    1.367    0.268
        81 -10.1738    131.3476     96.8921   7.3504739659e+01   3.7335594003e+01    0.2844934     0.219459  57.23  0.001326943    1.380    0.276
        82 -11.4899    101.9967     90.5222   8.0153198526e+01   4.4875481978e+01    0.5022603    0.3612326 -53.95  0.002094573    1.474    0.322
        83 -12.9289    101.0645     83.1273   7.8239921884e+01   4.6624018341e+01    0.8316097    0.7510408  63.52  0.002619311    1.257    0.204
        84 -10.7763    178.4279     91.2811   6.0942648400e+01   2.7416361877e+01    0.3438689    0.2965536 -21.70  0.001489639    1.269    0.212
        85 -12.9180     24.9372    208.1487   1.2099436353e+02   2.7633106204e+01    0.3729762    0.2869172 -50.09 0.0008496887    1.729    0.422
        86 -11.6888     63.5877     59.4959   8.3662057585e+01   5.7924942588e+01    0.4967967    0.3320336   6.88  0.001880178    1.785    0.440
        87 -10.8320     13.2931     60.0115   1.0493074512e+02   6.3153245289e+01    0.1904899     0.162848 -23.12 0.0005067582    1.155    0.135
        88 -10.0684     71.2885     54.6300   7.9017373550e+01   5.7615980635e+01    0.2423409    0.1671096 -49.74  0.001052556    1.641    0.391
        89  -9.6234     27.4023     52.1344   9.6462941611e+01   6.3716175720e+01    0.1607924    0.1112468 -61.28 0.0002647187    1.604    0.376
        90 -14.3215     58.5297    249.0792   1.1731544487e+02   1.5460262122e+01     2.270888       0.7926  26.60  0.007328019    6.307    0.841
        91 -11.1926    121.4952    224.5021   1.0187962142e+02   1.1036538168e+01    0.2275119    0.1812766  -1.95  0.001097221    1.699    0.411
        92 -11.0015    130.1577     37.5432   5.5155990729e+01   4.7929637072e+01    0.2829114    0.2177547 -72.99 0.0008572282    1.648    0.393
        93 -13.6023    172.1355    213.6893   8.9318590887e+01   4.5596494683e+00     1.800238    0.8204287  48.57  0.006610158    2.508    0.601
        94 -13.3164    195.7560    209.8228   8.3762168137e+01   1.2473199042e+00      1.24772    0.8421983  58.66  0.006114963    2.281    0.562
        95 -13.8747    193.2163    234.7036   8.8458032159e+01  -2.2903330904e+00    0.8828065    0.7448381 -24.27  0.003583996    1.294    0.227
        96 -15.7569    185.6171    181.9015   8.0622634434e+01   7.9980841939e+00      2.80109     1.477826 -43.90  0.009523362    1.963    0.491
        97 -14.1186    177.0411    160.9045   7.8149101750e+01   1.3776383684e+01     1.122067      1.00991  68.92  0.004325771    1.303    0.232
        98 -15.4952    208.5884    188.9099   7.7297324873e+01   2.6219052990e+00     2.508847     1.464514 -39.61   0.01098625    1.720    0.419
        99 -14.7281    225.2026    156.4394   6.7507480562e+01   5.3421675143e+00     1.489474    0.8926988 -34.37   0.00521913    1.543    0.352
