#   1 NUMBER                 Running object number                                     
#   2 MAG_AUTO               Kron-like elliptical aperture magnitude                    [mag]
#   3 X_IMAGE                Object position along x                                    [pixel]
#   4 Y_IMAGE                Object position along y                                    [pixel]
#   5 X_WORLD                Barycenter position along world x axis                     [deg]
#   6 Y_WORLD                Barycenter position along world y axis                     [deg]
#   7 A_WORLD                Profile RMS along major axis (world units)                 [deg]
#   8 B_WORLD                Profile RMS along minor axis (world units)                 [deg]
#   9 THETA_WORLD            Position angle (CCW/world-x)                               [deg]
#  10 FWHM_WORLD             FWHM assuming a gaussian core                              [deg]
#  11 ELONGATION             A_IMAGE/B_IMAGE                                           
#  12 ELLIPTICITY            1 - B_IMAGE/A_IMAGE                                       
         1 -10.6634    119.8949     33.8896   6.7847596389e+01   5.1012062849e+01    0.7493571     0.255893 -28.64  0.002577834    3.029    0.670
         2  -9.8674     97.7326     12.4253   6.4956792853e+01   5.8599474886e+01    0.3089372    0.1775438  -8.55  0.001352161    1.928    0.481
         3  -9.8299     88.2611     13.5841   6.8202891199e+01   6.0416616731e+01    0.3068378    0.1663649  29.18  0.001438907    1.965    0.491
         4  -8.4506     80.1859     12.2053   7.0093569865e+01   6.2145737347e+01    0.1647803    0.1516411 -34.47 0.0004900225    1.353    0.261
         5  -8.4866     35.9896      8.9773   8.5748189947e+01   6.9451487351e+01    0.1868082    0.1135031 -12.82 0.0003788339    1.595    0.373
         6  -8.1057    238.2902      4.2966   4.0666625370e+01   2.4561260373e+01    0.1203769   0.09753411  40.57 0.0002041874    1.556    0.357
         7  -8.0839    138.1793      3.8421   5.2479618817e+01   4.9999918874e+01    0.1859246    0.1396358  39.39  0.000261717    1.258    0.205
         8  -9.3110    105.6954      2.4200   5.8569553853e+01   5.7855976038e+01    0.2527669    0.1987654  26.40 0.0006758591    1.150    0.130
         9  -8.2476    229.5281      2.4840   4.0937610831e+01   2.6841094666e+01    0.1320175    0.1149021 -73.33 5.412086e-05    1.006    0.006
        10  -9.6869    114.8436    221.5495   1.1293586340e+02   1.4318959350e+01    0.2612956    0.2218829  14.50  0.001185782    1.694    0.410
        11 -11.5892    238.0564    241.0246   9.3621239568e+01  -8.3725514929e+00    0.4682673    0.3202129  26.22   0.00324162    1.110    0.099
        12 -11.2486    250.0443    241.4003   9.1720078770e+01  -1.0147343839e+01    0.6406599    0.2866029 -34.35  0.003629861    2.655    0.623
        13 -10.3216    209.2195    249.8770   9.9752866714e+01  -4.9788451572e+00    0.3368866    0.2048151  37.56  0.002179047    1.265    0.209
        14 -10.5525    195.6409    248.5279   1.0186933562e+02  -2.7170201318e+00    0.3426111     0.256137  28.65   0.00241366    1.103    0.094
        15  -9.6315    157.7391    222.1081   1.0498086473e+02   7.1270440456e+00    0.5147437    0.3019556 -36.20  0.002762533    2.302    0.566
        16 -11.1357    162.4965    234.3093   1.0576875816e+02   4.5065935856e+00      0.61429    0.4021699  40.88  0.001975172    1.229    0.186
        17 -11.6879    174.3241    245.0195   1.0508052013e+02   1.1094294197e+00    0.6946644    0.5447121  88.57  0.004579202    1.969    0.492
        18 -10.7988    169.8300    232.2262   1.0416514375e+02   3.5855790750e+00    0.5734946    0.4573693 -54.44  0.003858374    1.611    0.379
        19 -11.6328    165.9997    248.6517   1.0698766209e+02   1.9647160007e+00    0.8744397    0.3597405  48.10  0.004439596    2.044    0.511
        20 -11.4020    164.6351    226.4286   1.0430761967e+02   5.2993256869e+00     0.541654    0.3315673  33.43  0.002746637    1.530    0.346
        21  -9.9894    160.5352    227.4836   1.0520647135e+02   5.8345087891e+00    0.2487101    0.1945176  38.78 0.0008323452    1.092    0.084
        22 -10.8208    167.8078    242.6384   1.0591247749e+02   2.4767495211e+00    0.4886557    0.2162317  46.17  0.001902238    1.825    0.452
        23  -8.2339      7.2724    250.3588   1.3296936081e+02   2.3151695082e+01   0.08032807   0.06379585 -79.05  0.000700098    1.649    0.394
        24 -10.9823     99.9117    219.1426   1.1545228248e+02   1.7054795954e+01    0.5837475    0.3488274  59.31  0.002754769    1.472    0.321
        25 -11.4717     98.9314    227.0628   1.1645857670e+02   1.5811001695e+01     0.538497    0.4365719 -86.43  0.002688409    1.275    0.215
        26 -10.4362    107.4502    223.5953   1.1453689233e+02   1.5119469380e+01    0.4611151    0.3208163  22.94  0.002419662    2.177    0.541
        27 -10.6466    236.6293    230.5502   9.2195867302e+01  -7.0321407162e+00    0.2935326    0.2521205 -36.30  0.001977134    1.651    0.394
        28  -8.3878    155.2657    238.3328   1.0758439260e+02   5.1156982683e+00    0.1092504   0.08568949  15.95 0.0003926615    1.582    0.368
        29  -9.3156     30.3916    231.1936   1.2856907047e+02   2.3976772996e+01    0.1494207   0.07426158  84.88 0.0009514587    1.752    0.429
        30 -10.6488    247.3259    229.6923   9.0275390207e+01  -8.5474096336e+00    0.3403124    0.1912204  31.49  0.001639588    1.438    0.305
        31 -10.5089    185.0210    226.8746   1.0065146671e+02   1.7847884025e+00    0.2851106    0.2639308  65.09  0.001165058    1.329    0.248
        32  -8.4154    144.4438    228.7823   1.0833273917e+02   8.3241440239e+00    0.1414023    0.1177744 -33.07 0.0007186252    1.593    0.372
        33  -8.9416     72.9349    228.8077   1.2124869749e+02   1.9197659687e+01    0.2245262    0.1147572  74.21  0.001235699    2.105    0.525
        34 -10.4439     61.6375    228.5432   1.2318656660e+02   2.0729333572e+01    0.3703258     0.179294  38.81  0.001284768    2.073    0.518
        35  -9.1401      6.3328    229.6698   1.3227946159e+02   2.6717565450e+01     0.154314     0.069039  48.14 0.0007462205    1.780    0.438
        36 -11.0669    131.8679    217.8848   1.0928428066e+02   1.2183408020e+01    0.7398997    0.3605298 -61.35  0.003647428    2.588    0.614
        37 -11.0070    128.4961    225.9072   1.1091426318e+02   1.1397473537e+01    0.3285623    0.2828422  -6.08  0.001749067    1.725    0.420
        38 -11.3097    125.6165    221.1422   1.1087220550e+02   1.2659928194e+01    0.4156886     0.367534  32.29 0.0007372327    1.316    0.240
        39  -7.9730    176.3675    227.3088   1.0228623131e+02   3.1856657692e+00    0.1262878   0.08554992  18.74 0.0007036754    1.757    0.431
        40 -11.0324     89.4047    222.8138   1.1776522786e+02   1.7956904493e+01    0.5769157    0.2641572 -51.42  0.002916399    2.949    0.661
        41  -9.5741     51.1042    222.1749   1.2452870111e+02   2.3192889783e+01    0.1762981    0.1682017 -31.46  0.001381801    1.798    0.444
        42  -7.5443      1.2942    226.3465   1.3291489982e+02   2.7774168500e+01   0.08586635   0.06592242 -72.09 0.0005683449    1.669    0.401
        43 -10.3048      3.2411    212.9939   1.3203125831e+02   2.9993814159e+01    0.2307855    0.1650396 -74.65  0.001842043    1.523    0.344
        44  -9.3860     19.8259    222.9132   1.2982727914e+02   2.6573928008e+01    0.2653177     0.151899  38.73  0.001654747    1.913    0.477
        45 -10.8893     13.7015    222.1554   1.3077776649e+02   2.7329116976e+01    0.3288666     0.186678 -65.69  0.002298665    2.007    0.502
        46 -10.6493     13.2605    217.0994   1.3059680263e+02   2.8290010884e+01    0.2923948    0.1096956  58.36  0.001348278    2.067    0.516
        47  -8.7383     39.5319    223.1229   1.2657390215e+02   2.4391009681e+01    0.2704199   0.09400206 -55.00  0.001185567    4.716    0.788
        48  -9.6059    114.9475    228.4722   1.1369760491e+02   1.3127142191e+01     0.290548    0.1694852 -54.64  0.001347813    2.070    0.517
        49  -9.1888    191.9402    218.1486   9.8052156304e+01   1.8214455241e+00    0.2641145    0.1689725 -47.56    0.0012395    1.996    0.499
        50  -9.3151    190.9633    223.1985   9.9018553788e+01   1.2857816846e+00    0.2013452    0.1378867  14.61  0.001153867    1.693    0.409
        51  -9.3468    181.4894    227.4987   1.0138328588e+02   2.2939432593e+00    0.2684187    0.2026044 -25.91  0.001713675    1.627    0.385
        52  -9.2167    148.8029    220.6889   1.0645783696e+02   8.8723023990e+00    0.2433706    0.1742511 -43.81 0.0006390046    1.725    0.420
        53  -9.4386     74.6802    219.4065   1.2012122264e+02   2.0647797266e+01    0.2927974    0.1625491  75.89  0.001032957    1.864    0.464
        54  -9.6211    175.8527    216.9582   1.0084387095e+02   4.7846462298e+00    0.2919339    0.2308128 -27.81  0.001835259    1.520    0.342
        55  -9.5071     83.9106    216.6933   1.1817362678e+02   1.9854832541e+01    0.3328522    0.1796012 -48.05  0.001743013    2.766    0.638
        56  -8.6491     28.4094    219.2033   1.2820262134e+02   2.6344590966e+01    0.1547588   0.07611436  84.99 0.0009482809    1.773    0.436
        57  -9.3714    143.7507    216.4315   1.0683237019e+02   1.0425535751e+01    0.2701957    0.2132642 -38.41  0.001211101    1.610    0.379
        58  -7.9503     62.3103    217.6451   1.2220032096e+02   2.2618158433e+01    0.1242792   0.06656706  69.21 0.0007043705    1.728    0.421
        59  -9.1107     49.8212    217.4102   1.2440141740e+02   2.4225787186e+01    0.1377585    0.0991284  37.58 0.0006950807    1.674    0.403
        60  -9.1996    118.9287    215.1591   1.1140431681e+02   1.4779904316e+01     0.264687    0.1789637  80.80   0.00151008    1.742    0.426
        61  -9.5132    112.2575    214.0936   1.1254954863e+02   1.6040973946e+01     0.317062    0.2663734 -18.56   0.00154257    1.897    0.473
        62  -8.8774    115.8446    210.7398   1.1145096954e+02   1.6068753004e+01    0.2967557    0.1858323  88.22  0.001490465    2.116    0.527
        63  -8.1268    180.2623    215.3457   9.9771506334e+01   4.2553967639e+00    0.1222029   0.09150365   9.33 0.0002025919    1.602    0.376
        64  -8.7037    228.5335    214.4908   9.0895994887e+01  -3.8658587408e+00    0.1247684   0.09887616  18.77 0.0001145911    1.020    0.020
        65 -10.2160     77.9509    211.4597   1.1877151659e+02   2.1671809732e+01    0.3247851    0.2940091  86.05  0.002381126    1.268    0.211
        66  -9.1397    208.3125    213.3225   9.4283924610e+01  -3.2677619818e-01    0.2271061    0.1526526  28.40 0.0008958469    1.308    0.236
        67  -9.6248    203.0171    209.4039   9.4586864718e+01   1.1299630815e+00    0.2814518    0.2553892  37.22   0.00142075    1.192    0.161
        68  -7.9939    186.4478    211.4532   9.7996947816e+01   3.7463269888e+00    0.1298261    0.1066575  27.66 0.0005455972    1.091    0.083
        69  -9.7946     57.0864    208.3266   1.2236990763e+02   2.5044702759e+01    0.3763097    0.1991667 -72.33  0.002231736    1.804    0.446
        70  -8.1397    233.6788    210.6868   8.9341342064e+01  -4.2332846333e+00    0.1288322   0.08097199  12.83  0.000193172    1.654    0.395
        71  -9.2316    245.3840    209.1846   8.7075173656e+01  -5.9309362497e+00    0.2364571    0.0778027  39.63  0.001017799    2.667    0.625
        72  -8.8947    134.5834    208.7787   1.0754844040e+02   1.3296505528e+01    0.3225851    0.1412528  45.86    0.0013348    1.941    0.485
        73  -8.0870     94.3178    209.3057   1.1543756537e+02   1.9701256268e+01     0.105956   0.09811083   0.52 0.0004059658    1.630    0.386
        74  -9.3755     32.7242    208.0368   1.2675205467e+02   2.7968180325e+01    0.1932827    0.1312562 -71.95  0.001364455    1.502    0.334
        75  -9.9901    212.4924    207.6022   9.2551090387e+01  -2.6722042958e-01      0.24458    0.1924717  50.24  0.001382047    1.439    0.305
        76 -10.1815    123.9925    206.0030   1.0924836829e+02   1.5585117015e+01     0.182368    0.1529292  59.07            0    1.014    0.014
        77  -9.7108     53.2100    214.5752   1.2358344678e+02   2.4340744945e+01    0.2655383    0.1172524 -72.24  0.001474789    2.169    0.539
        78  -8.4611     99.2036    206.2285   1.1414151305e+02   1.9536691506e+01    0.1792745    0.1231321  72.44  0.000619618    1.418    0.295
        79  -9.1031    248.6646    204.9818   8.5764543836e+01  -5.9462548232e+00    0.1695779    0.1338155   4.95 0.0004825828    1.063    0.059
        80  -8.7149    216.1315    203.8946   9.1241745754e+01  -3.8953687504e-01    0.1767637    0.1321403  13.04 0.0004718536    1.288    0.224
        81  -8.3477    207.3530    204.3019   9.2912384569e+01   1.0899960086e+00    0.1351306   0.08887193  15.59 0.0007038906    1.702    0.413
        82 -11.1170     11.4605    207.1198   1.3037841543e+02   3.0319987047e+01    0.4912387     0.268928  35.04  0.003273352    2.154    0.536
        83  -8.9868     73.8649    201.3441   1.1854227012e+02   2.4188636155e+01    0.2146057    0.1634238 -68.15 0.0009426412    1.401    0.286
        84  -9.6308    250.3228    198.6614   8.4321039419e+01  -5.4411239403e+00    0.3226075    0.1444387 -30.96  0.001586772    2.240    0.553
        85 -11.1664    173.6598    195.3381   9.7769063049e+01   8.6001774084e+00    0.5316609    0.4966344  -5.49  0.002313145    1.170    0.145
        86  -9.8208    180.8441    194.0566   9.6138329054e+01   7.4745160790e+00    0.2322034    0.2127056  32.95 0.0006197487    1.050    0.047
        87  -9.8061    126.5343    197.1703   1.0751724982e+02   1.6785259463e+01    0.2730411    0.2496249  28.82  0.001080188    1.278    0.218
        88  -9.1306    124.5043    192.2548   1.0721926556e+02   1.8068552933e+01     0.247061    0.2024979  69.96 0.0006049159    1.167    0.143
        89  -8.2975    112.4714    197.9275   1.1046956614e+02   1.9006728696e+01    0.1773743    0.1041545  89.22 0.0008077663    2.502    0.600
        90  -8.6551    131.9612    195.6772   1.0619731440e+02   1.6122892850e+01    0.1954086    0.1472085  49.76 0.0008249801    1.164    0.141
        91  -9.3782    135.2201    193.2698   1.0516997616e+02   1.5998166838e+01    0.3930137    0.1817033  49.27  0.001586533    1.982    0.496
        92  -8.3010     66.7652    195.1500   1.1930320192e+02   2.6385606652e+01    0.2257286    0.1001352  69.31 0.0009652871    2.948    0.661
        93  -7.8617    215.6732    194.3408   8.9591303846e+01   1.0333063650e+00    0.1207018    0.1058171  81.93  0.000705139    1.734    0.423
        94  -8.5824    149.4512    199.1293   1.0319514006e+02   1.2386550676e+01    0.2425651    0.1549723  72.04 0.0008814362    2.260    0.557
        95  -8.9379     88.9922    199.4007   1.1536082457e+02   2.2399966910e+01    0.2571547    0.1563569 -89.87  0.001071926    1.843    0.457
        96  -7.8995     77.9998    193.5001   1.1689085303e+02   2.5173759557e+01    0.1851789   0.07853709  58.36 0.0008101393    2.502    0.600
        97  -9.4862    139.8899    187.0015   1.0322055037e+02   1.6339059044e+01    0.6733503    0.3655351 -33.24  0.002808654    2.984    0.665
        98  -9.2399    137.5417    181.0230   1.0273190152e+02   1.7918374584e+01    0.4448795    0.2267469 -50.31  0.002018479    2.131    0.531
        99  -9.0697    198.3994    185.7611   9.1223117722e+01   5.5120844951e+00    0.3030057    0.2088584 -13.97  0.001555115    1.770    0.435
       100  -9.2246    197.4910    181.9424   9.0670954564e+01   6.2968870554e+00    0.3406847    0.2303908 -19.95  0.001253332    1.744    0.427
       101  -8.9340    156.2254    187.9826   1.0001236297e+02   1.3135477327e+01    0.2512459    0.1838683 -66.70  0.001164112    1.702    0.412
       102 -10.5328    203.5473    187.8325   9.0632258131e+01   4.2208050595e+00    0.7680595    0.4442428 -52.50  0.003556834    2.470    0.595
       103  -9.2824    233.4677    187.6756   8.5130246263e+01  -1.1818963657e+00    0.2557841    0.1474872  35.51 0.0007998818    1.582    0.368
       104  -9.4510    229.2659    185.5497   8.5462588688e+01  -1.4335851934e-01      0.27147     0.159524  53.55  0.001312037    2.161    0.537
       105  -8.7741    120.6713    186.8229   1.0721199102e+02   1.9788624596e+01    0.3370488    0.1533329 -63.24  0.001388563    2.669    0.625
       106  -9.8296     95.4069    187.3305   1.1257817863e+02   2.3839533820e+01     0.543117    0.2166413  57.00  0.001992911    2.975    0.664
       107  -8.5780     55.1840    187.3556   1.2083216062e+02   2.9470022416e+01    0.3323873    0.1118733  64.46  0.001006693    5.990    0.833
       108  -8.7330    148.9781    186.3347   1.0122477663e+02   1.4790449235e+01    0.2342782    0.1778323 -31.38  0.001266399    1.642    0.391
       109  -8.9974    108.9310    185.7768   1.0952929218e+02   2.1983151527e+01    0.3911485    0.1985183  69.72  0.001508649    3.233    0.691
       110 -10.3113    210.9618    183.3694   8.8383733319e+01   3.5221059880e+00    0.4977199    0.3335893   9.17  0.002505974    1.805    0.446
       111  -8.2405    144.4544    186.5703   1.0220149637e+02   1.5583917561e+01    0.1359165    0.1209482  52.39 0.0001276146    1.006    0.006
       112  -8.8593    174.2819    183.4008   9.5532559239e+01   1.0517789267e+01    0.2885185    0.1851797 -61.00  0.001029914    2.160    0.537
       113  -9.0224    175.2583    179.1447   9.4546230841e+01   1.1075348129e+01    0.2714579    0.1778634  18.34  0.001242952    2.055    0.513
       114  -8.0135     74.6483    184.3383   1.1653581963e+02   2.7527681159e+01    0.1381753   0.08030342  70.51 0.0007044348    1.796    0.443
       115 -10.3472     13.8256    182.5071   1.2849863852e+02   3.4931011546e+01    0.3496788    0.2891152 -12.58    0.0025239    2.232    0.552
       116  -8.2168    218.0028    182.6856   8.6944107727e+01   2.3168935072e+00     0.182608    0.1576185  22.78 0.0004244563    1.045    0.043
       117  -8.0918    165.3608    183.2531   9.7317421082e+01   1.2257400696e+01    0.1381916    0.1022267  19.34 0.0004827509    1.616    0.381
       118  -8.1015     44.3655    182.7144   1.2256329506e+02   3.1731131141e+01    0.1273807   0.06992152  67.06 0.0007020519    1.694    0.410
       119  -9.0682    183.3571    180.8969   9.3247079041e+01   9.1962755140e+00    0.2387448    0.1778987  50.78 0.0006670338    1.336    0.251
       120  -8.5472    157.0004    181.3124   9.8694484386e+01   1.4210571319e+01    0.1995672    0.1624952  39.97 0.0004748634    1.140    0.123
       121  -9.2788    147.9130    181.1777   1.0056914583e+02   1.5958616254e+01    0.2162964    0.1750612  70.98  0.000872713    1.343    0.255
       122  -9.3949    232.0185    177.7502   8.3430853475e+01   4.7572769385e-01    0.2606172    0.1638357 -29.57  0.001372834    1.587    0.370
       123 -10.5472    204.7531    176.2628   8.8163300135e+01   5.8163528761e+00    0.4307412    0.3536019   0.16   0.00244733    1.248    0.199
       124 -10.1919    208.2192    170.0632   8.6248964851e+01   6.1435101062e+00    0.5157431    0.3294035  14.60  0.001954688    2.024    0.506
       125 -10.7339    214.4343    167.7626   8.4598886149e+01   5.2995918678e+00    0.9333964    0.3756786  31.76   0.00320321    3.401    0.706
       126  -9.9267    148.7195    175.0051   9.9311102585e+01   1.6989171353e+01    0.3705233    0.2969981 -45.82  0.002047104    1.362    0.266
       127  -8.1246    129.5232    177.4996   1.0386108244e+02   2.0079443424e+01      0.14034    0.1218957  68.07 0.0003727723    1.090    0.082
       128  -8.5220     87.4478    177.4495   1.1296530708e+02   2.7116655959e+01    0.2688508    0.1189011  40.39  0.001215747    2.203    0.546
       129  -8.3153     59.8640    177.2518   1.1882883200e+02   3.1004315492e+01    0.2233269    0.1012313  68.68  0.000949468    2.850    0.649
       130  -8.7679     12.5200    177.1960   1.2839304413e+02   3.6137894332e+01     0.183163    0.1420319  57.56  0.001383052    1.310    0.237
       131  -9.1027    183.7056    172.6324   9.1581947813e+01   1.0558627426e+01    0.2353851    0.1534202   4.18 0.0009920705    2.482    0.597
       132  -9.0963     76.5970    175.7152   1.1508190280e+02   2.9076828745e+01    0.3312359    0.1598213  61.14    0.0015002    2.320    0.569
       133  -9.4165    104.9970    174.7133   1.0875692575e+02   2.4916377240e+01    0.3497981    0.1915607  66.55  0.001519968    2.351    0.575
       134  -8.3413    218.4485    174.0584   8.5143851320e+01   3.5414257565e+00    0.1901977    0.1295481 -31.28 0.0004823882    1.498    0.332
       135  -7.9549     93.4411    174.4807   1.1125488808e+02   2.6826623442e+01    0.1306713    0.1163322  79.77 0.0003144364    1.050    0.047
       136  -8.7054     20.2195    173.6752   1.2663334861e+02   3.6161286167e+01    0.2707205     0.104852  86.68  0.001238558    2.780    0.640
       137  -8.6801    193.3740    173.0740   8.9739457674e+01   8.5659933474e+00    0.2359147    0.1743106  29.45 0.0005274187    1.317    0.240
       138  -9.6630     45.2990    169.4506   1.2108577142e+02   3.4448526448e+01    0.4631895     0.168048 -62.00  0.002159517    2.449    0.592
       139  -9.4411    177.1781    170.0462   9.2400589107e+01   1.2322160383e+01    0.4589537     0.228384 -31.36   0.00182476    2.615    0.618
       140  -9.7818    162.1895    170.4977   9.5613243847e+01   1.5227167771e+01    0.3354347     0.235094  44.70  0.001679089    1.325    0.245
       141  -8.8226    122.0666    169.9016   1.0422156477e+02   2.2978637517e+01    0.2975815    0.1881455  77.42  0.001018294    2.232    0.552
       142  -8.8394     54.9631    169.7490   1.1904502750e+02   3.3236530033e+01    0.3184458    0.1466966  69.06  0.001387601    2.765    0.638
       143  -8.2542    199.0034    167.4949   8.7501383918e+01   8.3918176068e+00    0.2077999    0.1121498  25.21  0.000810269    2.519    0.603
       144  -8.9276     96.7618    178.0118   1.1103000350e+02   2.5556613113e+01    0.3542637    0.2519247  15.76  0.001776862    2.336    0.572
       145  -9.9820    157.8186    164.4285   9.5369597573e+01   1.7263554278e+01    0.5528358    0.3326668  40.88  0.002551415    1.593    0.372
       146  -8.5193     99.1221    166.1060   1.0874864244e+02   2.7721910884e+01    0.2775455     0.150209  61.81  0.001223749    2.161    0.537
       147  -9.2815    149.5767    164.5848   9.7189230404e+01   1.8870257798e+01    0.3787521    0.2377491  61.60  0.001698454    1.886    0.470
       148  -8.9698     79.9298    164.0749   1.1279697835e+02   3.1131012351e+01    0.3963773    0.1957931  81.06  0.001410748    3.843    0.740
       149  -9.0224    185.8269    163.4961   8.9304832099e+01   1.1751874556e+01    0.2287755    0.1879181   7.01 0.0006568693    1.347    0.257
       150  -9.3010     55.9157    163.6796   1.1814060916e+02   3.4450646263e+01    0.2440946    0.1609086  22.70  0.001331867    2.217    0.549
       151  -9.0051     14.3956    171.1560   1.2760334903e+02   3.7225957283e+01    0.2390897    0.1841173   1.33  0.001544471    2.334    0.572
       152  -9.0259      9.6307    161.7072   1.2787204747e+02   3.9634731827e+01    0.2785764    0.1082469  71.42  0.001306762    2.831    0.647
       153  -8.7803     93.2069    160.8319   1.0927738881e+02   2.9828075892e+01    0.3097336    0.1795416  67.82  0.001403181    2.117    0.528
       154  -8.3374    104.2850    179.6739   1.0964378539e+02   2.3997221056e+01    0.1366074   0.09323783  75.87 0.0002683711    1.604    0.377
       155  -8.3433    205.4681    159.7789   8.4622203121e+01   8.3941341095e+00    0.1910841    0.1330433 -19.34 0.0007774807    1.593    0.372
       156  -9.0686    150.3515    160.0090   9.6126904300e+01   1.9633090043e+01    0.2852603    0.1990881  66.97   0.00133388    1.736    0.424
       157 -10.3319     49.0736    155.9612   1.1876587367e+02   3.6988968414e+01      0.45463    0.2805687 -68.56  0.002391875    1.414    0.293
       158  -8.5584    144.7688    159.5510   9.7274497143e+01   2.0834817597e+01    0.2094092    0.1360432  44.43 0.0009854166    1.467    0.318
       159  -9.0819    105.8020    158.2393   1.0593544398e+02   2.8328504626e+01    0.3687921    0.2188455  68.45  0.001359131    2.175    0.540
       160  -8.1160     22.6961    159.3311   1.2494400323e+02   3.8995474848e+01    0.1236317    0.0693204  72.62 0.0005312786    1.656    0.396
       161  -8.7957    139.5235    165.3485   9.9544137608e+01   2.0672727532e+01    0.3180309    0.1960694  73.38  0.001233458    2.543    0.607
       162  -8.3776    139.6354    158.6967   9.8257726039e+01   2.2018213825e+01    0.1450264    0.1155792   5.27 0.0007036253    1.735    0.424
       163  -8.1161    226.3848    156.2664   7.9950047621e+01   4.7858854713e+00    0.1471912   0.09942935  16.00  0.000698587    1.696    0.410
       164  -9.8369    212.9677    155.2873   8.2216728042e+01   7.6246934599e+00    0.3220409    0.3033989  65.45   0.00114942    1.279    0.218
       165  -8.1754    178.0204    156.4760   8.9442062755e+01   1.4649543430e+01    0.2119791    0.1213595  24.86 0.0008095745    2.495    0.599
       166  -8.8713    119.5348    155.5482   1.0226279489e+02   2.6491439942e+01    0.3193923    0.2025487  80.07  0.001347819    2.350    0.574
       167  -7.9916     62.3368    156.3069   1.1576521993e+02   3.5285673360e+01    0.1211079   0.09656639 -39.59 0.0007041568    1.676    0.403
       168  -9.4846     81.5231    153.2162   1.1082461687e+02   3.3325569120e+01    0.5099972    0.2614332 -71.26  0.002303077    2.048    0.512
       169 -10.4741     65.9819    110.4701   1.0730146238e+02   4.5442407945e+01    0.6359373    0.3246688 -64.38  0.002893593    1.834    0.455
       170 -10.2920     44.4609     92.1870   1.0995840816e+02   5.2231874153e+01    0.5320389    0.3153569  14.39  0.002703508    2.403    0.584
       171 -10.5398     64.1692     87.9279   1.0279526972e+02   5.0886145958e+01     1.441127    0.7764919   2.50  0.004531805    5.671    0.824
       172 -11.0432     71.1472    117.3412   1.0722360887e+02   4.3133148735e+01    0.9579637    0.3399052 -56.16  0.003726499    2.427    0.588
       173  -9.7430     64.0095    101.4138   1.0597469958e+02   4.7812533702e+01    0.3570511    0.2640865  55.44  0.001440204    1.559    0.359
       174 -10.5712     63.7346     96.3926   1.0493973032e+02   4.9009416452e+01     1.020807    0.5753257 -85.90  0.003916476    3.300    0.697
       175 -11.2172     69.3591    142.2798   1.1206798521e+02   3.7557054468e+01    0.9061922    0.4098037 -63.89  0.004069448    2.003    0.501
       176 -11.6708     66.5928    130.7231   1.1088833755e+02   4.0614784965e+01    0.8064355    0.7115929  57.29  0.005022729    1.207    0.171
       177  -9.2537    133.5608    153.0628   9.8539555648e+01   2.4382806518e+01    0.4363985    0.2642263 -73.31  0.001587376    2.427    0.588
       178  -8.6102    133.3246    148.3448   9.7649506444e+01   2.5436378664e+01    0.2363211    0.1885595 -29.37  0.001191464    1.513    0.339
       179  -8.6043    205.4218    151.6721   8.2865893334e+01   9.7870750067e+00    0.3175296    0.1379912 -38.45  0.001236067    2.323    0.570
       180  -8.6233    105.3277    153.8213   1.0528211335e+02   2.9385396894e+01    0.3338448    0.2299962 -18.25  0.001433448    2.781    0.640
       181  -8.9658     28.4556    149.7890   1.2276841263e+02   4.0553822804e+01    0.3466682    0.1404905  75.34  0.001349272    3.730    0.732
       182  -9.2570    230.0665    149.1235   7.7719188813e+01   5.1888238485e+00    0.2415593    0.2005933 -41.18 0.0007371471    1.319    0.242
       183  -8.4679    190.3321    150.6673   8.5640125458e+01   1.3134097229e+01    0.2605488    0.1948297  89.57  0.001141271    2.147    0.534
       184  -8.7646    189.8172    146.6231   8.4842479392e+01   1.3983736863e+01    0.3368401    0.1991344 -31.92 0.0009181681    1.820    0.450
       185 -10.1920     51.2861    148.7124   1.1735706584e+02   3.8367632893e+01    0.3579305    0.2757285  13.73  0.002133052    1.930    0.482
       186 -11.0654     56.5241    146.1830   1.1577231604e+02   3.8316687076e+01    0.7048767    0.3911617  67.79  0.002363638    2.102    0.524
       187  -8.4065    220.7822    148.8590   7.9338292442e+01   7.0977989645e+00    0.1818334    0.1731146 -83.43 0.0006455473    1.326    0.246
       188 -10.2427     37.1900    130.6786   1.1844121499e+02   4.4040049970e+01    0.4198217    0.3924163  17.49  0.002949019    1.424    0.298
       189 -10.4355     39.8012    147.5778   1.1991607639e+02   3.9907271902e+01    0.5909964    0.3018521  76.10  0.002100353    2.309    0.567
       190 -11.1299     40.2243    138.0107   1.1864334516e+02   4.2042688265e+01    0.5830435    0.4747334  61.67  0.002619277    1.258    0.205
       191  -8.2999    199.6599    148.3259   8.3247909382e+01   1.1580075368e+01    0.1453471    0.1190838 -84.18 0.0007051379    1.730    0.422
       192  -9.4089    149.3016    145.4905   9.3363017599e+01   2.2819554296e+01    0.4863601    0.3126526  86.16  0.001804344    2.976    0.664
       193  -9.5173    107.6551    145.5405   1.0321633538e+02   3.0832211303e+01    0.5640037    0.2982065  70.19  0.001922497    3.627    0.724
       194  -8.6802     13.2706    146.5650   1.2587001132e+02   4.2613421907e+01    0.2210792    0.1182797  59.17   0.00114973    1.835    0.455
       195  -8.0782    195.5027    146.4930   8.3662895389e+01   1.2791223445e+01    0.2126313    0.1419354 -26.37 5.674777e-05    1.632    0.387
       196  -9.4182    196.6210    143.1380   8.2675795317e+01   1.3157099489e+01    0.2875375    0.2321762 -78.54  0.001403537    1.727    0.421
       197  -8.6398    218.9070    143.6847   7.8516092695e+01   8.3391797344e+00    0.2074231    0.1794788  38.38  0.001142016    1.169    0.144
       198  -8.0532    165.4069    144.2089   8.9475146655e+01   1.9689023523e+01    0.2098063    0.1409075 -56.70 0.0005705281    1.718    0.418
       199  -9.0133    125.3940    143.3203   9.8497847527e+01   2.8064999335e+01    0.3711726    0.2335572 -88.70  0.001434233    2.725    0.633
       200  -8.7404     88.2296    144.0529   1.0770016323e+02   3.4392739605e+01     0.267539    0.1611311  67.08  0.001213938    2.047    0.512
       201  -8.1579    206.6401    143.2648   8.0736387937e+01   1.0989259004e+01    0.1409175    0.1182784  87.63 0.0006986466    1.637    0.389
       202 -10.3943     60.6808    125.6386   1.1157823240e+02   4.2568824519e+01    0.6169268    0.3507708  79.76  0.002710213    2.522    0.604
       203  -8.8091      2.6794    141.9085   1.2782942009e+02   4.4443300794e+01    0.2588663   0.09956966  79.06   0.00116513    2.971    0.663
       204  -9.9190     24.1770    139.1207   1.2263955043e+02   4.3342283949e+01    0.4179509    0.1949587  67.69  0.001685511    2.531    0.605
       205  -9.1384     81.0261    139.5151   1.0870586814e+02   3.6535614920e+01    0.2202177    0.1685108 -67.63 0.0007052993    1.195    0.163
       206  -8.3731    197.1758    137.8202   8.1332774461e+01   1.4000628526e+01    0.2029519    0.1694175  14.04 0.0004304271    1.275    0.216
       207  -9.1559    112.2124    133.1910   9.9625693644e+01   3.2802345196e+01    0.2795106    0.1833275  69.92 0.0009714443    1.994    0.499
       208  -9.8993    107.5013    133.5326   1.0088400336e+02   3.3577443529e+01     0.313265    0.2379936 -69.84  0.001001697    1.341    0.255
       209  -9.0291    149.7984    136.4591   9.1248596641e+01   2.4602621757e+01     0.357729    0.2317805  -8.62  0.001284923    3.108    0.678
       210  -9.9297     89.8418    136.9565   1.0602583491e+02   3.5771191790e+01    0.3215458    0.1838676  26.76  0.001392552    2.425    0.588
       211  -9.4459     58.0925    136.4065   1.1397613917e+02   4.0378715872e+01    0.2990521    0.2331264  -6.22  0.001646524    2.013    0.503
       212 -10.0410    132.6258    132.7638   9.4484288494e+01   2.8955269145e+01    0.4694389    0.2993214 -65.92  0.001589919    1.920    0.479
       213  -9.3031    232.1258    132.8642   7.3651240259e+01   7.3793246828e+00    0.2217124    0.1992447 -46.46  0.001251623    1.247    0.198
       214  -9.0250    142.6905    132.0690   9.1909196993e+01   2.7032028440e+01    0.2901483    0.2425575 -88.27 0.0009525068    1.388    0.279
       215  -9.5921    142.7937    126.9826   9.0693283032e+01   2.8100113270e+01    0.3869819    0.2606255  34.53  0.001722077    1.643    0.391
       216  -9.8209     83.7613    132.1378   1.0668595818e+02   3.7834822658e+01    0.4188335    0.2646903  70.01  0.001134689    2.004    0.501
       217 -10.4677     99.7946    128.5873   1.0183219121e+02   3.6059256909e+01     0.591859    0.3567906  77.36   0.00173898    2.776    0.640
       218  -9.3589     24.5103    129.6943   1.2149762901e+02   4.5450705872e+01    0.3526056    0.2072052 -35.92  0.001880859    2.515    0.602
       219  -9.2524     12.7483    129.5113   1.2436579779e+02   4.6448689825e+01    0.3703804    0.1588354  71.95   0.00167321    2.994    0.666
       220  -8.4258    168.7718    130.1678   8.5477581416e+01   2.1762793113e+01    0.2565016    0.1715281 -84.97 0.0009444391    2.797    0.642
       221  -8.2889    153.2164    130.0284   8.8962322912e+01   2.5216687722e+01    0.2547597    0.1760747 -72.89  0.001062669    2.043    0.510
       222 -10.0954     36.7897    111.2070   1.1570489541e+02   4.8593822248e+01    0.2693267    0.2098895  24.49   0.00121608    1.627    0.385
       223 -11.0649     44.6065    123.6987   1.1552812173e+02   4.4891552062e+01    0.7521806    0.3764326  73.51   0.00310549    3.128    0.680
       224  -9.7805     40.4899    115.4795   1.1536036778e+02   4.7235034729e+01    0.4072183    0.1998961 -84.93  0.001774848    2.545    0.607
       225  -9.9144    118.4751    125.7860   9.6423257856e+01   3.3297485715e+01    0.6002914    0.3582259  74.49  0.001857247    3.062    0.673
       226 -10.2351    118.7455    119.3964   9.4872157123e+01   3.4680584958e+01    0.6795075    0.3455884  25.08  0.002158785    3.868    0.741
       227  -9.8028    104.2110    117.6134   9.8272418032e+01   3.7806360460e+01    0.3145513    0.2351012  19.94  0.001515287    1.755    0.430
       228 -10.7438    110.5694    116.3713   9.6292392192e+01   3.6924552748e+01    0.8712251    0.4467727 -65.35   0.00306175    2.688    0.628
       229  -9.1509    107.5441    119.8619   9.7903557666e+01   3.6689431510e+01    0.3714252    0.2983601 -45.03  0.001257285    1.247    0.198
       230 -11.8084    130.5487    119.9845   9.2010593103e+01   3.2183424102e+01     1.657198      0.65464 -58.33   0.00485359    3.884    0.743
       231 -10.7333    105.0658     83.0832   8.8974113870e+01   4.5327587098e+01     1.167353    0.3875763 -47.12  0.003858289    2.891    0.654
       232 -10.0014    106.8248     72.5144   8.5202594069e+01   4.7165474412e+01    0.5518211    0.3672415  75.19  0.002216657    2.678    0.627
       233 -11.5117    105.4108     66.7048   8.3725050676e+01   4.8593883326e+01     1.085881    0.5937333 -64.51  0.003513429    3.968    0.748
       234 -12.1043    122.0566     93.1898   8.7170596138e+01   3.9773972227e+01     1.153818    0.6652117 -47.49  0.001762878    1.692    0.409
       235 -11.2238    109.4938     91.0334   9.0014324435e+01   4.2770846993e+01    0.9157918     0.492271  27.06  0.003383404    2.797    0.642
       236 -11.7545    113.0013    101.8832   9.2010497658e+01   3.9712030487e+01     1.588898    0.8641824  69.96  0.004692274    4.629    0.784
       237 -10.5915     29.1030    123.0898   1.1950706821e+02   4.6557726371e+01    0.7192777    0.3050692  73.81  0.002535397    4.635    0.784
       238  -8.5899    152.6763    123.1833   8.7432884699e+01   2.6766301991e+01    0.2195385    0.2007711  69.95  0.001078811    1.146    0.128
       239  -8.8657     83.8416    122.7751   1.0485034385e+02   4.0004933400e+01    0.3195624    0.2249022  -4.48  0.001440084    2.514    0.602
       240 -10.3530    142.1261    120.3178   8.9237923480e+01   2.9672033369e+01    0.4697419     0.316079 -61.26  0.001343261    1.722    0.419
       241  -9.1491     13.5135    120.3814   1.2318912695e+02   4.8450888379e+01    0.4003182   0.07906369 -52.23  0.001352294    4.983    0.799
       242 -10.3200     92.9193    112.7533   1.0022355339e+02   4.0879614086e+01    0.5186778    0.3371727 -74.82  0.001383999    1.891    0.471
       243  -9.5151     94.2038    104.2615   9.7851387383e+01   4.2613299906e+01    0.5850966    0.3420832  17.49  0.002222005    3.090    0.676
       244  -9.2909      3.0747    117.2645   1.2550567865e+02   4.9866018377e+01    0.4051982    0.1647281  74.74  0.001766142    3.344    0.701
       245  -9.5379    165.4937    115.9538   8.2667816647e+01   2.5363996888e+01    0.3594152    0.2930203  10.43 0.0008346885    1.480    0.324
       246 -10.3451     79.2337    112.5043   1.0397845414e+02   4.3101101143e+01    0.5942863    0.3270424 -78.08  0.002311112    2.722    0.633
       247 -10.2774     76.9193    104.5478   1.0288098340e+02   4.5294512248e+01    0.4252623    0.3491021 -14.19  0.002335055    1.549    0.354
       248  -9.5657    141.9686    112.0559   8.7184027280e+01   3.1472322702e+01    0.4881411    0.2578196  25.60  0.001522136    3.632    0.725
       249 -10.8461     14.6789    109.8699   1.2161459474e+02   5.0752575075e+01    0.5520357    0.2900043 -82.63  0.002045749    1.695    0.410
       250  -7.9320    159.2820    112.6108   8.3212930875e+01   2.7468735639e+01    0.1630785    0.1229001 -74.14 0.0007003192    1.744    0.427
       251 -10.9824    133.5873    108.3909   8.8315442800e+01   3.4072272272e+01     0.678813    0.3303204 -50.79  0.002554922    2.130    0.530
       252 -10.7390     56.0035    109.9962   1.1005486369e+02   4.6808941026e+01     0.502903     0.304179  26.12  0.002388235    2.085    0.520
       253  -9.6614     60.5895    106.3251   1.0801228910e+02   4.7105909474e+01    0.2324372    0.1969211  36.00  0.001370798    1.366    0.268
       254  -8.9016      2.5829    109.5599   1.2481678385e+02   5.1619498946e+01    0.2761407    0.1022037 -45.68  0.001284677    3.116    0.679
       255 -10.6235     23.3379    103.1772   1.1826252097e+02   5.1628371271e+01    0.7257305    0.3350997  73.07  0.002855126    3.955    0.747
       256  -8.3367    159.3918    107.8378   8.1925366848e+01   2.8414943391e+01    0.2213637    0.1491329 -29.62 0.0009396845    1.631    0.387
       257 -11.0246     46.1720    103.2975   1.1163695590e+02   4.9483524184e+01    0.7059966    0.4116182  73.93  0.003268076    2.542    0.607
       258  -9.1205    150.3114    104.0006   8.3019933763e+01   3.1291966462e+01    0.3290386    0.2322895 -61.31 0.0009492073    1.679    0.405
       259  -8.6255    139.9215    105.0339   8.5833179847e+01   3.3413004701e+01    0.2491711    0.1912945 -84.78 0.0007214694    1.741    0.425
       260  -9.1102      6.7316    103.3468   1.2296939568e+02   5.2761234567e+01    0.2179862    0.1175321 -85.40 0.0009152908    1.660    0.397
       261  -8.4321    215.9874    103.0363   6.9159781989e+01   1.5924856531e+01     0.242031     0.184932 -71.38  0.001128159    1.714    0.417
       262 -10.4585    128.5369    101.7536   8.7838377911e+01   3.6577479298e+01    0.4152073    0.3256546 -71.83  0.001441421    1.517    0.341
       263 -11.1699    130.2518     97.2108   8.6141206832e+01   3.7181005337e+01    0.8318204    0.4957784  30.15  0.003201651    2.175    0.540
       264  -9.3825    101.6245     99.9459   9.4659044326e+01   4.2284623457e+01    0.3334985    0.2459768 -53.53 0.0009525726    1.286    0.223
       265  -9.1611     82.0100    100.4719   1.0044105960e+02   4.5465328375e+01    0.2826996    0.1897628 -71.87  0.001039941    1.705    0.413
       266  -9.3608     73.8079     99.6223   1.0265882944e+02   4.6885551204e+01    0.3165012    0.2254507  50.53  0.001661374    1.594    0.373
       267  -9.4766     77.4866     97.9474   1.0116685592e+02   4.6731845818e+01    0.2605833    0.2040694 -36.40 0.0007900727    1.330    0.248
       268  -9.5978     94.8995     96.8313   9.5768246445e+01   4.4176705568e+01    0.2982238    0.1928495 -61.97 0.0009401006    1.650    0.394
       269  -8.6910      7.3296     97.3316   1.2202593795e+02   5.4078382930e+01    0.1228273   0.06736545 -48.99  0.000705185    1.718    0.418
       270  -9.6460    152.0841     94.2366   7.9873622760e+01   3.2864657863e+01    0.4490023    0.2866834  19.89   0.00168029    2.469    0.595
       271  -9.4414     21.6717     92.2444   1.1701007259e+02   5.4255143362e+01    0.4585382    0.1779346 -38.91  0.001907557    3.440    0.709
       272  -9.9042    138.7773     92.1875   8.2533910084e+01   3.6346346219e+01    0.4313394     0.296003  80.19   0.00172012    2.281    0.562
       273  -9.4471    139.0032     87.9782   8.1247765158e+01   3.7150879591e+01     0.369892    0.2568603 -16.54  0.001389484    1.884    0.469
       274  -9.1923      4.9350     91.8607   1.2198173143e+02   5.5446953910e+01    0.2648197    0.1389184  62.44  0.001422981    2.472    0.595
       275 -10.1907    111.0114    106.4928   9.3747721003e+01   3.9069094795e+01    0.4381604    0.3533912   4.41  0.001480844    1.629    0.386
       276 -10.0773     34.8920     89.9220   1.1249333454e+02   5.3684433485e+01     0.431068    0.2219525 -82.11  0.001725365    2.550    0.608
       277 -10.0062     35.8321     82.2252   1.1060911050e+02   5.5344578375e+01    0.5130204    0.2370828 -31.78   0.00213832    3.238    0.691
       278  -9.8931     67.8261    153.1945   1.1405970888e+02   3.5265917228e+01    0.6643492    0.3534169  78.21  0.002503065    2.621    0.618
       279  -9.5573     48.3717     84.4914   1.0702504413e+02   5.3568715008e+01    0.3863514    0.2462701  68.00  0.001889294    2.386    0.581
       280  -9.7703    127.5393     83.2057   8.2775671320e+01   4.0678287145e+01    0.4790688    0.3113158  17.40  0.001875362    2.393    0.582
       281  -9.8956      8.7290     83.3065   1.1955508591e+02   5.7137364880e+01    0.3741463    0.2836929 -43.25  0.001055721    1.343    0.255
       282  -9.5080     24.4190     81.2166   1.1414224771e+02   5.6538381204e+01      0.31473    0.1973384  89.30  0.001210222    1.956    0.489
       283 -10.7970    115.9609     72.6940   8.2649532087e+01   4.5265174866e+01    0.4220712    0.2790025 -59.25  0.001619295    1.891    0.471
       284 -10.5057    118.9434     65.3866   7.9427792282e+01   4.6033911920e+01    0.5992306    0.3911826  -4.68 0.0003393722    2.367    0.578
       285  -9.6839    119.8999     56.7445   7.6214779642e+01   4.7392478516e+01    0.4106492    0.2319335 -51.39  0.001620426    2.162    0.537
       286 -10.8476    120.0469     77.8186   8.3138430175e+01   4.3382315858e+01    0.6398965    0.4557403 -12.86  0.002836419    1.834    0.455
       287  -9.7599     73.3181    124.5993   1.0802446554e+02   4.1128451963e+01    0.5149039    0.3125897 -24.78   0.00209702    3.182    0.686
       288  -9.2042     87.5990     80.1413   9.3338221011e+01   4.9100745871e+01    0.4316742     0.189333  26.82  0.001424065    3.902    0.744
       289 -10.1192     61.9381     76.8819   1.0064995384e+02   5.3642023133e+01    0.5224733     0.256662 -57.41   0.00223403    1.912    0.477
       290  -8.5189    184.3985     77.8245   6.8115255348e+01   2.8007020742e+01    0.2207098     0.150748 -22.02 0.0009095699    1.628    0.386
       291  -9.2005     49.6242     77.0687   1.0481426794e+02   5.5092451076e+01    0.2977821    0.2030783  -3.30  0.001338792    2.036    0.509
       292  -9.6190    127.3604     75.1187   8.0319886800e+01   4.2326356135e+01    0.4009081    0.2431502 -63.27   0.00132046    2.524    0.604
       293  -7.9826     13.5022     74.5122   1.1647589075e+02   5.8797340765e+01    0.1219783   0.09111489 -58.06 0.0008100686    1.049    0.047
       294  -8.7603     10.0633     74.5576   1.1763689418e+02   5.8997668988e+01    0.1636177     0.147231  27.69 0.0006822668    1.439    0.305
       295  -8.4348    217.0366     73.7032   6.1229079087e+01   2.0544868931e+01    0.2037032    0.1966876  62.80 0.0005820504    1.084    0.077
       296  -9.2343     82.3298     72.8325   9.2810556424e+01   5.1526954148e+01    0.3213869    0.2252831 -75.06 0.0009732407    2.119    0.528
       297  -9.8065     28.6589     70.4153   1.1040627252e+02   5.8598057216e+01    0.6924422    0.2958285 -24.71  0.002412544    5.203    0.808
       298  -9.2754     94.8792     69.8617   8.7932737290e+01   4.9974482298e+01    0.6543148    0.2245889 -51.94  0.002024028    3.682    0.728
       299  -9.0481     95.9462     63.8673   8.5633567382e+01   5.0969130867e+01    0.3326566    0.2059327  26.54  0.001481704    1.985    0.496
       300  -9.3447     86.7410     87.0127   9.5551634645e+01   4.7744823382e+01    0.3941271    0.2637957  74.63  0.001468038    2.502    0.600
       301  -9.2466     51.3944     69.7318   1.0227036752e+02   5.6497084111e+01    0.4067176    0.2103506 -71.22  0.001639719    3.030    0.670
       302  -9.1717      5.3852     70.0132   1.1839791592e+02   6.0255764111e+01    0.3713148   0.08271448 -67.80   0.00141051    3.414    0.707
       303  -9.4373      9.2252     65.7962   1.1626420421e+02   6.0960225887e+01    0.2612756    0.1146333 -30.62  0.001267466    2.875    0.652
       304  -9.5396    130.4944     68.5412   7.7384727549e+01   4.2875112121e+01    0.4999767    0.2792299  30.32  0.001880944    2.418    0.586
       305  -8.4829      1.4504     69.0312   1.1956674375e+02   6.0668978044e+01    0.1848259   0.08423539 -65.73  0.001024478    1.591    0.372
       306  -8.8970     16.3221     69.9794   1.1462073162e+02   5.9611278551e+01    0.2854747    0.1525991 -86.03  0.001068975    2.531    0.605
       307  -9.1905     83.4881     64.7519   8.9877804220e+01   5.2998500193e+01     0.407495    0.2453788  -5.49  0.001533312    3.243    0.692
       308  -8.7787     37.4869     64.4348   1.0577044119e+02   5.9108890408e+01    0.2182005    0.1115105 -67.48 0.0008715446    2.207    0.547
       309  -9.9655    122.0036    112.9652   9.2461840521e+01   3.5472136135e+01    0.5462314    0.3633549  67.76   0.00169735    2.010    0.503
       310  -9.0882     18.1364     62.3096   1.1230517240e+02   6.1152695859e+01    0.2631623    0.1265466 -43.50 0.0008979113    1.784    0.440
       311  -9.2951     73.2705     60.0987   9.1745167481e+01   5.5568642790e+01    0.3070505    0.2187317 -55.82 0.0009504514    1.509    0.337
       312  -7.9297    170.4911     60.5330   6.5655057039e+01   3.4470222572e+01     0.152952    0.1508623  27.34 8.337746e-05    1.020    0.019
       313  -9.4781    110.6700     59.0059   7.9578388948e+01   4.8973685354e+01    0.4546575    0.2246191  26.75  0.001489107    3.558    0.719
       314  -9.9567    108.4663     56.1671   7.9219455827e+01   4.9945570248e+01    0.3648609    0.2172233  43.59  0.001642599    1.724    0.420
       315  -9.0941     39.4845     58.1273   1.0327855242e+02   6.0247634766e+01    0.2130376    0.1551896 -24.17  0.001283388    1.417    0.294
       316 -10.1423      6.8973     57.3701   1.1536287254e+02   6.2894823642e+01    0.2714324    0.2229776 -88.93  0.001383906    1.405    0.288
       317  -8.9039     44.0350     55.5906   1.0081183725e+02   6.0298942749e+01    0.2697113     0.153264 -68.52  0.001158776    2.471    0.595
       318  -8.2824    214.5552     55.4632   5.6630767438e+01   2.3958020878e+01    0.1445389    0.1413646 -40.87 4.997855e-05    1.057    0.054
       319  -9.9945    100.5614     54.3653   8.0920759659e+01   5.1868083800e+01    0.2648633     0.245524 -13.97 0.0001798262    1.014    0.014
       320  -8.7700     62.8684     55.1200   9.3719519646e+01   5.8074801617e+01    0.1988769    0.1734557 -56.41 0.0006165245    1.275    0.216
       321  -9.1242     54.0481     54.2025   9.6630052073e+01   5.9416860042e+01    0.3027895    0.1706115 -63.76  0.001161187    2.444    0.591
       322  -9.0646     26.1571     54.7541   1.0738930059e+02   6.2155966144e+01    0.2228927    0.1465845 -22.76  0.001331866    1.667    0.400
       323  -8.4550     72.5939     54.2188   8.9973934509e+01   5.6825979794e+01    0.1982962    0.1147921 -35.12  0.000746814    1.612    0.380
       324  -8.8575     30.8718     51.5805   1.0465610056e+02   6.2413169697e+01    0.2275202    0.1467774 -70.32 0.0006714689    1.859    0.462
       325  -9.7158    130.2937     46.0368   6.9726858933e+01   4.6787160796e+01    0.4484449    0.2692904  -7.36  0.001186144    2.394    0.582
       326  -9.8201    121.5092     51.4711   7.3922791341e+01   4.7937015236e+01    0.3098298    0.1452285  50.93   0.00120772    2.160    0.537
       327  -8.7267     92.3575     50.9705   8.2232683465e+01   5.4053135812e+01      0.27167    0.1211867 -45.57   0.00107034    2.322    0.569
       328  -8.9310     75.6504     49.8649   8.7361585174e+01   5.7165816270e+01    0.3210182    0.1806562  21.15  0.001402465    2.430    0.588
       329  -9.0631     46.4118     49.0100   9.7791126403e+01   6.1358588724e+01    0.2350941    0.1649147  -0.52   0.00126311    1.684    0.406
       330  -9.5764    112.0469     47.0259   7.4894190956e+01   5.0760307484e+01    0.2267856    0.1803534 -67.38 0.0009565339    1.703    0.413
       331  -9.4944     82.0019     46.8297   8.4074610103e+01   5.6654921077e+01    0.3158371    0.1781105 -37.84  0.001104864    1.631    0.387
       332 -10.2850     84.2363     40.0567   8.0722958367e+01   5.7425671289e+01    0.4527862    0.2577733  -9.54  0.001741079    2.748    0.636
       333  -8.8643     64.2137     46.8815   9.0337862953e+01   5.9468711415e+01    0.2619532    0.1647541   2.83  0.001239787    2.247    0.555
       334  -9.4278     22.5996     46.9940   1.0660117695e+02   6.4031847172e+01    0.3061201    0.1852793  -0.05  0.001425451    2.104    0.525
       335 -10.1811    122.2276     45.2805   7.1500384716e+01   4.8780084592e+01     0.301791    0.1639583 -39.66  0.001277723    1.863    0.463
       336  -8.6466     44.6238     44.8176   9.7057301758e+01   6.2378450217e+01    0.1775459    0.1071336 -55.74 0.0005597721    1.713    0.416
       337  -9.4979     16.2562     44.8429   1.0856965348e+02   6.4927228019e+01    0.2173587    0.1651275 -86.93   0.00139794    1.791    0.442
       338  -9.8683     16.7461     40.5014   1.0709397634e+02   6.5762358801e+01    0.3511019   0.09952027 -39.45  0.001413411    3.316    0.698
       339  -8.1541     74.6527     44.6899   8.5784738205e+01   5.8267893703e+01    0.1416278   0.09831851  -4.80 0.0003433273    1.708    0.415
       340 -10.3722    113.7519     41.7733   7.2463606216e+01   5.1228709348e+01    0.3320511    0.2533778  25.39  0.001067242    1.361    0.265
       341  -8.6301     58.2288     42.6593   9.1004120503e+01   6.1089779132e+01     0.247426    0.1491025 -68.68   0.00094605    4.016    0.751
       342 -10.1080      4.6764     41.1281   1.1236684926e+02   6.6371383001e+01    0.4420578     0.194902 -74.70   0.00201515    3.133    0.681
       343  -8.3583     69.0173     41.8013   8.6682404577e+01   5.9673793152e+01    0.1923644     0.157969  76.67 0.0007940929    1.999    0.500
       344  -8.6840     36.9451     41.0031   9.8816437177e+01   6.3935024845e+01    0.1727091    0.1490451 -83.82  0.000589513    1.683    0.406
       345  -9.4977    107.4128    248.9840   1.1710050537e+02   1.0981849208e+01    0.2379474    0.1395787  41.73 0.0007014162    1.481    0.325
       346 -10.9193     95.8036     36.8418   7.5754963159e+01   5.5752422324e+01    0.6235608    0.2772529 -26.75  0.002462409    2.449    0.592
       347 -11.1699    106.1205     36.1920   7.2449962408e+01   5.3729419177e+01    0.4716571    0.4131511 -10.93  0.001186863    1.079    0.073
       348  -8.5994     58.3268     37.3286   8.8920059133e+01   6.2033896605e+01    0.1363378   0.08963023 -12.60 0.0007050608    1.703    0.413
       349  -8.6894     25.8809     36.5785   1.0192725489e+02   6.5817068875e+01    0.2311222    0.1435791 -64.83 0.0009524804    1.969    0.492
       350  -8.9085     80.3769     35.4288   8.0166201452e+01   5.8868096110e+01    0.2703179    0.1511283 -36.36  0.001061635    1.672    0.402
       351  -8.5506     37.8497     35.4042   9.6417205797e+01   6.4891982462e+01    0.1614878    0.1081834   3.96 0.0005626901    1.708    0.415
       352  -8.1446    149.9711     44.0066   6.4496307605e+01   4.2275954172e+01    0.1801555    0.1713089 -16.50 0.0004232754    1.063    0.059
       353  -9.5742      6.7560     34.0820   1.0949009477e+02   6.7654817862e+01    0.2100736    0.1501662  -7.10 0.0009727419    1.566    0.362
       354  -9.3324    222.5005     32.9743   4.9486191925e+01   2.5064274502e+01     0.259977    0.1843955 -82.35 0.0004741134    1.508    0.337
       355  -8.0947     49.6823     33.3426   9.0739840976e+01   6.3883468290e+01    0.1152946   0.09984954 -69.98 0.0007049039    1.716    0.417
       356  -8.2048     60.2981     32.6824   8.6291881198e+01   6.2550069316e+01    0.1166252    0.1019949 -62.46 0.0004365836    1.613    0.380
       357  -9.1570     12.7629     31.6589   1.0604337275e+02   6.7752650325e+01    0.2232854    0.1349947 -60.45 0.0006926038    1.591    0.371
       358  -7.9629     72.3174     31.6740   8.1422149341e+01   6.0844615442e+01    0.1226595    0.1058548 -64.32 0.0007045119    1.675    0.403
       359  -8.3355     46.3033     31.3067   9.1298384988e+01   6.4659245049e+01    0.1284594   0.08282397 -16.80 0.0004312765    1.601    0.375
       360  -8.6626    124.6629     29.2968   6.4916160888e+01   5.0524464373e+01    0.1417977    0.1132898 -69.88  0.000703125    1.653    0.395
       361  -9.1564     27.4793     28.0385   9.8109738353e+01   6.7257825000e+01    0.2911018   0.07867986 -44.48  0.001210878    2.776    0.640
       362  -9.0507     81.2127     27.7841   7.6698545942e+01   5.9892426700e+01    0.2048253    0.1497328 -72.61 0.0009500922    2.767    0.639
       363  -8.9852      2.2548     27.9257   1.0965111649e+02   6.9084447473e+01    0.2033748    0.1412245 -16.52   0.00143126    1.486    0.327
       364  -8.8829    128.9711     26.3354   6.2784477873e+01   4.9876906354e+01    0.2049175    0.1801651  41.78 0.0006948301    1.073    0.068
       365  -9.1497     44.0216     25.6365   8.9894497406e+01   6.5900541415e+01    0.1969211    0.1391483 -22.77 0.0005146191    1.206    0.171
       366  -8.9381    110.3546     24.4982   6.6629147615e+01   5.4425634603e+01    0.2337234     0.199611   3.20 0.0003432407    1.120    0.107
       367  -9.1338     76.9515     25.2766   7.7063350876e+01   6.1020883718e+01    0.1852542    0.1588895   5.14 0.0004301301    1.047    0.045
       368  -8.8521    132.3020     22.3750   6.0552621682e+01   4.9550457456e+01    0.2462457    0.1878298 -18.25 0.0006996741    1.358    0.263
       369  -8.9157     84.5779     21.0867   7.2691170809e+01   6.0200972656e+01    0.2751497     0.201868 -53.27  0.001224439    1.934    0.483
       370  -8.7870     58.6878     22.0438   8.2329537000e+01   6.4476601689e+01    0.1798451    0.1368963 -22.30 0.0003619742    1.127    0.113
       371  -9.7544     12.9574     21.3092   1.0227360416e+02   6.9652265059e+01     0.234692    0.1830085 -14.01 0.0008004009    1.243    0.195
       372  -9.1903    188.5079     20.6599   5.0298358090e+01   3.5276226761e+01    0.2648885    0.2314527 -73.00  0.000596379    1.138    0.121
       373  -8.7121     62.9852     20.9908   8.0199870990e+01   6.3973376241e+01    0.1860918    0.1541198 -55.05 0.0007681048    1.753    0.429
       374  -8.1665     48.3009     21.6910   8.6367181568e+01   6.5993056061e+01    0.1084679   0.09688784 -54.25 0.0002837072    1.601    0.375
       375  -8.5301     40.8487     21.2031   8.9328531432e+01   6.7008528376e+01    0.1695497    0.1170114 -15.55 0.0004069121    1.318    0.241
       376  -8.0926     73.6736     20.3204   7.6003351668e+01   6.2294551498e+01    0.1198202    0.1040343 -59.49 0.0007047105    1.683    0.406
       377  -9.3437    103.5110     19.7179   6.6494129852e+01   5.6519870452e+01    0.3553731    0.1300482  60.33  0.001226989    3.501    0.714
       378  -9.9215     29.1337     18.1984   9.3280322603e+01   6.8791118576e+01    0.2723964    0.2266529  10.75 0.0009091151    1.324    0.245
       379  -8.3784      1.4868     19.5317   1.0723512809e+02   7.0690168229e+01    0.1126802   0.08014472 -40.25 8.471726e-05    1.009    0.009
       380  -8.6888     50.5798     15.3215   8.2475990521e+01   6.6638427405e+01    0.2071565    0.1300872  10.69 0.0006516649    1.741    0.426
       381  -8.7636     88.0418    249.4820   1.2038812548e+02   1.3674455618e+01    0.1752274   0.08320018  46.27   0.00104194    1.626    0.385
       382  -8.9956     17.9384    249.3049   1.3138001330e+02   2.2242472867e+01    0.2692229   0.03536365  49.54  0.001273752    3.516    0.716
       383  -9.3754     40.9307     14.0267   8.5986595116e+01   6.8108968991e+01    0.2259186    0.1536663  14.13 0.0004368987    1.478    0.323
       384  -7.8207    110.3002     12.6836   6.1796466415e+01   5.5817921371e+01    0.1303892    0.1061023 -60.05 0.0003693215    1.615    0.381
       385  -8.5171    222.7990    245.5999   9.6853715707e+01  -6.5781059643e+00    0.1605547   0.08866268  45.51 0.0009415432    1.742    0.426
       386  -9.0070     97.6505    242.6987   1.1818489444e+02   1.3393008790e+01    0.1984685    0.1188557  39.63  0.000974931    1.601    0.375
       387  -8.7708    103.4019    242.1220   1.1714264269e+02   1.2646118777e+01    0.1419993    0.0955023  87.86 0.0004025334    1.644    0.392
       388 -10.3518    107.6234    237.3496   1.1594269285e+02   1.2786603628e+01    0.3951864    0.2288076  81.81  0.002195987    2.282    0.562
       389 -11.0197    245.8754    248.1230   9.3436911571e+01  -1.0216120465e+01    0.5440741    0.3279954  40.65  0.002821325    1.567    0.362
