#   1 NUMBER                 Running object number                                     
#   2 MAG_AUTO               Kron-like elliptical aperture magnitude                    [mag]
#   3 X_IMAGE                Object position along x                                    [pixel]
#   4 Y_IMAGE                Object position along y                                    [pixel]
#   5 X_WORLD                Barycenter position along world x axis                     [deg]
#   6 Y_WORLD                Barycenter position along world y axis                     [deg]
#   7 A_WORLD                Profile RMS along major axis (world units)                 [deg]
#   8 B_WORLD                Profile RMS along minor axis (world units)                 [deg]
#   9 THETA_WORLD            Position angle (CCW/world-x)                               [deg]
#  10 FWHM_WORLD             FWHM assuming a gaussian core                              [deg]
#  11 ELONGATION             A_IMAGE/B_IMAGE                                           
#  12 ELLIPTICITY            1 - B_IMAGE/A_IMAGE                                       
         1 -14.4871     25.4062     94.2765   1.0931969878e+02   5.4220316370e+01     1.162847     1.022093 -41.03  0.007109351    1.133    0.117
         2 -14.9126      6.6928     71.5771   1.1176055400e+02   6.0623194100e+01     1.329444    0.7796636 -50.84  0.007212884    1.309    0.236
         3 -14.7365    119.6332     54.5864   6.5701164146e+01   4.7969834397e+01     1.215189      0.80885  26.05  0.004116055    1.741    0.426
         4 -13.5932    131.8864     32.7101   5.5097969426e+01   4.8235526334e+01    0.8865319    0.5222498 -31.76  0.003300878    1.786    0.440
         5 -14.3023    121.8382     37.5655   5.9144222417e+01   4.9983976271e+01    0.9731165     0.539665  33.08  0.002623599    2.061    0.515
         6 -13.7773    102.9886     50.5134   6.8995781958e+01   5.2250447271e+01    0.8517482    0.6760813 -69.76  0.000762653    1.834    0.455
         7 -12.3262    232.4926      2.3029   3.3362621947e+01   2.7404777514e+01    0.3983568    0.2468033  58.02  0.001873558    1.795    0.443
         8 -15.7182    218.4131     16.7316   3.7776825660e+01   2.9012655152e+01     1.965525     1.623455 -31.05   0.01245494    1.353    0.261
         9 -14.1640    189.1912     26.2587   4.3402161007e+01   3.4860587439e+01     1.561273    0.6740694 -57.54  0.005878148    3.085    0.676
        10 -14.1796    187.4860     11.4072   3.9627336780e+01   3.6890326863e+01     1.187332    0.6690387 -52.39  0.005962059    1.826    0.452
        11 -13.1276      8.1672      2.7162   8.8395006997e+01   7.3636157671e+01    0.5193132    0.4238999  44.76  0.002477602    2.276    0.561
        12 -13.4476      2.6483     10.8122   9.5573875087e+01   7.2799151635e+01     0.637586    0.3961648 -52.31  0.004149902    1.746    0.427
        13 -13.1964      2.1145     21.8448   1.0034971707e+02   7.0946586871e+01    0.4597705    0.2547721 -59.77   0.00180372    1.967    0.492
        14 -15.9657     14.3894     20.0140   9.2941182008e+01   7.0422016743e+01     1.949012    0.9098463 -31.37   0.01066907    1.820    0.450
        15 -14.7428     24.4959     13.9014   8.4791008642e+01   7.0445411831e+01    0.8455281    0.5298044  26.64  0.004996218    1.658    0.397
        16 -13.5812    139.7924     22.0626   4.9852065161e+01   4.7554922508e+01     0.946669    0.3281058  59.75  0.001909731    2.485    0.598
        17 -14.7479    166.7124     29.7362   4.7610940248e+01   4.0012192351e+01     1.147563     1.023088  58.10  0.004023474    1.080    0.074
        18 -14.8976    147.3417     29.9453   5.1029069226e+01   4.4802372676e+01      1.43582    0.8626583  55.94   0.00479207    1.506    0.336
        19 -12.9360    120.3783     26.2343   5.5397664478e+01   5.1743235929e+01    0.7247595     0.472525  35.19  0.003643013    1.531    0.347
        20 -15.3670     99.1728     12.1472   5.5170150969e+01   5.8048311081e+01     1.569694    0.7461716  51.51  0.004176594    1.802    0.445
        21 -12.5042     85.5143     13.9694   5.9762528307e+01   6.0752328612e+01    0.3642854    0.3057589 -21.57  0.001503216    1.293    0.227
        22 -12.2446     71.4539     17.3934   6.5885402980e+01   6.3096477164e+01    0.3608323     0.228931 -22.52  0.001097239    1.557    0.358
        23 -12.1814     59.9900     17.1958   7.0077089413e+01   6.5127838643e+01    0.3454289    0.1756719 -29.66  0.001766364    1.916    0.478
        24 -12.2118     38.7567     14.4667   7.7955069344e+01   6.8664315403e+01     0.444281    0.2790335   4.85  0.002601988    1.577    0.366
        25 -14.1173     42.4247      4.1624   7.1029575836e+01   6.9443392758e+01    0.7880628    0.4604272  20.95   0.00334383    1.585    0.369
        26 -10.9262    142.6707     12.0859   4.6021833852e+01   4.7858295585e+01    0.1727396    0.1698405  29.57 0.0005069433    1.115    0.103
        27 -11.4904    153.0831      8.9046   4.3358014250e+01   4.5591072964e+01    0.2084799    0.1828825  58.00  0.001085546    1.063    0.059
        28 -10.1110     67.9513      9.3101   6.3390161626e+01   6.4642812337e+01    0.1838152    0.1070843  70.66 0.0004913097    4.358    0.771
        29 -11.6504     46.8311     13.2940   7.3695556772e+01   6.7689186727e+01    0.2897061    0.2008786  37.48  0.001337775    1.536    0.349
        30 -12.0476    118.8624      2.9977   4.7165613763e+01   5.4372798906e+01    0.4042133    0.2717491 -84.83  0.002081849    1.991    0.498
        31 -11.7146     78.3792      2.4510   5.6781980868e+01   6.3296720451e+01    0.3328792    0.1944348  43.59  0.001378503    1.438    0.305
        32 -10.9348     82.9996      1.0000   5.4776758577e+01   6.2481540888e+01    0.2599215    0.1315893  53.28  0.001323431    1.732    0.423
        33 -11.9207     61.7573      1.8872   6.2008477268e+01   6.6506356655e+01    0.2989705    0.1807852  51.69  0.001132242    1.753    0.429
        34 -14.0137    242.5334     34.9304   3.9658688069e+01   2.1500256348e+01    0.9614338    0.6422899 -83.96  0.003702241    1.526    0.344
        35 -15.1762    212.6505     41.0769   4.4307301488e+01   2.7387420991e+01     2.673024    0.8231087  71.68  0.008520246    4.232    0.764
        36 -13.4854     74.0191    153.2918   1.0496142972e+02   3.4448208913e+01    0.7285035    0.5310435  32.57  0.003008494    1.489    0.328
        37 -12.4168     57.3857    246.7265   1.1909054711e+02   1.6389646099e+01    0.4897822    0.1544815  36.88  0.002275869    2.742    0.635
        38 -11.9333     52.4897    250.5097   1.2024560635e+02   1.6302451084e+01    0.1849547    0.1022608  62.18 0.0007289474    1.532    0.347
        39 -13.4694     28.3081    246.1654   1.2424015070e+02   1.9845315091e+01     0.461159    0.2718928  65.90   0.00314516    1.332    0.249
        40 -11.8993      2.6796    249.8491   1.2869139821e+02   2.1757124740e+01    0.2934027    0.1700553  45.67   0.00161936    1.484    0.326
        41 -13.7644      9.0361    245.6593   1.2748159699e+02   2.1903344156e+01    0.7294797    0.3436766  56.28  0.003279777    1.583    0.368
        42 -11.3916    112.4152    157.2375   9.5516819176e+01   2.7376163839e+01    0.2094779    0.1424771 -67.09 0.0009508317    1.632    0.387
        43 -12.7668    208.8189    154.5240   7.2689614078e+01   9.0948768653e+00    0.6598598    0.4438092  39.88  0.003248811    1.530    0.346
        44 -11.9625     85.9364    152.8381   1.0168626075e+02   3.2809438403e+01    0.5079504    0.2516288 -46.70  0.002090364    2.131    0.531
        45 -11.8495    103.2028    150.2129   9.6569229156e+01   3.0641855748e+01    0.4198377    0.2725419 -36.85  0.001765238    1.810    0.447
        46 -12.8942     61.3868    147.8255   1.0750343913e+02   3.7472076128e+01    0.4449537    0.3104787 -26.16  0.001638013    1.992    0.498
        47 -11.4715    136.8227    211.3359   9.8992501051e+01   1.1495812324e+01    0.2171985    0.1873115 -77.83 0.0008192977    1.363    0.266
        48 -11.6335     89.0249    139.7044   9.8378539445e+01   3.5523791646e+01    0.2789414     0.233075 -25.82  0.001453467    1.389    0.280
        49 -10.8175     62.9928    138.6775   1.0555781974e+02   3.9519365651e+01    0.1879402    0.1761759 -84.88 0.0004703879    1.052    0.049
        50 -14.7431    230.1098    129.3077   6.3107989105e+01   9.4592069150e+00     1.275049     1.068602  59.62  0.007158884    1.437    0.304
        51 -12.9871    246.3779    133.2245   6.1323944791e+01   5.7503739034e+00    0.5131109    0.3590547 -39.30   0.00270871    1.288    0.223
        52 -12.6460    107.8133    132.9818   9.1694025421e+01   3.3949709203e+01    0.3321081    0.2243141  43.37  0.001383161    1.520    0.342
        53 -11.9346    133.0995    128.3428   8.3756882560e+01   3.0131800748e+01    0.8543569    0.3061751 -40.52  0.002645296    3.086    0.676
        54 -12.7494    134.2925    102.9787   7.6819392758e+01   3.5482681686e+01     1.190157     0.343729  48.48  0.003353509    3.765    0.734
        55 -13.7899    120.3140    102.3357   8.0457247552e+01   3.8590964521e+01     0.819128    0.4183647  36.05  0.003118375    2.150    0.535
        56 -14.9273    105.9105    121.6887   8.9606924425e+01   3.6976599358e+01     1.751647     1.243091  32.91   0.00818693    1.501    0.334
        57 -15.3986    106.5567    105.8570   8.5395482434e+01   4.0532685188e+01     1.836186     1.420144  24.37  0.007400285    1.429    0.300
        58 -11.9535    182.2227    121.9858   7.0467444408e+01   2.0853736829e+01    0.5257156    0.3565753 -87.77  0.001976997    2.816    0.645
        59 -12.6771     28.6053    122.3457   1.1296965478e+02   4.7211499193e+01     0.333021    0.2412635 -66.34  0.001960007    1.147    0.128
        60 -11.9112     78.6525    110.8862   9.5217172805e+01   4.4137667290e+01    0.4001856    0.2323176  43.02  0.001781216    1.881    0.468
        61 -12.6756     77.2438    117.6189   9.7199589256e+01   4.2725976507e+01    0.5559251    0.4262615 -70.39  0.002838183    1.362    0.266
        62 -13.4408     85.1905    115.3272   9.4238124020e+01   4.2053765130e+01    0.7494165    0.4109005  30.71  0.002201583    2.038    0.509
        63 -12.6609     88.1428    109.7153   9.1974837030e+01   4.2910964067e+01     0.503221    0.3577842 -61.78  0.001897874    1.464    0.317
        64 -11.8450      3.5607    119.7757   1.1994823111e+02   4.9599316478e+01     0.444544    0.1639414  13.98  0.001995134    3.698    0.730
        65 -14.0983     17.8506    110.9691   1.1457204872e+02   5.0796491024e+01     0.805419    0.6111543 -43.50  0.003748734    1.316    0.240
        66 -13.9168     11.1283    102.0721   1.1539339891e+02   5.3353695186e+01    0.7451404    0.6741022 -34.51   0.00464352    1.243    0.195
        67 -13.1085      2.1886     97.2725   1.1759755668e+02   5.4967937672e+01    0.7502173    0.2199787 -72.81  0.003034518    2.828    0.646
        68 -13.8667    170.7651    243.0759   9.6675547575e+01   5.6675781792e-01    0.8711016    0.5466504  25.57  0.004969669    1.464    0.317
        69 -11.4569     63.3329    111.6322   1.0023960800e+02   4.6120203230e+01    0.4128916     0.183099  48.83  0.001551117    3.009    0.668
        70 -12.2115     37.0857     93.1161   1.0502141864e+02   5.3496691449e+01    0.3855371    0.2582403   5.40  0.001598335    1.848    0.459
        71 -12.4398     44.8825    135.0100   1.1012569645e+02   4.2549371218e+01    0.4989589    0.3641418 -27.08  0.002706351    1.740    0.425
        72 -11.0590     45.7592    110.0134   1.0554840589e+02   4.8587404583e+01    0.2026134    0.1643713 -60.83  0.001173258    1.073    0.068
        73 -12.0289    177.0605    110.5201   6.8642994148e+01   2.4278211041e+01     0.460663    0.3216993 -17.78  0.001997737    1.766    0.434
        74 -12.7032     62.7030     99.5888   9.7696880382e+01   4.9088088829e+01    0.6044741    0.3828038  82.96   0.00242899    2.955    0.662
        75 -13.7481    239.2417     81.5941   5.0658662365e+01   1.5553670546e+01     1.056109    0.6352419 -82.98  0.004552464    2.721    0.632
        76 -12.3218     52.6707     97.7739   1.0066392668e+02   5.0759596972e+01    0.8086587    0.3921416 -21.30  0.002577665    4.680    0.786
        77 -12.5936     49.5538     94.5687   1.0099629811e+02   5.1872048195e+01    0.7179921    0.4193844 -43.26  0.003474714    1.568    0.362
        78 -13.0722    137.0841     95.7236   7.4036344913e+01   3.6387084685e+01    0.5017225    0.3839897  60.47  0.001416915    1.474    0.322
        79 -13.2339    249.0864     96.1525   5.2661410511e+01   1.1274794481e+01     1.062607    0.2324714 -37.26  0.003360738    3.731    0.732
        80 -12.6183    125.5805     92.7540   7.6253837406e+01   3.9528417764e+01     0.392174    0.2540864 -62.74  0.001583705    2.101    0.524
        81 -11.5011     42.7926     90.9476   1.0253157278e+02   5.3445851296e+01    0.2959971    0.2002235 -67.59 0.0008881344    1.474    0.322
        82 -11.5864     65.5382    126.2952   1.0256047187e+02   4.2243451955e+01    0.3574927    0.2488918  50.00  0.001583011    1.594    0.373
        83 -11.7064     60.3216    125.1788   1.0391427540e+02   4.3189384472e+01    0.3459039    0.2004613   2.66  0.001380415    3.063    0.674
        84 -12.2034     90.2743     88.3815   8.5546944935e+01   4.7420066996e+01     0.431569    0.3554102  42.71  0.002156566    1.308    0.235
        85 -13.4366    134.9650     80.1777   6.9973374597e+01   3.9953703054e+01    0.7772501    0.4606901  42.70   0.00320543    1.702    0.413
        86 -11.4512     34.2677     86.8766   1.0466392924e+02   5.5212383885e+01    0.2305076     0.183632 -11.41 0.0009403361    1.392    0.282
        87 -13.1923    188.4615     84.2232   5.9350310931e+01   2.6518872870e+01    0.8277614    0.3733443  41.26  0.002764564    2.722    0.633
        88 -14.4431    160.7618     81.0556   6.4076772191e+01   3.3719726677e+01     1.705748     1.127785 -12.32  0.006997194    2.128    0.530
        89 -14.9147    169.4286     77.0946   6.1089974968e+01   3.2335211300e+01     1.923696     1.455255 -75.97  0.008935887    1.680    0.405
        90 -13.3541     66.0581     49.1064   8.1108146212e+01   5.9281024292e+01    0.5276816    0.5146519 -22.63  0.001181524    1.282    0.220
        91 -13.0484     60.9312     59.8225   8.6913748027e+01   5.8032084309e+01    0.7924461    0.4061156 -20.47  0.002619692    3.087    0.676
        92 -13.3779     57.7809     66.6264   9.0357115586e+01   5.7090406372e+01    0.5780515    0.4505076  41.91    0.0032631    1.532    0.347
        93 -13.3265     52.4229     69.6244   9.3338343366e+01   5.7146504387e+01    0.7937269    0.5748863  80.32  0.003800911    2.546    0.607
        94 -13.1634    213.1558     78.5389   5.3666536879e+01   2.1725459942e+01     1.016537    0.6273323  84.24  0.004339977    2.352    0.575
        95 -12.9609    216.4125     72.8885   5.1758782581e+01   2.1889953685e+01    0.7088848    0.4710259 -66.38  0.003375218    1.780    0.438
        96 -12.1766    114.2210     80.3920   7.5735287578e+01   4.4468964588e+01    0.4233121    0.3433947 -43.38 0.0009974511    1.238    0.192
        97 -13.0320    149.2028     85.2891   6.7969663007e+01   3.5677281271e+01    0.6894965    0.3963369  32.73  0.002667059    2.179    0.541
        98 -13.7465     87.6419     65.3213   7.9141557845e+01   5.2637725551e+01     1.097951    0.6441964  11.15  0.004069573    2.839    0.648
        99 -13.3704     91.7240     58.4221   7.5387887116e+01   5.3157254096e+01    0.5867245    0.4770145 -48.85  0.002628111    1.392    0.282
       100 -13.0505     70.4364     75.8233   8.8537921416e+01   5.3367611794e+01    0.5857556    0.4564474 -14.20  0.002167696    1.349    0.259
       101 -12.4470     77.1293     73.8485   8.5557334317e+01   5.2739178806e+01    0.5395082    0.3027488 -33.53  0.001934005    1.837    0.456
       102 -11.5858     23.0814     71.8103   1.0541685281e+02   5.9550424623e+01    0.3936331    0.1939387  16.63 0.0005292188    2.400    0.583
       103 -13.6882      8.0083     50.8515   1.0649015655e+02   6.5017743358e+01     1.170775    0.4990596 -34.88  0.005941666    2.102    0.524
       104 -13.0497      6.4247     43.7375   1.0527305435e+02   6.6553847363e+01    0.7729659    0.3197686  13.29  0.003961304    2.775    0.640
       105 -13.8830     96.8126    238.9666   1.1086849271e+02   1.2538230283e+01    0.5863115    0.4348144  49.17  0.002629523    1.112    0.101
       106 -13.5447      5.0046     63.8296   1.1083985527e+02   6.2412635337e+01    0.4553077    0.3707253  19.93  0.003179466    1.523    0.344
       107 -14.0815    199.0094     69.7033   5.3629738075e+01   2.6438816081e+01     1.276214    0.7046158  36.69  0.005123051    2.499    0.600
       108 -12.7670    199.6450     62.3975   5.1596969864e+01   2.7428437199e+01    0.4374571    0.3143911 -28.99  0.001563444    1.454    0.312
       109 -11.6396     41.8995     76.5136   9.9313713708e+01   5.6833863558e+01    0.2983103    0.1750649 -55.89  0.001378965    1.514    0.339
       110 -12.1239    121.1776    111.9297   8.2813441973e+01   3.6281637677e+01    0.3295845    0.2217321  55.96   0.00141931    1.731    0.422
       111 -11.1997     22.9727     75.4885   1.0631304775e+02   5.8736772817e+01    0.1607569    0.1240607   6.43 0.0003483653    1.489    0.329
       112 -12.6974    241.9424     71.6077   4.8007839219e+01   1.6523480266e+01    0.4861087    0.3088533 -67.77  0.002420346    1.870    0.465
       113 -13.7297    133.5488     65.9006   6.5847518539e+01   4.2881480051e+01    0.8931527    0.7213178   1.81  0.002966613    1.426    0.299
       114 -12.3427     38.7952     68.2034   9.8256888986e+01   5.8970879044e+01    0.5026283    0.2513519  32.75  0.002445056    2.258    0.557
       115 -11.0344     33.9462     68.0000   1.0013373188e+02   5.9482168984e+01    0.2623276    0.1687048  34.43  0.001138008    1.842    0.457
       116 -11.8728    100.5858     64.4986   7.4662285447e+01   5.0320043891e+01     0.425999    0.3040112 -27.85  0.002092908    1.411    0.292
       117 -13.3501     55.2330     81.9010   9.5792020528e+01   5.4117710184e+01    0.5690716    0.4532228 -24.14  0.002257909    1.242    0.195
       118 -14.2266    178.1246     57.5070   5.3810190394e+01   3.3403609776e+01    0.9795963    0.7133638 -41.49  0.002866081    1.367    0.268
       119 -12.6913     80.0549     61.0441   8.0279123319e+01   5.4793765058e+01    0.4905252    0.4331228  16.10  0.002109642    1.113    0.102
       120 -13.1495     82.4721     54.6334   7.7153683989e+01   5.5545870881e+01    0.5555345    0.3910182  -0.79  0.001834362    1.667    0.400
       121 -11.5530     77.9594     54.2254   7.8594326252e+01   5.6411900810e+01    0.3160322    0.2341765  18.57 0.0009320051    1.383    0.277
       122 -12.0822     24.5289     60.1856   1.0185248185e+02   6.1962333600e+01     0.272953    0.2082952 -44.48 0.0006828758    1.064    0.060
       123 -13.9222     60.9361     75.7577   9.1963440486e+01   5.4735258277e+01    0.6729974    0.3924692 -36.67  0.001360371    1.639    0.390
       124 -11.9534    147.3297    239.0307   1.0075646241e+02   4.8607000246e+00    0.1686932    0.1578684  37.35  0.001089695    1.130    0.115
       125 -12.9058    135.5892     50.3722   6.0257521894e+01   4.4915497251e+01    0.6008711    0.3481424  37.27  0.001598215    1.877    0.467
       126 -12.2596     24.8365    217.6611   1.2317942350e+02   2.5708963370e+01    0.6203632    0.4210897  56.25  0.004232653    1.237    0.192
       127 -11.5501     14.6130    224.0638   1.2546337648e+02   2.5446851445e+01     0.369013    0.1986596  66.59  0.001469573    1.514    0.340
       128 -13.0207    109.8727     42.1787   6.3952680455e+01   5.2050760191e+01    0.6228665     0.239251  46.13  0.001543696    2.422    0.587
       129 -12.9728    113.7097     38.2728   6.1476026920e+01   5.1748526462e+01     0.367964    0.3469335  24.09  0.001610269    1.048    0.045
       130 -13.2604    248.1294     51.8577   4.2849096089e+01   1.8082955860e+01    0.6719107    0.4037636 -35.50  0.003612443    1.530    0.346
       131 -11.9429    230.1635     55.4231   4.5672544300e+01   2.1427717402e+01    0.4792975    0.2244623  59.32  0.002167651    2.211    0.548
       132 -13.7680     25.8357    227.3681   1.2359658499e+02   2.3668135443e+01    0.6470681    0.3305348 -59.96  0.003788332    2.255    0.556
       133 -11.0435     22.7075     50.4033   9.9801055178e+01   6.4130080200e+01    0.2761602    0.1436276   1.47  0.001383071    2.395    0.582
       134 -10.2033     33.2393     49.6723   9.4906532067e+01   6.3345014017e+01    0.1107671   0.09593842 -69.02 0.0002310701    1.530    0.346
       135 -13.4485    157.9646     44.0733   5.3500242699e+01   4.0351092525e+01    0.7797767    0.5876348  26.42  0.003255646    1.560    0.359
       136 -13.2673     20.9175    225.2405   1.2437635403e+02   2.4591400591e+01    0.4226355    0.3620854  70.88  0.002608852    1.211    0.174
       137 -12.7340    237.9300    230.8203   8.2076683488e+01  -7.6749385767e+00    0.2717766    0.1463832  38.21   0.00151737    1.878    0.467
       138 -13.0675     66.3328    223.4103   1.1544616298e+02   1.9713139141e+01    0.6917939    0.5368445  38.85  0.004515617    1.326    0.246
       139 -11.8684     40.2706    243.4935   1.2197273519e+02   1.9013457579e+01    0.2835753    0.1569829 -85.65  0.001776006    1.743    0.426
       140 -12.2501     69.7215     36.5380   7.4783940015e+01   6.0780857983e+01    0.4238178    0.2157732  33.22 0.0009671429    1.971    0.493
       141 -12.1353     97.9875     50.4894   7.0518823708e+01   5.3285049368e+01    0.3897592    0.3071993 -85.47  0.001474683    2.074    0.518
       142 -11.6813     58.0549     35.2623   7.8823723755e+01   6.2849048510e+01    0.3640591    0.2084464  23.70  0.001838822    1.835    0.455
       143 -12.3498     46.3212     33.8459   8.3202743121e+01   6.4732740076e+01    0.4705236    0.2779055 -24.58  0.002522497    1.610    0.379
       144 -12.9321     95.4034    218.5244   1.0889819796e+02   1.6648996857e+01    0.5330507    0.2281645  37.51  0.002423218    2.106    0.525
       145 -12.5241    185.6954    213.4270   8.9022191416e+01   2.8649619934e+00    0.2721885    0.1992938 -46.95  0.001528993    1.622    0.384
       146 -13.5681      8.8840    211.0699   1.2581549781e+02   2.8593392528e+01    0.9354992    0.5712063  70.51  0.006237452    1.308    0.235
       147 -13.0240     16.7170    195.4824   1.2331976914e+02   3.1154134826e+01     0.983685    0.2728875 -72.03   0.00428604    2.946    0.661
       148 -13.6682     30.0684    168.9588   1.1818763088e+02   3.5862857423e+01    0.7202158    0.5154675 -47.59  0.001881262    1.640    0.390
       149 -13.4160     22.4552    180.8491   1.2100233666e+02   3.3855075242e+01    0.7367984    0.3661978 -59.73  0.003176959    1.957    0.489
       150 -14.8160      8.4106    183.5368   1.2423850865e+02   3.4493157652e+01     0.998736    0.8629757  69.93  0.007447943    1.187    0.158
       151 -15.1552     16.1388    175.8515   1.2200277647e+02   3.5555819574e+01     2.252631      1.03129  64.30   0.01120412    2.245    0.555
       152 -11.5537     27.5611     33.2252   9.1603184671e+01   6.6976159300e+01    0.3174038    0.2055321 -47.27  0.001825582    1.500    0.333
       153 -11.1599     31.4968     31.2587   8.8936552047e+01   6.6922075555e+01    0.2440236    0.1448367  19.99 0.0008350826    1.731    0.422
       154 -12.6274     41.7796    207.0062   1.1902920307e+02   2.6100660297e+01    0.3325562    0.1829831  74.85   0.00180047    1.804    0.446
       155 -11.1418     38.2751     29.9517   8.5207777666e+01   6.6381753434e+01    0.1727698    0.1309124 -22.30 0.0001823128    1.090    0.083
       156 -12.9411     56.1339     27.4404   7.6279359030e+01   6.4343741645e+01    0.6376284    0.2933677  40.82  0.002134056    2.259    0.557
       157 -12.7322     68.0351     24.6188   7.0354050886e+01   6.2794558524e+01     0.608668     0.294509  40.61  0.002930444    1.960    0.490
       158 -10.7787     98.0756     27.4620   6.1659574888e+01   5.6590123361e+01    0.2107933    0.1247352  50.09  0.001029569    1.589    0.371
       159 -11.5003     37.1574     25.6397   8.3879516356e+01   6.7212752549e+01    0.1953613    0.1773597 -27.70 0.0002483712    1.383    0.277
       160 -12.0776     46.4638     21.1103   7.7573895845e+01   6.6682056765e+01    0.3205259    0.2204414 -11.87  0.001013636    1.310    0.237
       161 -11.2614     53.7218     20.0839   7.3967740816e+01   6.5755303078e+01    0.3730234    0.1473302  28.74  0.001526663    3.005    0.667
       162 -13.9498     63.0202    214.4078   1.1528065585e+02   2.1976897530e+01    0.7533147    0.4202966  54.39  0.004125164    1.604    0.376
       163 -11.1164    150.9960    206.8643   9.5210627272e+01   9.9379243507e+00    0.3063211    0.1718644  25.13  0.001357201    2.068    0.516
       164 -12.5939     57.2973    203.3513   1.1542078169e+02   2.5043174721e+01    0.4913239    0.2493857 -85.71  0.002373526    2.195    0.544
       165 -10.6867    212.4870    200.4938   8.1365963462e+01   5.2156757135e-01    0.1358332    0.1130801   4.66 -3.329499e-06    1.038    0.036
       166 -12.7798     75.9420     37.4065   7.2853971667e+01   5.9565672153e+01     0.355144     0.255879  40.24 0.0009304874    1.408    0.290
       167 -13.0256    164.0424    194.0599   9.0160792272e+01   1.0070309291e+01    0.5666039    0.3169708 -52.90   0.00254531    2.112    0.527
       168 -13.2393     40.5794    195.3693   1.1828138766e+02   2.8755398311e+01    0.4896421    0.2216958 -89.94  0.002223893    2.506    0.601
       169 -12.4465    200.9965    192.1361   8.2038717785e+01   3.8447931825e+00    0.4038158    0.2733406 -25.57  0.001409695    1.506    0.336
       170 -11.6798     97.3263    188.3380   1.0451382276e+02   2.2743260743e+01    0.1358633    0.1085188 -20.54 0.0007051589    1.726    0.421
       171 -12.0323     49.1279    181.5111   1.1500137918e+02   3.0908641131e+01    0.4043174      0.22846 -56.48  0.002104069    1.801    0.445
       172 -13.1274    198.5328    181.5356   8.0451506598e+01   6.1311882230e+00    0.3755683    0.3108292 -54.95  0.001696551    1.519    0.342
       173 -10.4397     55.4812     41.3943   8.2351256744e+01   6.2207337224e+01    0.1322031    0.1092214  -7.91 0.0001394327    1.043    0.041
       174 -12.4333     85.3030    180.4877   1.0625291525e+02   2.6352685722e+01    0.3002453    0.2017909  78.86  0.001477367    1.744    0.427
       175 -12.0694     96.2382    171.3652   1.0216134493e+02   2.6785754255e+01    0.2732929    0.1792299  47.66   0.00133032    1.498    0.332
       176 -13.0006    124.6161    167.8157   9.4457075718e+01   2.2755935978e+01    0.4724743    0.2888761 -55.75  0.002122864    1.703    0.413
       177 -11.2525    155.0015    157.8156   8.5057824590e+01   1.9153492247e+01    0.2537773    0.1772171  67.22  0.001085673    2.004    0.501
       178 -12.0367     77.5044    157.0038   1.0463957433e+02   3.3051200492e+01    0.4237913    0.3061831  29.29  0.001618918    1.543    0.352
