#   1 NUMBER                 Running object number                                     
#   2 MAG_AUTO               Kron-like elliptical aperture magnitude                    [mag]
#   3 X_IMAGE                Object position along x                                    [pixel]
#   4 Y_IMAGE                Object position along y                                    [pixel]
#   5 X_WORLD                Barycenter position along world x axis                     [deg]
#   6 Y_WORLD                Barycenter position along world y axis                     [deg]
#   7 A_WORLD                Profile RMS along major axis (world units)                 [deg]
#   8 B_WORLD                Profile RMS along minor axis (world units)                 [deg]
#   9 THETA_WORLD            Position angle (CCW/world-x)                               [deg]
#  10 FWHM_WORLD             FWHM assuming a gaussian core                              [deg]
#  11 ELONGATION             A_IMAGE/B_IMAGE                                           
#  12 ELLIPTICITY            1 - B_IMAGE/A_IMAGE                                       
         1 -11.5664      9.2899     24.2600   1.2962489200e+02   7.1520300216e+01    0.4985908    0.2930355 -55.05    0.0028052    1.359    0.264
         2 -11.6600     25.6634     20.1820   1.1742589564e+02   7.1095575786e+01    0.5712008    0.3118101 -23.60  0.002198447    2.062    0.515
         3 -12.1054     26.1425     13.6329   1.1385076180e+02   7.2345483881e+01    0.2795279    0.2432154   2.28 0.0003816571    1.183    0.154
         4 -10.7219    107.8790     18.0068   8.0781005634e+01   5.6078545433e+01    0.4205383    0.2576647  -8.80  0.001019991    1.857    0.461
         5 -12.0183    130.9039     13.9410   7.3935080122e+01   5.0691614003e+01    0.5281898    0.3866751  14.97  0.001905791    1.509    0.337
         6 -11.1352     75.4076     17.4037   9.0690502541e+01   6.3610983743e+01    0.3634882    0.2356918   8.33 0.0007415566    1.875    0.467
         7 -10.1243    175.5004     11.9994   6.6583317164e+01   3.9317898082e+01    0.2047878    0.1824059  75.21 0.0003634626    1.113    0.102
         8 -10.7882    119.5333     11.7156   7.5274602623e+01   5.3852813045e+01    0.2393017    0.2176573  67.24 0.0005518306    1.132    0.117
         9 -11.0311     78.4194      9.6641   8.5466172545e+01   6.3991337915e+01    0.4552374    0.2231639  48.96   0.00200126    1.915    0.478
        10 -11.5597     81.4135      6.0102   8.2470184203e+01   6.3747802496e+01    0.2659057    0.2148053  19.26 0.0001731574    1.152    0.132
        11  -9.9684      2.2629      8.8338   1.2879695245e+02   7.5255703246e+01    0.2995769    0.1650109  71.05  0.001155332    4.951    0.798
        12  -9.3781    107.5788      9.5461   7.6978028912e+01   5.7102116882e+01    0.1459519    0.1284245  28.54 0.0002997275    1.062    0.058
        13  -9.7743     23.4671      9.1431   1.1318387825e+02   7.3493911400e+01    0.1843378    0.1503963  -7.57 0.0004923004    1.129    0.114
        14 -10.3859      9.1730      7.1568   1.2262299547e+02   7.5182509038e+01    0.3602235    0.1933562 -32.47  0.001234213    1.642    0.391
        15 -10.4363    127.8220      6.7174   7.1539756665e+01   5.2199540963e+01    0.2784496    0.1583278 -47.26  0.001136912    2.031    0.508
        16 -10.6906     75.2030      5.0771   8.4048601599e+01   6.5242067580e+01     0.371653    0.2037439 -14.96    0.0013094    1.924    0.480
        17 -10.1938    115.7587      4.5664   7.2911713634e+01   5.5513927964e+01    0.2740175    0.1924245 -14.07  0.001380029    1.482    0.325
        18  -9.3312     59.8953      5.2611   9.0177386302e+01   6.8415836182e+01    0.3709641     0.104623  48.14  0.001300244    3.359    0.702
        19 -10.0590     91.7728      3.8946   7.8248579772e+01   6.1549040297e+01    0.2099371    0.1710309  22.42 0.0004739618    1.153    0.133
        20 -11.8887     27.4367      2.9307   1.0665845230e+02   7.4126486093e+01    0.5703645    0.2756727  30.58  0.002461256    2.166    0.538
        21 -10.0825     18.7515      3.9815   1.1353019867e+02   7.4955623662e+01    0.1728459    0.1329575 -28.87  0.000289586    1.060    0.057
        22  -9.4097    100.6004      3.5611   7.5799688224e+01   5.9429927939e+01    0.1424809    0.1250549  28.79   0.00017888    1.046    0.044
        23  -8.9564    124.2908      1.2618   6.9869734350e+01   5.3595443490e+01    0.1449126   0.09557192  38.22            0    1.496    0.332
        24 -11.4897    153.3691    233.7957   1.2308722485e+02   9.2224834176e+00    0.2191349    0.1566678 -14.99 0.0009247705    1.672    0.402
        25 -10.2783    243.0472    247.4969   1.0947151603e+02  -3.3353213091e+00    0.1481151   0.09450388  14.06 0.0005623384    1.050    0.048
        26 -11.0593    246.9275    250.1727   1.0924516450e+02  -3.9913219313e+00     0.407682    0.1572762  24.15  0.002440685    2.052    0.513
        27 -10.3942    250.4457    243.7171   1.0780257900e+02  -3.8185092742e+00    0.3511686    0.1507615 -20.56  0.002216232    2.276    0.561
        28 -10.8302    181.6303    248.0708   1.1969984692e+02   3.8764756690e+00    0.4000459    0.1592964 -31.90  0.002168527    3.262    0.693
        29 -11.2402    178.6248    243.5626   1.1967316516e+02   4.7609236479e+00    0.3983417    0.1297509  30.57  0.001924497    2.500    0.600
        30  -9.4972    168.6400    250.6877   1.2229368591e+02   5.1955320596e+00    0.1119121   0.06671388  11.35 0.0007042255    1.747    0.427
        31 -10.0816    127.9323    249.6491   1.2952906137e+02   1.0376559283e+01    0.1580836    0.1371649  -4.76  0.001012497    1.375    0.273
        32  -9.7754     72.8361    250.0999   1.3967493932e+02   1.6727636623e+01    0.1420659    0.1159327  -0.65   0.00111119    1.717    0.418
        33  -9.2734     46.3074    250.3478   1.4445348047e+02   1.9427715872e+01   0.08488802   0.07436286  -7.53 0.0007043378    1.703    0.413
        34 -11.8149     27.8715    246.0197   1.4752201414e+02   2.1823921844e+01    0.3351835    0.1763673  89.08  0.002395742    2.026    0.506
        35 -12.6025     22.2310    249.0603   1.4860680720e+02   2.1860616072e+01    0.9111124   0.08106589  45.19  0.004295339    3.440    0.709
        36 -11.5397     17.4965    247.4842   1.4937034051e+02   2.2512790297e+01    0.2590656    0.1152971  42.22  0.001137242    1.538    0.350
        37 -10.6611     11.0226    250.2820   1.5054724234e+02   2.2633116838e+01    0.2628265    0.1067175  31.62  0.001730926    2.011    0.503
        38  -9.9788     79.5501    231.3684   1.3709974497e+02   1.8835313120e+01    0.2010465    0.1094102  32.22 0.0005636067    1.525    0.344
        39  -9.5121    236.0212    230.4920   1.0813572139e+02  -9.5711789912e-01     0.152463   0.08017147  26.94 0.0004316636    1.480    0.325
        40 -11.9453    155.9551    241.5320   1.2351890488e+02   7.8947098043e+00    0.3158054    0.1700872  23.29  0.001171455    1.636    0.389
        41 -10.1682     86.2894    233.4651   1.3595520868e+02   1.7725525695e+01    0.1827215    0.1159366  68.83  0.001186348    1.864    0.464
        42 -10.5581    167.1284    233.8539   1.2053507337e+02   7.4059816315e+00    0.1977098    0.1488355  22.72 0.0008062184    1.010    0.010
        43 -11.1441    144.4602    227.3482   1.2400864528e+02   1.1275700481e+01      0.22696    0.1580361 -62.04  0.001463813    2.172    0.540
        44  -9.1886     93.6755    229.3571   1.3416719052e+02   1.7489927581e+01    0.1175506   0.06849856  56.25 0.0007044989    1.772    0.436
        45  -9.6977     53.6736    234.6873   1.4229136574e+02   2.1120401267e+01   0.09171202   0.07847409  -4.26 0.0007041846    1.664    0.399
        46 -10.9358    115.8724    226.4158   1.2949845468e+02   1.5172753472e+01    0.2348019    0.1367931 -63.90  0.001414692    2.347    0.574
        47 -10.3038    190.3237    226.4936   1.1532759570e+02   5.2410704510e+00    0.1882932    0.1416488 -17.72 0.0007686277    1.411    0.291
        48 -10.4284    129.7693    226.7290   1.2679426698e+02   1.3315012052e+01     0.349165    0.1296374  44.07  0.001658548    2.475    0.596
        49 -10.2092     87.9911    227.0460   1.3509050273e+02   1.8537637032e+01    0.1630361    0.1289315  -0.30  0.001134938    1.677    0.404
        50  -9.7492      6.6836    227.3094   1.5069424062e+02   2.6643937204e+01    0.1081695   0.04835768  55.09 0.0004717783    1.635    0.388
        51 -10.6030     66.4849    226.3222   1.3928733252e+02   2.1121688461e+01    0.2499912    0.1170921  35.78    0.0012266    1.669    0.401
        52 -10.4054     81.5177    224.6749   1.3618026248e+02   1.9685843587e+01    0.2132296    0.1551336  58.71 0.0008593759    1.305    0.233
        53  -9.4893     25.0158    226.0000   1.4726958449e+02   2.5312751323e+01    0.1620287   0.04770176  29.31 0.0007979881    2.912    0.657
        54 -10.1322    181.7458    222.9990   1.1639650903e+02   6.8146456579e+00    0.1331966   0.09455485 -29.00 0.0008980229    1.602    0.376
        55 -10.9195     13.0694    222.1853   1.4936730454e+02   2.6989798039e+01    0.1602158    0.1353427  64.15 0.0003623193    1.174    0.148
        56 -11.4916    141.4553    221.3579   1.2386613716e+02   1.2531683851e+01    0.3456297    0.2003717  13.51  0.001408354    2.136    0.532
        57  -9.2163    134.8622    223.0000   1.2536314760e+02   1.3183151789e+01     0.193098   0.05352988  34.72 0.0007896958    2.855    0.650
        58 -10.9945    123.3579    221.5213   1.2747875168e+02   1.4939240006e+01    0.2327075     0.182806  32.46 0.0009045253    1.015    0.015
        59  -9.1370     51.6543    222.6924   1.4197109048e+02   2.3311977997e+01   0.09606013   0.08131354  -9.76 0.0005579498    1.699    0.411
        60 -10.3426    174.1754    219.9043   1.1737084946e+02   8.2416031709e+00    0.2130621    0.1409744  22.74 0.0006748492    1.217    0.178
        61  -9.6777     21.9615    220.2404   1.4761759449e+02   2.6566688651e+01     0.128226    0.0700449  35.69 0.0003818321    1.523    0.343
        62  -9.6128    250.1881    219.1951   1.0417260009e+02  -1.5397040667e+00      0.13382    0.1039495   3.99 0.0007025533    1.286    0.223
        63 -10.8912    192.5239    216.5443   1.1349236894e+02   6.1503000313e+00    0.3454447    0.1946043   9.58   0.00192153    1.963    0.491
        64  -9.7236     50.0457    218.4608   1.4203073588e+02   2.4204677307e+01    0.1649078   0.08976365  32.77 0.0007241475    1.583    0.368
        65 -10.7857     10.0567    217.0524   1.4976764081e+02   2.8123581323e+01    0.2606879    0.1337896  51.27 0.0009138085    1.442    0.307
        66  -9.3429     37.5515    217.4726   1.4445902105e+02   2.5618527202e+01    0.1057219   0.08408322  53.84 0.0001018986    1.037    0.036
        67 -10.0564     24.6147    216.9218   1.4696950918e+02   2.6910827105e+01    0.2327846   0.08537881  45.74  0.001331368    1.959    0.490
        68 -10.2026    234.7927    216.6022   1.0621108057e+02   5.9120438259e-01     0.146367   0.08791047  35.62 0.0009449166    1.712    0.416
        69 -10.5827    201.5925    215.9536   1.1177118472e+02   4.9895500639e+00    0.2176375    0.1349615  21.02  0.001381923    1.291    0.226
        70  -9.5819    137.1824    215.6277   1.2400505113e+02   1.3963173034e+01    0.1770361   0.09383683  25.93 0.0009456188    1.753    0.430
        71 -10.0052     30.9589    215.4907   1.4566178531e+02   2.6588015877e+01    0.1608898   0.08607613  34.33  0.001029644    1.586    0.370
        72 -10.4358    208.9907    212.1539   1.0987707996e+02   4.4404169328e+00    0.1857546       0.1407  -0.84 0.0004903691    1.147    0.128
        73 -10.1421    170.0533    213.2650   1.1721483784e+02   9.7006554502e+00    0.1764541    0.1279588  26.18  0.001157512    1.097    0.088
        74  -9.7821    142.7896    213.4044   1.2259490846e+02   1.3518735371e+01     0.168119   0.09552316  25.91 0.0004516347    1.583    0.368
        75 -11.0358     20.6504    211.5957   1.4752144300e+02   2.8203176410e+01    0.2734883    0.1313945  61.01 0.0008841262    1.748    0.428
        76  -9.7619    212.8683    211.8864   1.0915742051e+02   3.9499033469e+00    0.1429418    0.1215883  15.16 0.0005516379    1.331    0.249
        77 -12.0218      4.3532    207.2170   1.5055850329e+02   3.0321676293e+01    0.3942218    0.2376483  63.27  0.002856829    1.293    0.227
        78  -9.2872    238.5339    201.4522   1.0313820664e+02   1.7271964224e+00    0.1176912   0.08293179   6.30 0.0001389798    1.045    0.043
        79 -10.2425    205.9774    201.2642   1.0866787023e+02   6.1755466295e+00    0.1754479     0.109137  -4.96 0.0006147601    1.641    0.391
        80  -9.1064     34.6750    200.7237   1.4412901058e+02   2.8934137312e+01    0.0953829   0.08432153 -23.26 0.0002471476    1.586    0.369
        81 -11.2325    214.7924    199.0075   1.0673061063e+02   5.2139634762e+00    0.2254122    0.1224045  22.19 0.0008913081    1.631    0.387
        82 -10.6570    227.1904    196.7583   1.0421892559e+02   3.7669977520e+00    0.2405715    0.1470856   0.89 0.0007792108    1.520    0.342
        83 -11.8632    192.1698    195.0410   1.1017649035e+02   8.9801158126e+00    0.2983599    0.2759662 -43.73  0.002073819    1.609    0.378
        84  -9.7217    218.0473    207.2440   1.0752064737e+02   3.7916336336e+00    0.2437482     0.120754  -6.36  0.001174973    2.757    0.637
        85 -11.3363    215.4167    194.2956   1.0582326325e+02   5.7016048002e+00    0.2930324    0.1534965 -30.42  0.001588351    1.929    0.482
        86 -11.1161    232.4721    191.4749   1.0242276921e+02   3.6570394305e+00    0.2810709    0.1570014  13.06  0.001602372    1.718    0.418
        87 -10.3111    163.0000    191.4905   1.1531912637e+02   1.3891680802e+01    0.2495606   0.07147917 -44.09 0.0009391028    3.970    0.748
        88  -9.8128    202.9955    195.9682   1.0832775716e+02   7.2729642506e+00    0.1896676    0.1459534   8.85 0.0006965056    1.032    0.031
        89  -9.4809    205.5974    190.2340   1.0687701690e+02   7.6357332666e+00     0.160614    0.1016252 -16.05 0.0005857635    1.562    0.360
        90 -10.6777    225.8638    188.9617   1.0309128712e+02   4.8720487485e+00    0.2768919    0.1280926  14.94  0.001221468    2.914    0.657
        91 -10.4725    218.2701    187.1315   1.0407571245e+02   6.1808055618e+00    0.2597056   0.09592991 -35.22  0.001195556    2.783    0.641
        92 -10.5962    168.1267    184.2398   1.1308162001e+02   1.4216407287e+01    0.4055583    0.2476649  59.49  0.001800283    3.135    0.681
        93  -9.5021     61.6298    184.8039   1.3699285781e+02   2.9230488479e+01    0.1644937    0.1058185  89.62  0.000951694    1.708    0.414
        94 -11.9670     16.3075    183.2067   1.4716604186e+02   3.3954591532e+01    0.3715635     0.209771  74.14  0.001815179    1.582    0.368
        95  -9.6799    250.4716    189.9976   9.9270218036e+01   1.4177115523e+00    0.1645132   0.09334205 -22.95  0.000547459    1.565    0.361
        96 -11.6920    248.4982    182.6351   9.8265913216e+01   2.4875759760e+00    0.4298423     0.200865  14.92  0.002088347    2.586    0.613
        97 -11.5348    224.3137    178.3042   1.0143387398e+02   6.4034749572e+00    0.2798942    0.2037346   4.80 0.0005457017    1.118    0.106
        98 -10.3877      2.1487    180.1308   1.5013675747e+02   3.5642034802e+01    0.1860247    0.1280546  53.25 0.0005487036    1.191    0.160
        99 -11.7567    244.4086    178.1292   9.8088323062e+01   3.5558729795e+00    0.2980144     0.144848  -9.87    0.0014768    2.336    0.572
       100 -10.7267    200.0197    176.7234   1.0549465761e+02   1.0305533847e+01     0.183831    0.1403515  16.53 0.0005276055    1.096    0.088
       101  -9.0885     36.4213    178.5134   1.4233244188e+02   3.3139737743e+01    0.1167914   0.09610908  64.64 0.0003132484    1.025    0.024
       102  -9.9231    183.4823    173.0169   1.0799987087e+02   1.3483528786e+01    0.1836625    0.1022571 -12.80 0.0008098442    2.498    0.600
       103 -10.0089    236.2140    182.3928   1.0018829463e+02   4.1992051282e+00    0.1506041    0.1020538  36.54 0.0008223919    1.614    0.380
       104  -9.5794     59.6227    171.7931   1.3622320521e+02   3.2119729397e+01    0.1693797    0.1092202 -89.52 0.0009449403    1.678    0.404
       105  -9.6290     74.4947    171.4970   1.3255028127e+02   3.0405293090e+01    0.1246352     0.112921  53.31 -5.747617e-05    1.019    0.018
       106  -9.4589     70.2127    177.5917   1.3426285777e+02   2.9679153217e+01    0.1548409     0.112996  22.06 0.0004287112    1.485    0.327
       107  -9.8353      4.5813    167.7287   1.4911833048e+02   3.8005711131e+01    0.2091606   0.09077562 -78.29  0.001136235    2.073    0.518
       108  -9.7592    210.0147    166.3081   1.0168371248e+02   1.0173899251e+01    0.1832689    0.1429988  13.73 0.0005632437    1.084    0.077
       109  -9.0845     34.6338    166.7397   1.4189657685e+02   3.5778968685e+01    0.1096068   0.08928149 -29.13 0.0003819895    1.641    0.391
       110 -10.5295      9.9981    165.1813   1.4773727519e+02   3.8155670113e+01    0.1811419    0.1367329  80.88 0.0003456075    1.123    0.110
       111 -10.6498     52.9962    163.0686   1.3699603624e+02   3.4718542410e+01       0.5472    0.2808949 -29.32  0.002093967    4.387    0.772
       112  -9.0691    229.5033    164.5316   9.7942333806e+01   7.3699141078e+00    0.1279822   0.09826333   2.04 0.0001297954    1.033    0.032
       113 -10.4748     36.2954    161.6010   1.4107898852e+02   3.6733905425e+01    0.3704439    0.1445299 -68.99  0.001748966    2.389    0.581
       114 -11.0473    246.5069    162.4781   9.4798979796e+01   5.0965839165e+00    0.1954139    0.1361877 -22.40 0.0007529596    1.300    0.231
       115 -11.2046    247.8013    158.8235   9.3885181948e+01   5.3456453592e+00    0.2595681    0.2127829 -18.24  0.001782411    1.299    0.230
       116  -9.5742     41.2696    165.5979   1.4016980483e+02   3.5387868847e+01    0.1316532    0.0755104  65.62 0.0005630833    1.745    0.427
       117  -9.4499    213.3042    162.3317   1.0031350673e+02   1.0195981951e+01    0.1354431   0.08574796   3.94 0.0003714138    1.658    0.397
       118 -10.9768     21.8832    156.5197   1.4433090634e+02   3.9111796315e+01    0.3184969    0.2895074  37.63  0.001963339    1.229    0.186
       119 -10.4110      8.0066    158.2994   1.4787725958e+02   3.9770151876e+01    0.1517492    0.1291395  56.38 0.0004440178    1.130    0.115
       120  -9.2836    235.6622    154.7029   9.4981361506e+01   7.6783726665e+00    0.1317043   0.08111142   6.84 0.0004972023    1.655    0.396
       121 -10.0115    205.4134    152.3100   9.9724090159e+01   1.2919189860e+01    0.2503956    0.1176957 -28.29  0.001129811    2.118    0.528
       122 -10.1456    197.2238    153.6052   1.0152865772e+02   1.4125218182e+01    0.1931166    0.1121758  28.73 0.0009526556    1.670    0.401
       123  -9.3204    151.6730    153.3413   1.1099982678e+02   2.2156162353e+01    0.1344931    0.1116615  75.20 0.0007051335    1.736    0.424
       124 -10.2926     10.3406    152.6938   1.4700623319e+02   4.0828932387e+01    0.1933273   0.06612065  35.97 0.0004583242    2.480    0.597
       125 -10.4351    178.3177    151.4266   1.0483667480e+02   1.7771041980e+01    0.2812214    0.2378148  47.16  0.001627697    1.394    0.283
       126  -9.5028    169.3125    152.2867   1.0690370574e+02   1.9224844612e+01    0.1405316   0.09926032   5.85   0.00037136    1.580    0.367
       127  -9.6065     93.0080    148.2308   1.2459276585e+02   3.2848834052e+01     0.183677     0.108027  34.16  0.000648411    1.631    0.387
       128  -9.4440    233.5180    146.9508   9.3745431345e+01   9.0149397701e+00    0.1922341    0.1087728 -25.93  0.001024429    1.567    0.362
       129 -10.5644    206.9058    145.9751   9.8124355860e+01   1.3590091461e+01     0.224716    0.1773545  25.45 0.0007388025    1.197    0.165
       130 -10.9755      4.1296    142.4956   1.4805109194e+02   4.3511173033e+01    0.2970053    0.1719289 -48.44  0.001703349    2.050    0.512
       131 -11.5472      3.6796    135.9745   1.4781985063e+02   4.5015764023e+01    0.4988042    0.2069052 -57.16  0.001666093    2.437    0.590
       132 -11.6779      9.1294    136.7942   1.4638669846e+02   4.4486986327e+01    0.2164762    0.1961327 -69.70 0.0002492226    1.205    0.170
       133 -10.2592    212.6563    141.8481   9.6206281320e+01   1.3193623469e+01    0.3442761    0.1930838  -1.64  0.001496375    2.464    0.594
       134  -9.8877    230.3468    142.3145   9.3291350909e+01   1.0140566735e+01    0.1375188   0.08583743   6.90 0.0003677323    1.718    0.418
       135  -9.8418     37.2435    142.3599   1.3909056145e+02   4.0967158176e+01    0.1799694    0.1012066  39.74  0.000949324    1.689    0.408
       136 -11.3480     12.3042    141.5356   1.4583041787e+02   4.3189830922e+01     0.310639    0.1571377 -33.23  0.001462935    3.146    0.682
       137 -10.4468    236.2458    138.6782   9.1574035975e+01   9.6554047194e+00    0.2044027    0.1757706 -17.66 0.0005656953    1.227    0.185
       138 -11.1996     57.6368    138.5831   1.3291336907e+02   3.9710055945e+01    0.3359177    0.2053387  60.16 0.0006020999    1.784    0.439
       139 -10.2632     21.9906    136.1828   1.4278033996e+02   4.3710163774e+01    0.1979544    0.1410743  61.08  0.001207806    1.310    0.236
       140  -9.9847    138.3448    135.2709   1.1042469867e+02   2.7982198922e+01    0.2730094    0.1684983  27.56 0.0007597397    1.730    0.422
       141  -9.1602     67.6694    134.2805   1.2941609247e+02   3.9495203855e+01    0.1396749   0.09582333  62.48 0.0004786308    1.605    0.377
       142  -9.9258     79.8156    133.3845   1.2576757749e+02   3.8077160529e+01    0.1804773    0.1314983  20.11 0.0003794563    1.545    0.353
       143 -12.1586     36.4859    130.9028   1.3810144911e+02   4.3721110272e+01    0.3846948    0.3037277 -84.05  0.001520692    1.156    0.135
       144  -9.6114     29.0261    130.7120   1.4026818833e+02   4.4425389664e+01     0.163317    0.1523951  78.68            0    1.085    0.078
       145 -10.2810    249.7660    129.9986   8.7680293900e+01   8.5843451693e+00    0.2091691     0.173927  20.07  0.001090193    1.248    0.198
       146 -10.2670    125.2291    130.1132   1.1261962453e+02   3.1424131607e+01    0.3864377    0.1952014  22.23  0.001353258    3.095    0.677
       147 -10.1568     73.9585    129.4778   1.2680857063e+02   3.9790876429e+01    0.2473721    0.1809974 -46.22 0.0006305234    1.430    0.301
       148  -9.4037    242.9884    128.4566   8.8344833415e+01   9.8772265073e+00    0.1660968    0.1200275  36.84 0.0004371166    1.492    0.330
       149  -9.6010     60.0715    128.5358   1.3077948878e+02   4.1784738569e+01    0.1867574    0.1292175  33.06 0.0003790589    1.472    0.321
       150 -10.4521    219.5818    124.4741   9.1162337464e+01   1.4458848224e+01    0.2486402    0.1975888  -2.67 0.0005686936    1.116    0.104
       151 -11.7129     10.9544    122.3751   1.4486384939e+02   4.7735345518e+01    0.4480466    0.2911788 -22.06  0.002536693    2.102    0.524
       152 -10.1187     10.0469    102.2773   1.4343100854e+02   5.2633415334e+01    0.2574888    0.1527861  48.42  0.001250289    1.758    0.431
       153 -10.6474     17.7457    116.0164   1.4224592774e+02   4.8809368609e+01    0.2755494    0.1980084  85.75  0.001217255    1.259    0.206
       154 -10.0460     20.1308    112.8448   1.4117553652e+02   4.9410729643e+01    0.2371358    0.1557181 -67.45 0.0006705059    1.340    0.254
       155 -12.0983     16.5349    108.7693   1.4192037321e+02   5.0650230191e+01     0.374949    0.3365399  78.29 0.0005602394    1.090    0.083
       156  -9.3370     20.5157    121.5322   1.4191502941e+02   4.7284601671e+01    0.1249421    0.1081148 -88.57 0.0001691691    1.010    0.010
       157  -9.7399    221.5478    120.0056   8.9814062414e+01   1.4736180819e+01    0.2078822    0.1181977 -27.56 0.0007360511    1.577    0.366
       158  -9.4285    209.6728    118.3253   9.1433280636e+01   1.7189845964e+01    0.1308246    0.1088403 -59.64 0.0007049676    1.696    0.410
       159  -9.7876     54.3775    117.7063   1.3085399829e+02   4.5049562804e+01    0.2159362    0.1624599  -7.16  0.001141911    1.729    0.422
       160  -9.9623    179.1944    116.2365   9.6709299455e+01   2.3519178337e+01    0.2170529    0.1827243   6.64 0.0005326428    1.146    0.127
       161 -10.5719    100.8064    116.3919   1.1632666361e+02   3.8708742227e+01    0.2114966    0.1389003  24.57 0.0009581185    1.720    0.419
       162 -11.3082     36.0628    111.0229   1.3577796857e+02   4.8565866791e+01    0.5289307     0.287657 -69.52  0.001968818    1.644    0.392
       163  -9.3884      5.2746    113.4322   1.4591274599e+02   5.0200384085e+01    0.1665182   0.09946202  40.17 0.0009490909    1.719    0.418
       164  -9.7511    106.9270    110.7144   1.1323188393e+02   3.8909584276e+01    0.2008275    0.1883842  36.23 0.0003505544    1.072    0.067
       165  -9.8138     42.4962    110.4807   1.3357824617e+02   4.8085789210e+01    0.1329233     0.120668 -79.38 0.0001274433    1.003    0.003
       166  -9.8525    167.4704    108.9864   9.7367226832e+01   2.7190597864e+01    0.2228296    0.1411893 -34.20 0.0005081858    1.542    0.351
       167 -10.2129    242.0412    108.2040   8.3973484296e+01   1.2662398449e+01    0.1840555    0.1519544 -72.06 0.0008191623    1.923    0.480
       168 -10.9938     62.0188    107.0619   1.2650695893e+02   4.6715254400e+01    0.2787575    0.1837211 -53.54 0.0004209508    1.431    0.301
       169 -11.2193     23.3249    107.1333   1.3950104787e+02   5.0574373748e+01    0.2474136    0.2031554 -83.04 0.0004298159    1.070    0.065
       170  -9.5240    133.4621    107.4926   1.0510144873e+02   3.4514211719e+01    0.1530692    0.1404814  -0.49 0.0001932004    1.073    0.068
       171 -10.3686      6.3720    106.2098   1.4499718015e+02   5.1879493019e+01    0.2550108     0.172529 -77.19 0.0007352366    1.238    0.192
       172 -10.8002      2.8184    105.1588   1.4606772795e+02   5.2315694659e+01    0.2627097    0.1616114  83.37  0.001075936    1.456    0.313
       173  -9.3340    126.7649    106.6120   1.0664757427e+02   3.6035474799e+01    0.1962252    0.1415174  49.85 0.0001854735    1.481    0.325
       174  -9.9337    223.4641    104.0045   8.5742823017e+01   1.6631457671e+01    0.1938775    0.1732166   0.10 0.0005125871    1.078    0.072
       175 -10.2922     92.6449    103.1215   1.1571087337e+02   4.3115630931e+01    0.4566638    0.2739476 -70.84  0.001303491    2.357    0.576
       176 -11.1402     70.3270    102.5396   1.2281500295e+02   4.6702643810e+01    0.3880536    0.2342946  16.94 0.0009507494    2.124    0.529
       177 -10.6789    247.9922    102.2892   8.1805520984e+01   1.2379526233e+01    0.1792263    0.1542336  -5.48 0.0008093538    1.083    0.076
       178 -10.0593    120.1587    101.5179   1.0712871749e+02   3.8411388013e+01    0.2868604    0.1927578  -8.22  0.001165674    2.243    0.554
       179 -10.1343     36.5551    101.4800   1.3421908272e+02   5.0874752315e+01    0.2581368     0.131637  24.27  0.001181738    2.163    0.538
       180 -10.4815     27.9221    100.9655   1.3715101148e+02   5.1741837894e+01    0.1861365    0.1657835 -74.50   0.00117879    1.023    0.022
       181 -11.4184     20.7549     95.4744   1.3894807018e+02   5.3635945173e+01    0.6020349    0.1273542 -69.35  0.002039899    3.532    0.717
       182 -10.6242      3.8676    100.8092   1.4537388033e+02   5.3317184721e+01    0.2931422    0.1785354  36.17  0.001032131    1.769    0.435
       183 -10.6979     61.9962     98.4895   1.2478830400e+02   4.8804618645e+01    0.2603462    0.1840941   7.18 0.0009670028    1.792    0.442
       184  -9.8203    104.9173     95.9351   1.1008099134e+02   4.2552810981e+01    0.2254402    0.1844797  80.29 0.0004906387    1.600    0.375
       185  -9.9623     92.8332     95.8391   1.1382498300e+02   4.4752813829e+01    0.2307824    0.1960663 -24.54 0.0008139947    1.241    0.194
       186  -9.8917     50.4770     99.1781   1.2894852047e+02   5.0026356741e+01    0.1959555    0.1270817 -67.08 0.0004478295    1.444    0.307
       187 -10.6632     10.4659     91.4207   1.4216749375e+02   5.5275332107e+01    0.3055041    0.1918188  -5.30  0.001628885    2.056    0.514
       188 -11.6441      7.1042     88.8560   1.4311412915e+02   5.6082174307e+01    0.5809786    0.1872079  47.13 0.0003328049    3.609    0.723
       189 -10.2520      1.4769     94.1040   1.4562549769e+02   5.5059370008e+01     0.256866   0.09164995 -72.17  0.001148676    2.182    0.542
       190 -10.8287    109.3181     93.0084   1.0795376612e+02   4.2354586324e+01    0.3653236    0.1720421 -41.55  0.001002248    2.131    0.531
       191  -9.6298    227.0072     93.4806   8.2657470023e+01   1.7402492536e+01    0.1819167    0.1343305  49.38 0.0004741206    1.528    0.345
       192 -11.1901      8.3524     94.8633   1.4328691649e+02   5.4541713047e+01    0.2602612    0.2018986 -76.48 0.0003430383    1.079    0.073
       193  -9.4062    171.3178     91.3237   9.1827999780e+01   2.9438228830e+01    0.1566673    0.1128195   9.94 0.0007044157    1.670    0.401
       194  -9.5186    115.6676     91.2814   1.0559686821e+02   4.1470692847e+01    0.1487533    0.1230079  82.57 0.0003864662    1.611    0.379
       195 -10.4270     95.9422     90.5642   1.1141976801e+02   4.5398162630e+01    0.3207178    0.1820437 -18.81  0.001051626    3.533    0.717
       196  -9.3392     37.8872     90.3715   1.3187822460e+02   5.3507958518e+01    0.1604186     0.126149  -7.88 0.0001125733    1.522    0.343
       197  -9.3973     77.6810     89.6928   1.1727641145e+02   4.8677400802e+01    0.1497778    0.1106629 -20.62 0.0007031424    1.636    0.389
       198  -9.7773     49.4682     87.9552   1.2706779240e+02   5.2905481138e+01    0.2700114    0.1307303 -67.72 0.0007333155    2.072    0.517
       199 -10.7791     46.2169     83.0019   1.2723616158e+02   5.4485339974e+01    0.4835325    0.2659866 -64.57   0.00211685    1.688    0.408
       200 -10.7060    113.0788     86.6746   1.0502299413e+02   4.2963450622e+01     0.322878    0.1904737  49.28 0.0009323561    1.834    0.455
       201 -11.1160    118.2330     83.1560   1.0246860761e+02   4.2633873958e+01    0.3481689     0.291221   0.22  0.001158928    1.316    0.240
       202 -12.5515     72.2182     78.7525   1.1628138029e+02   5.2088011470e+01    0.4917296    0.3941466 -29.16 0.0005139865    1.289    0.224
       203 -11.1204     77.7299     71.9054   1.1222412794e+02   5.2774724206e+01    0.3204958    0.2795496  45.23 0.0003208702    1.250    0.200
       204 -10.9027     85.2361     81.2885   1.1236100731e+02   4.9380690618e+01    0.3752111    0.2295304 -52.55  0.001195533    1.615    0.381
       205 -11.5200     23.6934     78.4076   1.3527166332e+02   5.7668527146e+01    0.4084758    0.2583326 -57.29  0.002211514    1.350    0.259
       206 -11.4528     19.9238     82.0275   1.3736263713e+02   5.7031577373e+01    0.3383992    0.2101324  83.32  0.000975713    1.758    0.431
       207 -11.2640     15.9713     81.5037   1.3883705266e+02   5.7413517575e+01    0.3421299    0.2231265 -44.55  0.001301254    1.505    0.335
       208 -10.2097      2.3909     71.8452   1.4302779526e+02   6.0476955372e+01    0.2648344      0.18611 -61.35  0.001595565    1.192    0.161
       209 -11.5890      3.3354     77.4363   1.4329772712e+02   5.9064680658e+01    0.4867224    0.3359381  43.26  0.002926412    1.634    0.388
       210 -11.2520      6.7381     73.7994   1.4148535741e+02   5.9811804416e+01    0.4166602    0.2529905  -5.61  0.002283487    2.060    0.514
       211 -11.4301    150.9931     78.5919   9.2581455402e+01   3.6248023211e+01    0.2743828     0.268036 -68.45 0.0003883716    1.148    0.129
       212 -10.2163     54.6915     72.3121   1.2126305221e+02   5.6080032591e+01    0.2101463    0.1730536 -84.17 0.0004915877    1.409    0.290
       213 -11.4771     58.6730     75.9318   1.2065466069e+02   5.4697450900e+01    0.5426202     0.342457  80.24  0.001696772    2.863    0.651
       214 -11.9249     62.6179     72.8365   1.1825431375e+02   5.4890540088e+01    0.4646526    0.4043154 -51.15  0.001747962    1.078    0.072
       215 -11.2690    108.1260     75.9406   1.0323574983e+02   4.6212209087e+01    0.3438238    0.2717927 -13.71 0.0004037622    1.417    0.294
       216  -9.4027     12.3287     77.7134   1.3974655386e+02   5.8563464948e+01    0.1272935   0.08745415  63.59 0.0006439234    1.613    0.380
       217 -10.0039    121.6011     76.1990   9.9349721969e+01   4.3311633545e+01    0.2214927    0.1434449 -28.35 0.0009477746    1.651    0.394
       218 -11.4206     40.1066     72.8451   1.2738810293e+02   5.7620353040e+01     0.284459    0.2435661 -85.25 0.0003204694    1.246    0.197
       219 -11.1589     26.0189     68.9575   1.3251953838e+02   5.9832789531e+01    0.3666414    0.2821203 -85.31  0.001524082    1.341    0.255
       220 -10.9350     20.8342     65.9777   1.3419065650e+02   6.0943408311e+01    0.3050751     0.182974  26.86  0.001614188    1.881    0.468
       221 -10.1370    101.4812     78.4803   1.0611460217e+02   4.7009001569e+01    0.1518788     0.143959 -15.81 0.0008100347    1.012    0.012
       222 -10.3672    145.4481     71.9646   9.1823683022e+01   3.8701429735e+01    0.2363416    0.1467896 -35.59 0.0008156464    1.572    0.364
       223 -10.1400    115.8442     71.2222   9.9391618599e+01   4.5538292629e+01    0.3421413    0.2020603 -37.85  0.001053388    1.665    0.399
       224 -11.6283     49.4032     69.9241   1.2278519136e+02   5.7303788249e+01    0.4732561     0.303533 -32.84  0.001081186    1.686    0.407
       225  -9.3879    175.4136     70.5368   8.5038332802e+01   3.1890902165e+01     0.149278    0.1375988  -6.43  6.17054e-05    1.038    0.036
       226  -8.7814    161.0000     69.9650   8.7731421869e+01   3.5379093873e+01    0.2491282   0.08404949 -32.79 0.0005427087    2.878    0.652
       227 -11.5869     68.9068     67.3983   1.1416280666e+02   5.5216534973e+01    0.3525428     0.285228 -37.31 0.0008255913    1.164    0.141
       228 -11.3905    130.3877     65.3267   9.3398890729e+01   4.3386919810e+01    0.6014715    0.2423005 -44.15  0.002054702    2.649    0.623
       229 -11.0469     94.8327     68.0423   1.0493299464e+02   5.0516240117e+01    0.3941934    0.2633144 -42.01  0.001206773    1.446    0.308
       230 -10.8314     36.8606     67.0156   1.2737246418e+02   5.9363812614e+01    0.4057636    0.2581887 -52.81  0.001733918    1.357    0.263
       231 -11.0732     43.0232     65.8691   1.2440658924e+02   5.9005294633e+01    0.3618726    0.2824311 -78.37  0.001373144    1.414    0.293
       232 -11.1945     31.0480     66.1942   1.2972108171e+02   6.0098608447e+01    0.2894628    0.2257717 -68.64 0.0005142525    1.192    0.161
       233 -10.1082      6.7760     67.9540   1.4067164749e+02   6.1249860860e+01    0.1923599    0.1738632 -35.40 0.0008458465    1.209    0.173
       234 -10.4669    156.1777     66.2098   8.7579240796e+01   3.7139591556e+01    0.2116086    0.1830516 -63.75  0.001072043    1.351    0.260
       235  -9.2040    146.7000     66.2857   8.9711701711e+01   3.9386565761e+01    0.1484536    0.1214291 -70.38 0.0002586472    1.554    0.356
       236 -10.3620    118.9808     65.9393   9.6716330332e+01   4.5868001989e+01    0.2892316    0.2346576  11.31 0.0004726982    1.364    0.267
       237 -10.4911    122.0970     61.9361   9.4464411756e+01   4.5907286617e+01     0.345776    0.2444526  23.40    0.0014457    1.655    0.396
       238 -11.1977      2.1188     63.6335   1.4209678803e+02   6.2500721627e+01    0.4738352    0.2132081 -79.26  0.002271496    1.930    0.482
       239 -11.2302     83.9205     62.9560   1.0702019105e+02   5.3652126146e+01    0.4624433    0.3601444 -73.04  0.001686945    1.736    0.424
       240 -10.6752     86.1220     58.1285   1.0451274797e+02   5.4249460119e+01    0.3158467    0.2458271 -42.49  0.000703836    1.248    0.199
       241 -10.2712     76.8945     65.3541   1.1043555264e+02   5.4374167675e+01    0.3254535    0.1755741  47.98  0.001340136    2.192    0.544
       242 -10.5475    174.0785     63.7548   8.3250998426e+01   3.3243013231e+01    0.2699741    0.2346409 -47.25   0.00062309    1.207    0.172
       243  -9.6003    165.5640     64.5585   8.5126372776e+01   3.5155654592e+01    0.1496624    0.1414965  -4.36 8.942649e-05    1.013    0.012
       244 -10.1355    106.1763     63.8194   9.9803413001e+01   4.9063499672e+01     0.350441    0.1050161 -45.32  0.001024182    3.544    0.718
       245  -9.9545    141.9091     63.5349   8.9930763384e+01   4.0992701718e+01    0.2172447    0.1514092  52.58 2.538297e-05    1.471    0.320
       246 -10.2731     51.8317     62.4800   1.1964518816e+02   5.8768039630e+01    0.2879688    0.1913027 -33.28  0.001262323    1.549    0.355
       247 -11.4606     10.8873     62.5242   1.3800798789e+02   6.2386697079e+01    0.2436853    0.2000758 -62.00 0.0004272457    1.015    0.015
       248 -10.1954     93.0367     61.3986   1.0325279504e+02   5.2240894215e+01    0.2412816    0.1912785 -37.34 0.0005601625    1.213    0.176
       249  -9.6633     71.8026     61.6185   1.1114229294e+02   5.6047155524e+01     0.192402    0.1859937  15.83   0.00010033    1.105    0.095
       250 -10.6521     70.2641     58.5602   1.1070001810e+02   5.6968946167e+01    0.3372494    0.2032275 -35.02  0.001275493    1.687    0.407
       251  -9.5184     56.3135     62.2964   1.1768061769e+02   5.8220924336e+01    0.1444792     0.134212 -46.42  0.000218946    1.064    0.060
       252 -11.0979     57.5498     59.0215   1.1611100848e+02   5.8800572610e+01    0.3399689    0.3006196 -39.56  0.001631487    1.027    0.027
       253 -11.1565     27.1750     61.3401   1.3033306882e+02   6.1605722188e+01    0.4114519    0.2227989  14.55  0.001995457    2.183    0.542
       254 -10.3971     32.9708     60.4911   1.2747067061e+02   6.1310718022e+01    0.3581461    0.2089926 -15.51  0.001654628    2.276    0.561
       255  -9.5584    184.3216     61.0054   8.0620091834e+01   3.1214390119e+01    0.2038612    0.1850702 -17.71 0.0004981754    1.043    0.042
       256  -9.3340    134.4688     60.4748   9.0709841930e+01   4.3283176626e+01    0.1517174    0.1479028 -29.22  4.16748e-05    1.075    0.070
       257 -10.9238     64.3235     59.9540   1.1358416239e+02   5.7599845943e+01      0.34047    0.2041122  42.40 0.0009798739    1.856    0.461
       258 -10.0813     18.1566     59.6207   1.3411987276e+02   6.2678247542e+01    0.2278276    0.1576921 -79.65 0.0006049887    1.421    0.296
       259 -11.6099    113.7411     57.8891   9.5407131716e+01   4.8538266240e+01    0.5125537    0.2632432  48.97  0.001544355    1.986    0.496
       260  -9.8375     38.7173     58.4229   1.2427983301e+02   6.1242270872e+01    0.1759804    0.1287331  -2.05 0.0009355452    1.587    0.370
       261  -9.4334    170.4888     57.5170   8.1989842688e+01   3.5034520099e+01    0.1480235    0.1418688 -18.45 7.464619e-05    1.021    0.021
       262 -10.8369    137.8284     54.7800   8.7922988473e+01   4.3429581243e+01    0.3434872    0.2594737 -15.93   0.00163339    1.400    0.286
       263 -11.4014    135.5984     50.3528   8.6890446893e+01   4.4682602219e+01    0.4353509    0.2881253 -59.50  0.001363304    2.047    0.512
       264  -9.7512     80.9701     57.0339   1.0600941809e+02   5.5436474872e+01     0.223048    0.1705086  -7.83 0.0004463703    1.513    0.339
       265 -10.8943     99.1711     55.8368   9.9173090359e+01   5.2091048735e+01    0.4785011    0.2102492  38.39  0.001624003    2.479    0.597
       266  -9.6363    193.4100     55.1994   7.7465237539e+01   2.9879668034e+01    0.2145619    0.1177198 -39.50 0.0009390789    1.738    0.425
       267 -11.6624     38.3934     51.5699   1.2239372312e+02   6.2885496969e+01    0.6222939    0.3691641 -39.09   0.00308001    1.587    0.370
       268  -9.9853     44.7491     51.4430   1.1933763914e+02   6.2194045802e+01    0.2940749    0.2140545 -21.94 0.0008726632    1.461    0.316
       269 -11.0025     46.0925     47.1004   1.1720980447e+02   6.3008612753e+01    0.2424052    0.1934676 -50.22            0    1.171    0.146
       270 -12.4258    127.9211     51.7929   8.9304086461e+01   4.6306640492e+01    0.4108323    0.3222419 -22.88 0.0006207862    1.278    0.218
       271 -11.6652      4.3716     53.0342   1.3943111909e+02   6.4997586260e+01    0.6922041    0.3230484 -18.66  0.003277897    2.639    0.621
       272 -10.9794     12.8983     50.1525   1.3464010993e+02   6.5288549923e+01    0.3827185    0.1471048 -58.48   0.00173183    1.953    0.488
       273 -12.1693      9.3073     45.3254   1.3541820853e+02   6.6634641702e+01    0.5609289      0.36992 -30.80  0.001640895    1.513    0.339
       274 -10.7759      6.9609     40.9077   1.3567755932e+02   6.7796822034e+01    0.2746323    0.1600245 -53.74  0.000575042    1.355    0.262
       275 -10.3376     87.1155     52.7452   1.0215160842e+02   5.5141166038e+01    0.2156532    0.2086012  71.96  0.001006119    1.216    0.178
       276 -10.5458     73.3048     52.1903   1.0717543562e+02   5.7811931745e+01    0.3605549    0.2947267  77.44  0.001489149    1.765    0.434
       277  -9.9978     76.8692     49.7890   1.0485116825e+02   5.7668807119e+01    0.2512778     0.194207  19.14  0.000599913    1.388    0.280
       278 -10.3793    157.8692     51.9668   8.2611088571e+01   3.8945984583e+01    0.2294584    0.1929865  17.90 0.0004578034    1.260    0.206
       279  -9.6563     83.4160     51.4785   1.0301701938e+02   5.6108111697e+01    0.1479795    0.1365026 -19.40 8.749654e-05    1.019    0.019
       280 -11.0886     51.7512     47.7239   1.1477662425e+02   6.2128040513e+01    0.6480502    0.2114343 -50.69  0.002330111    2.744    0.636
       281 -10.7202    114.9483     49.0871   9.1796348490e+01   4.9820469832e+01    0.3610184    0.2588449  -5.31  0.001457706    1.675    0.403
       282 -11.7987    143.3289     46.5155   8.3763678815e+01   4.3365429099e+01     0.477486    0.3765329  57.55   0.00183581    1.297    0.229
       283 -10.9465    138.0360     43.7840   8.3955609946e+01   4.5088199406e+01    0.4006352    0.2797768 -84.19 0.0008202655    2.153    0.535
       284 -11.0874    100.6938     48.4815   9.5871382081e+01   5.3134394888e+01    0.2991676     0.241248 -47.04 0.0008620361    1.336    0.252
       285  -9.6983     22.8514     46.1780   1.2854780755e+02   6.5577083019e+01    0.1841403     0.158361 -61.99  0.000504614    1.122    0.109
       286 -10.1196     17.7402     45.4422   1.3101394251e+02   6.6117832161e+01    0.3119489    0.1719561  70.21  0.001310788    3.210    0.688
       287  -9.6317    233.2858     45.1076   6.9706640844e+01   2.2252787133e+01    0.1852601     0.141605 -28.58 0.0004948424    1.141    0.123
       288 -10.8298    122.4695     44.0119   8.7811715422e+01   4.8873419727e+01    0.4516854    0.2866367 -27.72  0.001146994    1.584    0.369
       289 -10.0882     98.6344     44.5675   9.4979343479e+01   5.4279537363e+01    0.3734534    0.2343569  17.45   0.00147628    2.230    0.552
       290  -9.9166     86.1638     45.1165   9.9486460585e+01   5.6795833143e+01    0.2707887    0.1631442  36.78  0.001100117    1.717    0.418
       291 -10.6670     64.0647     41.4916   1.0678843226e+02   6.1570692356e+01      0.29719    0.2203481 -33.31  0.001006683    1.251    0.201
       292 -11.0375     69.7016     36.8782   1.0240254024e+02   6.1487173271e+01    0.6664258    0.3046421 -24.33  0.002180142    3.608    0.723
       293 -10.6741    162.0153     41.4235   7.8317310443e+01   3.9394566195e+01    0.5076385    0.2782301 -67.98  0.001743854    3.366    0.703
       294  -9.6178     56.4744     41.9713   1.1038204688e+02   6.2678053881e+01    0.1974256    0.1250117 -69.54 0.0008100026    2.674    0.626
       295 -10.1073     23.8248     41.6979   1.2671423842e+02   6.6545859751e+01    0.2216074    0.1688943 -58.31  0.001303255    1.176    0.150
       296 -10.3940    226.3237     40.3877   6.9212163189e+01   2.4267419742e+01    0.2425296    0.2038998 -48.90 0.0005724347    1.153    0.132
       297 -10.4293     95.1698     40.0937   9.4274607299e+01   5.5809826068e+01    0.3600535    0.2472095  66.06  0.001396508    1.982    0.496
       298 -10.1483     44.0588     39.6527   1.1542487658e+02   6.4897518748e+01    0.3233068    0.1783065 -50.23 0.0009660939    1.643    0.391
       299  -9.5768     29.2768     40.4695   1.2339767828e+02   6.6350489838e+01     0.304343    0.1178567 -46.71 0.0009606455    2.143    0.533
       300 -11.1694     19.1280     37.8594   1.2810442070e+02   6.7793727360e+01    0.2261581    0.1784303 -46.44 0.0002684635    1.047    0.045
       301 -11.3450     24.8768     35.6128   1.2414018189e+02   6.7846492770e+01    0.3498834    0.2462388  40.53 0.0008747302    1.751    0.429
       302 -10.4103    119.3004     39.4193   8.6855014188e+01   5.0350978277e+01    0.2642054    0.1852979 -11.27 0.0006148639    1.595    0.373
       303 -10.6105     88.9415     38.6990   9.5809211595e+01   5.7382365723e+01    0.3781388    0.2728134 -70.15 0.0009292534    2.280    0.561
       304 -11.6957     82.4352     36.7492   9.7314763673e+01   5.9065909331e+01    0.3662044    0.3174098  19.34  0.001404713    1.125    0.111
       305 -10.8481      9.2176     33.5834   1.3254000693e+02   6.9402429510e+01    0.3300256    0.2200702 -65.01  0.001049826    1.308    0.235
       306 -11.2325      6.1231     30.1151   1.3342641064e+02   7.0356348538e+01    0.4044044    0.2203659 -42.55  0.001248272    1.532    0.347
       307 -10.0803    103.6625     36.8290   9.0207802418e+01   5.4447811922e+01    0.2944645    0.2134977  53.42  0.001000025    1.435    0.303
       308 -10.4615    106.1832     34.1664   8.8335886644e+01   5.4277137587e+01    0.2963989    0.2865418   0.97  0.000997809    1.067    0.063
       309 -10.7152    111.1865     34.1210   8.6894855844e+01   5.3100222741e+01    0.4525029    0.2566167 -23.94 0.0006018704    1.846    0.458
       310 -10.8438     76.4490     33.6230   9.8206286963e+01   6.0807022422e+01    0.2706957    0.1717115  38.62  0.001279891    1.595    0.373
       311 -10.0253     61.0491     33.9225   1.0484845650e+02   6.3556004121e+01    0.2048386    0.1843105 -12.69 0.0003013279    1.024    0.024
       312 -10.4298     56.0587     31.8031   1.0619527578e+02   6.4778975291e+01    0.3326348    0.1772554 -27.62  0.001366648    2.131    0.531
       313  -9.8556     32.3506     33.6095   1.1922442601e+02   6.7569080592e+01    0.2604828    0.1286797  22.16  0.001202428    2.271    0.560
       314 -11.1487    145.2083     31.6724   7.8023305880e+01   4.4942376074e+01    0.2518792    0.2407351  -1.98 0.0002600455    1.036    0.035
       315  -9.9720     97.7080     31.9900   8.9965696152e+01   5.6565785408e+01    0.2124128    0.1818403 -12.34 0.0005112032    1.134    0.118
       316 -12.1942    225.9001    246.1362   1.1199457900e+02  -1.2691274843e+00    0.5953938    0.2912108   7.39  0.003517474    2.210    0.548
       317 -10.7941      2.4839     37.5170   1.3740265163e+02   6.8783001438e+01    0.4403471    0.1727907 -45.39  0.002090746    2.061    0.515
       318 -11.3522     14.1853     32.9552   1.2942519299e+02   6.9257708695e+01    0.3633148    0.2153051 -59.84  0.001980869    1.420    0.296
       319 -10.5194     78.5977     29.9651   9.5686016786e+01   6.1005198251e+01    0.2044802    0.1719922 -22.52 0.0005576801    1.126    0.112
       320 -10.3670     50.1167     27.8904   1.0727054918e+02   6.6453479026e+01    0.3882541    0.1595884 -33.44  0.001465364    2.696    0.629
       321  -9.7370     49.0006     23.4938   1.0568773683e+02   6.7449296181e+01    0.2537829    0.1751624  54.69  0.001255865    2.136    0.532
       322  -8.9338    191.6727     28.7433   6.9863385904e+01   3.3556272605e+01    0.1389235    0.1008678  34.55 0.0002604508    1.555    0.357
       323 -10.0473    124.7774     27.8796   8.0881113522e+01   5.0629854831e+01    0.2198816    0.1859064  20.19 0.0002839664    1.198    0.165
       324  -9.7158    172.4793     27.4771   7.2012698195e+01   3.8470814779e+01    0.1420546    0.1359658 -52.75 7.032569e-05    1.047    0.044
       325 -10.9494     70.4992     26.2207   9.7110544075e+01   6.3230582922e+01    0.4858621     0.237361  33.16  0.001984404    2.306    0.566
       326  -9.4470     90.5002     26.5606   8.9840874637e+01   5.9010668632e+01    0.1455092    0.1346323   9.03 0.0001203336    1.024    0.023
       327 -11.3520     60.8624     23.9189   1.0014952464e+02   6.5405967891e+01    0.5087395    0.2395408 -50.42  0.001950901    2.931    0.659
       328 -10.4512     54.4997     23.7031   1.0304109867e+02   6.6534365125e+01    0.3224768    0.2705631 -76.15  0.001419766    1.865    0.464
       329  -9.6880     24.5312     26.5076   1.2089759484e+02   6.9880268344e+01    0.1693395    0.1206519  32.53 0.0006999226    1.642    0.391
       330 -12.0951    232.9820    246.4197   1.1090021847e+02  -2.1096357621e+00    0.4862499    0.2296484  13.75   0.00296199    1.979    0.495
       331 -10.2517    137.0385    247.5164   1.2764635040e+02   9.5272650860e+00    0.1492282    0.1310419  21.13 0.0006936311    1.201    0.167
       332  -9.6036    179.5476     25.5548   7.0421201776e+01   3.6905244310e+01    0.1403289    0.1321174 -53.35 3.004538e-05    1.053    0.050
       333  -9.5758    113.1588     25.1457   8.2569209186e+01   5.3880089718e+01    0.1921576    0.1760561 -71.23 0.0005759808    1.280    0.219
       334  -9.7067     17.6097     23.8299   1.2411483208e+02   7.1051699090e+01    0.1763536     0.135516 -30.10  0.000546222    1.144    0.126
       335 -10.3123    100.0222     22.2897   8.4890811049e+01   5.7429586205e+01    0.2722996    0.2069113 -34.86 0.0006216366    1.364    0.267
       336 -10.8347     84.7665     22.0803   8.9652035597e+01   6.0934811849e+01    0.3935691    0.2583978  11.75  0.001795123    1.856    0.461
       337 -10.7689     35.0070     21.1099   1.1218853059e+02   6.9851314069e+01    0.3646387    0.2391931 -46.05   0.00125283    1.414    0.293
       338 -10.1480    124.1510     21.7795   7.8529762853e+01   5.1551027364e+01    0.2054859     0.157234  31.44 0.0002832163    1.322    0.244
       339 -11.2637     66.3513     21.4807   9.6473668223e+01   6.4802272217e+01    0.3011405    0.2584849  35.66  0.001728569    1.220    0.180
       340 -10.0498      1.4609     31.5081   1.3661282072e+02   7.0227184470e+01    0.2002026    0.1770819 -79.28 0.0001251715    1.221    0.181
       341  -9.2176    166.6774     20.6886   7.0586336616e+01   4.0697501990e+01    0.1507022    0.1026205  32.57 0.0002981591    1.653    0.395
       342 -10.8261      6.3752    245.2613   1.5120641127e+02   2.3782807227e+01    0.2428565    0.1159922  76.89  0.001613158    1.916    0.478
       343  -9.7573    104.4748     18.4844   8.1894138684e+01   5.6852154369e+01    0.2417331    0.1395094  -8.62 0.0008777712    2.066    0.516
       344  -9.3035     45.5134     20.5255   1.0599798392e+02   6.8522016252e+01    0.1375028    0.1165127 -15.09 0.0008099343    1.016    0.016
       345 -10.7942    217.4152     16.3164   6.3677405934e+01   2.8786169991e+01    0.3982363    0.1866639  55.30  0.001598947    2.262    0.558
       346  -8.9149    151.6474     18.7160   7.2154726195e+01   4.4792506669e+01     0.155053    0.1009957  35.92 0.0004390864    1.660    0.398
       347 -11.4685      8.5059    241.7242   1.5075464618e+02   2.4160904221e+01    0.3721481    0.1576588  62.98  0.002502038    1.884    0.469
       348  -9.7727     81.7865     17.1880   8.8248744598e+01   6.2275968081e+01    0.3201736    0.1665719 -21.88  0.001357602    2.022    0.505
       349  -9.7495    115.5113    244.8560   1.3137561986e+02   1.2543903571e+01    0.1260233    0.1093776 -56.21 0.0006205726    1.529    0.346
       350 -10.0824     19.9981     15.4648   1.1888008447e+02   7.2607750648e+01    0.2234107    0.1443454 -36.48 0.0006099454    1.294    0.227
       351  -9.5017    188.3217     16.7053   6.6609231895e+01   3.5647569220e+01    0.1448219   0.09542807 -58.25 0.0002440449    1.615    0.381
       352 -10.5791     55.8950     15.8873   9.8221050866e+01   6.7620843197e+01    0.2719654    0.2117843 -73.71 0.0009444233    2.341    0.573
       353 -10.0801     10.0619     16.0109   1.2600679471e+02   7.3277789730e+01    0.2255574     0.149801 -26.72 0.0009726021    1.380    0.276
       354  -9.8376    123.4591     14.9027   7.5811490744e+01   5.2510637209e+01     0.231017    0.1788645  58.83 0.0009432684    1.246    0.197
       355  -9.4301    165.6801     14.7105   6.8702132843e+01   4.1568000740e+01    0.1470968    0.1006016  35.91 0.0003469234    1.601    0.375
       356 -10.0096     99.5319     14.0950   8.1184358290e+01   5.8576598011e+01    0.2167845    0.1901059  36.80  0.001052788    1.066    0.062
       357  -9.0440     35.6770     14.7476   1.0847226169e+02   7.0969407520e+01    0.1313993   0.09002559  -8.88 0.0002038166    1.540    0.351
       358  -9.2055     90.2505     12.9777   8.3331404707e+01   6.0907698768e+01    0.1679207    0.1181641 -21.78 0.0003594153    1.414    0.293
       359 -10.9764    146.7708    244.2515   1.2551212588e+02   8.7221649671e+00    0.2068415    0.1033301  34.75 0.0007970179    1.496    0.331
       360 -10.3511    109.9734    243.1152   1.3225483669e+02   1.3462143510e+01    0.2159154    0.1504002  60.14   0.00149932    1.636    0.389
       361  -9.2758     62.3341     11.6685   9.2889017718e+01   6.7066605267e+01    0.1302756    0.1106744 -64.98 0.0007052196    1.729    0.422
       362  -9.1721     51.3339     11.2922   9.7839472426e+01   6.9143034668e+01     0.140384   0.09507722   5.46 0.0004041618    1.636    0.389
       363 -11.7506     34.3306    241.4405   1.4619422717e+02   2.1943534314e+01    0.3828161    0.2204118  28.59  0.002705585    1.647    0.393
       364 -10.3936     28.9270    232.9024   1.4682282330e+02   2.3812645847e+01    0.5011562   0.06574874  34.57  0.002204282    3.627    0.724
       365 -11.4879     19.4644    238.1757   1.4873143304e+02   2.3800892214e+01    0.4040609    0.1689288  35.17  0.002282612    1.818    0.450
       366  -9.5697    160.9656    249.7845   1.2355431781e+02   6.2563940802e+00    0.1492406   0.06599742  32.63 0.0004283758    1.669    0.401
       367  -9.5489     59.0322     10.0000   9.3395753652e+01   6.7937516920e+01    0.2153881   0.07469431  47.20 0.0007624767    2.922    0.658
       368 -10.0266     88.6377    241.1772   1.3611561138e+02   1.6277535114e+01    0.1262562   0.09651652 -49.01 0.0009438781    1.737    0.424
       369 -10.1138     72.1560    243.9599   1.3940254982e+02   1.7713396366e+01    0.1887192    0.1211968  36.70  0.001028138    1.210    0.173
       370 -11.3593     73.9728    238.3595   1.3868286082e+02   1.8368842241e+01    0.4800312    0.2164321  39.72   0.00291641    1.627    0.385
       371 -11.1476     73.5328    233.0025   1.3838812981e+02   1.9257336350e+01    0.2701004    0.1638851  44.99  0.001189329    1.276    0.216
       372  -9.4315     50.2953    240.3297   1.4323281743e+02   2.0568387706e+01   0.08722151   0.07719415  -8.04 0.0003942894    1.634    0.388
       373 -10.7767     31.8313    237.3095   1.4647336973e+02   2.2831941933e+01    0.2625147    0.1231222  64.66 0.0009776326    1.947    0.486
       374 -10.6978    174.4820    238.4912   1.1977948283e+02   5.8823344822e+00    0.2241869    0.1553878  16.67  0.001126445    1.184    0.155
       375 -11.0637    177.5399    234.9458   1.1877426238e+02   5.9101407531e+00     0.256328    0.1628791   2.25  0.001283716    1.709    0.415
       376 -10.0852     12.0463    238.0861   1.5003995208e+02   2.4445341598e+01     0.164621   0.07308291  55.04 0.0008377307    1.642    0.391
       377 -11.1053    159.9427    235.6611   1.2208674465e+02   8.1196855140e+00    0.2560677    0.1534833  32.53 0.0009642281    1.278    0.217
