#   1 NUMBER                 Running object number                                     
#   2 MAG_AUTO               Kron-like elliptical aperture magnitude                    [mag]
#   3 X_IMAGE                Object position along x                                    [pixel]
#   4 Y_IMAGE                Object position along y                                    [pixel]
#   5 X_WORLD                Barycenter position along world x axis                     [deg]
#   6 Y_WORLD                Barycenter position along world y axis                     [deg]
#   7 A_WORLD                Profile RMS along major axis (world units)                 [deg]
#   8 B_WORLD                Profile RMS along minor axis (world units)                 [deg]
#   9 THETA_WORLD            Position angle (CCW/world-x)                               [deg]
#  10 FWHM_WORLD             FWHM assuming a gaussian core                              [deg]
#  11 ELONGATION             A_IMAGE/B_IMAGE                                           
#  12 ELLIPTICITY            1 - B_IMAGE/A_IMAGE                                       
         1 -13.9648    205.4146     24.3723   6.2083873881e+00   3.1068905592e+01    0.9328878    0.5661687 -47.13  0.004395988    1.403    0.287
         2 -14.3993    196.1058     12.9397   3.8881217191e+00   3.4612868351e+01     1.642907    0.6055105 -47.49  0.006702881    2.366    0.577
         3 -14.3743     28.7943     13.4876   4.7567943763e+01   7.2682519633e+01      1.28874    0.8979383 -53.10  0.007193894    1.840    0.456
         4 -14.4945    153.7730     15.5131   9.3676799419e+00   4.4870667477e+01     1.652726    0.8587022 -62.21  0.006808216    2.312    0.567
         5 -13.0223     44.6269     17.4702   4.0936398472e+01   6.9699386911e+01    0.4623453    0.3595148 -31.29   0.00272876    1.212    0.175
         6 -13.2815     62.5080     16.5047   3.2088714189e+01   6.6637941180e+01     0.367998    0.2745703   6.31  0.002010089    1.376    0.273
         7 -11.6750      4.4146     10.2967   6.2916277517e+01   7.5746640234e+01    0.4567957    0.1464106 -50.65  0.002028398    2.326    0.570
         8 -12.2606      2.4911      5.4866   6.1777788616e+01   7.6807441915e+01    0.4623024    0.1925279 -52.54  0.002321928    2.032    0.508
         9 -14.3329    164.3133      3.5910   4.0981806122e+00   4.3410447467e+01     1.881483    0.4604149  80.29  0.005037918    5.711    0.825
        10 -12.7152     54.1684      3.4484   2.7770789280e+01   6.9920279393e+01    0.5384023    0.2907186  61.01  0.002506156    2.445    0.591
        11 -13.2920     48.2248    213.4088   8.3231243872e+01   2.1549658933e+01    0.5416251    0.3353809  52.40  0.002759311    1.329    0.247
        12 -14.5044      3.7035    243.4659   9.3245013132e+01   2.0250704328e+01     1.108686    0.5503873 -89.54  0.007284625    1.831    0.454
        13 -14.0903     13.7219    246.2948   9.1578165473e+01   1.8802778623e+01    0.5972263    0.3091352  77.33  0.003622798    1.655    0.396
        14 -15.3632      7.6642    219.3589   9.1747202556e+01   2.4497315748e+01     1.261218    0.7340139  83.81  0.006332319    1.436    0.304
        15 -11.7898     91.7457    219.9407   7.4588618332e+01   1.4773817320e+01    0.4504873    0.1187392  47.19  0.001598574    3.697    0.730
        16 -13.1444     71.2094    216.6982   7.8628291684e+01   1.8098054320e+01    0.5770252    0.2569565  51.07  0.002810411    2.014    0.503
        17 -13.8892     99.4746    211.8448   7.2055827521e+01   1.5293803866e+01    0.7541603     0.421488  47.82  0.003928318    1.629    0.386
        18 -15.1724     99.7461    201.1390   7.0719272363e+01   1.7428352826e+01     1.373669    0.6759691  43.14   0.00586663    1.816    0.449
        19 -15.6543    126.8445    200.5223   6.4590164336e+01   1.3516091289e+01       1.3531     1.038244 -77.83  0.006798554    1.634    0.388
        20 -14.4374    115.9052    204.0785   6.7495390299e+01   1.4462091156e+01     1.116772    0.6537847  73.52  0.004742661    3.024    0.669
        21 -14.1271    112.5828    191.8298   6.6552285933e+01   1.7473638197e+01    0.7033321    0.5817442 -61.51  0.003315719    1.284    0.221
        22 -15.5754    103.6144    184.9491   6.7665244379e+01   2.0336627404e+01     1.568533     1.047525  68.48  0.007684515    1.807    0.447
        23 -11.4638     56.4059    204.2476   8.0753430442e+01   2.2530921821e+01    0.2697255    0.1552755  66.27  0.001433395    1.680    0.405
        24 -15.5174    150.9948    190.7767   5.7782983230e+01   1.1617183212e+01     1.057893    0.7617721 -57.01  0.005697694    1.621    0.383
        25 -14.1565     79.8781    188.5325   7.3783244631e+01   2.2987165941e+01    0.8765529    0.4232545  31.42  0.003930988    2.112    0.526
        26 -12.5365     25.2122    191.0951   8.6729986653e+01   2.8904052107e+01    0.3864241    0.2985386  51.53  0.001751199    1.203    0.169
        27 -11.8704     51.8783    189.7641   8.0518234632e+01   2.6305960122e+01    0.3434973    0.1978615  58.30  0.001255823    1.594    0.373
        28 -12.2708      5.1552    187.9555   9.1001219581e+01   3.1456300323e+01     0.230365    0.2116409 -73.14 0.0007067212    1.395    0.283
        29 -12.7592    170.3636    185.3480   5.2720136161e+01   9.5061805019e+00    0.3845386    0.2327788 -16.14  0.001728128    2.268    0.559
        30 -13.2837     16.3645    182.8761   8.8237913523e+01   3.1646430666e+01    0.5118001    0.4664565  20.83  0.002694913    1.475    0.322
        31 -12.2731     16.6038    177.6153   8.7870852656e+01   3.2866170133e+01    0.3437388    0.3023979  33.01  0.001799827    1.404    0.288
        32 -13.3725     59.1401    183.3592   7.8177471745e+01   2.6914813782e+01    0.5964305    0.5261483 -41.37  0.003258249    1.440    0.306
        33 -13.5916     52.3362    179.1524   7.9405900028e+01   2.8746241783e+01      1.15047    0.5678473  20.03  0.004904056    2.853    0.650
        34 -15.4343    237.2716    172.3128   3.7711906812e+01   1.3508475438e+00     1.685239    0.6986059 -41.86   0.00758969    2.459    0.593
        35 -15.6145    244.5271    147.3978   3.1473658074e+01   4.0898792611e+00     2.826978     1.559297 -30.61   0.01484193    1.463    0.316
        36 -15.0722    125.3499    177.0675   6.1275991826e+01   1.8613427976e+01      1.42348    0.8111573  53.96  0.006209017    2.071    0.517
        37 -15.6784    126.6039    160.0699   5.7928746317e+01   2.2203314654e+01     1.733165     1.201474 -42.01  0.007429939    1.493    0.330
        38 -13.5720    220.7844    179.7121   4.1956175924e+01   2.6059984859e+00    0.5011814    0.2807654 -33.21  0.002652689    1.587    0.370
        39 -13.3146     71.9789    179.5035   7.4618106181e+01   2.6160893925e+01    0.4863293     0.438221  66.15  0.001770465    1.052    0.049
        40 -13.6350     85.2703    172.8450   7.0440411429e+01   2.5880531829e+01    0.7464261    0.4243793 -52.94  0.003347989    1.823    0.452
        41 -14.1668     77.8692    195.0823   7.5004736185e+01   2.1794626952e+01    0.7932939    0.4853603  50.33  0.004178533    1.489    0.328
        42 -11.7281     29.3004    179.4047   8.4992108908e+01   3.1225568492e+01    0.3172235    0.1852831  46.42  0.001574673    1.543    0.352
        43 -14.8584    145.9670    172.0869   5.5599972124e+01   1.6192351570e+01     1.288511    0.7308162 -29.91  0.005402271    2.283    0.562
        44 -12.6785      4.0286    176.9604   9.0748959405e+01   3.4093702228e+01    0.4187182     0.336616 -21.05  0.002704888    1.925    0.481
        45 -14.2291    214.6916    171.6066   4.1448973953e+01   4.8137337723e+00     1.034236    0.4641098 -23.60  0.004133631    2.785    0.641
        46 -11.3504     34.7800    172.2095   8.3092220160e+01   3.2404296110e+01    0.2478001    0.1958443  77.66  0.001503127    1.048    0.046
        47 -11.9169     40.5705    165.4454   8.1012650134e+01   3.3464137439e+01    0.2989851    0.2821842 -74.71  0.001324252    1.236    0.191
        48 -12.6828     26.4545    163.2377   8.4441048024e+01   3.5467782485e+01     0.567999    0.2598836  80.07  0.002471584    2.246    0.555
        49 -13.7088     29.2070    153.5450   8.2872250665e+01   3.7670692063e+01     1.177502    0.6474223  89.45  0.005709837    1.663    0.399
        50 -15.3771      9.1809    148.7865   8.7858103557e+01   4.0625398318e+01     1.485842    0.8176036  72.41  0.006982243    1.616    0.381
        51 -12.0253     73.2829    163.0693   7.2167799666e+01   2.9991431709e+01    0.4304102    0.2235151 -87.37  0.001674764    2.573    0.611
        52 -13.9891    115.8708    152.5849   5.9199745063e+01   2.5846197842e+01    0.9985949    0.5639058 -32.51  0.003817034    2.514    0.602
        53 -10.9914     48.0633    161.1962   7.8612609034e+01   3.3694114991e+01    0.1913093    0.1754776 -55.85 0.0004427269    1.279    0.218
        54 -12.3313     61.3421    152.6788   7.3958357243e+01   3.4254811336e+01    0.3800187    0.2469956 -63.48 0.0009299833    1.429    0.300
        55 -11.7021     70.8374    153.1546   7.1403078409e+01   3.2853963395e+01    0.3291703    0.2042016  23.03  0.001489338    1.992    0.498
        56 -13.8831     48.9093    146.8754   7.6674370634e+01   3.7311835425e+01    0.9420872    0.6639331 -25.69  0.004587043    2.078    0.519
        57 -11.9973     69.9765    147.5052   7.0785090849e+01   3.4441827238e+01     0.448216    0.2588242 -42.92  0.001916949    2.088    0.521
        58 -13.9024    103.2597    143.3323   6.0742330851e+01   3.0315560676e+01     1.412003     1.002299   8.59  0.006151466    2.050    0.512
        59 -12.1449     46.2190    134.9364   7.5862964228e+01   4.0811318712e+01    0.4739264    0.2300722 -61.73   0.00179477    1.788    0.441
        60 -13.4643     40.9648    131.0377   7.6920943619e+01   4.2446401103e+01    0.7985737    0.4767207 -77.38  0.002741904    1.486    0.327
        61 -11.5624     75.2275    134.5110   6.7072537898e+01   3.7119778290e+01     0.266844    0.2129794 -54.41 0.0004355327    1.222    0.182
        62 -13.9908     29.9791    137.5390   8.1026820857e+01   4.1804232283e+01    0.8702585    0.6359559 -58.01  0.003517075    1.366    0.268
        63 -11.8524     57.9650    130.5219   7.1608726565e+01   4.0583948875e+01    0.3708827    0.2822346  54.56    0.0019016    1.362    0.266
        64 -12.5164      5.2202    128.4593   8.7471074698e+01   4.6193748272e+01    0.5517586    0.3440141 -64.13  0.003026119    1.437    0.304
        65 -14.7323    134.2166    169.1758   5.7791626596e+01   1.8839281315e+01     1.248781     0.700471 -25.66  0.004675815    2.972    0.664
        66 -12.8658     33.9301    122.0422   7.7890956609e+01   4.5614139939e+01    0.6245217    0.4006242 -56.90  0.002334207    1.441    0.306
        67 -13.1501    248.1607     88.1321   1.7703584997e+01   1.2841924897e+01    0.6446441    0.2215518 -40.55  0.002623064    2.233    0.552
        68 -13.3242    163.8772     50.2013   1.9473850156e+01   3.7564451825e+01    0.8190119    0.6468864  86.24   0.00407656    1.394    0.282
        69 -12.0723      5.7748     51.1487   7.6658080573e+01   6.6498356119e+01    0.3499382    0.2067531 -78.69  0.001814832    1.646    0.392
        70 -13.1749     18.6063     49.1373   6.9359390195e+01   6.6194496261e+01    0.6333038    0.3940185 -17.66  0.003276446    1.851    0.460
        71 -12.1120    239.4185     45.9422   8.5628214533e+00   2.0782374023e+01    0.3175351    0.2057936  43.26  0.001331562    2.187    0.543
        72 -13.6242      5.0857     40.0151   7.4148628713e+01   6.9226866289e+01     0.748249    0.3430872 -56.85  0.003727238    1.609    0.379
        73 -13.0087     22.7101     32.3079   6.0977365198e+01   6.9705773669e+01        0.521    0.3464199 -41.82    0.0026534    1.229    0.186
        74 -12.5094     56.0003     31.8419   4.3073465930e+01   6.5341067060e+01    0.3348682     0.316397 -84.53  0.001995624    1.413    0.292
        75 -13.3201      8.3081    206.3717   9.1119698737e+01   2.7128745718e+01    0.5490784    0.2889304  41.93  0.002504505    1.625    0.385
        76 -11.6945     41.5054    236.9725   8.6067616618e+01   1.7657729433e+01    0.1568443   0.09963723 -85.25 0.0008556941    1.580    0.367
        77 -12.2762     55.8153    229.2819   8.2793280197e+01   1.7494888788e+01    0.3512368    0.1854694  47.69  0.001866077    1.502    0.334
        78 -11.4278     63.0910    226.8697   8.1151955208e+01   1.7094935721e+01    0.2019455    0.1302876  58.11  0.001244753    1.321    0.243
        79 -14.3584    156.7382    221.6716   6.1354193108e+01   5.2939552638e+00    0.5997684    0.4805007 -58.89  0.003839585    1.622    0.383
        80 -12.8794    117.0117    220.9076   6.9384875720e+01   1.1101337168e+01    0.6590943    0.2705705 -67.58  0.002610291    3.996    0.750
        81 -14.8598    139.2059    216.5748   6.4206508037e+01   8.6857990112e+00     1.155206      0.83513 -33.23  0.006860141    1.593    0.372
        82 -12.6006     50.3831    207.9224   8.2363979849e+01   2.2455472281e+01    0.3768192    0.2657246  39.79  0.002074956    1.334    0.250
        83 -12.8586     46.6296    219.3764   8.3977389805e+01   2.0506901724e+01    0.3350424    0.2892004 -72.39  0.002076878    1.364    0.267
