#   1 NUMBER                 Running object number                                     
#   2 MAG_AUTO               Kron-like elliptical aperture magnitude                    [mag]
#   3 X_IMAGE                Object position along x                                    [pixel]
#   4 Y_IMAGE                Object position along y                                    [pixel]
#   5 X_WORLD                Barycenter position along world x axis                     [deg]
#   6 Y_WORLD                Barycenter position along world y axis                     [deg]
#   7 A_WORLD                Profile RMS along major axis (world units)                 [deg]
#   8 B_WORLD                Profile RMS along minor axis (world units)                 [deg]
#   9 THETA_WORLD            Position angle (CCW/world-x)                               [deg]
#  10 FWHM_WORLD             FWHM assuming a gaussian core                              [deg]
#  11 ELONGATION             A_IMAGE/B_IMAGE                                           
#  12 ELLIPTICITY            1 - B_IMAGE/A_IMAGE                                       
         1  -9.9356     24.3153     65.1257   1.3731203248e+02   6.2404071199e+01      1.17148    0.2006475 -55.51   0.00384096    3.867    0.741
         2 -10.5830     38.8555     30.0658   1.1917407912e+02   6.9110775221e+01    0.8081859    0.3970513 -57.12  0.003668838    2.048    0.512
         3 -11.7990     43.0312     20.2404   1.1200403143e+02   7.0520560459e+01     1.007339    0.9156812  42.06  0.004685715    1.272    0.214
         4  -9.0325     12.2845     33.9655   1.3678594514e+02   7.0642185531e+01    0.3878362    0.2370756 -85.67  0.001245765    1.787    0.440
         5 -11.8654    115.1597     16.9892   8.2097649160e+01   5.5299586892e+01     2.060085     1.082877  82.98  0.007461601    2.745    0.636
         6 -10.5493     71.3594      5.2194   8.9127624258e+01   6.7572824238e+01    0.6477628    0.4384253  41.96  0.002246739    1.392    0.282
         7 -12.2005     82.2844      7.4887   8.6521470272e+01   6.4780905945e+01     2.445989      1.37623   5.89  0.009660644    2.609    0.617
         8 -11.3862    128.4214     14.8726   7.8317751469e+01   5.1931456684e+01     1.338368    0.6425242 -27.50  0.005352992    2.126    0.530
         9 -14.0276    162.8527     10.6006   7.1222899613e+01   4.2732275204e+01     3.933184     2.200871  68.55   0.01728063    1.653    0.395
        10  -9.4755     66.2843     30.2624   1.0505881749e+02   6.4740823146e+01    0.4530722    0.2985523 -39.89  0.002107428    1.480    0.325
        11 -11.6094    109.2960      4.2125   7.7449653457e+01   5.8251551254e+01     1.877932     0.536114  65.51  0.006038428    3.129    0.680
        12  -9.0250     39.4091      7.3281   1.0664727730e+02   7.3376368217e+01    0.5224591    0.3283926  -2.16   0.00253516    2.187    0.543
        13 -11.0804    249.2364     15.6724   6.4986766458e+01   2.0459121890e+01      1.00465    0.3593059 -35.51  0.004524982    2.133    0.531
        14  -9.6543     94.0689     17.5672   8.8083976067e+01   6.0660940879e+01    0.5167989    0.4146742 -76.25  0.002574463    1.575    0.365
        15  -7.9082     20.7006     12.6128   1.2296290475e+02   7.4715992415e+01    0.2520102   0.09686465 -50.45  0.001139815    2.152    0.535
        16  -9.0483     70.1924     14.2501   9.4924702870e+01   6.6614986551e+01    0.3070219    0.2427451 -66.19  0.001599777    1.737    0.424
        17  -9.2540    226.5002     13.8328   6.6077269001e+01   2.5769284698e+01    0.3405422    0.2080351 -77.57  0.001728166    1.730    0.422
        18 -10.9721    120.9008      3.8749   7.4951787495e+01   5.5124020892e+01    0.7999895    0.5069059  70.74  0.002705775    1.489    0.328
        19  -9.3860     63.8107     16.3432   9.8918412722e+01   6.7606177059e+01    0.4280622    0.3439375 -80.07  0.002122409    1.875    0.467
        20  -8.9036     55.0256      7.8414   9.8059994820e+01   7.0604990509e+01    0.4145191     0.279425  81.47  0.001737716    3.343    0.701
        21  -8.6399     60.3142      9.6474   9.6599283676e+01   6.9314320775e+01     0.358646    0.1825403 -25.85  0.001584174    2.092    0.522
        22  -9.9815     61.0775      2.2252   9.1508753597e+01   7.0162366006e+01     0.638676    0.2855088  47.03  0.002799834    2.096    0.523
        23 -10.8302    131.9255      3.1213   7.2720615446e+01   5.2126106597e+01    0.8839732    0.3974003  67.77  0.003498425    1.989    0.497
        24  -9.9423    203.9820      3.9812   6.5047815927e+01   3.2258961320e+01    0.3910251    0.2211125 -25.26  0.001872326    1.734    0.423
        25  -9.0471    230.0091      5.5158   6.3666640008e+01   2.5735035632e+01    0.2474765     0.182033   2.99  0.001377844    1.704    0.413
        26  -9.1815    223.0169      4.6938   6.3899835119e+01   2.7466631942e+01     0.189709    0.1617511 -75.31   0.00077308    1.104    0.094
        27  -8.4576     26.3040      2.6654   1.1273844341e+02   7.6002666084e+01    0.3277122    0.2084235 -39.62  0.001877232    1.408    0.290
        28  -8.6616    208.6556      4.2160   6.4765245158e+01   3.1048589447e+01    0.1939598    0.1586431 -68.72   0.00111524    1.120    0.107
        29  -9.9183    214.3278      4.9738   6.4567818112e+01   2.9560489258e+01    0.3664177    0.2108672 -80.87  0.001769345    1.795    0.443
        30  -8.5292     52.2847      2.0529   9.5626548081e+01   7.1944352463e+01    0.2469083    0.1954528  52.42  0.001433514    1.413    0.292
        31  -8.4369     16.6198      1.6751   1.2004911061e+02   7.7250154494e+01    0.2127793    0.1518638  33.99 0.0008232266    1.634    0.388
        32  -8.2574     48.9504      6.5098   1.0042321619e+02   7.1921528272e+01    0.1946534    0.1242737  39.45 0.0006635065    1.563    0.360
        33  -9.1882    108.5726     38.9342   9.3434948252e+01   5.3876891710e+01     0.385991    0.2688743  -7.91  0.001682153    1.880    0.468
        34  -7.8543    203.9953     76.4920   8.5678823580e+01   2.3563920188e+01    0.2066733    0.1423722  58.48 0.0007122495    1.510    0.338
        35  -8.4100     82.9910     69.9967   1.1370487992e+02   5.3388281801e+01    0.2384016    0.1876423  -7.56  0.001139332    1.686    0.407
        36  -9.0345     74.3699     68.3502   1.1644760137e+02   5.5318668467e+01    0.4775606    0.3598989   9.00   0.00229698    1.758    0.431
        37  -7.9828     33.9585     68.4868   1.3359877689e+02   6.0748501742e+01    0.1904433    0.1327588  24.58 0.0009105057    1.593    0.372
        38  -9.3778     16.8439     64.0128   1.4059185046e+02   6.3200956326e+01    0.4432077    0.2149997  74.75  0.001923309    2.675    0.626
        39  -9.0992     48.4974     62.0640   1.2543558042e+02   6.0684958791e+01    0.3597262    0.2546123  31.96  0.001900341    1.508    0.337
        40  -7.7062     87.8465     62.3914   1.0940579644e+02   5.4102743592e+01    0.2160601    0.1406634  32.18 0.0009460988    1.727    0.421
        41  -7.9378     16.4323     58.4268   1.3982119528e+02   6.4585476012e+01    0.1262039    0.1085317 -67.74 0.0001571895    1.014    0.014
        42  -7.8585      9.7642     55.5722   1.4263895400e+02   6.5648155088e+01      0.16164    0.1104719  35.50 0.0009481652    1.639    0.390
        43  -8.5142    198.1996     54.2206   8.0345700025e+01   2.8063220611e+01    0.2134619    0.1964654  19.18  0.001124274    1.171    0.146
        44 -10.0029     81.4884     40.2012   1.0320627067e+02   5.9872841767e+01    0.6868634     0.482164 -27.32  0.003288979    1.549    0.354
        45  -9.8677     88.4913     50.2217   1.0468270991e+02   5.6469971960e+01    0.6396139    0.5044235 -79.42  0.003083679    1.667    0.400
        46  -9.6540     82.1453     47.6474   1.0604754614e+02   5.8296206857e+01    0.4368395    0.3855039 -57.76   0.00181062    1.202    0.168
        47 -10.2419      3.1048     75.9097   1.4815037122e+02   6.1024553645e+01    0.5870028    0.4234957  65.17  0.003646478    1.351    0.260
        48  -7.2509     22.6627     52.2838   1.3542088327e+02   6.5639884055e+01    0.1280819   0.09157656  63.04 0.0007012598    1.626    0.385
        49  -7.9544    203.4550     49.4635   7.8263018655e+01   2.7375965629e+01    0.1434694    0.1343843 -51.19 0.0002158041    1.027    0.026
        50  -8.0386    111.5963     45.7598   9.5308667034e+01   5.1976897701e+01    0.2159909    0.1416533 -46.95 0.0005364527    1.624    0.384
        51  -8.7221     97.4808     43.0002   9.8618299936e+01   5.5839770888e+01    0.2386978    0.1488877 -36.82  0.001045067    1.629    0.386
        52 -10.2060      3.1633     39.8400   1.4356047439e+02   6.9680674768e+01    0.3971081    0.3354204  41.34  0.002709478    1.381    0.276
        53 -10.2343     50.2489     35.0757   1.1509015819e+02   6.6500530914e+01    0.7256212    0.4273593 -63.68  0.002993994    2.177    0.541
        54 -10.7376    171.7712    243.9600   1.2381460503e+02   5.8692363296e+00    0.2878858    0.2478845 -66.43  0.002263602    1.966    0.491
        55  -9.9383     49.9854     27.4627   1.1174975192e+02   6.8078528121e+01    0.4268353     0.368395 -54.16  0.002034906    1.247    0.198
        56  -9.6155    163.3215    244.6503   1.2538850384e+02   6.9582337037e+00    0.1642962    0.1072913  51.10  0.001084421    1.721    0.419
        57  -8.5706     69.8152     36.9137   1.0656917034e+02   6.2819511506e+01    0.3466911    0.2243117 -29.37  0.001620508    1.691    0.409
        58  -8.1598     27.1184     35.6854   1.2826822905e+02   6.9151121769e+01    0.1929886    0.1521415  45.98 0.0007412912    1.482    0.325
        59  -9.3512    200.0162    240.4739   1.1852436859e+02   2.3790260687e+00    0.1724529     0.078185  34.71  0.001031608    1.593    0.372
        60  -9.9636    204.2861    227.1709   1.1603388652e+02   3.1631334871e+00    0.1759368    0.1172349   6.93  0.001017742    1.457    0.314
        61  -9.7471    211.6634    223.6426   1.1429227037e+02   2.5019316472e+00    0.1836895    0.1048075  14.58  0.001125826    1.712    0.416
        62  -8.7735    239.4927    203.4590   1.0669415218e+02   6.8305448297e-01    0.1128097   0.08303268  14.59 0.0008090868    1.024    0.024
        63 -11.7642     10.4674    139.3794   1.4998171719e+02   4.5607343354e+01    0.6972033    0.4294565  86.98   0.00424365    1.390    0.280
        64 -12.7428    240.9671    132.8972   9.3408483590e+01   8.3703791511e+00     1.469328     1.070286  37.59  0.004668194    1.375    0.273
        65  -9.8260     86.4815     31.1315   9.7242090828e+01   6.0406352384e+01    0.3704082    0.3246023 -35.23  0.002012526    1.157    0.136
        66  -8.4029     90.1852     27.8171   9.4367343399e+01   6.0098680193e+01    0.2663638    0.2107481  38.81  0.000716869    1.244    0.196
        67  -9.1610     41.1996    141.5022   1.4149171645e+02   4.2341644978e+01    0.2465336    0.1653767 -80.26  0.001413792    1.414    0.293
        68  -9.4251      2.6398    139.5646   1.5213601806e+02   4.6115461815e+01    0.2311212    0.1234677  86.91  0.001236183    1.583    0.368
        69  -8.9086    125.5026     28.5399   8.4657574399e+01   5.1041065913e+01    0.3585139    0.2880914 -17.11  0.001772509    1.351    0.260
        70  -8.7801     97.9762     27.1255   9.1475839281e+01   5.8347026061e+01    0.4863738    0.2809895  -0.82  0.001737033    3.077    0.675
        71  -9.6642    104.9834     25.6892   8.8710936808e+01   5.6814232658e+01    0.4747675    0.4014969  67.49  0.002015832    1.216    0.178
        72 -10.1771     17.0790    126.4096   1.4728531487e+02   4.8076830763e+01    0.4063777    0.1605817  77.45  0.001750002    2.659    0.624
        73 -10.3503    225.1046     28.8647   7.0178233868e+01   2.4547456028e+01    0.4369849    0.3775194  15.84  0.001366838    1.362    0.266
        74  -8.6017     18.8954     21.7888   1.2842867178e+02   7.2939379401e+01    0.2687073    0.1606246  30.57  0.001482495    1.866    0.464
        75 -10.5891     11.7264    127.2728   1.4894276445e+02   4.8275370888e+01    0.3580916    0.2002329 -68.51  0.002015545    1.696    0.411
        76 -10.0212     12.7925    119.5926   1.4812221802e+02   4.9990209870e+01    0.2651137    0.1810211  57.37  0.001052569    1.308    0.235
        77  -6.2576     20.5180     15.4971   1.2451957851e+02   7.4140115915e+01    0.4430303    0.1823998   8.98   0.00170516    3.941    0.746
        78 -10.4686      9.9994    117.4323   1.4885098506e+02   5.0689323243e+01    0.3048365    0.2671601  28.37  0.002119835    1.330    0.248
        79  -7.4195     24.2916    115.7060   1.4414867186e+02   5.0028402428e+01    0.1318487   0.07981147  62.88 0.0002597951    1.553    0.356
        80  -9.6757     16.9353    104.6519   1.4557631664e+02   5.3260219074e+01    0.3955637    0.2683288 -86.84  0.002332076    1.280    0.219
        81  -9.2779     30.2452    101.8524   1.4060501932e+02   5.2873683979e+01    0.4074012    0.2209705 -44.49  0.001954723    2.186    0.543
        82  -9.7876     46.8788     98.0927   1.3405741200e+02   5.2099291319e+01    0.3561385    0.2304044 -78.97  0.001814389    1.514    0.339
        83  -7.4418     23.6963     95.6780   1.4221593002e+02   5.4939259201e+01    0.1301058   0.08716141 -46.80 0.0005732161    1.635    0.388
        84  -8.8185      2.4232     90.2248   1.4957317738e+02   5.7601950256e+01    0.3476175    0.1863014 -68.14  0.001910669    1.615    0.381
        85  -7.3346      7.6406     90.7416   1.4767434265e+02   5.7212246798e+01    0.1206197    0.0825538 -44.96 0.0005124784    1.623    0.384
        86  -9.8014     34.9818     79.5262   1.3535926369e+02   5.7939011221e+01    0.6581943    0.3511535  78.79  0.002817334    2.513    0.602
        87 -11.0458     41.8517     83.8689   1.3339008584e+02   5.6165466903e+01    0.8306079    0.6295215   3.84  0.004551541    1.669    0.401
        88 -11.0436     45.4833     80.9969   1.3135445639e+02   5.6466712477e+01    0.8022503    0.6917142 -74.62  0.003896562    1.072    0.067
        89 -10.6614    184.0961    246.1955   1.2193569563e+02   3.9420952231e+00    0.3064918    0.1561232  43.52   0.00190249    1.769    0.435
        90  -9.9784     13.2027     77.2560   1.4409300131e+02   6.0183411263e+01    0.5509204    0.3616378 -22.37  0.003083634    1.927    0.481
        91 -10.0752     15.9864     73.9838   1.4248729653e+02   6.0815482876e+01    0.4077339    0.2989474  -3.89  0.001937691    1.694    0.410
        92  -9.9335     10.8299     70.7977   1.4430412221e+02   6.1895409899e+01    0.6924081    0.3242929 -61.10  0.003470053    1.800    0.444
        93  -9.2370    227.5429     78.6117   8.2836399791e+01   1.7969090371e+01    0.3885637     0.264905  12.44  0.001927173    1.842    0.457
        94  -8.5941     77.7657     78.4422   1.1815899542e+02   5.2409359278e+01     0.365101    0.2113653 -74.73  0.001402447    2.582    0.613
        95  -7.6879    136.3203     77.3205   9.9542804898e+01   4.0095737542e+01    0.1607541    0.1237278  15.44 0.0007043898    1.669    0.401
