#   1 NUMBER                 Running object number                                     
#   2 MAG_AUTO               Kron-like elliptical aperture magnitude                    [mag]
#   3 X_IMAGE                Object position along x                                    [pixel]
#   4 Y_IMAGE                Object position along y                                    [pixel]
#   5 X_WORLD                Barycenter position along world x axis                     [deg]
#   6 Y_WORLD                Barycenter position along world y axis                     [deg]
#   7 A_WORLD                Profile RMS along major axis (world units)                 [deg]
#   8 B_WORLD                Profile RMS along minor axis (world units)                 [deg]
#   9 THETA_WORLD            Position angle (CCW/world-x)                               [deg]
#  10 FWHM_WORLD             FWHM assuming a gaussian core                              [deg]
#  11 ELONGATION             A_IMAGE/B_IMAGE                                           
#  12 ELLIPTICITY            1 - B_IMAGE/A_IMAGE                                       
         1 -14.6716     68.4305    144.4139   1.0863646438e+02   3.7074919748e+01     4.764955     2.382009  73.13  0.008754246    3.709    0.730
         2 -13.8876    196.4789     38.7696   4.9809622545e+01   3.1443310322e+01     1.594804     1.103057  23.68  0.003797646    2.052    0.513
         3 -14.2745    204.8833     32.3362   4.6914015995e+01   3.0197289738e+01     1.842733     1.539394   0.47  0.007714279    1.509    0.337
         4 -12.4226    212.6277     24.7154   4.3973552652e+01   2.9249686091e+01    0.4697416    0.3895408  46.91  0.001063352    1.387    0.279
         5 -14.1270    220.1698     16.3278   4.1052587879e+01   2.8424143432e+01     1.252202      1.06434  28.31  0.002677693    1.536    0.349
         6 -10.8175      2.1548      8.3254   9.8687763297e+01   7.3072381288e+01    0.2985552   0.07809487 -55.49  0.001114291    4.705    0.787
         7  -9.4116     47.5560      2.5026   7.2379861277e+01   6.9012692949e+01    0.1204542   0.09569516   1.30  9.05008e-05    1.032    0.031
         8  -8.9947     56.5307      1.5177   6.8201479686e+01   6.7699938247e+01     0.122206   0.09897348   7.70 0.0001079353    1.033    0.032
         9 -10.1544    162.1084    212.7756   9.8075620341e+01   6.9794491384e+00    0.2781956    0.2193691  83.12  0.001119152    1.764    0.433
        10  -9.9507    174.4758    249.4922   1.0100382155e+02  -6.8599952795e-01    0.2390627    0.1600984  65.18  0.001002549    2.307    0.567
        11 -13.6523     45.6454    223.3025   1.2229054201e+02   2.2543092340e+01     1.265003    0.8911818  84.19 0.0005498331    1.195    0.163
        12 -15.3526     88.2266    245.5118   1.1634821002e+02   1.2944278433e+01     8.609002     2.626479  32.30   0.02264196    5.964    0.832
        13 -13.2479     25.5412    224.7578   1.2597748976e+02   2.4516121056e+01    0.6136215    0.5097046 -56.08  0.003239967    1.773    0.436
        14 -14.8000      9.3979    207.5896   1.2788042519e+02   2.9479498155e+01     1.201531     1.008757  71.05  0.009631839    1.259    0.206
        15 -16.1717     45.0138    197.0221   1.2033831679e+02   2.7946560113e+01     9.293397     3.534251  73.42   0.03326114    4.408    0.773
        16  -9.3321     71.5192    185.9575   1.1360342711e+02   2.6991792047e+01    0.1819077    0.1168353 -72.81 0.0003477031    1.477    0.323
        17 -12.0956     64.6653    180.5061   1.1448503451e+02   2.9125546244e+01    0.3885183    0.2868696 -37.67  0.001259211    1.949    0.487
        18 -12.0080     69.6091    174.8793   1.1268197140e+02   2.9737444067e+01    0.3219737    0.2587782 -46.38 0.0009786709    1.527    0.345
        19  -9.8167     99.5585    180.7906   1.0662133773e+02   2.3965862837e+01    0.2271166     0.211996  -2.91 0.0005563534    1.383    0.277
        20 -11.3193     42.3189    179.5937   1.1931413596e+02   3.2052579411e+01    0.2307336    0.1948513 -84.31 0.0004350152    1.143    0.125
        21 -11.5383    193.3362    193.5877   8.8522832853e+01   4.7244786366e+00    0.8401922    0.4777633 -55.28  0.003742473    2.565    0.610
        22 -13.6177     66.5619    160.9724   1.1156761809e+02   3.3370840463e+01    0.5933682    0.4579785 -37.33  0.002515712    1.697    0.411
        23 -11.7538     78.8855    164.9565   1.0914990375e+02   3.0724328311e+01    0.3206637    0.2616401 -87.89 0.0003475373    1.128    0.114
        24 -12.9636     85.6639    158.5730   1.0651955307e+02   3.1214277593e+01     1.358262    0.9701205  87.60  0.001565296    1.511    0.338
        25 -13.4574     85.5851    226.3787   1.1505756047e+02   1.6746460516e+01     1.686328    0.6090844  57.45  0.003356098    3.256    0.693
        26  -9.7576    230.2876    166.6229   7.6101786493e+01   2.4988722592e+00    0.2081549    0.1165997 -54.15 0.0008438603    2.887    0.654
        27 -10.0129    193.5666    166.3929   8.3110122168e+01   9.4746048702e+00    0.2525687    0.2353472   8.07 0.0008230689    1.006    0.006
        28  -8.9400    204.0000    164.0216   8.0515569998e+01   7.8686354834e+00    0.2238716   0.07910239 -39.58 0.0003701561    2.813    0.645
        29 -10.9637     33.3848    156.4704   1.1900179456e+02   3.8292357184e+01    0.3061405    0.1979641  50.77  0.001384621    1.552    0.356
        30  -9.8770    174.7148    148.4480   8.3196280673e+01   1.6768599861e+01    0.3623892     0.204087 -52.01  0.001109741    1.997    0.499
        31 -10.7053    134.0000    144.0100   9.1690301332e+01   2.6097548368e+01     1.004727    0.2877783 -56.79  0.002341086    6.033    0.834
        32 -11.6107     54.6297    147.8100   1.1270861369e+02   3.8014431203e+01     0.385344    0.2704159 -60.22  0.002163485    1.326    0.246
        33  -9.4068    155.3163    199.4157   9.7323464247e+01   1.0548526854e+01      0.22447    0.1689368 -78.40  0.001175478    1.824    0.452
        34 -10.2326     99.4985    143.4955   1.0034666756e+02   3.2575155137e+01    0.2911726    0.2618564 -86.98 0.0007706326    1.072    0.067
        35  -9.9580    102.2364    140.1629   9.8976555745e+01   3.2901944380e+01    0.3476817    0.2484533 -26.88  0.001595491    1.922    0.480
        36 -12.3302     87.7570    142.2767   1.0319181977e+02   3.4775740604e+01    0.2989646    0.2612585 -48.15  0.000403206    1.211    0.174
        37 -10.5806     82.7307    142.4226   1.0454302336e+02   3.5512885673e+01    0.3463719    0.2296111  68.38 0.0009336778    1.788    0.441
        38 -10.6432     31.6064    137.6047   1.1728179126e+02   4.2925476449e+01    0.2381805    0.1860197  79.93 0.0007573045    1.196    0.164
        39 -11.4793     23.4669    137.4169   1.1935227485e+02   4.3700374394e+01    0.3471839    0.1969003  26.60   0.00191982    2.177    0.541
        40 -10.0715    110.0701    131.9449   9.5184151180e+01   3.3462707792e+01    0.3293743    0.2620723  -1.38 0.0009966727    1.728    0.421
        41 -10.1531    106.0058    130.9739   9.6058439357e+01   3.4427143063e+01    0.3466502    0.3048995  88.70  0.001145072    1.186    0.157
        42  -9.7797    158.7077    130.6762   8.2670008726e+01   2.3893192732e+01    0.1567176    0.1238666  -3.36 0.0002891436    1.614    0.381
        43 -10.5175    135.5790    128.7777   8.7833532249e+01   2.9221908960e+01    0.3815535     0.149333 -49.93  0.001281877    2.577    0.612
        44 -13.4133     38.7415    208.4174   1.2248913489e+02   2.6295633473e+01    0.6226549    0.5067696 -16.83  0.001789887    2.281    0.562
        45 -10.9862     97.5854    128.0300   9.7708439447e+01   3.6599909014e+01    0.3091981    0.2592625 -24.68  0.001058581    1.425    0.298
        46  -9.3468    125.4333    127.1946   9.0056791302e+01   3.1638877221e+01    0.2187285    0.1447059 -62.62 0.0008718639    1.686    0.407
        47 -10.1776    116.6342    126.2412   9.2149477829e+01   3.3576825099e+01    0.3033735    0.2307672 -89.06  0.001397204    1.669    0.401
        48  -9.3264     92.3479    124.8533   9.8475381489e+01   3.8241184690e+01    0.2299245    0.1716699 -77.76 0.0006874102    1.471    0.320
        49 -10.3983    135.2179    122.0353   8.6286512798e+01   3.0817155425e+01    0.5903986    0.1682564 -52.93  0.001491741    4.633    0.784
        50  -9.9799    107.0814    120.0746   9.3296878197e+01   3.6815268333e+01    0.2157806    0.2068968 -59.30  0.000317601    1.020    0.020
        51 -10.7410     23.8480    116.8115   1.1667142147e+02   4.8579647679e+01    0.2274557    0.1564437 -81.80 0.0006735386    1.269    0.212
        52 -10.3506    137.6346    171.0473   9.6241448194e+01   1.9446865372e+01    0.2601239    0.1916654  52.43 0.0008252949    1.341    0.254
        53  -9.8174    134.7235    112.5049   8.3986679833e+01   3.3054000071e+01    0.2962989    0.1358825 -45.90  0.001069269    2.125    0.529
        54 -10.0609    205.4050    110.2139   6.7651076121e+01   1.7501239723e+01    0.3108342    0.2489051  44.84 0.0009049618    1.315    0.240
        55 -10.2201    168.3176    113.2289   7.6057090468e+01   2.5412215760e+01    0.3922335     0.293645 -72.35  0.001115088    1.758    0.431
        56 -10.2557    134.3985    104.3859   8.1899351858e+01   3.4912803401e+01    0.5209736    0.1818639 -43.62  0.001651269    2.794    0.642
        57 -10.2876     36.5011    101.0442   1.1033256257e+02   5.1258741949e+01    0.2057625    0.1099814 -64.72 0.0006095972    1.555    0.357
        58 -11.6756      1.9091     88.9478   1.1938274688e+02   5.6544629866e+01    0.5048349    0.1477859 -75.35  0.002004841    3.078    0.675
        59  -9.9647     41.6884    103.3438   1.0913175915e+02   5.0207171385e+01    0.2149143    0.1507874  46.04  0.001167793    1.654    0.395
        60 -11.8682    242.3232    102.1983   5.9489008779e+01   1.0890095478e+01    0.3133272    0.2429933  79.61  0.001653072    1.666    0.400
        61  -9.3225     11.5724     92.8338   1.1686857191e+02   5.5113223111e+01    0.1632454    0.1428454  39.45 0.0005456691    1.424    0.298
        62 -11.2661    249.7586     87.7890   5.5023603828e+01   1.1679812758e+01    0.2704614    0.2235659 -44.54 0.0007932618    1.076    0.071
        63  -9.4066    159.2465     80.9742   6.9084757919e+01   3.3961025807e+01    0.2070218    0.1313579 -38.20  0.000575194    1.547    0.354
        64  -9.0050    184.4976     77.4648   6.2819569260e+01   2.8409424925e+01     0.152427    0.1484904  -2.32 3.046609e-06    1.077    0.071
        65  -8.8544    105.9782     76.5099   8.1636833517e+01   4.6789720788e+01    0.2088245    0.1339473  68.56 0.0008097194    2.591    0.614
        66 -10.4622     51.4315     64.0583   9.6219298053e+01   5.8137915428e+01     0.361228    0.2310158  53.10  0.001787987    2.309    0.567
        67 -10.2028     13.4874     60.0490   1.0992868380e+02   6.2397070626e+01    0.2065992    0.1693975 -43.72  0.000416403    1.095    0.087
        68 -13.4506      8.4032    187.9417   1.2694632389e+02   3.3608180079e+01    0.6139683    0.5527843  81.74  0.004878798    1.325    0.245
        69 -15.7406     11.2125    240.7425   1.2917123602e+02   2.3037339681e+01     2.005567     1.365635  64.58   0.01176186    1.085    0.079
        70  -8.9745    163.5571    204.5394   9.6462471838e+01   8.1591013630e+00    0.1335254    0.1192154  39.01 8.510333e-05    1.030    0.030
        71  -9.2791     76.1828    190.7401   1.1314718600e+02   2.5298018103e+01    0.2135331    0.1063472  67.91 0.0005780718    2.544    0.607
        72 -10.9859    141.6015     46.9412   6.2248801435e+01   4.4112767359e+01    0.3801904    0.2730337 -78.55 0.0007064796    1.972    0.493
        73 -10.0509    145.5904     42.4338   5.9846217394e+01   4.3799639112e+01    0.3116644     0.219379 -74.67  0.000720778    1.967    0.492
        74 -10.9541    189.4918     15.2577   4.4108973221e+01   3.6071882271e+01    0.2635636    0.2389745 -88.50 0.0007559055    1.001    0.001
        75  -9.7402    148.6386    187.9588   9.6810735802e+01   1.3941063341e+01    0.2220414    0.1186889 -73.21 0.0007042446    4.523    0.779
        76  -8.8505     94.8463    188.0975   1.0871335703e+02   2.3112802367e+01    0.1667278    0.1573272 -42.19 0.0005456124    1.320    0.242
