#   1 NUMBER                 Running object number                                     
#   2 MAG_AUTO               Kron-like elliptical aperture magnitude                    [mag]
#   3 X_IMAGE                Object position along x                                    [pixel]
#   4 Y_IMAGE                Object position along y                                    [pixel]
#   5 X_WORLD                Barycenter position along world x axis                     [deg]
#   6 Y_WORLD                Barycenter position along world y axis                     [deg]
#   7 A_WORLD                Profile RMS along major axis (world units)                 [deg]
#   8 B_WORLD                Profile RMS along minor axis (world units)                 [deg]
#   9 THETA_WORLD            Position angle (CCW/world-x)                               [deg]
#  10 FWHM_WORLD             FWHM assuming a gaussian core                              [deg]
#  11 ELONGATION             A_IMAGE/B_IMAGE                                           
#  12 ELLIPTICITY            1 - B_IMAGE/A_IMAGE                                       
         1 -14.8496    194.5034    157.3362   5.7354715658e+01   1.1371831346e+01     13.50342     9.649918 -84.10   0.05888109    2.568    0.611
         2 -15.2182    249.0926     71.2362   2.7591776919e+01   1.3499782907e+01     10.42774     2.296318 -27.14   0.02152234    9.010    0.889
         3 -16.0280    246.1082     81.9305   3.0576084671e+01   1.2584963376e+01     6.425495     1.635697  47.68   0.01960235    4.433    0.774
         4 -15.1083    173.4376     89.9266   4.5332960763e+01   2.8442361451e+01     3.858482     3.089223 -27.86   0.01759411    1.287    0.223
         5 -14.1784    235.3991     40.9097   2.1893771969e+01   2.0850702302e+01      3.87926     1.717776  54.62   0.01645974    2.288    0.563
         6 -12.4324    247.9885     15.3327   1.4453727781e+01   2.1035592682e+01    0.4047557    0.3413523 -43.70 0.0003804617    1.156    0.135
         7 -14.7204    226.3922     49.9664   2.5320133436e+01   2.1786765388e+01     5.450754     2.476614 -14.74   0.01763915    4.051    0.753
         8 -14.7529    244.6210     29.4883   1.8091476453e+01   2.0140541904e+01     4.427384      2.24089 -86.34   0.01837617    2.750    0.636
         9 -14.8422    233.5990     59.9356   2.6883187383e+01   1.8667471111e+01     4.978921     1.756017 -24.19    0.0157152    3.855    0.741
        10 -11.3425    147.7762     26.2675   3.1128767183e+01   4.4632362904e+01    0.3508435    0.3016012  58.79  0.001959505    1.128    0.113
        11 -10.4320    191.7491      8.2420   1.8576260474e+01   3.5486838058e+01    0.5252635     0.264894 -54.53  0.001765231    2.336    0.572
        12 -10.8717    180.9263      5.1055   1.9052425494e+01   3.8539637126e+01    0.5369307    0.4629526  60.21  0.003187645    1.078    0.073
        13  -8.7893    157.7186      5.2156   2.2409001730e+01   4.4394140577e+01    0.2700827    0.1505724  14.27   0.00114943    2.540    0.606
        14  -9.0347    205.4231      3.0506   1.5588891633e+01   3.2558389441e+01    0.2563228    0.1666625 -28.98  0.001151442    1.635    0.388
        15 -10.0926    245.9945    184.9942   5.3501378532e+01  -2.6843292254e+00    0.3209218    0.2097684  60.25   0.00160946    2.455    0.593
        16 -10.9572    233.9529    179.3255   5.4478101892e+01   2.2080476501e-01    0.3691906    0.2889352  -4.76 0.0004978286    1.233    0.189
        17  -9.2545    151.0950    248.0601   8.0404465737e+01   4.8892037087e+00    0.1725857    0.1353377  45.92 0.0003347185    1.029    0.028
        18  -8.6917    152.4468    243.5112   7.9627385514e+01   5.3070844990e+00     0.117717   0.09230507  47.08 0.0001149365    1.006    0.006
        19 -13.7009      7.0014    144.7648   9.7089869054e+01   4.3301768604e+01     1.583154     1.161446  12.49  0.008713046    2.073    0.518
        20 -11.4830     67.6814    143.9335   8.3211222833e+01   3.7260173542e+01     1.137927    0.5012873  59.94  0.004455002    3.367    0.703
        21 -12.8659     66.1024    129.3625   8.1252047522e+01   4.0704578660e+01     1.356481     1.133978  69.38  0.008460273    1.225    0.184
        22 -14.5064    233.1713     85.7805   3.3420739830e+01   1.4898722144e+01      1.98231    0.4670119 -38.65   0.00404764    3.689    0.729
        23 -10.0640    134.3892    148.5777   6.8375721743e+01   2.5296569106e+01     0.478618    0.2606643 -63.66  0.001936413    2.420    0.587
        24 -10.4908    133.4936    143.4844   6.7547051278e+01   2.6527470495e+01    0.8980945    0.2595504 -55.08  0.002468816    4.883    0.795
        25 -10.1747    119.2613    234.9318   8.4436511833e+01   1.1869458397e+01    0.2085162    0.1765755  74.81 0.0004635084    1.166    0.143
        26 -10.5392    144.9961    147.0349   6.5662280196e+01   2.3526825242e+01    0.5195889    0.2785078 -60.79  0.002060544    2.458    0.593
        27 -12.1229     53.8045    133.6776   8.5000316094e+01   4.1257747434e+01    0.5768073    0.3349566 -67.92  0.001413939    1.513    0.339
        28  -8.8023     70.5278    225.9483   9.2057074506e+01   2.0432626650e+01    0.1638041    0.1213317  60.55 0.0003889695    1.090    0.083
        29 -10.5485    210.8101    142.7251   5.0997714508e+01   1.0469503523e+01     0.400035    0.1754338  50.20  0.001393693    2.340    0.573
        30  -9.6534    158.2335    143.1299   6.1885881075e+01   2.1599969043e+01    0.3280068    0.2047679  49.82  0.001081349    1.578    0.366
        31 -11.6836    155.9940    137.6009   6.1164558587e+01   2.3167871043e+01    0.7067605    0.3628371  49.51  0.002885438    1.944    0.485
        32  -8.7632    143.0441    222.5076   7.8651421562e+01   1.0007281369e+01    0.1660795     0.147486  57.11  0.001143954    1.089    0.082
        33  -9.2476    208.8272    126.9192   4.7722259723e+01   1.3599794251e+01    0.2665162    0.2507133  71.80 0.0007049662    1.205    0.170
        34 -12.0946    206.0434    132.8145   4.9637945036e+01   1.3189475018e+01     1.000834     0.654716 -81.89  0.003595478    3.560    0.719
        35  -9.7258    153.9628    170.4593   6.8304695788e+01   1.7157513867e+01    0.2341897    0.2035902 -47.78 0.0001255341    1.243    0.196
        36  -9.9650    211.5066    134.5212   4.8996569425e+01   1.1712710228e+01    0.2774428    0.2133923  42.58 0.0009462904    1.282    0.220
        37 -11.0781    210.9942    130.9908   4.8272500235e+01   1.2425964500e+01    0.4701974    0.3525076  77.51   0.00221514    1.914    0.478
        38 -10.2106    210.1852    164.4002   5.5797916974e+01   7.0079265573e+00    0.3892556    0.2881125  87.05  0.001281308    2.471    0.595
        39  -8.5957    223.3535    133.2863   4.6533720634e+01   9.3914250609e+00    0.1499491    0.1066543  15.37 0.0006088659    1.668    0.400
        40  -8.5352    233.0455    215.5246   6.1310061580e+01  -4.4008614918e+00    0.1823976    0.1032001  40.98 0.0007364011    1.563    0.360
        41 -12.0647     37.7480    136.6162   8.9280252932e+01   4.2353230515e+01    0.4700696    0.3735964  18.66   0.00107901    1.711    0.416
        42  -8.8500     93.1631    122.1164   7.2961895909e+01   3.8387519924e+01    0.2044576    0.1814983 -40.10 0.0004161372    1.196    0.164
        43  -8.9980    214.2394    120.8836   4.5272805418e+01   1.3437245874e+01    0.2132299    0.1934575 -40.46 0.0005288891    1.138    0.121
        44 -13.7155    249.2341     43.7940   2.0998907702e+01   1.7267408337e+01    0.7286667    0.5579876  -1.47 0.0009558274    1.705    0.414
        45 -13.4297     45.6351    134.1966   8.7065697731e+01   4.2061638361e+01     1.026775    0.9262232 -82.88  0.005277202    1.107    0.097
        46  -8.1694     97.4178    162.4169   7.9240113652e+01   2.8905843972e+01    0.1306292    0.1177227  81.41 0.0001081941    1.009    0.009
        47 -10.1291     69.6729    109.2228   7.6545478176e+01   4.4732935132e+01     0.216869    0.2021904 -62.23 0.0002689315    1.056    0.053
        48  -8.8643    108.9746    109.0041   6.5896654162e+01   3.8543568918e+01    0.1700089    0.1627699 -56.95  0.000325957    1.001    0.001
        49  -9.9628    148.5901     99.2449   5.3445236233e+01   3.2463484048e+01    0.3617897    0.2301183 -58.28   0.00151021    1.940    0.485
        50 -10.6978    142.2476     98.6346   5.4796880715e+01   3.3989228926e+01    0.3613083    0.3068217 -89.49 0.0006139871    1.425    0.298
        51 -10.4438    157.4945     90.4470   4.8967017193e+01   3.2121822127e+01    0.3654786    0.2721352 -31.16 0.0007124915    1.383    0.277
        52  -8.7795     38.0215    213.5232   9.6649247810e+01   2.6646605760e+01    0.1606747   0.05731234  57.44 0.0008098374    2.519    0.603
        53  -8.7942    130.6957     86.1965   5.4208430658e+01   3.8950621434e+01    0.2182113    0.1332568 -33.60 0.0005981506    1.712    0.416
        54  -8.8053     21.6594    211.6923   9.9279057997e+01   2.8729021389e+01   0.08943627   0.07536606 -61.19 0.0007043098    1.686    0.407
        55 -10.6760    126.9733     75.4584   5.2008252197e+01   4.1806367949e+01    0.3399576    0.2408823 -37.89 0.0005696717    1.386    0.279
        56  -9.1451    158.5059     73.5601   4.3880464819e+01   3.4947017730e+01    0.2624268    0.2470675 -28.30 0.0005597401    1.066    0.062
        57  -9.4435    151.0490     71.5347   4.4951964166e+01   3.7078073133e+01    0.2837789    0.2198002 -35.66   0.00053487    1.294    0.227
        58  -9.5422    200.4296     69.4940   3.4493431502e+01   2.5281468544e+01    0.3151829    0.1434214 -33.40  0.001050351    2.167    0.538
        59  -8.7110    111.0775     69.9094   5.4565422140e+01   4.6124333589e+01    0.2700127    0.1748324 -35.76  0.001163734    1.505    0.336
        60  -9.3883    138.7001     66.7746   4.6402914054e+01   4.0782958286e+01     0.289893    0.2175403  22.06 0.0006531008    1.538    0.350
        61  -9.0518    186.0631     64.3217   3.5604319765e+01   2.9680088747e+01    0.2070739     0.195431  71.05 0.0005418666    1.070    0.066
        62  -9.5956    206.4888     57.9606   3.0336474462e+01   2.5533950036e+01     0.311292    0.2279032  50.01  0.000489186    1.382    0.276
        63  -9.5238    209.0636     54.7995   2.9077049224e+01   2.5354360418e+01     0.265723    0.2040977 -41.49 0.0006609222    1.280    0.219
        64  -8.4416    108.1350     56.8281   5.1182331867e+01   4.9075961413e+01     0.187225    0.1555171  -6.52 0.0003468938    1.237    0.191
        65  -9.6637    177.0000     53.0193   3.3980510549e+01   3.3693960175e+01    0.3616714    0.1899954 -36.32  0.001492835    1.899    0.473
        66 -10.6348    176.2420     48.0396   3.2631425039e+01   3.4613749128e+01    0.5182312    0.3048126 -50.09  0.002207399    1.942    0.485
        67 -10.0879    206.7030     47.2152   2.7369734006e+01   2.7016474936e+01    0.3609393    0.2686513  12.29  0.001016419    1.763    0.433
        68 -11.3518    185.1663     46.5166   3.0606308319e+01   3.2563990447e+01    0.5006148    0.3757725  37.44  0.002474806    1.429    0.300
        69  -9.0035    201.5213     46.7426   2.8023073695e+01   2.8384752528e+01    0.2729742    0.1480426 -23.94  0.001135696    2.056    0.514
        70  -9.3448      3.0767    205.0817   1.0195432539e+02   3.1708552198e+01    0.1474316    0.1084831  81.59 0.0004756515    1.091    0.084
        71  -9.6345    195.8866     38.2937   2.6512272064e+01   3.0952823454e+01     0.417121     0.366273 -25.07  0.002310748    1.202    0.168
        72 -10.2348    189.7911     40.3995   2.8063216041e+01   3.2225574482e+01    0.4136619     0.244478  42.20  0.001336126    1.839    0.456
        73  -9.3929    190.0479     36.3024   2.6838948316e+01   3.2699674447e+01    0.2967538    0.2751364 -29.73 0.0009180307    1.128    0.113
        74  -9.9164    193.2328     33.2467   2.5475920056e+01   3.2278318237e+01    0.2874902    0.2372696 -12.69  0.001146051    1.362    0.266
        75  -9.9578    159.5340     40.8208   3.3564021438e+01   3.9837210886e+01    0.2721315    0.1992347  54.04 0.0006088089    1.299    0.230
        76 -10.9262    123.6352     38.3217   4.0678662133e+01   4.8732313416e+01    0.3381485    0.2402738  -4.93  0.001455763    1.607    0.378
        77  -8.5340    203.6866     35.9722   2.4721308971e+01   2.9277686177e+01    0.1930584    0.1870148 -20.27 0.0006101962    1.108    0.097
        78 -10.3449    169.4703     34.6525   2.9767034527e+01   3.8159579664e+01     0.406259    0.2731793  72.52  0.001272089    1.592    0.372
        79 -10.8678    184.1198     31.8584   2.6470134038e+01   3.4779715665e+01    0.3465545    0.2419104 -16.37 0.0004859665    1.637    0.389
        80 -10.9343    144.5546     32.4316   3.3858595352e+01   4.4647812201e+01    0.4160766    0.2498412 -11.96  0.001827595    2.037    0.509
        81  -9.2198    155.1907     30.2288   3.0995546119e+01   4.2313425397e+01     0.189881    0.1632128 -55.76 0.0008447444    1.299    0.230
        82  -9.8894    123.8379     29.8584   3.7613195774e+01   4.9843056622e+01    0.2297197    0.1798832  18.88 0.0008516465    1.302    0.232
        83  -9.8872    153.8233     20.3852   2.8023221744e+01   4.3820676812e+01    0.4280706    0.1573064  41.21 0.0009640954    3.157    0.683
        84  -9.6907    248.8811    202.6077   5.6326898016e+01  -5.4100600503e+00     0.212925    0.1878979  57.33  0.001408998    1.673    0.402
        85  -9.1977    189.8726     14.9843   2.0728760192e+01   3.5266152147e+01    0.2580592     0.198008 -84.66  0.001256258    1.360    0.265
        86 -10.4969    179.5424     24.1137   2.4883433810e+01   3.6885293516e+01    0.5437616    0.3969118  75.46  0.002015048    1.378    0.274
        87 -10.0229    195.3384    199.6497   6.5334886250e+01   4.3214861437e+00    0.2134753     0.180415  55.51   0.00130611    1.316    0.240
        88 -14.4564    249.5181     58.7535   2.4539665919e+01   1.5178674652e+01    0.9748493    0.6881495 -16.96  0.002196106    1.613    0.380
        89 -11.0058    192.0306    192.8733   6.4764462878e+01   5.9725328194e+00    0.8530499    0.4410208 -60.78  0.003045854    4.553    0.780
        90  -8.6924      6.8489    189.7964   1.0044373720e+02   3.4239049510e+01    0.1425879     0.111276 -87.15 0.0003842599    1.199    0.166
