#   1 NUMBER                 Running object number                                     
#   2 MAG_AUTO               Kron-like elliptical aperture magnitude                    [mag]
#   3 X_IMAGE                Object position along x                                    [pixel]
#   4 Y_IMAGE                Object position along y                                    [pixel]
#   5 X_WORLD                Barycenter position along world x axis                     [deg]
#   6 Y_WORLD                Barycenter position along world y axis                     [deg]
#   7 A_WORLD                Profile RMS along major axis (world units)                 [deg]
#   8 B_WORLD                Profile RMS along minor axis (world units)                 [deg]
#   9 THETA_WORLD            Position angle (CCW/world-x)                               [deg]
#  10 FWHM_WORLD             FWHM assuming a gaussian core                              [deg]
#  11 ELONGATION             A_IMAGE/B_IMAGE                                           
#  12 ELLIPTICITY            1 - B_IMAGE/A_IMAGE                                       
         1 -11.0017     75.3268     20.1216   6.7095496949e+01   6.1954365866e+01    0.4639603    0.2367022 -20.77  0.002208194    2.038    0.509
         2 -11.5069     41.0004     20.4138   8.0668386072e+01   6.7397702858e+01    0.4144455    0.2933185  24.64  0.002618152    1.411    0.291
         3 -11.1125     44.0202     16.0367   7.7246204003e+01   6.7611119774e+01    0.3472601    0.2027206 -43.90  0.001880071    2.113    0.527
         4 -10.9168     13.8868     16.1633   9.1964961386e+01   7.0993893618e+01    0.2548954    0.1757293  27.11  0.001009395    1.737    0.424
         5 -11.4603    234.8552     15.0865   3.7465979474e+01   2.5139975913e+01    0.2382282    0.2023637 -79.90 0.0002875968    1.074    0.069
         6 -10.7241     89.5840     13.7183   5.9847505262e+01   5.9875990240e+01    0.4103789    0.2002994 -38.66  0.001885476    2.393    0.582
         7 -10.5556     85.9617     12.1970   6.0223869746e+01   6.0778132139e+01    0.2409297    0.2108772  74.62 0.0004587026    1.503    0.335
         8 -11.2730     66.2058     13.7487   6.7326696047e+01   6.4374565049e+01    0.2666059    0.2450035  71.81 0.0004290281    1.618    0.382
         9 -11.5468     34.6256     12.6650   7.9851399021e+01   6.9325928901e+01    0.2706267    0.2255688 -23.77 0.0009249197    1.299    0.230
        10 -11.5357     30.4691      7.4765   7.9191833614e+01   7.0545874494e+01    0.4007309    0.3023405   9.55  0.002789156    1.175    0.149
        11 -10.3551    126.0051     11.0082   5.0166189194e+01   5.1957097303e+01    0.1990756    0.1746491  44.39  0.001202421    1.030    0.029
        12 -10.0197     92.9132     10.0697   5.7354230843e+01   5.9546609496e+01    0.2063854     0.130052  27.38 0.0003637378    1.560    0.359
        13 -10.3789     22.5627      9.3320   8.4127448409e+01   7.1203452902e+01    0.3180206    0.1823627  -6.62  0.001841742    1.824    0.452
        14 -10.1666    135.0022     11.5375   4.8677654814e+01   4.9737444707e+01    0.1861729    0.1780396  32.97 0.0001228434    1.075    0.070
        15  -9.5676     15.3924      8.7867   8.7649672128e+01   7.2005242040e+01    0.1537177   0.08139218 -29.84 0.0002790283    1.524    0.344
        16 -11.8416     57.1747      4.1026   6.5898112354e+01   6.6999563010e+01    0.6306359    0.2759699 -22.81  0.003110597    2.229    0.551
        17 -10.3533     37.0486      6.4323   7.5519286097e+01   6.9825406636e+01    0.2830468    0.1743349 -39.42   0.00167322    1.915    0.478
        18 -11.0668     71.0739      5.9380   6.1939180134e+01   6.4324728752e+01    0.3252589     0.302336 -16.55  0.002233057    1.307    0.235
        19  -9.7668    211.4727      5.7855   3.7267762722e+01   3.1509965885e+01    0.1616865    0.1261166  -7.24 0.0009401268    1.696    0.410
        20  -9.4822    151.2239      5.9918   4.4184893256e+01   4.6253804682e+01    0.1581437    0.1113101 -21.98  0.000207669    1.579    0.367
        21  -9.7577      2.2551      6.5658   9.3966762596e+01   7.3429027784e+01    0.1759554   0.09536857  20.87  0.001111408    2.000    0.500
        22  -9.3387    107.7366      4.9459   5.1617888545e+01   5.6754269911e+01    0.1696717    0.1311399  -7.93 0.0001860782    1.366    0.268
        23  -9.9647    104.4484      4.5007   5.2172196404e+01   5.7533077476e+01    0.2219367    0.1582061  68.52 0.0004789197    1.498    0.332
        24 -10.8594    101.1347      2.1517   5.1961652026e+01   5.8466213662e+01    0.2756912    0.1844817  53.08 0.0003601142    1.316    0.240
        25  -9.9735     42.0042      4.8609   7.2458429758e+01   6.9315703688e+01    0.1905598    0.1158868   5.99  0.001094839    1.649    0.394
        26  -9.7687      7.9275      5.2608   9.0035570264e+01   7.3191858851e+01    0.1252297   0.08439769  13.37 0.0008690988    1.492    0.330
        27  -9.5576    130.0083      3.2646   4.6629588551e+01   5.1676237726e+01    0.1706992    0.1037853  63.76 0.0005728296    1.466    0.318
        28 -11.1863     20.6614      1.9987   8.1247602848e+01   7.2413300166e+01     0.196619    0.1428418   2.70  0.000378707    1.150    0.130
        29 -10.6611    244.2221      1.8622   3.3848803666e+01   2.4539006344e+01    0.2240372    0.1341518  52.23  0.001245046    2.122    0.529
        30 -11.2400     80.4311      1.7050   5.7079683048e+01   6.2890784457e+01    0.3164308    0.1524922  50.93  0.000903559    1.824    0.452
        31  -9.3150      1.2446      3.0232   9.2824792376e+01   7.4047624728e+01    0.1449391    0.0717595 -41.28 0.0008876323    1.609    0.378
        32 -10.1154     11.2958      1.6509   8.6217950579e+01   7.3416142393e+01     0.164988    0.1222536  25.93 0.0005171792    1.642    0.391
        33 -10.0922    153.8625      1.3292   4.2327467888e+01   4.6000568291e+01    0.1922936    0.1104364  69.54 0.0004160551    1.549    0.354
        34  -9.7633      1.2945    191.2000   1.2686679279e+02   3.3459563301e+01    0.1600655   0.07688012  89.49 0.0005647339    1.684    0.406
        35 -11.4027      3.2284    249.1967   1.2931133732e+02   2.2011294781e+01    0.3724891    0.2404395  55.20  0.002933231    1.253    0.202
        36 -12.1703      4.0760    232.6588   1.2847879328e+02   2.4926911462e+01    0.2544533    0.1607135  68.80  0.001889873    1.134    0.118
        37 -12.8123      9.6782    227.5521   1.2729823708e+02   2.5354081931e+01    0.4089003    0.2796315 -89.08   0.00161676    1.234    0.190
        38 -12.7653      5.4312    240.3539   1.2859659506e+02   2.3378939469e+01    0.4704248    0.2906337  50.74  0.003521502    1.378    0.274
        39 -12.3281     16.2034    248.8410   1.2725007958e+02   2.0778201301e+01    0.5130815    0.1839363  34.29  0.002748152    3.027    0.670
        40  -9.1589     15.0000    183.9909   1.2366314939e+02   3.3814808614e+01     0.183192   0.05462655 -75.84 0.0003978525    2.780    0.640
        41  -9.6818     22.5004    179.9948   1.2177899750e+02   3.3994978641e+01    0.1760805   0.09779558 -77.81 0.0004845671    1.493    0.330
        42 -10.6998      5.2924    167.6435   1.2450984599e+02   3.8286038510e+01    0.2447928    0.1326783  68.71  0.001411997    1.695    0.410
        43  -9.8302    226.4985    163.9496   7.3801891169e+01   3.6051336063e+00    0.2088536    0.1262289 -33.57 0.0006531074    1.536    0.349
        44  -9.1938    247.4959    155.4618   6.8350345529e+01   1.2794882268e+00    0.1364059    0.1147943 -14.82 0.0002437496    1.017    0.017
        45  -9.5930     43.9643    153.3139   1.1402159803e+02   3.7989785571e+01     0.169877    0.1517539  83.48 0.0002853569    1.101    0.092
        46 -10.7208      2.9938    153.4961   1.2393080461e+02   4.1679460311e+01    0.2383088   0.09401911  35.03  0.001226322    2.663    0.625
        47 -10.3692     16.0377    150.4821   1.2058776242e+02   4.1365556923e+01    0.1574083    0.1222521  32.19  0.001027333    1.581    0.367
        48  -9.6647    237.9935    149.7326   6.8698794126e+01   3.8911611824e+00    0.1640568    0.1199467  39.77 0.0003972486    1.484    0.326
        49 -10.4155    212.7574    133.9643   6.9593657387e+01   1.1542879237e+01    0.2897839    0.2237123  63.07 0.0009692087    1.608    0.378
        50  -9.4387     23.8686    133.8319   1.1674873898e+02   4.4671058635e+01    0.1641407    0.1251557  80.91  0.001007489    1.253    0.202
        51 -10.4856      2.6880    133.2177   1.2221226805e+02   4.6412424622e+01    0.2938745    0.1490828  56.50  0.001580896    2.158    0.537
        52  -9.9741    249.3344    133.3106   6.3213083017e+01   4.5294226151e+00    0.1394428   0.09982833   0.58 0.0004339708    1.679    0.404
        53  -9.1601     96.2979    133.7119   9.6762410280e+01   3.5471555700e+01    0.1476881    0.1135351  80.31 0.0003275858    1.554    0.357
        54 -10.7999     11.4846    129.2070   1.1950033976e+02   4.6756815286e+01    0.3488002    0.1681701  67.79  0.001638679    2.566    0.610
        55  -9.2656     28.6698    128.2627   1.1470741347e+02   4.5595457134e+01    0.1266435   0.08704018  70.51  0.000218264    1.571    0.364
        56  -9.4964    233.5358    127.5427   6.4442077991e+01   8.4888386197e+00    0.1429541    0.1267891 -29.70 6.255131e-05    1.030    0.029
        57  -9.0185     38.6852    123.3184   1.1113460800e+02   4.5847030405e+01    0.1349226   0.09264553  75.89 0.0004286711    1.651    0.394
        58 -12.0600      8.3680    121.4057   1.1944604064e+02   4.8826771680e+01    0.3381025     0.264055  82.57 0.0008690636    1.228    0.186
        59 -11.5468     23.6525    121.2741   1.1513977678e+02   4.7719839691e+01    0.3969269    0.2321506  68.48  0.001210638    2.065    0.516
        60 -10.6817     65.6401    110.7520   1.0067606789e+02   4.5753258591e+01    0.3029911    0.2346296 -88.08 0.0009328675    1.490    0.329
        61 -11.0542     22.9384    110.2015   1.1370533233e+02   5.0445579852e+01    0.2219796    0.1514333 -67.34 0.0003780087    1.176    0.150
        62 -11.8769      3.4656    108.8617   1.1931840299e+02   5.2096289939e+01    0.3758484    0.2444572 -16.61   0.00163389    2.118    0.528
        63  -9.6965     35.2252    108.6979   1.0968789757e+02   4.9739847859e+01    0.2584231    0.1609691  88.46  0.001168663    1.949    0.487
        64 -11.2013     57.9255    107.4809   1.0235548641e+02   4.7548359973e+01    0.3149146    0.2322812 -16.66 0.0009397856    1.750    0.429
        65  -9.8021     89.0264    104.7451   9.2081402720e+01   4.3634120563e+01    0.1865696    0.1300665  38.16  0.000745919    1.548    0.354
        66 -10.2196    186.9278    103.0475   6.6823566226e+01   2.3050100225e+01    0.2319371    0.2218313 -40.59 0.0005436331    1.011    0.011
        67  -9.7595    135.7869    102.1866   7.8219068714e+01   3.5011954851e+01    0.2089009      0.18228  -4.84 0.0002650633    1.287    0.223
        68 -11.0957     24.0455     88.2658   1.0946455119e+02   5.5560205339e+01    0.4003912    0.1928978 -54.75  0.001333672    1.607    0.378
        69 -12.4247     20.9597     92.6568   1.1135297403e+02   5.4769105188e+01    0.3237045    0.2659052 -38.61 0.0003125353    1.241    0.194
        70 -11.0824     19.1897     86.9012   1.1086615936e+02   5.6241405246e+01    0.3690586    0.1700726 -68.94  0.001108675    1.910    0.476
        71 -11.1899     10.2481     91.6530   1.1473110797e+02   5.5729194708e+01    0.3760296    0.1818956 -80.89  0.001798625    2.163    0.538
        72 -11.4943     11.3584     85.7361   1.1334028106e+02   5.7032438772e+01    0.4034449    0.1845566 -82.86  0.001755091    2.762    0.638
        73 -10.2388      3.7641     94.8443   1.1732969680e+02   5.5360020291e+01    0.2299586    0.1693866  87.29  0.001477774    1.381    0.276
        74 -11.7091    125.2006     93.3211   7.8465737592e+01   3.9208690996e+01    0.2714594    0.2654087 -32.47 0.0002157295    1.020    0.020
        75  -9.9840     78.8980     93.9415   9.2380830318e+01   4.7794016303e+01    0.2180004    0.1785218 -23.87 0.0003517453    1.298    0.230
        76 -10.0428     29.3387     92.4807   1.0850985757e+02   5.4140096955e+01    0.2317334    0.1724199 -56.86 0.0006887826    1.089    0.082
        77  -9.9095    113.4291     92.0080   8.1344638817e+01   4.1957098409e+01    0.2317887    0.2033218  38.45 0.0005735347    1.187    0.158
        78 -11.1932     58.0699     91.7121   9.8632073444e+01   5.1275304282e+01    0.2784442    0.2237512 -14.93 0.0007442079    1.417    0.295
        79 -10.2366     43.6931     89.9000   1.0306905204e+02   5.3372644928e+01    0.3971484     0.267454 -86.90  0.001886139    1.992    0.498
        80  -9.6607     64.5611     88.5161   9.5623583465e+01   5.1154494376e+01    0.1416668    0.1250061 -47.64 0.0001497672    1.028    0.027
        81 -11.5288     55.7338     85.7181   9.7889951665e+01   5.2952107299e+01     0.280816    0.2413419  14.67 0.0009461982    1.313    0.239
        82 -10.0649     76.9053     82.8938   8.9914120937e+01   5.0594497708e+01    0.2092668    0.1904794 -39.39 0.0004002211    1.030    0.029
        83 -10.8730      3.0926     81.5424   1.1545693211e+02   5.8457855119e+01    0.4129898    0.1858321 -76.99  0.002013276    2.128    0.530
        84  -9.8371     89.3741     80.7940   8.5220690171e+01   4.8959627831e+01    0.2799557    0.1781516 -61.44  0.001037317    1.967    0.492
        85 -10.4617     64.8401     80.4407   9.3289693118e+01   5.2935436961e+01    0.2698723    0.1840757 -46.71  0.001387266    1.291    0.226
        86  -9.3347    250.3154     80.7110   5.1047550920e+01   1.2816735971e+01    0.1380761   0.09390401 -61.53 0.0003682356    1.590    0.371
        87  -9.9530    124.4746     79.0414   7.4322938949e+01   4.2289471269e+01    0.2309132    0.1480465 -40.53 0.0005323121    1.519    0.342
        88  -9.8270    176.9511     76.7020   6.1507659384e+01   3.0277970917e+01    0.2197162    0.1989928  64.68 0.0007037359    1.133    0.117
        89 -10.6789     54.5520     76.2524   9.5718190311e+01   5.5225766058e+01    0.4635921    0.2647615   6.70  0.002002281    2.715    0.632
        90 -10.3544     28.0799     77.1007   1.0560527223e+02   5.7797806929e+01    0.1870229    0.1534486 -48.24  0.000374921    1.028    0.027
        91  -9.1096    161.4300     76.4952   6.4616195208e+01   3.4109935499e+01    0.1546456    0.1472637 -59.33  0.000574106    1.061    0.057
        92 -10.4515     41.9992     75.7813   1.0015453159e+02   5.6776798481e+01    0.2318267    0.1622587 -51.55  0.001302423    1.202    0.168
        93 -10.7380     14.9446     75.9212   1.1016567953e+02   5.9045998672e+01    0.1893469    0.1399641  77.76  0.001135992    1.749    0.428
        94  -9.1616     70.3005     75.3326   8.9882021543e+01   5.3255981605e+01    0.1470875    0.1015908 -21.26 0.0002779081    1.651    0.394
        95 -11.2777     36.1703     73.7417   1.0177492581e+02   5.7820114840e+01    0.4235279    0.3925709 -12.94  0.001938567    1.189    0.159
        96 -10.6234     20.8347     73.1655   1.0737626249e+02   5.9255114360e+01    0.3144016    0.1680191 -60.36 0.0008988568    1.516    0.340
        97  -9.5208    216.8926     72.1547   5.3495824919e+01   2.1455912325e+01    0.1809512    0.1657279  -7.20 0.0003704599    1.240    0.194
        98 -10.4790    106.3815     71.4921   7.6999070724e+01   4.7615975134e+01    0.3366928    0.2722812  75.15  0.001654865    1.660    0.398
        99  -9.1666     91.6446     72.2692   8.1790296673e+01   5.0321684920e+01    0.1397378    0.1178454  84.24 0.0006994259    1.636    0.389
       100  -9.4197     99.8914     70.7778   7.8718081074e+01   4.9052963287e+01    0.1820337     0.167288 -61.13  0.000433786    1.236    0.191
       101 -11.0416     10.7683     68.6997   1.1018403474e+02   6.0921386452e+01    0.3482829    0.1616026 -59.57  0.001443841    1.623    0.384
       102 -10.6526     47.0650     69.0180   9.6374662862e+01   5.7701067067e+01    0.4547068    0.2243333  15.10  0.001938429    2.910    0.656
       103 -11.2431      5.0581     68.5566   1.1232749898e+02   6.1272747289e+01    0.3283422    0.2128815  80.10  0.001459428    2.132    0.531
       104 -10.5626      1.4256     66.5217   1.1329881403e+02   6.1901805086e+01    0.1892718   0.09227726 -65.45 6.413439e-05    1.602    0.376
       105 -10.4646     78.6081     67.2007   8.4417725664e+01   5.3629383686e+01    0.3532008    0.2400092  43.03  0.001767763    1.636    0.389
       106 -11.1664     11.0707     59.6783   1.0797607590e+02   6.2868705781e+01    0.2484293    0.1292486  25.45    0.0013802    2.317    0.568
       107  -9.9156     16.0461     67.2924   1.0783380312e+02   6.0896016243e+01    0.1948345    0.1461019  80.77  0.001172061    1.808    0.447
       108 -10.0644     14.4376     63.5024   1.0755887595e+02   6.1830818919e+01    0.2618937    0.1934817  15.88  0.001698933    1.632    0.387
       109  -9.4231     96.8418     64.1394   7.7416969341e+01   5.0927467728e+01    0.1948375    0.1611665   2.12 -0.000430966    1.281    0.219
       110 -10.9830      6.5432     63.5154   1.1068118429e+02   6.2299822469e+01    0.2340452    0.1883734  56.13   0.00157812    1.669    0.401
       111 -10.0834     62.9029     62.1028   8.8276532810e+01   5.7093373905e+01    0.2584068    0.1654415 -37.41  0.001319928    1.398    0.285
       112 -10.6688     39.8769     60.7655   9.6662068697e+01   6.0244698684e+01     0.405294    0.2327725 -27.86  0.002038102    1.852    0.460
       113 -13.6183     20.3265     58.0126   1.0376017446e+02   6.2593747727e+01    0.3653627    0.2873898 -61.15  0.001297514    1.256    0.204
       114  -9.8826    100.3615     60.1200   7.4932584167e+01   5.0974550978e+01    0.2180954    0.1277492 -48.16 0.0009424716    1.879    0.468
       115 -10.7565     49.2721     59.6413   9.2617565087e+01   5.9404409749e+01    0.2541409    0.2211421  71.58 0.0008615929    1.651    0.394
       116 -10.3614    194.2934     58.9391   5.3420773806e+01   2.8931793222e+01    0.2904938    0.1968196  59.40 0.0009303408    1.492    0.330
       117 -10.9057     83.9869     56.9443   7.9034296170e+01   5.4673400860e+01    0.3441345    0.2460876 -52.13  0.001406566    1.613    0.380
       118 -11.3789     88.4533     52.7310   7.6019538914e+01   5.4608314763e+01    0.3489589    0.2902321 -10.71  0.001201744    1.160    0.138
       119  -9.7114     71.6319     56.5186   8.3163793757e+01   5.6854868741e+01    0.2239266    0.1213881 -42.21 0.0008426648    1.705    0.414
       120 -10.3518     32.2158     56.5327   9.8443642673e+01   6.1892636502e+01    0.3802898    0.2552619  -8.65  0.002172875    1.686    0.407
       121 -10.9830      4.8784     57.5029   1.0997633606e+02   6.3684582125e+01    0.1501064    0.1143843   1.01 0.0005900403    1.551    0.355
       122  -9.4885    104.2887     56.3242   7.2408400615e+01   5.0845574940e+01    0.1488315    0.1100913   4.03 0.0007010717    1.608    0.378
       123  -9.7553      8.9075     56.4697   1.0806766952e+02   6.3681972164e+01    0.1466083    0.1155966   6.79  -5.3467e-05    1.505    0.336
       124 -12.0972    114.5446     53.9409   6.8637956667e+01   4.9054441841e+01    0.3114687    0.2763024  30.31 0.0004347181    1.101    0.092
       125  -9.9665    105.5642     52.8893   7.0799209643e+01   5.1165207293e+01    0.2172755     0.188398  37.05 0.0005221577    1.149    0.130
       126 -12.0280     65.6547     52.5694   8.3912056453e+01   5.8532351782e+01    0.4638604    0.2312398  38.06  0.001539847    2.157    0.536
       127  -9.6695    121.9286     51.4855   6.5805642541e+01   4.7796760979e+01    0.2099613    0.1421655  50.61 0.0003554538    1.464    0.317
       128 -10.3167      4.4630     50.8186   1.0851046396e+02   6.5115388357e+01    0.2205934    0.1491073  28.98  0.001424965    1.891    0.471
       129 -11.6757     77.4315     46.2621   7.7289405745e+01   5.7724654016e+01    0.4631857    0.3587686  -5.25  0.002570917    1.297    0.229
       130 -10.2386     38.4684     48.6192   9.3253380252e+01   6.2843647508e+01    0.2265145    0.1707974   6.66  0.001208187    1.401    0.286
       131 -10.2170     13.8444     48.8003   1.0389739319e+02   6.4969790776e+01    0.2099996     0.149169 -57.67 0.0006595417    1.284    0.221
       132 -10.9287      9.2310     46.4114   1.0523546832e+02   6.5751833062e+01     0.380125    0.2319988 -66.67  0.002153121    1.700    0.412
       133  -9.8972     19.7067     44.9567   1.0013574569e+02   6.5315763639e+01     0.190433    0.1249943 -36.71 0.0005240149    1.222    0.181
       134 -10.9454     14.7185     42.2041   1.0149416465e+02   6.6231715869e+01    0.4658994    0.3292218  80.62  0.002538461    2.794    0.642
       135  -9.9256    154.6042     47.7745   5.7130032623e+01   4.0506214136e+01    0.2065015    0.1764488  -6.92 0.0005788841    1.297    0.229
       136 -11.1869     56.6199     46.3097   8.5024609456e+01   6.1010160028e+01    0.3370284    0.3184483 -26.24 0.0009006605    1.237    0.192
       137 -10.8677     27.2879     43.8988   9.6422970184e+01   6.4878480138e+01    0.5012328    0.1950488 -42.32  0.002353573    2.061    0.515
       138  -9.7140     31.1635     46.1221   9.5497113861e+01   6.4081236576e+01    0.1860275    0.1570782 -52.57 0.0004157426    1.308    0.236
       139  -9.0980    135.6963     46.3612   6.0683176041e+01   4.5351030302e+01    0.1517275    0.1128462 -65.71 0.0007037983    1.728    0.421
       140  -9.6783     67.8485     46.6982   8.0896550164e+01   5.9252371597e+01    0.2774777    0.1153627  32.29  0.001108577    2.749    0.636
       141 -10.4708     35.4377     41.6334   9.2036768748e+01   6.4499013239e+01    0.2831595    0.2402674  36.11  0.001860129    1.525    0.344
       142 -10.9102     69.2726     42.0113   7.8539395469e+01   5.9825352228e+01    0.2274453    0.1872191  24.14 0.0001678809    1.215    0.177
       143 -10.4962      7.7658     34.2927   1.0215966009e+02   6.8229305202e+01    0.2291323     0.134302  36.05  0.001356279    2.349    0.574
       144 -10.5469      4.3805     40.9510   1.0584178671e+02   6.7129657398e+01    0.4550585    0.1187653 -41.20  0.001944337    2.912    0.657
       145 -10.9403      3.1047     36.0148   1.0494926640e+02   6.8170378665e+01    0.2094244    0.1472661 -18.71 0.0007759027    1.368    0.269
       146  -9.2730    184.5324     42.0000   5.0157387219e+01   3.3814526281e+01    0.3248879   0.07932714  63.44 0.0009454604    4.022    0.751
       147 -10.5415    140.3843     40.6628   5.7707624773e+01   4.5029735073e+01    0.2756275    0.2170099 -71.78 0.0007198341    1.560    0.359
       148 -10.2025     42.9365     40.4509   8.8363080976e+01   6.3861250395e+01    0.1988734    0.1578739 -36.64  0.000840063    1.172    0.146
       149 -10.5157    128.1577     38.8724   5.9807513129e+01   4.8221196058e+01    0.2224709    0.1968622  55.58 0.0003610213    1.126    0.112
       150 -11.6126    121.4842     37.3743   6.0857759637e+01   4.9992203128e+01    0.3786297    0.3650309   0.47  0.001136166    1.060    0.056
       151  -9.9858     22.3207     38.0786   9.6613579519e+01   6.6430178529e+01    0.1677256    0.1293373 -35.91 0.0005037189    1.053    0.050
       152 -11.4927     26.8803     35.6388   9.3615131204e+01   6.6469366171e+01    0.3966049    0.2188036 -36.80  0.001663179    1.476    0.322
       153 -10.0477     16.4959     33.0216   9.7514622464e+01   6.7852159673e+01    0.2164294    0.1410086 -26.99 0.0006649687    1.300    0.231
       154 -10.3825     20.5530     31.4661   9.4986593388e+01   6.7801511420e+01    0.3254403    0.1706455   3.41  0.001320872    2.372    0.578
       155 -10.6457     97.0271     35.0167   6.6530508241e+01   5.5711964175e+01    0.2089111     0.181872  12.05  0.001213623    1.060    0.057
       156 -10.1439     90.8650     35.3169   6.8516309337e+01   5.6923687686e+01    0.1957029    0.1644818  28.09  0.000828659    1.122    0.108
       157 -11.4340     39.2735     32.8911   8.6927976267e+01   6.5626067307e+01    0.4669211    0.2971153 -46.76  0.002244007    1.621    0.383
       158  -9.1285    212.3546     34.2618   4.4336963905e+01   2.8020404097e+01    0.1329683    0.1007347  40.69 0.0005072215    1.619    0.382
       159  -9.4464    133.9611     34.4869   5.6956199748e+01   4.7418962766e+01    0.2034895    0.1028195  37.39 0.0008023135    2.271    0.560
       160 -10.3215     72.8001     32.5372   7.3376315655e+01   6.0721561678e+01     0.284003    0.1890379   6.16 0.0007248566    1.706    0.414
       161 -10.5833    128.6191     30.7586   5.6801748291e+01   4.9176881645e+01    0.3715407    0.2340582 -47.89  0.001289412    1.865    0.464
       162 -10.6411     77.1945     26.5556   6.9294167966e+01   6.0776115040e+01    0.3588476    0.1521773 -26.88  0.001502138    2.427    0.588
       163  -9.7542    229.6905    247.9661   8.8770002794e+01  -8.9787718307e+00    0.1539813    0.1229238   5.37 0.0005597226    1.109    0.098
       164 -10.4725     47.0835     27.2067   8.1099877947e+01   6.5553562699e+01    0.3783027    0.2652417  -9.62  0.001916581    1.333    0.250
       165 -10.9076     43.5163     26.4959   8.2324367260e+01   6.6142268684e+01    0.5313645    0.1769539 -41.24  0.002236237    2.770    0.639
       166 -10.7441      7.8926     28.4692   1.0006701455e+02   6.9311155677e+01    0.3261134    0.2492192  56.82  0.002096984    2.309    0.567
       167  -8.9433     84.0016     30.0000   6.8508638397e+01   5.9019755209e+01    0.2031233   0.07305378  48.30 0.0003809251    2.758    0.637
       168 -10.6649     69.1873     26.9586   7.2272926178e+01   6.2156013507e+01    0.3596296    0.2248865 -44.20  0.001600978    1.934    0.483
       169 -11.1405    113.8350     26.3276   5.8596062703e+01   5.3173504543e+01    0.2887667    0.2174792 -38.66 0.0007117841    1.455    0.313
       170 -10.1991    100.9226     26.3990   6.1974147754e+01   5.6029550592e+01    0.2813759    0.1730719  31.94  0.001282625    1.655    0.396
       171  -9.6059    147.0020     26.4108   5.1591339331e+01   4.5213334738e+01    0.2003237     0.129108  61.96 3.650054e-05    1.456    0.313
       172  -9.0419    139.0068     27.0000   5.3308773423e+01   4.7117359979e+01    0.2420435   0.07589899  61.27 0.0008110818    3.003    0.667
       173  -8.8824    154.3056     25.6893   5.0062894064e+01   4.3475918492e+01    0.1430486    0.1038138 -66.87 0.0007021065    1.614    0.381
       174  -9.4805     18.6507     25.7005   9.3623842000e+01   6.8985667140e+01    0.1256409   0.07101786 -21.62 0.0002196502    1.688    0.408
       175 -10.0444     59.0365     23.8840   7.4719822588e+01   6.4275280061e+01    0.2560078    0.1573138 -17.34  0.001001656    1.602    0.376
       176  -9.8404     58.8157     19.8111   7.2935446744e+01   6.4869012155e+01    0.1747309    0.1469379   9.65  0.000393802    1.080    0.074
       177 -10.7011     83.6862     21.6630   6.5057990981e+01   6.0165151671e+01    0.4338849    0.1768247  31.17  0.001589195    3.308    0.698
       178 -10.1003     86.4151     18.7975   6.2977020936e+01   5.9963170367e+01    0.2160213    0.1673579  26.28 0.0006171325    1.163    0.140
       179 -10.6137     35.0355     22.1631   8.4193771572e+01   6.7879829377e+01     0.198548    0.1427498 -27.92 0.0002984999    1.174    0.148
       180 -11.0226      2.0803     21.9451   1.0063495092e+02   7.0856121527e+01     0.262309    0.1492792 -51.56 0.0009808789    1.493    0.330
       181  -9.5726     91.4664     22.4882   6.3049788248e+01   5.8499106387e+01    0.1348118    0.1180489  16.91 0.0008096127    1.002    0.002
       182 -10.6771     30.2211     21.1435   8.5997431824e+01   6.8594321576e+01     0.252886    0.1727672  18.61  0.001446649    1.475    0.322
       183 -10.9461     13.8440     21.7331   9.4408072631e+01   7.0070415821e+01    0.3646098     0.200514  12.98  0.002178214    1.969    0.492
       184  -9.8687    225.0308    247.2111   8.9462783731e+01  -8.2428249401e+00    0.2049509    0.1292969 -11.86  0.001273219    1.657    0.396
       185  -9.5603     58.2988    248.3172   1.2016172607e+02   1.6056216485e+01   0.09074699    0.0882449 -40.67 0.0003573915    1.614    0.380
       186 -10.5819     20.3890     17.3379   8.9118500288e+01   7.0216227783e+01    0.2169246     0.146915 -25.13 0.0007729204    1.155    0.134
       187  -9.8821    114.8863     17.4542   5.4934887022e+01   5.3931313796e+01    0.2010378    0.1236925  56.66 0.0003339199    1.508    0.337
       188  -9.4895    170.6089    247.1968   9.9332383899e+01  -1.4852995422e-01    0.1470589    0.1097324 -22.50 0.0006375603    1.631    0.387
       189 -12.0371      9.3352    245.1575   1.2818081061e+02   2.2129748899e+01    0.3163487      0.21082  30.73  0.002290211    2.028    0.507
       190  -9.2413     74.2837    243.6846   1.1694967425e+02   1.4809105687e+01    0.1193714   0.06991656  65.99 0.0003530844    1.580    0.367
       191  -9.7315     35.6202    241.1769   1.2361418474e+02   2.0058450160e+01    0.1398521   0.08727182 -71.20 0.0009432036    1.673    0.402
       192 -10.4215     82.9086     16.0196   6.2828395475e+01   6.0979726723e+01     0.195059     0.171803  11.90 0.0003866957    1.055    0.052
       193  -9.6478    154.3118     15.0289   4.6626125601e+01   4.4629329699e+01    0.1761384     0.174831  52.19 0.0003308658    1.086    0.080
       194  -9.6216    202.4600    240.4629   9.2451506165e+01  -4.1012662016e+00    0.1218997   0.09694891  19.64 8.891319e-05    1.015    0.015
       195  -9.3219     61.1108    241.0000   1.1911529879e+02   1.7018243158e+01    0.1777252   0.05482928  38.14 0.0007904817    2.860    0.650
       196  -9.2673     49.6633    240.6655   1.2113295378e+02   1.8504020322e+01   0.09556422   0.08762208 -40.17 0.0007051952    1.744    0.427
       197  -9.6624    117.7086    239.3296   1.0837679760e+02   9.3248035344e+00    0.1234496   0.08224313  66.00 0.0003998199    1.625    0.385
       198  -9.7968     99.3137     11.4563   5.6274057235e+01   5.8035211069e+01    0.2487736    0.1127253  53.26  0.001125849    1.951    0.487
       199  -9.3037    104.4665     10.4543   5.4593797696e+01   5.6994961792e+01    0.1331358     0.115434  33.40 0.0002392306    1.009    0.009
       200 -11.6777     13.9982    238.6986   1.2712311131e+02   2.2834733271e+01    0.2010332    0.1161217  80.84 0.0005932182    1.364    0.267
       201 -11.8151     25.9457    235.6455   1.2494802099e+02   2.2154410539e+01    0.2634216    0.2152628  25.85  0.001193598    1.827    0.453
       202  -9.4462      3.7299     10.7291   9.5064031878e+01   7.2662080690e+01    0.1112512   0.06204883 -25.00 0.0002105074    1.476    0.322
       203  -9.8067    249.3284    234.0026   8.3131853864e+01  -1.0008954408e+01    0.1578137    0.1191959  -1.11 0.0004145454    1.079    0.073
       204  -9.6124     91.1548    236.9122   1.1318985822e+02   1.3692339976e+01    0.1446064    0.1395513 -60.94  0.001054377    1.368    0.269
       205  -9.6179     47.9883    229.9969   1.2066278042e+02   2.0713175985e+01    0.1381917    0.1051412  68.16 0.0004149223    1.014    0.013
       206  -9.8779    209.5171    229.5253   8.9410755650e+01  -3.6900187521e+00     0.124147    0.1014182  16.74 4.362374e-05    1.015    0.015
       207  -9.9518    140.6863    228.8043   1.0256614102e+02   7.5130927993e+00    0.2305835    0.1085125 -43.18  0.001024825    2.647    0.622
       208 -10.1265    223.4683    226.3893   8.6346746147e+01  -5.3828167145e+00    0.2378153    0.1246452  15.41 0.0008339361    2.370    0.578
       209 -10.9906      1.5260    225.1682   1.2856626105e+02   2.6581133313e+01    0.2265287   0.08206504 -81.21 0.0008638037    2.312    0.568
       210 -11.2213      2.4502    220.5465   1.2819435134e+02   2.7387568758e+01    0.2956304    0.1257779  81.01  0.001685971    2.010    0.503
       211 -10.8331      9.3443    217.9678   1.2686356958e+02   2.7248212246e+01    0.1864409    0.1503952 -76.54  0.001440278    1.409    0.290
       212  -9.9947    205.6981    212.5816   8.7237467774e+01  -6.2884594018e-01    0.2174877    0.1480998 -19.14 0.0007775368    1.561    0.359
       213  -9.1403    249.3378    211.3176   7.9145203953e+01  -7.1854685982e+00    0.1294421   0.07902277   3.69 0.0004600999    1.704    0.413
       214  -9.2485    209.6659    211.2988   8.6260185525e+01  -1.0831999400e+00    0.1165792    0.1030399  64.85 0.0007032242    1.651    0.394
       215 -10.0880      3.2350    211.4154   1.2760673565e+02   2.9119134978e+01    0.1462112   0.07715355  52.08 0.0003680926    1.590    0.371
       216 -10.3450     20.1885    209.8435   1.2441624755e+02   2.7818141283e+01    0.1834478    0.1134496  67.77 0.0008684853    1.301    0.231
       217 -10.4387      2.9926    206.1753   1.2737756711e+02   3.0199580775e+01    0.1466122    0.1226231 -38.26  0.001083302    1.951    0.488
       218 -10.1936     10.2042    203.4067   1.2588918537e+02   3.0112594643e+01     0.152646   0.08066657  51.45 0.0004069953    1.636    0.389
       219 -10.1545     23.5479    196.8331   1.2287460691e+02   3.0203357821e+01    0.1992114     0.168921 -61.18  0.001122585    1.480    0.324
       220 -11.0131     13.9236    192.6380   1.2448911662e+02   3.2036505363e+01    0.2115187    0.1327056  74.93 0.0005462553    1.298    0.230
       221 -10.7103      6.1923    191.7626   1.2595115004e+02   3.2920999324e+01    0.1774127    0.1187135  74.60  0.001205118    1.170    0.145
