#   1 NUMBER                 Running object number                                     
#   2 MAG_AUTO               Kron-like elliptical aperture magnitude                    [mag]
#   3 X_IMAGE                Object position along x                                    [pixel]
#   4 Y_IMAGE                Object position along y                                    [pixel]
#   5 X_WORLD                Barycenter position along world x axis                     [deg]
#   6 Y_WORLD                Barycenter position along world y axis                     [deg]
#   7 A_WORLD                Profile RMS along major axis (world units)                 [deg]
#   8 B_WORLD                Profile RMS along minor axis (world units)                 [deg]
#   9 THETA_WORLD            Position angle (CCW/world-x)                               [deg]
#  10 FWHM_WORLD             FWHM assuming a gaussian core                              [deg]
#  11 ELONGATION             A_IMAGE/B_IMAGE                                           
#  12 ELLIPTICITY            1 - B_IMAGE/A_IMAGE                                       
         1 -12.1522    195.4635     32.5127   5.8543833430e+01   3.2006903254e+01    0.8980526     0.846689  70.45  0.004147186    1.244    0.196
         2 -12.3857    205.7721     19.2028   5.4303194070e+01   3.1209173747e+01    0.8180524    0.7145081   8.26  0.005283244    1.604    0.377
         3 -10.1671     28.3852     35.8526   1.0854664603e+02   7.0029415256e+01    0.2612893    0.1703738  48.12   0.00130719    1.913    0.477
         4  -9.7366     58.0025      3.0014   7.3411224464e+01   6.9971611240e+01    0.2404778    0.1813829 -18.07  0.001381004    1.456    0.313
         5 -10.0435    142.3453    242.0804   1.1249137797e+02   6.6460970674e+00    0.2225094    0.1387307  20.97  0.001327904    1.356    0.262
         6 -11.1564    134.7080    244.7447   1.1439135219e+02   7.2338300239e+00     1.577543    0.2743703 -52.75   0.00516618    7.210    0.861
         7 -11.0039    119.8048    247.6897   1.1784755455e+02   8.6986052918e+00    0.4628245     0.381584 -34.36  0.003258385    1.509    0.337
         8 -11.5413    125.8032    246.2742   1.1642951245e+02   8.1486042198e+00    0.5715826    0.4400298   3.45  0.003819303    1.368    0.269
         9 -10.0491     86.8377    248.8886   1.2503629132e+02   1.2653877528e+01    0.2876611    0.2038383  72.61  0.001839473    1.748    0.428
        10 -10.5096     81.5275    249.2009   1.2621182307e+02   1.3248333929e+01    0.4348981    0.2235356  26.80  0.002383411    1.640    0.390
        11 -10.2626     78.0337    244.4671   1.2659950341e+02   1.4487490408e+01    0.3015948    0.1923768  62.97  0.001792244    1.723    0.420
        12 -16.7788     10.0310    171.1591   1.3861945978e+02   3.7376974042e+01     18.68473      2.62784 -82.60   0.04619278    7.661    0.869
        13 -10.6019     72.6780    181.1277   1.2173744654e+02   2.8073675269e+01    0.4926525    0.3020318 -37.05  0.002238357    2.254    0.556
        14 -10.2643     76.7963    175.6011   1.1989511166e+02   2.8780108227e+01     0.326373    0.2768911 -27.83   0.00154486    1.441    0.306
        15  -7.7305     99.5028    180.5144   1.1435702604e+02   2.4247710558e+01    0.1435467    0.1290011  33.42 0.0002021732    1.042    0.040
        16 -10.5385    115.3178    228.6607   1.1673644810e+02   1.2430743101e+01    0.3207967    0.2270002  56.23   0.00138528    1.631    0.387
        17 -11.0233    143.2390    229.2682   1.1070341208e+02   8.5087717819e+00     0.366467     0.290073  45.30  0.002367569    1.401    0.286
        18  -8.3097    195.9787    170.9962   9.0555831459e+01   1.0177263664e+01    0.2140677    0.1439489  -0.57  0.001134418    1.708    0.414
        19 -10.4955     92.8407    167.9128   1.1427913198e+02   2.8150320118e+01    0.5268816    0.2318459  50.74  0.001928112    2.574    0.611
        20 -12.2814     67.9444    144.1892   1.1804514833e+02   3.7779634586e+01     1.054557    0.6680354  73.74  0.004548153    1.962    0.490
        21 -10.3839     91.5076    158.2997   1.1311835934e+02   3.0628534057e+01     0.607542    0.4032703 -25.93   0.00186736    2.180    0.541
        22 -11.2095     99.7862    228.0045   1.2018847374e+02   1.4646741380e+01     0.490681    0.2812488  39.02  0.001878905    1.400    0.286
        23  -8.2826    140.2132    157.1503   9.9813865404e+01   2.2315320895e+01    0.1951177    0.1717421  73.87 0.0005697887    1.369    0.270
        24  -9.0728     93.3524    236.9144   1.2253706906e+02   1.3897880191e+01    0.2348904    0.1590445  43.53 0.0006819392    1.241    0.194
        25  -9.3983    103.8635    142.4003   1.0660762459e+02   3.2294627283e+01    0.5359467     0.318631 -28.47  0.002026843    2.602    0.616
        26 -10.4926     91.9798    142.7251   1.1022114939e+02   3.4316251841e+01    0.2933536    0.2754784  -1.97 0.0004348005    1.178    0.151
        27 -11.3306     57.4571    128.1076   1.1895321789e+02   4.3435783168e+01    0.5644088     0.363885  86.33  0.002468987    1.862    0.463
        28 -10.7350     84.6583    165.3607   1.1621844360e+02   3.0030138478e+01    0.5880665    0.3858527 -85.47 0.0005622697    1.929    0.482
        29  -9.2655    100.2245    128.4252   1.0478236037e+02   3.6315515723e+01    0.3005509    0.2448983 -23.48 0.0008377664    1.480    0.325
        30 -11.9934     73.2837    161.4193   1.1898025608e+02   3.2687084758e+01    0.6765625    0.5135241 -32.98  0.001801572    1.647    0.393
        31  -8.0900    118.0000    125.9722   9.8986831862e+01   3.3422536321e+01    0.2561781    0.0893994 -49.89 0.0008059571    2.967    0.663
        32  -8.4887    105.7919    130.7393   1.0360548331e+02   3.4707396052e+01    0.3134565    0.2238301 -69.27  0.001404419    1.639    0.390
        33  -8.2580    108.8225    120.1802   1.0029088983e+02   3.6609742446e+01    0.2099754    0.1829208  10.95  0.000432015    1.308    0.236
        34  -8.4915    109.9872    115.5167   9.8812846383e+01   3.7463135390e+01    0.2288771    0.1509139  43.75 0.0003290673    1.467    0.318
        35  -9.5071    114.8175    112.7353   9.6692935575e+01   3.7102304440e+01    0.3605059    0.1111436 -43.28  0.001025166    3.643    0.726
        36  -9.4986    120.5030    238.5213   1.1670831007e+02   1.0073238081e+01     0.212998    0.1265373 -56.89  0.001214478    2.186    0.543
        37  -8.7407    112.6173    132.0818   1.0190280612e+02   3.3078310238e+01    0.3086285    0.2054213  20.21 0.0008213338    1.905    0.475
        38  -9.6781    194.4489    194.2415   9.4997308641e+01   6.7723092007e+00    0.3480966    0.2483069 -21.16  0.002048892    1.328    0.247
        39 -10.6589     32.8628    104.8267   1.2448222095e+02   5.2562873775e+01     0.601074    0.1554745 -67.12  0.001901731    3.374    0.704
        40 -14.5892     53.0821    205.0063   1.2932643034e+02   2.5228306643e+01     4.218297     2.408893  88.86   0.02144511    2.029    0.507
        41 -11.0887    109.8624    229.7347   1.1808447625e+02   1.2983510300e+01    0.4932657    0.2242597  38.59  0.002304493    1.756    0.430
        42 -11.7250    126.3853    229.0883   1.1432748343e+02   1.0844499007e+01    0.7129264    0.3628505  37.07  0.003714371    1.599    0.375
        43  -9.2957    158.5683     60.6541   7.1378516893e+01   3.6999386235e+01     0.370285    0.2409829 -83.99  0.001062893    1.958    0.489
        44 -10.7880    119.2113    229.8144   1.1600056758e+02   1.1701448509e+01    0.5781989    0.3074159  10.07  0.002520525    2.842    0.648
        45  -8.6151    208.4815    183.4716   9.0561873861e+01   6.3835233146e+00     0.124184    0.1022235  -3.11 0.0008097126    1.004    0.004
        46  -9.1050    160.9048     54.4328   6.9136990518e+01   3.7379937729e+01    0.3197751    0.2181438 -76.95  0.001174803    1.682    0.406
        47 -10.7757    185.5532     39.5375   6.1457188829e+01   3.3444111999e+01    0.3525536    0.2959746 -84.82  0.001032621    1.111    0.100
        48  -8.0804    174.3435    249.6545   1.0708129419e+02   1.5680322417e+00    0.1068358   0.07998466  45.00 0.0007045728    1.793    0.442
        49 -12.4364    104.1518    249.5323   1.2136398751e+02   1.0394157355e+01       1.6389    0.4785593  29.68  0.004725934    2.740    0.635
        50 -10.3255     84.7707    235.5153   1.2434161997e+02   1.5242219144e+01    0.4026817    0.2455758 -72.32  0.002221391    2.114    0.527
