#   1 NUMBER                 Running object number                                     
#   2 MAG_AUTO               Kron-like elliptical aperture magnitude                    [mag]
#   3 X_IMAGE                Object position along x                                    [pixel]
#   4 Y_IMAGE                Object position along y                                    [pixel]
#   5 X_WORLD                Barycenter position along world x axis                     [deg]
#   6 Y_WORLD                Barycenter position along world y axis                     [deg]
#   7 A_WORLD                Profile RMS along major axis (world units)                 [deg]
#   8 B_WORLD                Profile RMS along minor axis (world units)                 [deg]
#   9 THETA_WORLD            Position angle (CCW/world-x)                               [deg]
#  10 FWHM_WORLD             FWHM assuming a gaussian core                              [deg]
#  11 ELONGATION             A_IMAGE/B_IMAGE                                           
#  12 ELLIPTICITY            1 - B_IMAGE/A_IMAGE                                       
         1 -14.4552     68.5416    144.8230   8.3664942292e+01   3.7156538549e+01     3.610823     1.644692  59.70  0.002923569    3.280    0.695
         2 -13.9927    210.7053     46.8784   2.6916828146e+01   2.7028010442e+01     1.606193     1.180312  27.88  0.007508777    1.843    0.457
         3 -14.0405    224.6071     36.0563   2.3025754010e+01   2.5466653851e+01     1.020166     0.761108  31.54  0.006217772    1.839    0.456
         4 -11.7389    249.5041     15.5048   1.6801983181e+01   2.2897443317e+01    0.3656636    0.2158936 -35.03  0.001591472    1.328    0.247
         5 -12.1657    248.5898     11.1949   1.5927050768e+01   2.3475735063e+01    0.5000074    0.3152038 -11.87  0.003080982    1.952    0.488
         6  -9.8223      2.3251      4.3263   8.4362170126e+01   7.9050177214e+01    0.1381118   0.07547481 -32.08 0.0003473152    1.694    0.410
         7 -11.0602    142.0225    235.9490   7.7223959196e+01   9.5353183389e+00    0.1944887    0.1551947 -20.79 0.0007573174    1.409    0.290
         8 -10.4405    106.8433    250.3657   8.5913258255e+01   1.1615526304e+01    0.2121006    0.1168001  23.16  0.001285257    1.462    0.316
         9 -13.4701     39.3543    240.8318   9.9579507466e+01   2.0355040404e+01    0.7648321    0.3825344  68.62  0.001704936    2.188    0.543
        10 -15.0897      5.4728    181.7160   1.0528978211e+02   3.4907552659e+01     3.638131    0.7104455 -87.32  0.002582442    5.545    0.820
        11 -15.7459     31.1639    190.4796   9.8954166947e+01   3.0848358002e+01     5.072571     1.674024  73.84   0.01733724    4.681    0.786
        12 -14.6944     41.0225    182.6991   9.5825487827e+01   3.1573246511e+01     1.933244     1.167862  87.36  0.009923968    1.804    0.446
        13 -13.3585     28.7321    248.6266   1.0212813978e+02   2.0030770675e+01    0.4277879    0.3114429  40.56   0.00122424    1.029    0.028
        14 -17.2389     11.1925    236.7982   1.0544132399e+02   2.3569626376e+01     6.943987     5.472812  33.91   0.03561321    1.184    0.156
        15 -10.3995     84.9695    201.6072   8.6134717005e+01   2.2504903773e+01    0.2304257    0.1796423  78.74 0.0005486726    1.549    0.355
        16 -15.6243      8.0802    208.3925   1.0540948427e+02   2.9132659421e+01     1.451036      1.18627 -38.43  0.008029599    1.694    0.410
        17  -9.4207     71.0164    200.6530   8.9506576971e+01   2.4417759708e+01    0.1829457    0.1391214  38.50 0.0004734934    1.078    0.073
        18 -11.3600    192.9824    194.8123   6.1453906139e+01   8.7807886798e+00    0.7603498    0.4373998 -60.03  0.002664736    7.063    0.858
        19 -12.0533    125.0455    209.6878   7.7636939692e+01   1.5755086262e+01     0.275839    0.2492294  13.23  0.001898242    1.136    0.120
        20 -10.7433     56.4087    192.8982   9.2545249206e+01   2.7710923859e+01    0.3458305    0.1986813  61.44  0.001092768    1.828    0.453
        21  -9.0596    185.0095    189.0201   6.1994066808e+01   1.0684036517e+01    0.1494896    0.1182117  11.56 0.0003397694    1.046    0.044
        22 -10.7960     99.0990    181.1017   8.0105881142e+01   2.4680052539e+01     0.285921     0.241726  17.44 0.0007015783    1.153    0.133
        23 -10.4407    120.3466    180.1431   7.4622565734e+01   2.1742358389e+01    0.2281744    0.1790078  33.68 0.0006981301    1.124    0.110
        24 -13.8004     57.3494    126.5645   8.4593841047e+01   4.3215578331e+01     2.795227    0.9895636 -79.63  0.007023597    6.055    0.835
        25 -13.3970     60.9840    151.3912   8.6927512998e+01   3.6564496368e+01    0.4591148    0.4102111 -45.73  0.000992208    1.258    0.205
        26 -10.9291    118.4802    236.8364   8.2189918518e+01   1.2259602808e+01    0.2190614     0.167207  26.13 0.0006543026    1.016    0.016
        27 -12.2850     58.7368    168.6826   8.9617839201e+01   3.2765347580e+01    0.5088195    0.3661374  13.22  0.001845255    1.539    0.350
        28  -9.7167    110.4926    167.1263   7.5079575544e+01   2.5849149439e+01    0.2158271    0.1806915  55.58  0.001211303    1.288    0.224
        29 -12.3872    102.4130    208.0473   8.2640002795e+01   1.9047855802e+01    0.6376256    0.2149353  25.43  0.002425184    3.003    0.667
        30 -11.4682     51.9319    158.0443   9.0485296447e+01   3.6065037939e+01    0.8888309    0.3657819  71.87  0.002712809    4.744    0.789
        31 -11.1995    133.7847    145.6821   6.5233827087e+01   2.6340643519e+01     1.077988    0.3073359 -54.73  0.002761914    6.182    0.838
        32 -10.0520    174.7833    149.2952   5.6738306092e+01   1.8489540423e+01    0.2254586    0.1878725 -25.80  0.000899752    1.164    0.141
        33 -10.4078     47.3130    147.1875   9.0725551989e+01   3.9236266133e+01    0.3421313    0.1688437 -82.30  0.001432107    2.319    0.569
        34  -9.7630    146.1602    143.7834   6.1853161030e+01   2.4497484512e+01    0.1917045    0.1575769  -0.39 0.0004479214    1.281    0.220
        35 -10.8232     27.7606    143.4668   9.6687626232e+01   4.2145455351e+01    0.2593299    0.1860689 -85.92  0.001410015    1.364    0.267
        36 -10.7497     97.8305    136.8832   7.3305831319e+01   3.4540032808e+01    0.5456439    0.3508232  -5.54  0.002135922    2.671    0.626
        37 -12.4331     84.5576    135.9731   7.7182814710e+01   3.6926531700e+01    0.2872385    0.2809125  -9.71 0.0004372593    1.093    0.085
        38 -11.5863     46.2448    131.6078   8.9190380734e+01   4.3282723258e+01    0.5498537    0.2455367  46.56 0.0005714994    2.183    0.542
        39 -10.8695    106.7273    129.5446   6.9207623455e+01   3.4662537970e+01      0.54778    0.3530039  12.70  0.002259731    2.187    0.543
        40 -12.3921     82.2947    149.3818   8.0136180782e+01   3.4097812987e+01    0.7147299     0.499513 -26.78  0.003383443    1.885    0.469
        41  -9.9250     96.4117    123.5674   7.1041700112e+01   3.7884858086e+01    0.2697376    0.1999005 -11.94 0.0009346078    1.830    0.454
        42  -9.3527    115.3226    123.3260   6.5380632857e+01   3.4457538282e+01    0.1548857    0.1185429  -5.61  0.000704808    1.687    0.407
        43  -9.9620    105.8315    117.7846   6.6878919474e+01   3.7498427491e+01    0.2131966    0.1984989  10.86   0.00038475    1.115    0.103
        44  -9.3170     36.3298    118.2964   9.1026886739e+01   4.7808294096e+01    0.1447918    0.1043341 -34.00 0.0007026632    1.636    0.389
        45 -10.9087    133.9268    113.1058   5.7946443021e+01   3.2944062202e+01    0.3634957    0.2931441 -68.28  0.001169613    1.512    0.338
        46 -10.2063    205.3888    110.4354   4.2850756440e+01   1.9285758478e+01    0.2354197     0.206829  25.84 0.0008687002    1.204    0.169
        47 -10.2823    129.5404    108.2057   5.7855076487e+01   3.4855414340e+01      0.26417    0.2059938  43.13 0.0003015429    1.257    0.205
        48 -12.4800    229.6640    168.7888   5.0763624518e+01   7.3699753497e+00    0.5948855    0.2543736  25.90  0.002885733    2.777    0.640
        49  -9.9791    134.4575    105.4854   5.5888575739e+01   3.4379685931e+01    0.2751189    0.1405629 -53.86   0.00101615    2.369    0.578
        50 -12.0673     63.8226    164.2053   8.7644556513e+01   3.3171771285e+01    0.3614002    0.2789835   5.46 0.0009068429    1.516    0.341
        51 -13.0915     73.9975    155.8696   8.3576724853e+01   3.3769333997e+01    0.9869893    0.7613528 -87.48 0.0003885766    1.461    0.315
        52 -10.4593     45.7413     91.1441   8.2677164426e+01   5.3912742928e+01    0.2595033    0.1918001  45.10  0.001282153    1.369    0.270
        53  -9.2468    162.4743     85.5001   4.4217033351e+01   3.1978316399e+01    0.1434525    0.1386573 -20.25 0.0001193162    1.029    0.028
        54  -9.9004     83.8932     79.8043   6.4120080702e+01   5.0545807990e+01    0.2623742    0.2252868 -83.29 0.0006832345    1.335    0.251
        55 -11.6331      6.6782     66.9886   9.7467002474e+01   6.3643576438e+01    0.2657927    0.1696033 -34.58  0.001358136    1.614    0.381
        56 -12.6284    201.6202     53.0116   2.9455469093e+01   2.8175273393e+01    0.5025216    0.4633642  39.24 0.0009455835    1.258    0.205
        57 -11.9807    103.0874    199.3359   8.1453891676e+01   2.0560925873e+01    0.4736056    0.3893896 -63.27  0.002593914    1.486    0.327
        58 -10.3609    125.0000    243.9506   8.1569781873e+01   1.0436625727e+01    0.1502188   0.06700093 -53.57 0.0008074108    2.977    0.664
        59 -11.4643     13.2997     60.1489   9.2660753134e+01   6.5077977952e+01    0.3119687    0.2641572 -85.22 0.0004874455    1.180    0.153
        60 -10.3527     77.0405     43.9044   5.3725602280e+01   5.9599529143e+01    0.5637518    0.3248844  80.06  0.001409876    6.616    0.849
        61 -10.1476     21.3483     34.8266   8.0625694280e+01   7.0748381060e+01    0.1822221    0.1649791  23.86 0.0006007439    1.168    0.144
        62  -9.5430     60.3147     21.0082   4.9775176171e+01   6.7244338820e+01    0.1918182    0.1807969 -12.78 0.0004175306    1.090    0.083
        63 -11.4136    108.2861    204.4390   8.0833872824e+01   1.8922398487e+01    0.2642191     0.189328  44.84  0.001563165    1.337    0.252
        64 -10.9228    142.5751    239.4645   7.7518786816e+01   8.9780421762e+00    0.2012462    0.1624307  31.02 5.057688e-05    1.247    0.198
        65  -9.7763    189.4990     15.0188   2.0513988509e+01   3.5321238102e+01    0.1923714    0.1183685 -29.97 0.0005429635    1.543    0.352
