#   1 NUMBER                 Running object number                                     
#   2 MAG_AUTO               Kron-like elliptical aperture magnitude                    [mag]
#   3 X_IMAGE                Object position along x                                    [pixel]
#   4 Y_IMAGE                Object position along y                                    [pixel]
#   5 X_WORLD                Barycenter position along world x axis                     [deg]
#   6 Y_WORLD                Barycenter position along world y axis                     [deg]
#   7 A_WORLD                Profile RMS along major axis (world units)                 [deg]
#   8 B_WORLD                Profile RMS along minor axis (world units)                 [deg]
#   9 THETA_WORLD            Position angle (CCW/world-x)                               [deg]
#  10 FWHM_WORLD             FWHM assuming a gaussian core                              [deg]
#  11 ELONGATION             A_IMAGE/B_IMAGE                                           
#  12 ELLIPTICITY            1 - B_IMAGE/A_IMAGE                                       
         1 -10.9294    108.0434     32.3787   9.0554476522e+01   5.3874553579e+01     1.491171    0.8553248 -34.78  0.006545548    1.632    0.387
         2 -12.8292    176.6722     25.6231   7.3030532306e+01   3.7844183668e+01     3.050738     1.117454  61.71   0.01060204    2.635    0.620
         3 -12.0485      3.8328     89.3276   1.3964222700e+02   5.5286411282e+01     1.909741    0.2760658 -74.02  0.006464435    4.781    0.791
         4 -12.0647     58.3884     70.0155   1.1934529670e+02   5.4857713971e+01     2.587061    0.7072513 -61.45  0.008004553    4.390    0.772
         5 -12.5297     86.8845     52.2724   1.0465577107e+02   5.4417115632e+01     1.941563     1.064242 -33.66  0.005525982    1.844    0.458
         6 -11.0424    121.9794     37.7476   8.8922933926e+01   4.9955870328e+01     2.188093     1.191784  18.85  0.007592895    3.179    0.685
         7 -12.6450    135.6842      5.3741   7.2434521802e+01   5.0743657178e+01      2.13332    0.8025323  58.88  0.007937405    2.425    0.588
         8 -12.4943    163.8835      9.3596   6.9173959468e+01   4.2964986629e+01     1.519194     1.084387   4.47  0.007291964    1.475    0.322
         9 -12.4321     37.1707     48.7879   1.2121571584e+02   6.1797286338e+01     1.407503     1.006236 -69.91  0.008514577    1.391    0.281
        10 -10.3500     87.4195     22.6452   9.2623971633e+01   5.9591054058e+01     1.766125     1.208099 -35.73  0.006422985    1.375    0.273
        11 -11.8031     68.0679     20.6332   9.8514502327e+01   6.3356052503e+01    0.9809373    0.5440891  22.69  0.004446469    2.437    0.590
        12 -13.3140     98.8347      7.2511   8.1845692760e+01   5.9348837669e+01     1.017721    0.8334703  33.44  0.002309137    1.181    0.153
        13 -11.2933    117.1554     15.6157   8.0932223794e+01   5.4182009739e+01    0.3364733    0.3085942 -11.95 0.0003913059    1.087    0.080
        14 -12.1630    130.3131     20.0665   7.9736391948e+01   5.0470385617e+01     1.237674    0.5098359  53.17  0.003888606    2.298    0.565
        15 -12.1276    147.9396     20.4021   7.6176783138e+01   4.5988670515e+01     1.904089    0.8516607 -11.79  0.006683102    2.710    0.631
        16 -11.7099    127.6779     15.1966   7.8278046019e+01   5.1703849031e+01     1.443037    0.3323787  44.95  0.003996732    4.373    0.771
        17 -11.8552     51.4732     34.8165   1.1102051220e+02   6.3134455058e+01     1.371977    0.9875565 -36.13  0.008115623    1.194    0.162
        18 -12.2340     71.4822     31.3047   1.0195069572e+02   6.0944674256e+01     2.659733     1.019297  49.39  0.009911628    3.694    0.729
        19 -11.3274     21.9205     44.7439   1.2610497883e+02   6.3965834014e+01    0.9964833    0.5803652  84.83  0.004937663    2.738    0.635
        20  -8.4302     31.4394     11.4613   1.1006924997e+02   6.9890842274e+01    0.4004028    0.2374172 -21.81  0.002218307    1.809    0.447
        21 -10.1835     26.5483      4.7007   1.0922214915e+02   7.1608337450e+01    0.6788409    0.4449371 -14.02  0.004144647    1.606    0.377
        22 -11.8470     78.1969      7.2951   8.8243474438e+01   6.3571634614e+01    0.6398044    0.3926968 -11.02 0.0009757318    1.649    0.394
        23 -11.4393     28.7540     25.9688   1.1741650009e+02   6.7358437459e+01     2.049734    0.5884588 -42.62  0.008144167    3.022    0.669
        24 -12.4979     18.8932     13.6332   1.1736596563e+02   7.0646612165e+01    0.8761642    0.5900555 -65.65   0.00538241    1.681    0.405
        25 -12.5058     50.3258     11.0375   1.0105331843e+02   6.7640832255e+01    0.4144645     0.366785  31.96 0.0003301057    1.399    0.285
        26 -12.2593      9.4218     26.5362   1.2654341622e+02   6.8681200641e+01     1.014379    0.4402529  10.99  0.005249867    3.219    0.689
        27 -11.5113     40.9061     20.9299   1.0990178296e+02   6.7091542779e+01    0.3604771    0.2168166 -40.57  0.001388734    1.337    0.252
        28 -11.5594     41.8543     14.7057   1.0665647930e+02   6.8121704211e+01    0.6521981    0.4939681  53.23  0.003917755    2.014    0.504
        29 -11.3776     67.5786      5.5280   9.1111049526e+01   6.5750447384e+01    0.7971682     0.445031  22.31  0.002067168    2.205    0.547
        30 -12.4117     57.3975      4.2049   9.4401779863e+01   6.7640088455e+01     1.052461    0.4676487  48.32  0.004766608    2.822    0.646
        31 -11.4956      2.9324     18.6674   1.2732824233e+02   7.0672468905e+01    0.4626184    0.1704341 -59.22  0.001472303    1.874    0.466
        32 -12.6106      6.9848     11.5209   1.2278809044e+02   7.1899817565e+01     1.248898    0.1945801 -48.05  0.004861027    3.417    0.707
        33 -12.6309      3.2434      8.9675   1.2386822419e+02   7.2622672159e+01    0.9371014    0.2139309 -58.43  0.003946932    2.950    0.661
        34 -10.3578     54.7144     18.1702   1.0267082404e+02   6.5813403279e+01    0.5398653    0.3155405 -14.60  0.001831156    2.224    0.550
        35 -10.9428    248.0723      6.1963   5.8895719450e+01   2.1536604037e+01    0.6025892    0.4302274 -36.09  0.002576774    1.269    0.212
        36 -12.5174    223.7735      2.0758   5.9744995118e+01   2.7805711034e+01    0.5755569    0.3029113  75.93  0.002579597    2.004    0.501
        37 -10.8336    243.1542     19.3724   6.2899218564e+01   2.1482247307e+01     0.703994    0.3683498  78.46  0.003133548    2.270    0.560
        38 -10.6219    234.4578     12.4661   6.1774117605e+01   2.4230858621e+01    0.7665171    0.3591251 -61.19   0.00293851    2.912    0.657
        39 -10.2987    242.9603     12.7723   6.1100287650e+01   2.2151340666e+01    0.4806498    0.3071794 -16.54  0.001375946    1.495    0.331
        40  -9.7323    230.9999     21.8154   6.4782472353e+01   2.4181126778e+01    0.4642243      0.27574 -51.28 0.0009509785    1.839    0.456
        41  -9.3491    222.0548     11.5797   6.2702077468e+01   2.7398325170e+01    0.4166028    0.2264957 -44.38  0.001851942    1.854    0.460
        42 -10.7085    217.0958     15.1474   6.4281498178e+01   2.8323127627e+01     0.865388    0.4161209  -7.20  0.003372957    2.432    0.589
        43  -9.9091    212.3062     14.5370   6.4615856998e+01   2.9612073627e+01    0.5510606    0.2066632 -21.11  0.001855098    2.518    0.603
        44 -10.7846    202.1550     19.3135   6.7305933419e+01   3.1783279669e+01    0.6462088    0.3663764  47.85    0.0028328    1.762    0.432
        45 -11.6552    113.5391      8.9526   7.8817077666e+01   5.5816155429e+01     1.034705    0.6374636  28.65  0.004788573    1.689    0.408
        46  -8.4975     61.5074     15.9644   9.8840518154e+01   6.5174187654e+01    0.1806331    0.1129006 -36.53  0.000359154    1.393    0.282
        47 -10.2070    189.9870      8.4310   6.5250522470e+01   3.6056915554e+01    0.3071443    0.2461034  45.99 0.0003812475    1.227    0.185
        48 -10.9806    196.0865      4.1751   6.3128466854e+01   3.4810165734e+01    0.9713989    0.6599454   1.50   0.00465874    1.594    0.373
        49 -11.4509    204.1190      6.6570   6.3048162891e+01   3.2471991726e+01    0.5683216    0.4215804  29.96  0.000541836    1.430    0.301
        50 -11.6248    209.2265      3.6180   6.1567749912e+01   3.1401828828e+01    0.6077917    0.4015006 -88.14  0.001333103    1.714    0.417
        51 -10.3462    180.6327      7.7726   6.6214066401e+01   3.8622005229e+01    0.8551052    0.3437492 -11.34   0.00292957    2.825    0.646
        52 -11.1944    173.6803      8.5677   6.7440989286e+01   4.0415324042e+01    0.3686171    0.2531582 -23.82 0.0003821884    1.437    0.304
        53 -10.5955    175.0235      4.4873   6.5797414306e+01   4.0423109297e+01    0.4052919    0.3077597  66.65  0.001029357    1.309    0.236
        54  -9.4989    157.7524      7.2977   6.9354494870e+01   4.4794545123e+01     0.302927    0.2195076 -58.28 0.0009639776    1.659    0.397
        55  -9.3084    226.5648      9.2117   6.1571949751e+01   2.6480602493e+01    0.2929437    0.2459201 -42.64  0.001411651    1.159    0.137
        56  -8.4796    189.5379      1.4548   6.2964132486e+01   3.6785692985e+01    0.1431458    0.1375434  33.17 0.0001341031    1.018    0.018
        57  -8.9052    149.8290      1.2963   6.8273155276e+01   4.7434950472e+01    0.2058607    0.1169604  55.31 0.0002593029    1.623    0.384
        58 -12.1228    111.8180     22.3608   8.5263911194e+01   5.4528439248e+01     0.840542    0.6507441  62.88  0.001626516    1.530    0.347
        59 -12.1892     75.2337     74.6650   1.1518306117e+02   5.1603352470e+01     1.458865      1.08786  31.65  0.008199888    1.544    0.352
        60  -8.6328    124.8225    250.3902   1.3032717542e+02   1.3154051505e+01    0.1422112   0.07142195  37.22 0.0009475212    1.696    0.411
        61  -9.0653     29.2781     69.1258   1.2882778942e+02   5.8015382507e+01     1.108474    0.5680577  63.57  0.005174555    3.042    0.671
        62  -9.2151     33.6890    246.6654   1.4364376245e+02   2.4161869439e+01   0.06957386   0.06599931  70.75 0.0007044131    1.680    0.405
        63 -12.2041     12.2836     87.8989   1.3706287309e+02   5.5083901862e+01     1.010311    0.3949146  61.44  0.004445179    3.627    0.724
        64  -9.9651    142.0608    243.7593   1.2707047980e+02   1.1616186818e+01     0.186749    0.1589298  -1.22 0.0009505437    1.673    0.402
        65  -8.9817    210.6568    240.8102   1.1613144753e+02   2.1984073899e+00    0.1134259   0.09551965 -33.71  0.000861751    1.732    0.423
        66  -8.8046    113.4780    239.5020   1.3116747042e+02   1.5974263240e+01    0.1011215   0.07369775  50.55 0.0008102627    1.010    0.010
        67  -8.9769     12.9813    238.7547   1.4630116368e+02   2.7191854119e+01    0.1088266   0.05487503  44.18 0.0008818866    1.585    0.369
        68 -12.6532     52.9652     87.1046   1.2486027446e+02   5.1703839333e+01      2.54926     1.735766 -16.65   0.01355734    2.305    0.566
        69  -9.6582     12.3317    232.3303   1.4618715277e+02   2.8168166423e+01    0.1969148    0.0678978  61.10  0.001338439    2.075    0.518
        70 -12.3275     43.7930     67.3213   1.2355051686e+02   5.7083607139e+01     1.256613    0.8649216  66.80  0.007109336    1.897    0.473
        71  -8.4714    227.1632    231.6224   1.1241733420e+02   6.4209795541e-01    0.1551342   0.06981791  33.64 0.0005604596    1.662    0.398
        72  -9.5036    136.6387    225.5349   1.2611235999e+02   1.4601368186e+01    0.2109432    0.1028335 -59.40  0.001255252    2.892    0.654
        73 -10.2593     26.6236    191.4386   1.4218419222e+02   3.3306260013e+01    0.3125689    0.1822052  72.79  0.002326858    1.365    0.267
        74 -11.2075     17.9268    186.2888   1.4343020199e+02   3.4982564190e+01    0.2979247    0.2639257  24.73   0.00126425    1.707    0.414
        75 -12.3410      5.7124    114.8584   1.4145948996e+02   4.9710558374e+01       1.0755    0.2332895 -60.63  0.004643495    3.593    0.722
        76 -12.3262     17.3303    102.4964   1.3734319353e+02   5.1546374461e+01     1.095981    0.7748602  73.89  0.007532064    1.333    0.250
        77 -10.2295     11.9936    184.4944   1.4437882923e+02   3.5805589295e+01    0.2395044    0.1241304 -85.91  0.001288262    1.618    0.382
        78 -10.1779     40.2111    116.5134   1.3305538897e+02   4.6560831563e+01    0.4194822     0.193747  72.32   0.00184917    3.124    0.680
        79  -9.7525     12.8299    117.2443   1.3993240373e+02   4.8718873992e+01    0.2307831     0.160075  54.90  0.001035637    1.437    0.304
        80  -8.4455    118.9985    115.9669   1.1310816233e+02   3.5750189580e+01    0.1647988    0.1608181  87.52 0.0009169502    1.001    0.001
        81 -10.1570     97.6932    114.7145   1.1809660456e+02   3.9606256798e+01    0.2843703    0.2733518 -62.57 0.0007124417    1.081    0.075
        82  -8.8087     27.8343    115.8965   1.3609982244e+02   4.7824360962e+01    0.1637382    0.1226666 -67.77 0.0002877292    1.220    0.180
        83  -9.6692    132.8046    111.4826   1.0880695264e+02   3.4063443661e+01    0.3683197    0.3408964  16.89   0.00201296    1.139    0.122
        84  -8.7298     45.5253    112.9788   1.3122772151e+02   4.6792903890e+01    0.1786848    0.1524067  49.19  0.001238368    1.292    0.226
        85  -9.8661     91.8129    120.4129   1.2065456684e+02   3.9325718163e+01    0.3369513     0.260648 -28.08  0.001896682    1.712    0.416
        86  -9.7090    105.3978    109.4475   1.1505689574e+02   3.9441944136e+01    0.2982024    0.2521403 -75.96  0.001200542    1.232    0.188
        87 -10.6542     67.4054    107.5183   1.2459781725e+02   4.5476668289e+01    0.5748613    0.3074451 -44.92  0.002402112    2.093    0.522
        88 -10.1483     73.9506    108.1893   1.2297694706e+02   4.4476867325e+01     0.297345     0.277182  65.59 0.0008295379    1.128    0.114
        89  -9.2763     76.0084    102.9419   1.2142262142e+02   4.5335949285e+01    0.2905099    0.1990172 -59.90  0.001085151    1.327    0.246
        90 -10.9131     89.2121     89.5059   1.1481026721e+02   4.6296529267e+01    0.6713374    0.4438913 -47.76  0.003481819    1.414    0.293
        91  -9.2999     81.0341    102.3320   1.1993758658e+02   4.4761679921e+01    0.2677517    0.1827493  30.71 0.0009602355    1.722    0.419
        92 -10.2556     86.8844    100.0429   1.1786999772e+02   4.4393105881e+01    0.4736855    0.3433444 -25.15  0.001517838    1.871    0.466
        93  -9.5914     91.5033     96.9803   1.1593366469e+02   4.4336313162e+01    0.3058889    0.2126773 -81.16  0.001064442    1.838    0.456
        94  -9.4249     34.7980    109.4832   1.3355667124e+02   4.8592858418e+01    0.2331438    0.2018471 -46.46  0.001667569    1.382    0.277
        95  -8.7960     38.6171    107.2525   1.3225364928e+02   4.8723029173e+01    0.2055819     0.130339 -49.34 0.0008147333    1.682    0.406
        96  -9.1935    120.5067    108.9938   1.1118904387e+02   3.6871703262e+01    0.2138635    0.1877462  45.62 0.0006714054    1.148    0.129
        97 -10.4895     55.6306    101.8188   1.2680027884e+02   4.8142719347e+01    0.3209452    0.2061605 -46.56  0.001211301    1.645    0.392
        98  -8.9151     97.6275    103.9524   1.1585895017e+02   4.1876157342e+01    0.2836419    0.1693018  58.04  0.001322446    2.035    0.509
        99  -8.2670    140.3356    101.2945   1.0454489998e+02   3.4517401137e+01    0.1471117    0.1132851   8.17 0.0002356715    1.645    0.392
       100  -9.9185    114.4967    100.4743   1.1068559580e+02   3.9693270447e+01    0.4125336    0.2914144 -62.38  0.002070617    1.559    0.359
       101 -10.4153    117.5232     98.4504   1.0941831898e+02   3.9547269501e+01    0.4904732    0.3602124  75.71  0.002097525    1.843    0.457
       102 -10.8206      5.4742    185.5643   1.4555135516e+02   3.6159348785e+01    0.4596681    0.1078119  56.16  0.002374049    3.177    0.685
       103  -9.5191     39.0705    176.7778   1.3902089944e+02   3.4671652725e+01    0.2220325    0.1413743  86.21  0.001193891    1.349    0.259
       104  -9.5084    159.3237     96.7092   9.9015218293e+01   3.1318519376e+01    0.2903797    0.2678582  43.81  0.001199663    1.102    0.092
       105  -9.2522    187.9986     93.5648   9.2232510897e+01   2.5370166905e+01    0.2899533    0.2026314 -47.57  0.001227339    1.652    0.395
       106  -9.5624      1.5132    177.9016   1.4592420836e+02   3.7805386953e+01    0.1446736   0.07324006 -88.36  0.001028315    1.582    0.368
       107 -10.4093    112.8656     54.4844   9.7617165630e+01   4.9081475901e+01     1.170635    0.5895981 -19.87  0.003945637    3.308    0.698
       108 -11.2368    124.4120     69.1794   9.9383670792e+01   4.3947254063e+01      1.18464    0.6088825 -42.90  0.004897714    1.884    0.469
       109 -11.2582    122.7789     54.1795   9.4809551695e+01   4.7035983425e+01    0.9391796    0.6709618   3.80  0.003220024    1.787    0.440
       110  -9.5143    129.5661     46.5373   9.0309451063e+01   4.6816131621e+01    0.3478779    0.2570609  -8.44 0.0009726263    1.476    0.322
       111 -11.4776     96.9095     62.1631   1.0485495515e+02   5.0695810466e+01     0.977375    0.6516433 -18.55   0.00342643    1.952    0.488
       112 -11.0585    105.6435     53.7911   9.9438012208e+01   5.0664698068e+01     0.625609    0.3431969  32.54  0.001672453    2.235    0.553
       113 -11.0050    118.3872     86.4787   1.0607110162e+02   4.1794297415e+01    0.7144899    0.5441494  65.42   0.00297764    1.592    0.372
       114 -10.2555     89.4106     78.1208   1.1183066024e+02   4.8690849318e+01    0.6424596     0.268528  36.07  0.002544011    2.796    0.642
       115 -11.0884    141.5037     40.5246   8.5228825070e+01   4.4926340292e+01    0.7332168     0.670147 -59.93  0.003460238    1.264    0.209
       116 -10.4827    147.8120     35.1425   8.1837701798e+01   4.4137443038e+01     1.062396    0.2285449  55.77  0.002933118    4.129    0.758
       117 -10.4149    102.2714     70.4718   1.0587887915e+02   4.8054949994e+01    0.5856758    0.3439345 -55.54  0.001899577    1.872    0.466
       118 -11.7088    112.1635     65.3382   1.0146594239e+02   4.7182381524e+01     1.258298     0.954702  -6.73  0.004741002    1.617    0.382
       119 -10.6556    130.6427     40.0137   8.7606594761e+01   4.7603029542e+01    0.5412487    0.3977562   8.01  0.001237614    1.547    0.354
       120 -10.6184    135.0127     34.1382   8.4305907615e+01   4.7437078142e+01    0.4336482    0.2450091  45.49 0.0004443031    1.760    0.432
       121 -12.3209    102.2090     81.6287   1.0911673094e+02   4.5783160844e+01     1.385871    0.9415354 -71.34  0.006422631    1.984    0.496
       122  -9.4546     75.0913     88.0964   1.1852617225e+02   4.8702346390e+01    0.5480716    0.2961584 -37.92  0.002483405    2.244    0.554
       123  -8.5624    194.5422     89.4920   8.9877198089e+01   2.4488075631e+01    0.1531746    0.1357915   9.28 0.0001369465    1.067    0.062
       124  -9.6122    152.8123     87.0807   9.7818493605e+01   3.4473302748e+01    0.3078937    0.2121295  42.68 0.0009336151    1.455    0.313
       125 -10.3533    134.3074     80.4659   1.0030101515e+02   3.9726228039e+01    0.6407531    0.2851438 -39.89  0.002455702    2.183    0.542
       126  -9.2806    160.3938     81.8036   9.4604884759e+01   3.3682428009e+01    0.2960123    0.2536114 -83.67  0.001489972    1.495    0.331
       127  -9.6643     17.2561     82.4892   1.3488432959e+02   5.5944765140e+01     0.244225    0.1223034  17.40  0.001340078    2.772    0.639
       128  -9.4111    123.4449     80.9386   1.0319300669e+02   4.1889528681e+01    0.3246727    0.2310389  20.78  0.001251272    1.785    0.440
       129  -9.3860    217.9958     78.9883   8.2905272648e+01   2.0525100639e+01    0.3930742    0.1840767  -2.69  0.001143726    4.332    0.769
       130  -8.5708     13.5598     77.4107   1.3530665588e+02   5.7316483014e+01    0.2412799   0.09026048 -86.55 0.0009676319    3.418    0.707
       131 -10.3808    112.8333     83.1814   1.0663251628e+02   4.3519374567e+01    0.3452803    0.2883373  66.10 0.0006927633    1.385    0.278
       132  -9.8552    150.7233     74.5718   9.4610879314e+01   3.7161567428e+01    0.5388489    0.2774533 -20.00  0.001908054    2.719    0.632
       133 -10.4346    138.3017     74.8272   9.7628874561e+01   3.9909322004e+01    0.3059493    0.2500574 -38.78 0.0002490622    1.198    0.165
       134  -9.5571    131.9606     68.1819   9.7126515881e+01   4.2514856624e+01    0.4465238    0.2829672  60.74  0.001582435    1.936    0.483
       135 -10.0070    143.6467     70.8391   9.5106727710e+01   3.9433497406e+01    0.3379359     0.237929 -44.41  0.001001401    1.456    0.313
       136 -10.4676    139.6322     68.0512   9.5187850254e+01   4.0835935145e+01    0.5467077    0.4081755  10.83  0.002076226    1.631    0.387
       137  -9.7554     36.9437     75.5797   1.2756893058e+02   5.5907392289e+01    0.2329968    0.1734823 -55.54 0.0006158542    1.171    0.146
       138  -9.2939     18.0000     74.0058   1.3339192679e+02   5.7777261944e+01    0.2707388    0.1354763 -78.68  0.001455578    1.782    0.439
       139  -9.5934     21.1949     72.2842   1.3207626784e+02   5.7935177736e+01    0.2675606    0.2122152  25.36  0.001861485    1.603    0.376
       140 -10.0564      4.9779     70.7490   1.3710869431e+02   5.9294853546e+01    0.4052157    0.2411723  63.66  0.001676032    1.913    0.477
       141  -8.7544      8.0158     50.5095   1.3280257205e+02   6.3592909174e+01    0.4619372    0.2701688  63.17  0.002665418    2.281    0.562
       142 -11.8772     15.9773     61.8055   1.3200523219e+02   6.0623607420e+01    0.6974263    0.4054815  -0.52  0.003882631    2.601    0.615
       143 -11.1848     13.8515     56.7955   1.3183373421e+02   6.1868009734e+01    0.2679337    0.2003173  33.10  0.001687897    1.685    0.406
       144  -9.4719    215.0642     71.5219   8.1289698445e+01   2.2219356314e+01    0.3321806     0.202139 -18.58 0.0009829033    1.617    0.382
       145  -8.8815    155.4238     70.9809   9.2439276881e+01   3.6689034380e+01    0.3455671    0.2070399 -25.44  0.001042278    1.749    0.428
       146  -8.9645    155.9572     66.7765   9.0997587271e+01   3.7269619058e+01    0.2432814    0.2165251 -66.52  0.001247774    1.329    0.248
       147  -9.9761    150.8369     66.9784   9.2211447770e+01   3.8444549707e+01    0.4758088    0.2853613  45.94  0.001420764    1.678    0.404
       148 -10.3769    250.2123     67.6876   7.5215272098e+01   1.4638842126e+01    0.6241438    0.1990217 -18.79  0.002016647    3.467    0.712
       149  -9.7551     82.2008     90.5335   1.1704053411e+02   4.7147329588e+01    0.2754534    0.2350762  46.61  0.001081708    1.270    0.213
       150 -11.4131    164.5867     62.6233   8.7813847911e+01   3.5861973300e+01    0.7190123    0.6006556  13.56  0.002904898    1.239    0.193
       151 -10.5677    164.5644     56.9250   8.5965560081e+01   3.6754570417e+01    0.5773029    0.4420024  22.63  0.001860355    1.402    0.287
       152 -10.0832     78.1009     61.4189   1.1049346774e+02   5.3991291717e+01    0.6216432    0.2887071 -51.66  0.002681486    1.992    0.498
       153  -9.9984     76.3663     51.7860   1.0795224725e+02   5.6235966428e+01    0.3828096    0.2992294 -88.34  0.001630864    1.892    0.472
       154  -8.5325     76.2594     46.6334   1.0619184424e+02   5.7279738623e+01    0.1915983    0.1750547 -18.53  0.001038833    1.084    0.078
       155  -9.2317     74.3650     56.7256   1.1025002619e+02   5.5533106755e+01    0.2438079    0.1918971  58.68  0.001258247    1.602    0.376
       156 -10.5546     70.9107     54.3771   1.1066114868e+02   5.6530452346e+01    0.4459354    0.2174298 -51.08 0.0006399028    1.849    0.459
       157  -8.4910    135.5150     63.0977   9.4588175264e+01   4.2640689870e+01    0.2349038    0.1440878 -35.20 0.0006380172    1.568    0.362
       158  -9.1882    246.6089    171.8144   9.9655993663e+01   3.3162144146e+00    0.1603337    0.1042051 -30.21 0.0009580419    1.746    0.427
       159  -9.2330    178.3829     60.3000   8.4319490696e+01   3.2805568276e+01    0.3323353    0.2453618 -19.40 0.0006778207    1.338    0.253
       160 -10.8341    174.1545     57.0793   8.4102291055e+01   3.4339916916e+01    0.6696264    0.5251158  13.98  0.001358013    1.365    0.267
       161 -10.5670    222.5435     48.5501   7.3567987025e+01   2.3330168823e+01    0.4702845    0.3383218 -63.74  0.002241479    1.776    0.437
       162  -9.3992    149.6107     59.6792   9.0111405101e+01   3.9956120164e+01     0.352724    0.2175499 -45.49  0.001505022    1.750    0.428
       163 -10.2241    201.2009     57.4509   7.9404463932e+01   2.7493426127e+01    0.5989983    0.3613128  11.67  0.002391477    2.202    0.546
       164  -9.0346    158.2673     58.7121   8.7878670446e+01   3.8024603538e+01    0.4315402    0.2448416  12.28  0.001444297    3.164    0.684
       165 -10.0203      3.2049     57.6463   1.3580450271e+02   6.2273033849e+01    0.3042069    0.2018188  83.50  0.001841314    1.536    0.349
       166  -8.0898    152.5275     56.5282   8.8402961581e+01   3.9767503215e+01    0.2784831    0.1975988 -64.61 0.0009239239    1.981    0.495
       167  -9.3050    134.7335     51.9816   9.0984924685e+01   4.4727608467e+01    0.3768228    0.2537054   5.11  0.001599042    1.982    0.495
       168 -11.3175    141.7001     51.5247   8.9151984677e+01   4.3169935120e+01    0.6979784    0.3779837  41.52  0.001814759    1.929    0.482
       169 -10.8404    150.2104     51.3006   8.7131711967e+01   4.1157510416e+01    0.5047204    0.3727847  20.17  0.001254582    1.515    0.340
       170  -9.7431     60.7450     54.4351   1.1420512125e+02   5.7923705395e+01    0.3807418    0.2202305 -55.69  0.001776526    1.568    0.362
       171 -10.0786    185.9636     53.7977   8.0861847340e+01   3.1830881352e+01    0.4105881    0.2375137  16.13    0.0015283    2.472    0.595
       172  -9.7875    189.0390     49.2004   7.8862587291e+01   3.1674696444e+01    0.3907628    0.2660845 -51.53 0.0008123988    1.728    0.421
       173  -9.4710     62.7496    167.6466   1.3364283389e+02   3.3767600610e+01    0.2162751     0.151088  80.98  0.001009028    1.302    0.232
       174  -8.8556    192.7337     53.9309   7.9730150314e+01   3.0097348440e+01    0.2051946    0.1878524 -27.96 0.0002885502    1.098    0.089
       175 -10.5415     26.3664     53.2219   1.2645542523e+02   6.1774324081e+01    0.3261984    0.2217015 -21.78  0.001373549    1.846    0.458
       176  -9.7055     28.5539     49.4907   1.2471189894e+02   6.2413978732e+01    0.2231225    0.1747652 -53.47 4.280235e-05    1.044    0.042
       177 -10.0707    157.3728     50.4655   8.5293328022e+01   3.9523469332e+01    0.6134425    0.4095662 -23.25  0.002563508    1.484    0.326
       178  -9.2776    236.8347     48.6743   7.1748905155e+01   1.9882272760e+01    0.2448347    0.1824434  -9.37 0.0006101815    1.286    0.223
       179  -8.6479    171.3694     48.7442   8.1897439379e+01   3.6252713244e+01    0.2094598    0.1431091 -12.55 0.0001651556    1.543    0.352
       180  -9.0945    219.1945     52.9340   7.5312230119e+01   2.3617820173e+01    0.3186764    0.2049183  11.48 0.0008207657    1.853    0.460
       181  -8.6881     12.4709     41.8840   1.2922461635e+02   6.5221228649e+01    0.4535111    0.3054339 -13.38  0.002916814    1.906    0.475
       182  -9.0945      8.8275    167.7132   1.4413864254e+02   3.9059003389e+01      0.15632    0.1134024  42.82  0.001264053    1.483    0.326
       183 -10.3205     16.5035     36.4835   1.2617905313e+02   6.6127981371e+01    0.2938633    0.2403791 -85.90  0.002044277    1.385    0.278
       184 -10.0363     15.3148     32.0909   1.2547267008e+02   6.7142320316e+01    0.2790422    0.1992722 -82.09  0.001136728    1.597    0.374
       185  -8.8794     80.3658     46.8969   1.0489352895e+02   5.6564356076e+01    0.1960567    0.1547159 -36.48 0.0003564704    1.120    0.107
       186  -9.5994     67.4271     45.4169   1.0885199852e+02   5.8863125114e+01    0.2966483    0.2068458 -36.94 0.0008941364    1.278    0.218
       187  -8.7301    248.4813     45.4836   6.9494088920e+01   1.7540000387e+01    0.1404394    0.1250631 -18.27 0.0008100775    1.021    0.020
       188 -10.1941    207.0950     43.5933   7.4258492298e+01   2.7781788486e+01    0.4386353    0.3884936 -44.51  0.001410767    1.191    0.160
       189 -10.8470    202.8033     37.7884   7.3079100772e+01   2.9576630094e+01     0.570723    0.4179751  30.01  0.002316806    1.439    0.305
       190 -10.3495    199.6840     31.5626   7.1552676355e+01   3.1108254624e+01    0.4461052    0.3232255 -66.60 0.0005074455    1.708    0.415
       191  -9.9485    194.6099     31.0415   7.2112824033e+01   3.2492293690e+01    0.4045799    0.2783495  -1.31 0.0009567056    1.575    0.365
       192 -10.1066    232.9027     41.8059   7.0295710875e+01   2.1596625033e+01     0.581903    0.2998073   1.87  0.001875325    2.695    0.629
       193  -9.9003    222.0491     57.1998   7.6140833014e+01   2.2395629481e+01    0.3621826    0.3123631 -57.79  0.001231309    1.346    0.257
       194  -9.3694    196.4884     41.4530   7.5181593525e+01   3.0759259536e+01    0.2765505    0.2330281 -46.56  0.001415171    1.267    0.211
       195 -10.3237    191.3975     39.3726   7.5309277280e+01   3.2334284182e+01    0.5802457     0.362529   4.40 0.0007430328    1.948    0.487
       196 -10.9064    162.3240     38.9601   8.0274310193e+01   3.9926750811e+01    0.5870123     0.319716 -26.24  0.001761056    1.779    0.438
       197  -9.3069     77.0856     41.2543   1.0392180727e+02   5.8188596213e+01    0.2237877    0.1891287  61.11  0.000759358    1.540    0.351
       198  -9.0136     62.4548     41.2920   1.0918612653e+02   6.0395246073e+01    0.2001934    0.1209705  36.21  0.001002183    1.911    0.477
       199  -8.5492      4.7102     41.1471   1.3223049378e+02   6.5809454031e+01    0.1418193   0.09800512 -50.50 0.0009245024    1.227    0.185
       200  -9.8421    180.6969     38.7731   7.6866567640e+01   3.5193165233e+01    0.5084192    0.3069347 -53.01  0.002077536    2.077    0.518
       201  -9.3033    174.2980     39.6116   7.8266724767e+01   3.6748158429e+01    0.2885538    0.2413376  85.53 0.0007894547    1.423    0.297
       202  -9.6378    168.6705     36.5353   7.8222666738e+01   3.8611030972e+01    0.3774971    0.3063057 -52.43  0.001198124    1.393    0.282
       203  -8.6531    229.1382     39.0993   6.9978458227e+01   2.2810550960e+01    0.2130906    0.1793578  17.58 0.0004003966    1.211    0.174
       204  -9.5623     25.4784     38.1966   1.2286437245e+02   6.5099061964e+01    0.1726168     0.148513 -31.20 0.0002799752    1.216    0.178
       205  -7.8954     65.2849     37.3458   1.0665929826e+02   6.0764880067e+01    0.1386577   0.09357084 -20.94 0.0005119304    1.647    0.393
       206 -10.0928    210.5201     33.1591   7.0572705642e+01   2.8130852447e+01    0.4649413    0.2279695 -21.92  0.001297477    1.948    0.487
       207  99.0000     38.5558     33.2417   1.1575026885e+02   6.4928929866e+01    0.3814653    0.2299857  -9.15  0.001928373    2.456    0.593
       208  -9.9835    246.3328     33.7632   6.6538701837e+01   1.9288301408e+01    0.4489629    0.2465251  52.75  0.001544855    1.898    0.473
       209 -10.9377    237.4351     32.8091   6.7225691661e+01   2.1488445529e+01    0.5128362    0.3959807  79.68  0.001757663    1.494    0.331
       210  -9.1692    242.2906     31.3303   6.6291726405e+01   2.0488612943e+01    0.2057062    0.1662896 -25.59 0.0004097001    1.125    0.111
       211  -9.3439     13.5989    164.9069   1.4309089392e+02   3.9188551340e+01    0.1906468    0.1204133  52.83  0.001405941    1.380    0.276
       212 -10.6075      2.4522    159.6761   1.4494339287e+02   4.1036724896e+01    0.4726367    0.1712474 -89.51  0.002661794    2.359    0.576
       213  -9.8595     22.1825    137.9431   1.3950994674e+02   4.3707847303e+01     0.240713     0.132892 -59.57  0.001195579    1.837    0.456
       214 -10.7473     16.5608    158.7848   1.4215797648e+02   4.0091168591e+01    0.3355418    0.2238243 -50.40  0.002375573    2.061    0.515
       215 -11.3445     37.4314     27.4161   1.1408422100e+02   6.6218548571e+01    0.3378631    0.2573203  15.92  0.001280674    1.553    0.356
       216 -11.9254     19.6666    148.0616   1.4081816184e+02   4.1901240993e+01    0.5913203    0.4572736 -73.81  0.003018657    1.294    0.227
       217  -9.0283     52.8326    151.8491   1.3412184939e+02   3.7933538714e+01    0.1585988    0.1436234 -85.10  0.001201851    1.211    0.174
       218 -10.5738     34.8560    150.1514   1.3778983112e+02   4.0123534009e+01    0.2692618    0.2072577  73.81  0.001089251    1.070    0.066
       219 -10.6383     39.0113    145.8966   1.3652059650e+02   4.0564255543e+01    0.3769134    0.2489269 -80.16  0.001567001    1.301    0.231
       220  -9.7412     66.9785    148.4703   1.3067948972e+02   3.6955663528e+01    0.2263692    0.1476757  89.57 0.0008362983    1.541    0.351
       221  -7.9350     18.8977    120.2193   1.3873237150e+02   4.7636641571e+01    0.4404609    0.3253764 -48.39   0.00310823    1.643    0.391
       222 -10.2609      4.7301    147.5723   1.4386358188e+02   4.3169738544e+01    0.3985349    0.1321272  49.42  0.002243844    2.525    0.604
       223 -10.2535      7.1385    142.9144   1.4309393438e+02   4.3901999525e+01    0.5637341    0.2165665  44.09  0.003359681    2.313    0.568
       224 -11.1296      8.9378     19.2954   1.2452339869e+02   7.0211732373e+01     0.363853    0.2365453  12.96  0.002396539    1.947    0.486
       225 -10.4332     26.8360    127.2713   1.3750823146e+02   4.5505484787e+01    0.6101403    0.3733857 -71.20  0.003980206    1.383    0.277
       226 -10.2907      3.6272    135.4468   1.4337951346e+02   4.5634067101e+01    0.3951289    0.2259011  80.37  0.001974448    1.403    0.287
       227 -10.4630    226.5389     28.7067   6.7267539897e+01   2.4577265941e+01    0.6736653    0.3039665 -41.53  0.002696159    2.212    0.548
       228  -9.1665    193.5619     24.5009   7.0123035214e+01   3.3498742738e+01    0.3806787    0.1948017  21.54  0.001354692    2.780    0.640
       229 -11.2915     48.6491     25.4834   1.0847573913e+02   6.5298049219e+01     0.399208    0.2261856  30.79  0.001275099    2.075    0.518
       230 -10.2409     19.9108    128.5284   1.3923534787e+02   4.5822089713e+01    0.2976588    0.2413631 -45.91  0.001027192    1.607    0.378
       231  -9.7157      9.0465    134.7257   1.4215554844e+02   4.5391906958e+01    0.1861238    0.1653248  58.69 0.0006245373    1.318    0.241
       232 -11.5334     13.5826    129.3924   1.4075499707e+02   4.6138316526e+01    0.6525336    0.3294932  85.13  0.003928921    1.745    0.427
       233  -9.5259    241.1252     23.6359   6.4274001475e+01   2.1547209978e+01    0.3296939    0.1862737 -44.67 0.0007602868    1.771    0.435
       234  -9.7258     30.3254    145.8984   1.3839529269e+02   4.1392340002e+01    0.2536643    0.1244118 -78.02  0.001073357    1.752    0.429
       235  -9.5976     47.6972    137.5896   1.3374277557e+02   4.1360777081e+01    0.4392667    0.1143591  51.03  0.001636043    4.410    0.773
       236 -10.2989     54.6149    137.7617   1.3217963894e+02   4.0571941610e+01    0.3220622    0.2353456 -77.32  0.001638058    1.212    0.175
       237  -9.3736    219.5632     25.4987   6.7121808090e+01   2.6659560633e+01    0.2499464    0.1425438  87.90  0.001026098    2.349    0.574
       238  -8.7112    201.3926     25.2501   6.9301265441e+01   3.1361918949e+01     0.209687    0.1290363 -31.96 0.0006887222    1.553    0.356
       239 -11.1588     55.4391    130.7575   1.3112820169e+02   4.1931426217e+01    0.6194571    0.1976663 -63.61  0.002731355    2.708    0.631
       240  -9.7474    231.8080     17.7786   6.3540798306e+01   2.4378308619e+01    0.3618719    0.2599781 -62.32  0.001009941    1.555    0.357
       241  -9.4192     56.2960    125.6541   1.3025329209e+02   4.2908258511e+01    0.2596484    0.1530227  59.56 0.0009143553    1.775    0.436
       242  -9.9667    214.3046     20.6932   6.6277813354e+01   2.8491744243e+01    0.2797596     0.210554 -75.44 0.0008061893    1.556    0.357
       243  -9.6148     63.8066    138.2666   1.3013087894e+02   3.9400180570e+01    0.1984891    0.1294242  62.29 0.0009886374    1.508    0.337
       244  -8.6425     98.3283    135.6560   1.2176159280e+02   3.5219082968e+01    0.1347194   0.09261103  76.47 0.0007050798    1.747    0.428
       245  -8.9951    249.6604    134.3254   9.1524269182e+01   6.8725111943e+00     0.118776    0.1035855 -52.72 0.0007051341    1.728    0.421
       246  -9.5067    198.2267     16.7523   6.6972758661e+01   3.3074011484e+01       0.3045    0.2369817  44.80 0.0007888013    1.282    0.220
       247 -10.0960    177.7144     19.9534   7.0886504495e+01   3.8194846404e+01    0.3565367    0.2875027 -40.98  0.001124486    1.293    0.226
       248 -10.7012     65.2413    130.4915   1.2875822869e+02   4.0834855063e+01    0.3438088    0.2075695  43.38  0.001871194    1.664    0.399
       249  -9.8402     74.5176    125.3471   1.2575476737e+02   4.0734640201e+01     0.574754    0.2040414  52.28   0.00219437    3.572    0.720
       250  -9.6608     71.6896    132.6636   1.2753310727e+02   3.9575056455e+01    0.2115686    0.1871613   4.67 0.0008476764    1.554    0.356
       251 -10.3437     72.2605    129.0015   1.2686134039e+02   4.0263427337e+01    0.3333557    0.3119404  75.47  0.001227794    1.122    0.109
       252  -9.2601     61.1030    146.9294   1.3179095298e+02   3.7967969630e+01    0.2285474    0.1397119 -43.42  0.001277301    2.288    0.563
       253  -9.3126     95.9196    130.1866   1.2139887819e+02   3.6689476587e+01    0.2393722    0.1614965 -33.24  0.001233939    2.060    0.515
       254  -9.9392     35.0235    129.6840   1.3582740756e+02   4.4264388670e+01    0.3640026    0.1441636  60.55  0.001667868    3.044    0.672
       255 -12.1116     28.2263     84.4602   1.3185445569e+02   5.4680256863e+01      1.39375    0.5788572 -55.97  0.005426483    1.981    0.495
       256 -10.3506     38.0215    127.0253   1.3483357734e+02   4.4536132475e+01    0.2487382    0.1731997 -56.66   0.00111881    1.502    0.334
       257 -10.4171     48.3202    125.6677   1.3219500523e+02   4.3781413259e+01    0.2483244    0.1892989  46.95   0.00166581    1.372    0.271
       258 -10.4758     67.6325    122.7065   1.2704121787e+02   4.2178856107e+01     0.541003    0.2845156 -43.83  0.002632755    2.407    0.585
       259 -10.3108     67.0229    115.1175   1.2599419053e+02   4.3878679875e+01    0.5441546    0.1884723  46.26  0.001630447    3.061    0.673
       260  -8.9318     17.4661    249.4734   1.4601484243e+02   2.5307873570e+01    0.0875327   0.05500963  62.11 0.0001291862    1.017    0.017
       261  -8.4653     25.4756    248.5784   1.4487451257e+02   2.4688865748e+01   0.08852965   0.05619989  60.97 0.0001561938    1.021    0.021
