#   1 NUMBER                 Running object number                                     
#   2 MAG_AUTO               Kron-like elliptical aperture magnitude                    [mag]
#   3 X_IMAGE                Object position along x                                    [pixel]
#   4 Y_IMAGE                Object position along y                                    [pixel]
#   5 X_WORLD                Barycenter position along world x axis                     [deg]
#   6 Y_WORLD                Barycenter position along world y axis                     [deg]
#   7 A_WORLD                Profile RMS along major axis (world units)                 [deg]
#   8 B_WORLD                Profile RMS along minor axis (world units)                 [deg]
#   9 THETA_WORLD            Position angle (CCW/world-x)                               [deg]
#  10 FWHM_WORLD             FWHM assuming a gaussian core                              [deg]
#  11 ELONGATION             A_IMAGE/B_IMAGE                                           
#  12 ELLIPTICITY            1 - B_IMAGE/A_IMAGE                                       
         1 -14.9066    158.8516     43.9048   2.9025877753e+02   6.3172155834e+00   0.06555519   0.04969091 -64.79  0.005272483    1.336    0.251
         2 -14.8154    171.6273     11.1526   2.8990802371e+02   6.6165913799e+00    0.0604208   0.05260905 -12.80  0.004673488    1.231    0.188
         3 -12.8684    189.4672     13.9742   2.8971931256e+02   6.4767092579e+00   0.02315297   0.01503915 -83.26   0.00185746    1.956    0.489
         4 -12.8551    161.1522    197.7175   2.9118280726e+02   4.5337641781e+00   0.02073307   0.01525464 -84.99   0.00187232    1.601    0.375
         5 -19.7772     93.4890    230.2955   2.9216441970e+02   4.5641745093e+00    0.4592173    0.3835464  45.97   0.05009219    1.231    0.188
         6 -14.9234    174.0794    187.3437   2.9096964604e+02   4.5755654049e+00   0.06201171   0.03104649 -66.48  0.004987617    2.141    0.533
         7 -11.8242    136.6485    197.3351   2.9146330648e+02   4.6851777121e+00    0.0191018   0.01221123  59.21   0.00184516    1.946    0.486
         8 -10.5653     28.5992    240.0040   2.9297326772e+02   4.8401523550e+00  0.008705698  0.007829241 -74.48 0.0003892897    1.145    0.127
         9 -11.2342     21.8313    238.1900   2.9304030491e+02   4.9014345230e+00  0.009709188  0.008307503 -32.30 0.0006969188    1.213    0.176
        10 -10.3734     17.9191    222.1242   2.9298700809e+02   5.1098761044e+00  0.008473539  0.007105526 -36.41 0.0002859806    1.227    0.185
        11 -11.5130    160.2669    247.5713   2.9150007580e+02   3.9651689395e+00    0.0194561   0.01347432   7.93  0.001404519    1.687    0.407
        12 -11.9720    123.4582    184.9112   2.9153907588e+02   4.9073237696e+00   0.01674267   0.01175965  56.85 0.0006901175    1.638    0.389
        13 -12.0831    203.7720    171.2576   2.9052775728e+02   4.5822674466e+00    0.0212239    0.0151315   6.43  0.001789421    1.632    0.387
        14 -13.5987    207.0211    178.0921   2.9053248375e+02   4.4840940462e+00    0.0295919   0.02329951 -48.04  0.002817015    1.259    0.206
        15 -12.0237    127.0588    249.8936   2.9189743527e+02   4.1374713666e+00   0.01125664  0.009004349 -53.80 0.0006340313    1.229    0.186
        16 -12.9686    155.0956    190.1819   2.9120625855e+02   4.6568637092e+00   0.01781231   0.01488525 -28.22  0.001793906    1.271    0.213
        17 -11.9773    200.0280    179.6960   2.9062305320e+02   4.5076769831e+00   0.01644251   0.01073016  75.95  0.001542414    2.161    0.537
        18 -13.6636    195.6573    170.7231   2.9061807569e+02   4.6372011222e+00   0.02978393   0.02030671 -71.51   0.00196954    1.586    0.370
        19 -12.1244    193.9980    165.7402   2.9060645102e+02   4.7045132918e+00   0.01754987   0.01250323  20.09  0.001307609    1.470    0.320
        20 -19.1636     75.4714     95.5194   2.9154253641e+02   6.2240536694e+00    0.8973969   0.04121984 -61.85   0.02595589   19.531    0.949
        21 -12.0863    144.6870    178.7589   2.9125599826e+02   4.8508328215e+00   0.01883625   0.01199165 -40.04  0.001496722    1.682    0.405
        22 -14.2842    138.8035    172.5792   2.9128583465e+02   4.9572808574e+00   0.03439858   0.02723805  57.94  0.002077614    1.392    0.281
        23 -14.0920    129.2936    170.6621   2.9138385388e+02   5.0364006824e+00   0.04102339   0.01740361  31.47   0.00347338    2.265    0.559
        24 -13.8765    165.8900    188.9055   2.9107379278e+02   4.6067619995e+00   0.03671815   0.02225339  12.54  0.003488635    1.976    0.494
        25 -12.7343    123.4298    166.4320   2.9142551040e+02   5.1202721155e+00   0.02293892   0.01167355  48.19  0.001411506    2.253    0.556
        26 -14.2426    143.4250    168.4522   2.9120700990e+02   4.9770619399e+00   0.03795384   0.02047919  25.22  0.002934867    1.906    0.475
        27 -13.1610    147.9645    172.9723   2.9118246681e+02   4.8977822704e+00   0.01968353   0.01515236  35.60   0.00140543    1.296    0.228
        28 -13.5618    178.2000    171.0643   2.9082163728e+02   4.7381835694e+00    0.0275307   0.01844559 -72.17  0.002825601    1.633    0.388
        29 -11.6608    139.4761    201.4620   2.9145608551e+02   4.6207021950e+00   0.01862259   0.01378461 -52.93  0.000708122    1.324    0.245
        30 -11.4662     30.7345    206.3017   2.9274187604e+02   5.2157001589e+00   0.01480087   0.01137346  -0.06 0.0008706176    1.491    0.330
        31 -11.7636    200.9920    164.6710   2.9051914838e+02   4.6747680211e+00   0.02086866   0.01409818  89.61  0.001673262    1.937    0.484
        32 -13.1436     11.7320    205.9600   2.9295936148e+02   5.3330205561e+00   0.03246662   0.01646694  21.98  0.002889203    2.142    0.533
        33 -11.1272    222.3686    161.5044   2.9025300381e+02   4.5826270719e+00   0.01552139    0.0102291  79.19  0.001075113    2.125    0.529
        34 -13.0344    163.8889    157.8138   2.9090505153e+02   4.9766593452e+00   0.02091424    0.0108933  37.09 0.0008475381    1.883    0.469
        35 -11.1993     28.9154    156.6655   2.9245792767e+02   5.7983819717e+00   0.01378313   0.01078812 -58.72 0.0007514521    1.261    0.207
        36 -10.4005      3.7279    158.2455   2.9275896702e+02   5.9304724103e+00  0.008956345  0.007268491 -30.87 0.0004169532    1.311    0.237
        37 -14.8858    134.0142    146.0833   2.9117770548e+02   5.2910462481e+00    0.0756521   0.02783509 -71.16  0.004932789    4.125    0.758
        38 -10.2746     22.9631    156.2807   2.9252440474e+02   5.8383506383e+00  0.009264487  0.008379543  27.01 0.0005541326    1.110    0.099
        39 -11.9659     17.4225    153.3795   2.9257065228e+02   5.9048368872e+00   0.02149358   0.01492548 -27.26  0.001624096    1.694    0.410
        40 -11.3901     18.5333    148.4745   2.9252764096e+02   5.9547063156e+00   0.01717462    0.0106307   4.48  0.001183111    2.120    0.528
        41 -13.1929    153.9024    185.6117   2.9119185435e+02   4.7166371407e+00     0.021559   0.01451334  26.30   0.00208656    1.500    0.333
        42 -13.7457    156.0602    198.9480   2.9124916236e+02   4.5501566645e+00   0.04441295   0.02539219  83.02    0.0035467    3.088    0.676
        43 -14.1705    135.7029    129.0159   2.9105282963e+02   5.4773661642e+00   0.06102551   0.01750502 -66.98  0.003624028    4.799    0.792
        44 -12.4809    174.2484    148.9586   2.9073076028e+02   5.0163319390e+00   0.01682814   0.01450755 -79.29  0.001267549    1.231    0.187
        45 -14.5262    143.4361    143.2724   2.9105150130e+02   5.2668503876e+00   0.04868733   0.02415376 -77.87  0.003819133    2.978    0.664
        46  -9.8723    181.6530    148.2948   2.9064117567e+02   4.9794667487e+00  0.007000697  0.004938298  59.84  0.000588382    1.672    0.402
        47 -11.8210     27.2935    145.7193   2.9240935408e+02   5.9341489735e+00   0.01676524   0.01358573  16.50 0.0008530092    1.285    0.222
        48 -11.6278    175.0245    141.5126   2.9067580241e+02   5.0973516793e+00   0.01012428  0.006500334  27.98 0.0007760365    1.559    0.359
        49 -13.2112    152.5103    145.1433   2.9095823107e+02   5.1908309448e+00   0.01738466   0.01469078 -88.00  0.002017723    1.304    0.233
        50 -10.3475     25.5636    139.6777   2.9239219269e+02   6.0140618498e+00  0.009082609  0.006498116 -77.96 0.0009425339    1.580    0.367
        51 -12.9354    180.4583    193.4050   2.9093342777e+02   4.4674906878e+00   0.02059325   0.01558725  78.51  0.001541244    1.608    0.378
        52 -11.6045    169.8038    195.2044   2.9106746805e+02   4.5107576872e+00   0.01138458  0.008761895  40.99  0.001264137    1.315    0.239
        53 -13.0340    160.5116    128.2743   2.9076161447e+02   5.3369040684e+00    0.0194214   0.01714837 -87.31  0.002036649    1.217    0.178
        54 -12.6303    134.7155    106.8601   2.9092737146e+02   5.7382680388e+00   0.02782307  0.007201981 -62.04  0.001796391    3.878    0.742
        55 -13.1908    121.3255    111.8436   2.9111295662e+02   5.7612934398e+00   0.01915214   0.01095559 -60.37  0.001850973    1.721    0.419
        56 -12.2766     38.9554    123.4625   2.9213740993e+02   6.1208093177e+00   0.01697414    0.0106924 -29.54  0.001367603    1.948    0.487
        57 -10.7611    205.3824    110.1279   2.9013127512e+02   5.2757894096e+00   0.01131375  0.009198286   9.48 0.0006992235    1.319    0.242
        58 -11.7177     98.0565    109.5007   2.9136756463e+02   5.9278144502e+00   0.01034322  0.006504956  27.73  0.001034037    1.593    0.372
        59 -11.8466     25.0874    106.6118   2.9219410034e+02   6.3976714014e+00   0.02214416   0.01216556  12.43   0.00194571    2.319    0.569
        60 -12.0681     41.0438     93.3439   2.9192759192e+02   6.4550771942e+00   0.02596227   0.01784756  -6.72  0.002601414    1.859    0.462
        61 -12.0177     48.5385     92.5148   2.9183571515e+02   6.4198120377e+00   0.01890671    0.0132071  11.25  0.001669431    1.617    0.382
        62 -11.5857      5.5283     89.2141   2.9231337514e+02   6.7146894864e+00    0.0264315   0.01232854   6.87  0.001763098    4.216    0.763
        63  -9.9421    104.6422     82.1591   2.9112248934e+02   6.2029621363e+00  0.008926806  0.005821706 -50.59 0.0001321947    1.504    0.335
        64 -10.9053    142.8418     80.6655   2.9067146458e+02   5.9908113092e+00   0.01156385  0.008665013 -49.02  0.000629752    1.319    0.242
        65 -14.4434    148.3433     58.7184   2.9047202783e+02   6.2101284659e+00   0.05368529   0.03607702 -45.71  0.001038433    1.500    0.333
        66 -12.6434    163.7030    202.8913   2.9118526128e+02   4.4588949133e+00    0.0202989   0.01467642  88.61 0.0008393724    1.712    0.416
        67 -13.2166    162.6618     35.1211   2.9016029570e+02   6.3952312872e+00    0.0209343   0.01815642 -49.41 0.0008635923    1.140    0.123
        68 -10.7887     13.4048     59.8642   2.9204116439e+02   7.0054530592e+00   0.01094174  0.008779532  41.26 0.0004115572    1.263    0.208
        69 -10.8822     12.5130    243.2169   2.9317870591e+02   4.8990952192e+00  0.008139022  0.006001407 -44.07 0.0003590259    1.372    0.271
