#   1 NUMBER                 Running object number                                     
#   2 MAG_AUTO               Kron-like elliptical aperture magnitude                    [mag]
#   3 X_IMAGE                Object position along x                                    [pixel]
#   4 Y_IMAGE                Object position along y                                    [pixel]
#   5 X_WORLD                Barycenter position along world x axis                     [deg]
#   6 Y_WORLD                Barycenter position along world y axis                     [deg]
#   7 A_WORLD                Profile RMS along major axis (world units)                 [deg]
#   8 B_WORLD                Profile RMS along minor axis (world units)                 [deg]
#   9 THETA_WORLD            Position angle (CCW/world-x)                               [deg]
#  10 FWHM_WORLD             FWHM assuming a gaussian core                              [deg]
#  11 ELONGATION             A_IMAGE/B_IMAGE                                           
#  12 ELLIPTICITY            1 - B_IMAGE/A_IMAGE                                       
         1 -12.3915    197.4855     37.6246   4.8127706133e+01   3.1070974508e+01     1.000122    0.9318302  70.92  0.004597534    1.099    0.090
         2 -12.6182    207.7076     26.4886   4.3869929419e+01   2.9946558142e+01    0.9147346    0.7853859  27.13  0.002058267    1.471    0.320
         3 -10.8347     32.7580      6.0986   7.8892649815e+01   7.0649022601e+01    0.6693513     0.127799 -34.21  0.002271597    4.954    0.798
         4 -11.0008    231.8366      2.8736   3.5857247713e+01   2.6884938451e+01    0.7146953    0.3202007  76.63  0.003464801    2.097    0.523
         5  -8.0672    113.2105    207.4178   1.0627261609e+02   1.6269150055e+01    0.1834759    0.1071665  51.30 0.0001798864    1.564    0.361
         6  -8.4824    117.9421    250.5574   1.1050232603e+02   7.7891819434e+00    0.1767452   0.09470256  41.44 0.0003968751    1.505    0.336
         7 -13.2983     85.2994    229.3660   1.1448227036e+02   1.6312819518e+01     1.995977     1.385565 -84.95   0.01099436    1.496    0.331
         8 -13.2335     46.4384    223.3598   1.2134456296e+02   2.2610155919e+01     1.496912     1.130433  56.57  0.005476451    1.167    0.143
         9 -14.5884     51.5197    198.5622   1.1826197913e+02   2.7065095172e+01     4.835898     2.906199 -42.53   0.02478793    2.688    0.628
        10 -10.6621     74.3766    171.6536   1.1007792516e+02   3.0039069858e+01     0.459371    0.3232353 -29.37  0.002277049    2.250    0.555
        11  -9.1229    113.8469    174.0224   1.0106595695e+02   2.3193006271e+01    0.2511198    0.1651383  86.65  0.001108342    2.115    0.527
        12 -11.8275     18.6482    192.2696   1.2444628546e+02   3.2035804001e+01    0.4164769    0.3086539  60.64 0.0002217528    1.211    0.174
        13  -9.9703     32.7848    165.1940   1.1910729644e+02   3.6651897690e+01    0.3525645    0.1984134 -75.34  0.001561094    1.504    0.335
        14 -12.0768     57.7060    130.1893   1.0798776599e+02   4.2220652692e+01      1.34727    0.5432971 -77.80  0.004161006    4.321    0.769
        15 -12.0522     71.5621    157.3811   1.0869992651e+02   3.3791503999e+01    0.5566905    0.4570644 -40.67  0.001381806    1.466    0.318
        16 -10.4178     89.9538    155.1991   1.0368767407e+02   3.1547923908e+01    0.5628527    0.4082353 -19.46  0.001923035    2.189    0.543
        17  -8.9759    134.3900    146.9048   9.0859959001e+01   2.5427482333e+01    0.4668212    0.1477832 -52.18  0.001411625    3.408    0.707
        18  -8.9548     41.3055    147.0613   1.1494242525e+02   4.0029817910e+01    0.1958963    0.1490228 -79.61   0.00116888    1.111    0.100
        19 -10.5292     57.8607    146.2482   1.1053580676e+02   3.8294016981e+01    0.5612872    0.2172479  26.37  0.002098643    3.580    0.721
        20  -8.6649     84.9238    144.3935   1.0307372617e+02   3.4928420801e+01    0.2348427    0.1885351 -83.89 0.0006324537    1.247    0.198
        21  -8.5047     44.7574    144.6044   1.1372383382e+02   4.0242439517e+01    0.1703259    0.1146258  48.99 0.0006299612    1.550    0.355
        22  -9.0603    102.3104    141.6600   9.7941709617e+01   3.2700694536e+01    0.2587137     0.201097 -71.00 0.0007800793    1.311    0.237
        23  -8.5991    104.3047    139.3061   9.6931070510e+01   3.2907995842e+01     0.283323    0.2229391 -30.14 0.0005789173    1.530    0.346
        24 -10.6061     90.9073    140.1995   1.0068577101e+02   3.4982961872e+01    0.2993601    0.2543567 -45.63 0.0003811861    1.236    0.191
        25 -11.9670     68.5927    144.3280   1.0740049192e+02   3.7345315918e+01    0.9021559     0.570876  81.14   0.00333726    1.951    0.487
        26  -7.6608     38.6787    137.7155   1.1438312631e+02   4.2555587068e+01    0.1264774   0.09077308 -43.45 0.0001618876    1.594    0.372
        27  -8.7239    105.9621    131.0359   9.4709897495e+01   3.4573586862e+01    0.3109456    0.2097066 -55.44  0.001153401    1.433    0.302
        28  -8.9376    112.0411    130.7955   9.3019113445e+01   3.3502902885e+01    0.2699991     0.218814  12.53 0.0007252384    1.559    0.359
        29  -9.4385     44.8007    129.6510   1.1152529806e+02   4.3860506209e+01    0.1935639    0.1519828 -62.51  0.001138373    1.133    0.117
        30  -9.3691     99.0931    126.7469   9.5637756198e+01   3.6825295383e+01    0.3705513    0.2568914  19.86 0.0006791306    1.924    0.480
        31  -8.2449    108.1401    119.3252   9.1392771170e+01   3.6933374033e+01    0.2032447    0.1897346  50.83 0.0004018196    1.111    0.100
        32 -11.6319     42.1557    108.8201   1.0874455162e+02   4.9193229502e+01    0.7098585    0.3929335 -84.47  0.003165761    2.303    0.566
        33  -8.4018    168.1999    113.3912   7.4686030930e+01   2.5334043002e+01    0.2270081    0.1515626  60.53 0.0009535041    1.716    0.417
        34  -8.2277     99.5018    180.5270   1.0546219080e+02   2.4172899440e+01    0.1397999    0.1235952  72.79 0.0003853687    1.029    0.029
        35  -8.6794    205.9619    110.0137   6.6140465795e+01   1.7277616399e+01    0.2336237    0.1828003   7.44 0.0007725044    1.591    0.372
        36 -10.1976    116.4085    108.9421   8.6461350379e+01   3.7716628428e+01    0.5355049    0.3426537  32.92  0.002298764    1.772    0.436
        37 -10.8098     83.2939    162.3041   1.0653183635e+02   3.0907040446e+01    0.6079926    0.3714339  68.68 0.0005867632    1.971    0.493
        38  -9.8798     33.6353    100.5471   1.0988633795e+02   5.2005669659e+01    0.2893431    0.1764002 -67.02  0.001165935    1.405    0.288
        39  -8.9372     32.4418     96.0128   1.0940637976e+02   5.3187536617e+01    0.2635722   0.09896774 -59.92 0.0005961426    2.076    0.518
        40  -8.9629     57.0136     95.5042   1.0116231063e+02   5.0674259438e+01    0.1953992    0.1387228  30.90 0.0007400532    1.601    0.375
        41 -14.5481     57.3798    246.8851   1.2108722264e+02   1.6879597572e+01     6.676453     2.079227  30.47  0.009182043    7.911    0.874
        42  -9.3365    194.0714    196.7880   8.7704537172e+01   3.9607297769e+00    0.3322432    0.2068187 -58.67  0.001520327    2.522    0.603
        43  -9.4067     41.3930     91.4906   1.0546990828e+02   5.3390324572e+01    0.3218837    0.1198246 -64.93  0.001130911    2.652    0.623
        44  -7.7324     82.6436    195.3022   1.1127484765e+02   2.3553454980e+01    0.1415876   0.08640626  66.91 0.0007038588    1.712    0.416
        45 -10.0721     73.9599    188.6226   1.1237091507e+02   2.6261741203e+01    0.4238059    0.2360546  73.78  0.001717219    2.156    0.536
        46 -12.1826    187.4159     45.2058   5.1711718537e+01   3.2575619749e+01    0.9980004    0.7610037  13.45  0.003802526    1.757    0.431
        47 -15.4467      6.0615    246.4295   1.2958106544e+02   2.2719687732e+01     1.750818     1.199054  38.00  0.003096404    1.734    0.423
        48  -9.1174     93.2156    218.5284   1.1177961647e+02   1.7220359094e+01    0.2348185    0.1831446  85.74  0.001478571    1.263    0.208
        49  -7.9359     94.6175    187.2415   1.0755705530e+02   2.3475948925e+01    0.1758803    0.1212949 -54.27 0.0003721189    1.557    0.358
        50  -8.9048    149.9994     45.7499   5.8548225907e+01   4.2006985431e+01    0.2524485    0.1963751 -61.44 0.0005017736    1.473    0.321
        51  -9.4045     31.5443     36.5010   9.3308615037e+01   6.6006919582e+01    0.2318506    0.1162831  26.36  0.001217813    2.193    0.544
        52 -10.3871     32.3231     29.9407   9.0346232780e+01   6.7088003585e+01     0.357409    0.1547863 -50.76  0.001666938    2.480    0.597
        53 -10.2874     70.2145    176.8450   1.1174905355e+02   2.9431399770e+01    0.2819473    0.2571445 -34.15  0.001036434    1.444    0.307
        54  -9.6235    148.6048     52.5480   6.1067641936e+01   4.1336735392e+01    0.4732482    0.3058705 -81.08  0.001235161    2.506    0.601
        55 -16.0866      5.1995    215.4265   1.2833314536e+02   2.8571185118e+01     18.64677    0.7373227 -76.56   0.02472088   12.212    0.918
