#   1 NUMBER                 Running object number                                     
#   2 MAG_AUTO               Kron-like elliptical aperture magnitude                    [mag]
#   3 X_IMAGE                Object position along x                                    [pixel]
#   4 Y_IMAGE                Object position along y                                    [pixel]
#   5 X_WORLD                Barycenter position along world x axis                     [deg]
#   6 Y_WORLD                Barycenter position along world y axis                     [deg]
#   7 A_WORLD                Profile RMS along major axis (world units)                 [deg]
#   8 B_WORLD                Profile RMS along minor axis (world units)                 [deg]
#   9 THETA_WORLD            Position angle (CCW/world-x)                               [deg]
#  10 FWHM_WORLD             FWHM assuming a gaussian core                              [deg]
#  11 ELONGATION             A_IMAGE/B_IMAGE                                           
#  12 ELLIPTICITY            1 - B_IMAGE/A_IMAGE                                       
         1 -12.5480      2.4835     77.6039   8.6632890797e+01   5.9589596587e+01     1.650586          nan -62.99  0.003919237    8.522    0.883
         2 -13.3392    224.0134     55.9297   1.9263526480e+01   2.2085271039e+01     1.362843     1.200076 -85.14  0.007282222    1.079    0.074
         3 -13.0521    242.5087     43.4045   1.4159647294e+01   1.9622365414e+01    0.9189737    0.8215514  69.63  0.005845351    1.246    0.198
         4 -13.2954      9.0933    207.3242   9.7848285791e+01   3.0042995644e+01    0.8098547    0.7619629  -4.35  0.004449702    1.735    0.424
         5 -10.2857    232.6307    250.0023   5.9139614327e+01  -1.0302533714e+01     0.219992    0.1142697  46.45  0.001155245    2.416    0.586
         6 -15.5678      8.9016    181.6265   9.6267180561e+01   3.5501726244e+01     5.709899     1.580906 -78.02   0.01819944    3.043    0.671
         7 -11.7032     35.0591    169.6286   8.9493397600e+01   3.5703945638e+01    0.3153873    0.2816314 -35.33 0.0005748529    1.513    0.339
         8  -8.4294    110.5616    167.4933   7.0753763046e+01   2.5444622560e+01    0.1460528    0.1358759  76.21 0.0001237466    1.010    0.010
         9 -11.6928     43.5732    164.1270   8.6868538280e+01   3.6058538494e+01    0.2763419    0.2569739 -69.22 0.0003959533    1.232    0.188
        10 -10.2793    246.5099    164.4630   4.0853087533e+01  -4.9709933698e-01    0.2523741    0.1166685 -25.78  0.001039315    2.395    0.582
        11 -14.9993      8.3913    230.2175   9.9180408498e+01   2.5587646037e+01     3.986067     2.258409  25.09   0.02445132    2.701    0.630
        12 -10.6244     57.7543    155.5022   8.2216613741e+01   3.6417177342e+01    0.2483173    0.2217937 -80.13 0.0004032076    1.067    0.063
        13 -11.4455     72.5358    136.0131   7.5074120352e+01   3.9158609277e+01    0.3125738     0.283431 -38.53 0.0003739795    1.222    0.182
        14 -12.2728     66.5712    150.4285   7.9160429872e+01   3.6485019362e+01    0.6963336    0.4441235  70.32  0.002323352    1.831    0.454
        15 -13.0364     68.2748    143.6260   7.7594773539e+01   3.7902679749e+01     1.151776    0.6956723  80.55  0.005046849    2.241    0.554
        16 -12.9519     42.0073    151.1673   8.5671962343e+01   3.9305919154e+01    0.4868641    0.3525671 -24.36  0.001598352    2.047    0.512
        17  -9.5994    239.3297    149.6614   3.8928540861e+01   3.2169631994e+00    0.1359395    0.1090141 -66.85 0.0007051872    1.736    0.424
        18 -10.4713     85.4442    138.9330   7.2025040521e+01   3.6499837197e+01    0.3133909    0.2841403 -56.90 0.0008242163    1.097    0.088
        19  -9.1283     89.8032    135.9897   7.0231265426e+01   3.6508847987e+01    0.2191381    0.1908032 -36.88 0.0004623338    1.260    0.206
        20  -9.9517    105.6955    130.5663   6.4646631741e+01   3.5040256305e+01    0.3815033    0.3027683 -70.58  0.001296164    1.333    0.250
        21  -9.9130    102.5051    128.5066   6.5073894300e+01   3.6113125407e+01     0.441636    0.3070402  10.66  0.001882072    2.167    0.538
        22 -10.6163    243.2861    130.4267   3.4015959075e+01   5.7005447079e+00    0.3932763   0.09863032 -41.44  0.001224307    3.635    0.725
        23 -10.0337     67.6121    124.7751   7.4354382884e+01   4.2583701843e+01    0.3108054    0.1308609 -62.71  0.001207475    2.290    0.563
        24 -10.3041     87.5342    124.2785   6.8412627146e+01   3.9708325770e+01    0.2537009    0.2494532 -71.64 0.0004742858    1.056    0.053
        25 -11.1210     53.2685    119.5854   7.7631423854e+01   4.5670438235e+01    0.6042699    0.2509281 -78.58  0.001783833    4.882    0.795
        26  -8.3808    119.5800    236.5207   7.8830003675e+01   9.6804051452e+00    0.1267482    0.1042734  52.60 0.0001426271    1.012    0.012
        27  -9.3710    101.1928    117.5260   6.2885802473e+01   3.8952358951e+01    0.2506624    0.2008953 -50.57 0.0002855463    1.202    0.168
        28  -8.9610    204.6095    110.7120   3.6096330056e+01   1.7442911137e+01    0.3308755    0.1727804  40.46  0.001288147    2.194    0.544
        29 -10.2651     51.4232    110.3041   7.6409733093e+01   4.8115649317e+01    0.2726334    0.1085216 -56.27 0.0009130113    2.096    0.523
        30 -10.8245    244.6701    108.1467   2.8754134612e+01   9.1663039614e+00    0.3022369    0.1040261 -42.47  0.001099493    2.609    0.617
        31 -11.4527      3.2788     97.2894   8.9418918344e+01   5.5141602747e+01    0.3228239    0.2556048 -56.31  0.002252547    1.123    0.110
        32 -10.2657    249.5607    248.2450   5.5908097739e+01  -1.2426849812e+01    0.2603871   0.09979416 -29.60  0.001321235    2.729    0.634
        33  -9.1936     41.6765     91.9775   7.5754324651e+01   5.3469662475e+01    0.1868639    0.1485933 -52.94 0.0004873502    1.069    0.064
        34 -10.1431     52.8467     90.5249   7.1584709759e+01   5.2579048923e+01    0.2779939    0.1839663 -36.87  0.001447086    1.494    0.330
        35 -10.0513    167.8448     88.7950   3.7718940193e+01   3.0400186840e+01    0.2237053    0.1891726 -77.56 0.0009559949    1.342    0.255
        36  -9.2197     25.6598     87.0575   8.0247955067e+01   5.6028813456e+01    0.1773522    0.1367533 -60.58 0.0004283817    1.093    0.085
        37  -9.3854    184.4993     77.4634   3.1157513440e+01   2.8313351494e+01     0.150609    0.1481251  75.57 4.906709e-05    1.039    0.038
        38 -10.3706     77.1084    202.4361   8.3638606071e+01   2.3000664042e+01    0.3182683    0.1965236 -83.91 0.0006632134    1.704    0.413
        39 -11.0071     13.0789     59.7604   7.8924272560e+01   6.2855238366e+01    0.2538628    0.2221761  55.40 0.0008004528    1.533    0.347
