#   1 NUMBER                 Running object number                                     
#   2 MAG_AUTO               Kron-like elliptical aperture magnitude                    [mag]
#   3 X_IMAGE                Object position along x                                    [pixel]
#   4 Y_IMAGE                Object position along y                                    [pixel]
#   5 X_WORLD                Barycenter position along world x axis                     [deg]
#   6 Y_WORLD                Barycenter position along world y axis                     [deg]
#   7 A_WORLD                Profile RMS along major axis (world units)                 [deg]
#   8 B_WORLD                Profile RMS along minor axis (world units)                 [deg]
#   9 THETA_WORLD            Position angle (CCW/world-x)                               [deg]
#  10 FWHM_WORLD             FWHM assuming a gaussian core                              [deg]
#  11 ELONGATION             A_IMAGE/B_IMAGE                                           
#  12 ELLIPTICITY            1 - B_IMAGE/A_IMAGE                                       
         1 -16.2258    167.8853     84.9362   2.9036081027e+02   5.8177344009e+00    0.1857813   0.06567961 -68.84   0.01303285    3.498    0.714
         2 -14.9043    241.1362     44.4260   2.8928458279e+02   5.8604019124e+00   0.07273079   0.04951378  47.01  0.007061771    1.552    0.356
         3 -15.6274    245.0049     79.6074   2.8945097612e+02   5.4320195184e+00    0.1291058   0.08013324  70.82   0.01194742    2.278    0.561
         4 -14.5868    249.4296     31.9449   2.8911553050e+02   5.9561370753e+00    0.1313735   0.02043406 -62.57  0.006768068    6.213    0.839
         5 -14.4186    247.4640     13.6482   2.8902834386e+02   6.1784971451e+00   0.05669605   0.03496393 -71.58  0.004752974    1.747    0.427
         6 -15.3059    228.9232     53.3352   2.8947685987e+02   5.8285696598e+00   0.07915041   0.05678969  77.35  0.008124814    1.729    0.422
         7 -14.5079    141.8370     51.4667   2.9045791908e+02   6.3550518141e+00   0.05575531   0.03217551 -64.19  0.003726996    1.722    0.419
         8 -13.3859     96.5615     43.6020   2.9092757034e+02   6.7076256978e+00   0.03076277   0.02405115  19.11   0.00229943    1.346    0.257
         9 -13.7122     17.0521     27.8425   2.9174186339e+02   7.3477898294e+00   0.02937539   0.02711123 -66.42  0.002025302    1.069    0.065
        10 -13.6220    170.9249     33.4698   2.9001870430e+02   6.3943070587e+00   0.03095628   0.02515273 -61.39  0.002541658    1.203    0.169
        11 -13.9656     21.8743     40.9992   2.9176512880e+02   7.1681248826e+00   0.05370458   0.03489814  44.36  0.005227275    1.603    0.376
        12 -13.5307    210.4022     17.3751   2.8947257590e+02   6.3509189843e+00   0.03198211   0.02061216  79.79  0.003040964    2.151    0.535
        13 -13.3866     12.5802     11.8617   2.9169774612e+02   7.5579921890e+00   0.03344599   0.02797538 -51.89   0.00254794    1.167    0.143
        14 -13.3992     25.3401      4.9646   2.9151072389e+02   7.5642254751e+00   0.04860865   0.02332391 -36.70  0.003625641    2.712    0.631
        15 -13.9323    228.8000      4.3411   2.8918503074e+02   6.3942905037e+00   0.03979901   0.03432935  -9.51  0.004508972    1.270    0.213
        16 -12.7560    165.2444      3.5091   2.8990426547e+02   6.7728624959e+00   0.02538057   0.02001265 -27.18   0.00243268    1.404    0.288
        17 -12.6513    204.3482      3.3930   2.8945783604e+02   6.5472913296e+00   0.01651494   0.01187778  57.26  0.001768606    1.569    0.363
        18 -13.0727    187.5412      2.3217   2.8964294634e+02   6.6572171094e+00    0.0295964   0.01239511  28.50  0.002497032    2.384    0.581
        19 -11.5472    166.9980    171.5076   2.9088693729e+02   4.8224540934e+00   0.01523662   0.01183219  27.92  0.001183409    1.310    0.236
        20 -18.1794    242.8914    210.7364   2.9025733628e+02   3.9299437671e+00    0.2700482   0.08792829 -62.21   0.02010912    2.963    0.663
        21 -16.6626     77.9957     30.4545   2.9106109565e+02   6.9666077474e+00    0.1952558    0.1343001  73.82   0.01444232    1.863    0.463
        22 -17.2244    193.1968    241.9969   2.9100808567e+02   3.8561691521e+00    0.1284796   0.09883426  44.61   0.01458054    1.339    0.253
        23  99.0000     30.5000    186.2628   2.9252966541e+02   5.4389417981e+00    0.3092725    0.1249769 -43.82   0.02108908    2.785    0.641
        24 -18.2779    145.2654    220.2654   2.9142418659e+02   4.3842922743e+00    0.1620062    0.1077109 -49.99   0.01714852    1.471    0.320
        25 -11.5573     96.3375    175.0293   2.9171266515e+02   5.1897978885e+00   0.01710961  0.007681235 -46.92 0.0009092032    2.271    0.560
        26 -11.6852     98.4622    170.5324   2.9166174038e+02   5.2295550749e+00   0.02016791  0.009956029 -50.33 0.0009433539    1.962    0.490
        27 -11.7446    126.0912    250.2738   2.9182043483e+02   4.1479268054e+00   0.01304997    0.0090158  28.54 0.0006821232    1.466    0.318
        28 -10.8885    113.2164    169.1704   2.9148553348e+02   5.1601816053e+00  0.009071467  0.007518765  63.32 0.0003786912    1.315    0.240
        29 -10.9330    102.8720    161.8470   2.9155987198e+02   5.3045648968e+00  0.009658886  0.008432205 -35.04 0.0003526586    1.179    0.152
        30 -12.5364    155.4389    160.6736   2.9095405604e+02   5.0145323044e+00   0.01762683   0.01239574  44.10  0.001067069    1.469    0.319
        31 -12.0937    150.9994    159.5144   2.9099771321e+02   5.0535971514e+00   0.01313909   0.01087247 -35.41 0.0009021268    1.260    0.207
        32 -13.1892     75.7385    155.9488   2.9183409638e+02   5.5292368918e+00   0.01668964   0.01128037  41.25  0.001083343    1.507    0.337
        33 -12.8337     92.5719    156.2496   2.9164399312e+02   5.4287130094e+00   0.01646825     0.012461 -24.60 0.0008635236    1.514    0.340
        34 -12.0001    106.9592    155.1854   2.9147368898e+02   5.3580191703e+00   0.02351484   0.01333828 -21.90  0.001704969    2.722    0.633
        35 -15.1868    179.3387    145.4602   2.9059132340e+02   5.0521340939e+00   0.06034049   0.03841009 -49.60  0.004504505    1.539    0.350
        36 -13.8273    186.8488    139.1457   2.9046819333e+02   5.0816342056e+00   0.02575107   0.02173594  80.58  0.002156113    1.303    0.232
        37 -13.2773     24.2565    156.3908   2.9242377811e+02   5.8204294740e+00   0.02378502    0.0131986  35.88  0.001809258    1.783    0.439
        38 -17.5105     66.1487    227.4759   2.9236765021e+02   4.7570364421e+00    0.2512665    0.1481861  49.23   0.02441659    1.884    0.469
        39 -13.5826    152.3936    139.0355   2.9085989464e+02   5.2822710479e+00   0.02498422   0.01751943 -54.92  0.002017181    1.376    0.273
        40 -11.9529    104.3151    139.7866   2.9141223871e+02   5.5513416055e+00   0.01129252    0.0110483  23.02 0.0004229618    1.043    0.041
        41 -14.9681    155.4352    123.9792   2.9073553593e+02   5.4386998475e+00   0.04590515   0.03751764  89.94  0.003525436    1.348    0.258
        42 -11.1647    105.9295    130.6867   2.9133968925e+02   5.6472384206e+00   0.01298583  0.009851984 -75.33  0.001438333    1.390    0.280
        43 -10.4875    119.3340    130.3252   2.9118473239e+02   5.5740209655e+00  0.007044269  0.004848086 -28.62 0.0007051179    1.713    0.416
        44 -10.6891    107.8273    126.2444   2.9129161231e+02   5.6876420699e+00   0.00925827  0.007422696 -31.22 0.0006802585    1.342    0.255
        45 -17.3610    167.9914    231.1665   2.9123037130e+02   4.1270012756e+00    0.1316823    0.0550633 -70.26   0.01024963    2.863    0.651
        46 -18.8479     52.0561    100.0126   2.9177171616e+02   6.3124948337e+00    0.8315874   0.02868031 -62.83   0.02186227   23.852    0.958
        47 -13.2350    151.7152    108.7945   2.9068740266e+02   5.6356965292e+00   0.02508541   0.01683084  61.24  0.002000708    1.803    0.445
        48 -15.3250    199.5914    107.7107   2.9013562894e+02   5.3709955844e+00   0.09508603   0.06798904  13.17  0.007521396    1.563    0.360
        49 -17.1836    164.2624    194.1031   2.9105250867e+02   4.5770489362e+00   0.07919478   0.06785113  58.94  0.007845937    1.240    0.194
        50 -11.2099     78.3305    216.9940   2.9216681205e+02   4.8081548053e+00   0.01042953  0.009125173  27.80 0.0005227669    1.164    0.141
        51 -10.6589     88.5133    216.5703   2.9204833577e+02   4.7543916621e+00   0.01032375   0.00639859  27.80 0.0007137162    1.637    0.389
        52 -10.8310    111.8312    210.3996   2.9174620365e+02   4.6913364885e+00  0.009430177  0.006351099   7.14 0.0009452722    1.792    0.442
        53 -13.9148    243.9927     63.5182   2.8936629111e+02   5.6235570187e+00   0.02947174   0.02522562 -86.57  0.002106789    1.243    0.196
        54 -13.9192    235.7751     62.5725   2.8945412853e+02   5.6821960298e+00   0.03338854    0.0266558 -63.68  0.002795852    1.232    0.189
        55 -11.1405     81.6446    203.2508   2.9204757622e+02   4.9480482657e+00   0.01946265  0.009340153 -42.62   0.00163552    2.306    0.566
        56 -15.3169    189.8935     92.7044   2.9015647555e+02   5.6005187151e+00   0.07637104   0.06020264  83.74  0.006009685    1.453    0.312
        57 -13.5385     77.8559     73.1152   2.9131709297e+02   6.4746750937e+00   0.04089235   0.02257046  49.15  0.003810414    2.051    0.512
        58 -11.9535    199.9937    198.5084   2.9067219581e+02   4.3195067411e+00   0.01814853   0.01219788 -69.70  0.001273887    1.539    0.350
        59 -12.3172    109.3313     57.8042   2.9086657504e+02   6.4698435118e+00   0.01587123   0.01404748 -61.35  0.001575989    1.106    0.096
        60 -12.1149     34.3819     57.4873   2.9172042093e+02   6.9057091875e+00    0.0153237   0.01275692 -11.91  0.001649435    1.340    0.254
        61 -11.8271    195.7547    194.4528   2.9069627450e+02   4.3909038935e+00   0.02172938   0.01273955  20.67  0.002111406    1.859    0.462
        62 -12.8702     17.4968     33.2713   2.9176912437e+02   7.2825438150e+00   0.02940067   0.01456358  12.89  0.002417631    2.762    0.638
        63 -13.1257    195.7003    158.0141   2.9047990075e+02   4.8123480463e+00   0.03223555   0.01847971 -88.59  0.002480055    2.596    0.615
        64  99.0000      7.8460    146.7301   2.9255368336e+02   6.0264721634e+00    0.2746233    0.1597761 -42.25   0.02667494    1.829    0.453
        65 -12.5030     32.4740     38.7364   2.9163052290e+02   7.1332850883e+00   0.01709354   0.01236248 -64.83  0.001226495    1.370    0.270
        66 -14.6764    204.8045    135.5596   2.9024244250e+02   5.0190813579e+00   0.03899963   0.03375176 -63.12  0.002316908    1.134    0.118
        67 -12.4640    174.8903     26.1859   2.8992994284e+02   6.4553624697e+00   0.02447477   0.01247626 -47.22  0.001282992    1.975    0.494
        68 -15.2891    200.0818    148.6598   2.9037429305e+02   4.8950743827e+00    0.0593751   0.03731193  41.27  0.004830189    1.622    0.383
        69 -13.1242     32.0020     30.1584   2.9158479439e+02   7.2350611948e+00   0.02076884   0.01615413   3.60  0.001290524    1.459    0.315
        70 -10.9273      5.8501     30.6105   2.9188640404e+02   7.3802029940e+00   0.01598253  0.005753415 -49.01  0.001231567    2.726    0.633
        71 -11.2955     21.1583     20.9428   2.9165380615e+02   7.4038438878e+00   0.01202878  0.009609942  28.83  0.001254677    1.270    0.213
        72 -15.2195    206.3290    177.2391   2.9047350718e+02   4.5286517536e+00   0.08145019   0.04196358 -72.99  0.005523521    2.279    0.561
        73 -15.1510    211.7575    162.9502   2.9032662942e+02   4.6623351842e+00    0.0560369   0.02668755 -57.12  0.003211545    1.971    0.493
        74 -11.5794     90.0367    197.1608   2.9191584998e+02   4.9701345324e+00  0.009303283  0.009063548  74.36 0.0003374681    1.044    0.042
        75 -11.3472     94.7541    188.3715   2.9180994005e+02   5.0446061127e+00   0.01176246  0.007200056  40.18 0.0007473242    1.654    0.395
        76 -10.2803     99.4826    180.5056   2.9170935925e+02   5.1083208698e+00   0.00649772  0.006358317 -57.92 0.0008104125    1.002    0.002
        77 -12.5054    172.4228    173.8961   2.9083940394e+02   4.7634731971e+00    0.0224803   0.01985438 -18.31  0.001769989    1.212    0.175
