#   1 NUMBER                 Running object number                                     
#   2 MAG_AUTO               Kron-like elliptical aperture magnitude                    [mag]
#   3 X_IMAGE                Object position along x                                    [pixel]
#   4 Y_IMAGE                Object position along y                                    [pixel]
#   5 X_WORLD                Barycenter position along world x axis                     [deg]
#   6 Y_WORLD                Barycenter position along world y axis                     [deg]
#   7 A_WORLD                Profile RMS along major axis (world units)                 [deg]
#   8 B_WORLD                Profile RMS along minor axis (world units)                 [deg]
#   9 THETA_WORLD            Position angle (CCW/world-x)                               [deg]
#  10 FWHM_WORLD             FWHM assuming a gaussian core                              [deg]
#  11 ELONGATION             A_IMAGE/B_IMAGE                                           
#  12 ELLIPTICITY            1 - B_IMAGE/A_IMAGE                                       
         1 -14.6754      5.7738     74.1995   1.0413879670e+02   6.1591196245e+01     1.598499     0.565139 -82.83  0.006300796    2.609    0.617
         2 -15.5056    181.2469     38.9030   3.3976609186e+01   3.4480079868e+01     1.016395     0.896817 -48.67  0.004092459    1.056    0.053
         3 -14.0827    209.6266      2.9311   2.1180175580e+01   3.1555462757e+01    0.4177989    0.3025846  40.57  0.002413518    1.772    0.436
         4 -12.0419    178.4648    194.5098   7.0544475225e+01   1.1278485663e+01    0.2714044    0.2097318  43.94 0.0006447588    1.530    0.347
         5 -15.7443    171.6216    220.0778   7.5554497135e+01   8.8064827388e+00     1.057502    0.6972107  46.19  0.006673234    1.856    0.461
         6 -15.1435    183.0835    214.1236   7.2604162084e+01   8.0551449423e+00     0.708997    0.4544593   1.79  0.004476694    1.604    0.377
         7 -15.6142    185.8980    245.4767   7.6222952457e+01   4.0546829724e+00     2.044176      1.08694  25.61   0.01371972    1.379    0.275
         8 -20.5276     72.8932    168.7231   9.1255457286e+01   3.1528434038e+01     12.36015     6.499086 -68.46   0.05981348    2.130    0.530
         9 -11.7623    181.2986    193.6518   6.9870389457e+01   1.0989759702e+01    0.3693259    0.1511096 -47.53  0.001643031    3.528    0.717
        10 -11.1102    163.5790    183.7459   7.1773027538e+01   1.5060879861e+01    0.1533489    0.1232121 -48.87 0.0009488051    1.596    0.374
        11 -13.0718    164.4966    235.6141   7.8864074244e+01   7.7681902037e+00    0.2663889    0.1816809 -22.32  0.001330296    1.692    0.409
        12 -11.4970    136.0101    226.9945   8.3354113473e+01   1.2541943602e+01    0.1681406    0.1283574  24.88            0    1.040    0.038
        13 -13.1003    155.0462    169.3556   7.1150705750e+01   1.8721479168e+01    0.2590119    0.2131619   2.16  0.001523121    1.212    0.175
        14 -10.9141     12.0751    233.9946   1.0968673018e+02   2.5333921919e+01    0.1774181   0.07418904  53.26    0.0010865    1.714    0.416
        15 -14.3708    238.3124    160.6255   5.4464751280e+01   7.0904690982e+00    0.3813921    0.2973704  32.50  0.002700242    1.429    0.300
        16 -11.2795    145.4578    224.9373   8.1228352013e+01   1.1596078077e+01    0.2389163    0.2207173 -14.23 0.0009913931    1.334    0.251
        17 -11.2294    145.7837    221.0610   8.0692301896e+01   1.2094025747e+01    0.1699212    0.1280653  11.46            0    1.245    0.197
        18 -11.3643     28.1527    145.3018   1.0184902111e+02   4.2000109674e+01    0.2890476    0.1699839  52.48  0.001516363    1.503    0.335
        19 -10.8158    123.4581    218.4604   8.4964474991e+01   1.5453897201e+01    0.2563829    0.2366233  75.68  0.001377066    1.415    0.293
        20 -12.4089    160.3811    128.1844   6.1844386164e+01   2.4933949025e+01     0.295235    0.2623641 -50.23  0.001680519    1.266    0.210
        21 -10.0610    218.3025    124.6318   5.0378896973e+01   1.4765784056e+01    0.1228276    0.0953126 -54.58 0.0007033751    1.743    0.426
        22 -11.9958     39.2970    123.4625   9.6134686332e+01   4.6272082204e+01    0.3869713     0.239398  13.49   0.00185468    1.936    0.483
        23 -11.0964    176.2751    120.1085   5.6712551371e+01   2.3211248925e+01    0.1872116    0.1689244 -29.04 0.0003338801    1.115    0.103
        24 -12.5241    123.1979    213.0912   8.4401694479e+01   1.6324698330e+01    0.4327883    0.3120266  46.79  0.002780803    1.362    0.266
        25 -11.5838    129.5359    216.4993   8.3463317455e+01   1.4939887046e+01    0.2690274    0.1663509  36.26  0.001132214    1.286    0.222
        26 -11.5880    127.6984    223.6244   8.4663384216e+01   1.4115250230e+01    0.2108048    0.1649526 -22.20   0.00100165    1.567    0.362
        27 -11.8335    167.3587    112.3411   5.6678748876e+01   2.6327235900e+01    0.2943439    0.2390383 -78.47  0.001093739    1.708    0.415
        28 -11.9824     29.1959    105.0269   9.7583678901e+01   5.1973243618e+01    0.2343363    0.1921412  20.86  0.000440149    1.328    0.247
        29 -12.0495     24.1777    104.8150   9.9502818525e+01   5.2460995279e+01    0.2594719    0.2429169 -31.80 0.0008841125    1.222    0.182
        30 -13.3157     99.7333    102.2048   7.1531949722e+01   4.2386751824e+01    0.4373261    0.3290423 -80.65 0.0008349949    1.674    0.403
        31 -11.4857    129.0000    220.0263   8.3986271705e+01   1.4479156435e+01    0.2045361    0.1605595 -51.23 0.0005326666    1.657    0.397
        32 -13.2635     36.0185     95.8782   9.3577347411e+01   5.3690979710e+01    0.3834776     0.334143 -44.75  0.001204264    1.233    0.189
        33 -11.9817    116.1288    224.8084   8.7190152163e+01   1.5442510808e+01    0.1983029    0.1432424  21.64 0.0005132751    1.237    0.192
        34 -10.5610      4.2265    224.3688   1.1109132803e+02   2.7638794059e+01    0.1440696   0.06665757  39.28 0.0008137414    1.481    0.325
        35 -11.6226    175.0385     89.9492   4.9490479271e+01   2.8467220704e+01     0.212229    0.2033893 -47.80 0.0004160238    1.080    0.074
        36 -14.2049    177.6853    230.9735   7.5866387364e+01   6.6863224061e+00    0.4158386    0.2742168 -13.53  0.001507042    1.642    0.391
        37 -10.4721    114.5481    233.3486   8.8377073311e+01   1.4365586381e+01    0.1158048   0.08379894  25.37 -1.575775e-05    1.145    0.126
        38 -12.3958    161.9989    197.9805   7.4302963695e+01   1.3161019599e+01    0.3041891    0.1729911 -37.53  0.001608691    2.000    0.500
        39 -12.9375    160.9828    211.6712   7.6457711699e+01   1.1353040976e+01    0.3284269    0.2210592 -20.39  0.001606288    1.710    0.415
        40 -13.5268    162.4405    205.8231   7.5354788840e+01   1.1969985119e+01    0.5339279    0.2113702 -38.68    0.0025123    2.970    0.663
        41 -14.5369     13.2613     59.8978   9.8399067368e+01   6.4900892526e+01    0.8845443    0.3880903   6.50  0.003144572    2.752    0.637
        42 -11.9165    182.8627     82.8747   4.6215643754e+01   2.7863083664e+01    0.2253781    0.1911389  10.31  0.001231576    1.304    0.233
        43 -14.9864    153.7384     74.1868   4.9275030711e+01   3.6002807172e+01     1.296671    0.8361142  23.69  0.004280803    2.250    0.555
        44 -14.2627    171.5065     54.5358   4.0081057735e+01   3.4770361121e+01    0.5596893    0.5052714 -44.84 0.0007446998    1.061    0.057
        45 -11.5543    112.8382     76.3122   6.0149710459e+01   4.5271771324e+01    0.3884738    0.2401568  58.70  0.001248694    1.789    0.441
        46 -15.5849    166.8712     61.1871   4.2859534405e+01   3.4920715296e+01     1.276786    0.9977834 -31.38  0.005250926    1.261    0.207
        47 -11.0794    147.8436    231.0112   8.1479695444e+01   1.0461859970e+01    0.1705053    0.1231346  11.03 0.0005655999    1.303    0.233
        48 -11.7973     83.1853    237.0998   9.5159882679e+01   1.7589858437e+01    0.1646782    0.1239095  36.56 0.0007087329    1.032    0.031
        49 -11.5612    152.5912    208.5820   7.7708064402e+01   1.2951528550e+01    0.2757829    0.1209287  39.29  0.001383446    1.950    0.487
        50 -12.9499      2.0282     54.1117   1.0387965244e+02   6.6898229512e+01    0.2974287    0.2049892 -73.33 0.0008908748    1.263    0.208
        51 -13.4022     12.1192    205.9746   1.0896819717e+02   3.0354275350e+01    0.5712124    0.2459526  20.49  0.002996752    2.397    0.583
        52 -11.7109     16.3017    202.3133   1.0790510046e+02   3.0701737207e+01    0.1523942    0.1038183  89.26  0.000643888    1.513    0.339
        53 -12.6072     37.2549    241.8092   1.0485068086e+02   2.1748851667e+01    0.2568356    0.2347437 -40.42  0.001509759    1.610    0.379
        54 -13.0557    192.4746    194.3988   6.7914999558e+01   9.3055184825e+00    0.7129714    0.4146988 -59.37  0.002793495    5.848    0.829
        55 -12.1733    211.0103    198.6470   6.5341556432e+01   6.2649196340e+00    0.2090774    0.1581818   7.43 0.0005445169    1.015    0.015
        56 -12.6688    189.5140     14.9880   2.5991796287e+01   3.5154736593e+01    0.2109361    0.1782582 -88.18 0.0007717051    1.158    0.136
