#   1 NUMBER                 Running object number                                     
#   2 MAG_AUTO               Kron-like elliptical aperture magnitude                    [mag]
#   3 X_IMAGE                Object position along x                                    [pixel]
#   4 Y_IMAGE                Object position along y                                    [pixel]
#   5 X_WORLD                Barycenter position along world x axis                     [deg]
#   6 Y_WORLD                Barycenter position along world y axis                     [deg]
#   7 A_WORLD                Profile RMS along major axis (world units)                 [deg]
#   8 B_WORLD                Profile RMS along minor axis (world units)                 [deg]
#   9 THETA_WORLD            Position angle (CCW/world-x)                               [deg]
#  10 FWHM_WORLD             FWHM assuming a gaussian core                              [deg]
#  11 ELONGATION             A_IMAGE/B_IMAGE                                           
#  12 ELLIPTICITY            1 - B_IMAGE/A_IMAGE                                       
         1 -16.5592     31.4636    132.1315   1.2939122826e+02   4.5455345216e+01     4.976506     3.812352  28.17   0.02962741    1.533    0.348
         2 -11.7991    179.6248     36.6755   6.5610191722e+01   3.6156063536e+01    0.9037184    0.6891695  70.16  0.005295873    1.161    0.138
         3 -10.8014    184.2240     29.7550   6.3287799741e+01   3.5936770058e+01    0.5914214    0.3640256 -30.44   0.00244278    1.943    0.485
         4 -12.6626     17.1794      4.5832   9.8778529944e+01   7.0835309722e+01      1.30306    0.7234478  24.55  0.008855409    1.591    0.372
         5 -10.3185    198.6361      4.9474   5.6005560646e+01   3.5375260235e+01    0.4507062    0.2684263  83.40  0.002647657    1.413    0.293
         6  -7.9955     70.4663     14.4756   8.2144566194e+01   6.2244507996e+01    0.1186613    0.0971128  25.19 1.540813e-06    1.030    0.029
         7 -12.4935    235.4251    248.5301   1.0142955160e+02  -1.2544058093e+01    0.5261276    0.5198207 -13.23 0.0001438975    1.534    0.348
         8 -13.9074    248.0756    244.7296   9.8490709613e+01  -1.3668803697e+01     5.438951     1.469469 -43.28   0.02058499    4.317    0.768
         9  99.0000     86.3566    213.9988   1.2736318366e+02   1.8305249732e+01     3.649772    0.9442034  46.47   0.01176136    3.679    0.728
        10 -14.9144     99.3971    243.0677   1.2819331740e+02   9.9440990660e+00      1.91161     1.014858  63.80  0.008696653    2.237    0.553
        11 -16.0049    103.1025    232.1398   1.2604633237e+02   1.1624095090e+01     6.083773     3.399581  18.64  0.004545444    3.468    0.712
        12 -13.8611     90.0796    247.9094   1.3066355998e+02   1.0408419805e+01     7.536845     1.657364  34.01   0.01619153    6.982    0.857
        13  99.0000     49.4802    215.5906   1.3566749762e+02   2.3193541546e+01     1.605399     1.398471 -67.27   0.01036902    1.298    0.230
        14 -16.4546     72.7783    245.4064   1.3388317173e+02   1.3488106838e+01     1.482032    0.7994905 -62.24  0.007828902    1.950    0.487
        15 -17.6641     62.7796    240.6923   1.3541576943e+02   1.5885078407e+01     3.340756     1.804465  45.16   0.01509291    1.629    0.386
        16 -12.4535     62.4530    194.5413   1.3033051549e+02   2.6429242889e+01    0.2433513    0.2030345  79.10  0.001419171    1.074    0.069
        17 -11.8493     49.9206    197.5350   1.3360587123e+02   2.7364304142e+01    0.3847078    0.3080673  71.30  0.002137296    1.129    0.114
        18 -11.9254     53.5703    197.5387   1.3276982149e+02   2.6895182298e+01    0.1930116    0.1680641 -83.39 0.0001882476    1.091    0.083
        19  99.0000     40.3776    198.6177   1.3588303512e+02   2.8276256597e+01    0.4683809     0.291053 -87.19  0.002512006    1.483    0.326
        20 -12.0119     44.5024    197.5100   1.3483502824e+02   2.8043711920e+01    0.2135137    0.1669233  53.12  0.001024196    1.268    0.211
        21 -12.7972     63.4374    210.3807   1.3205392916e+02   2.2529736038e+01    0.4334055    0.1806703 -55.07  0.001833819    2.483    0.597
        22 -12.7898     59.7973    210.1787   1.3283874333e+02   2.3077862679e+01    0.3646412    0.1905677 -49.63  0.001673017    2.314    0.568
        23 -13.2266     61.5741    203.3721   1.3163859523e+02   2.4434683759e+01     0.735705    0.3927972 -76.51   0.00343843    1.872    0.466
        24 -11.2561     57.5014    199.5023   1.3210194786e+02   2.5907480341e+01     0.193631    0.1846985  47.71  0.001222053    1.267    0.211
        25 -11.1740     76.9262    211.3141   1.2914359973e+02   2.0365484529e+01    0.2211888    0.1732286 -77.87 0.0001980272    1.211    0.174
        26 -10.0191     90.7288    205.7278   1.2522594336e+02   1.9533198809e+01    0.3808572     0.357575  24.93  0.001494452    1.279    0.218
        27 -10.4463     53.9492    208.2399   1.3391399529e+02   2.4312600161e+01    0.1340863    0.1022657 -86.93 0.0003038584    1.153    0.133
        28 -12.9656     76.5268    205.4679   1.2847830552e+02   2.1793469865e+01    0.4692616    0.2460537 -79.99  0.001997473    2.255    0.557
        29 -13.1701     78.7146    202.6647   1.2759692954e+02   2.2127999309e+01    0.5562784    0.2372678  36.69  0.002277225    2.358    0.576
        30 -11.3889     17.3436    206.3065   1.4154793615e+02   2.9014162961e+01    0.1245958   0.09208749 -67.18 0.0007332672    1.352    0.261
        31 -15.5943     94.0869    221.0978   1.2657173251e+02   1.5478500035e+01     5.225797     3.021568 -27.17   0.01784847    4.733    0.789
        32 -11.3743     70.2604    198.9793   1.2907724000e+02   2.4258791032e+01    0.2004397    0.1763888  66.03 0.0003386656    1.089    0.082
        33  99.0000     20.2049    193.7807   1.3985393616e+02   3.1621326983e+01    0.1992768     0.112492  57.35 0.0003692613    1.720    0.419
        34  99.0000     27.0413    194.3754   1.3841228357e+02   3.0777252577e+01    0.2453654     0.171504 -52.32  0.001430552    1.629    0.386
        35  99.0000     20.3955    198.8327   1.4027025582e+02   3.0423592558e+01    0.2566112    0.1567497 -61.06   0.00146495    1.597    0.374
        36  99.0000     23.4898    196.2155   1.3936568216e+02   3.0716622046e+01    0.4944719    0.1162998 -67.69  0.001840292    3.261    0.693
        37 -11.2922     82.9637    197.9630   1.2594144565e+02   2.2599634726e+01     0.203023    0.1810893  84.23   0.00116669    1.011    0.011
        38 -13.3216     72.7374    221.0299   1.3125401609e+02   1.8760482775e+01    0.8626457    0.5587091   3.63  0.003520798    3.705    0.730
        39 -10.3889     57.0303    192.8630   1.3139306975e+02   2.7567671989e+01    0.3807686    0.2001368  84.66  0.001578227    2.484    0.597
        40 -10.8810     76.8885    192.3838   1.2659472586e+02   2.4875253992e+01    0.2061888    0.1742438 -79.46 0.0002817093    1.094    0.086
        41 -10.4285     50.9911    192.2983   1.3273914029e+02   2.8487715855e+01    0.1551546    0.1284106  49.26 0.0002950777    1.261    0.207
        42 -10.9777     45.6361    190.7375   1.3380201442e+02   2.9530843183e+01    0.5946306    0.3552163  22.59  0.002924289    2.277    0.561
        43  -8.6600      1.5919    193.0000   1.4374348369e+02   3.3520417759e+01    0.1590393   0.06695579  28.57 0.0007882769    2.845    0.649
        44  99.0000     35.5089    190.0042   1.3605777376e+02   3.0893050792e+01    0.2647767    0.1848864  78.44  0.001509044    1.326    0.246
        45 -12.4898     63.1715    184.8822   1.2886592258e+02   2.8687685978e+01    0.3848311    0.2119474 -55.37  0.001794049    1.765    0.433
        46  -9.8932     82.9162    185.4704   1.2408994489e+02   2.5643577941e+01    0.2396294    0.1840191  78.91 0.0005263537    1.339    0.253
        47 -12.5033     36.8174    184.1271   1.3509888612e+02   3.2163156933e+01    0.4161337    0.2010265  34.70  0.001994017    2.223    0.550
        48  -8.7555     31.0000    182.9926   1.3633405121e+02   3.3073962240e+01    0.2608708    0.1513395 -76.52  0.000586247    1.483    0.326
        49 -11.5301     43.0472    183.2178   1.3351571970e+02   3.1667231799e+01    0.1914123    0.1615578 -81.20 0.0004452322    1.048    0.046
        50 -11.5299     16.5195    182.4859   1.3960710288e+02   3.4641934952e+01     0.127022    0.1011927 -84.37 0.0001613992    1.028    0.028
        51  99.0000     19.1280    179.8059   1.3874869042e+02   3.5034325762e+01    0.2152863    0.1482788 -46.66 0.0002816716    1.715    0.417
        52 -11.2865     50.2839    180.1261   1.3137679889e+02   3.1548078007e+01    0.1891158    0.1687756 -76.89 0.0003321056    1.100    0.091
        53  -9.5649     63.3229    179.8930   1.2812524000e+02   2.9898973011e+01    0.1257079   0.07828061  46.35 0.0001734638    1.622    0.384
        54  -8.3647     88.1198    176.4983   1.2132938423e+02   2.7036971422e+01    0.4574423    0.2615492 -31.81  0.001706318    2.978    0.664
        55 -10.3983      5.9607    176.9330   1.4146783930e+02   3.6881525124e+01   0.09464781   0.06761867 -80.03            0    1.100    0.091
        56  -9.6184    249.3869    174.4842   8.5230314436e+01  -2.5402655437e+00    0.3220325     0.210937  14.26  0.001609561    2.115    0.527
        57 -11.6808     39.3493    172.2054   1.3304720781e+02   3.4792603859e+01    0.2412862    0.2369415  79.55  0.001370543    1.228    0.186
        58  -9.5889    175.3588    172.1589   9.9181161305e+01   1.1534846445e+01    0.3174857     0.296569 -40.34 0.0006979402    1.055    0.052
        59 -10.2783    241.5272    171.6271   8.5999197049e+01  -7.4169321522e-01    0.2628797    0.2453405  33.09 0.0008865067    1.220    0.180
        60  -7.7480    196.5862    171.0358   9.4392873978e+01   7.5585262656e+00    0.2235588    0.1390527 -45.54  0.001001301    1.553    0.356
        61  -8.2818     91.7949    170.9646   1.1942569430e+02   2.7814047877e+01    0.2230458    0.2016036 -73.77 0.0006046474    1.044    0.042
        62  -9.0429     24.1819    168.8109   1.3636882186e+02   3.7200811085e+01    0.2032453    0.1391814  51.47  0.001169684    1.535    0.348
        63  -7.7179    155.4552    168.4580   1.0295836604e+02   1.6401116030e+01    0.1530941    0.1506968 -84.49 0.0001966739    1.010    0.010
        64  -8.4926     38.3835    166.0531   1.3249089098e+02   3.6416574045e+01    0.1742847    0.1291735 -72.01 0.0002978862    1.151    0.131
        65  -9.8175     97.5726    162.8576   1.1641649984e+02   2.8861531471e+01    0.4461862     0.319902 -49.37  0.001241864    1.391    0.281
        66 -12.2227     81.6245    223.4114   1.2960506004e+02   1.6903321863e+01    0.2537391    0.1916833  64.99  0.001246787    1.200    0.167
        67  -8.7042    188.8050    154.0045   9.2334800618e+01   1.2711097824e+01     0.254358    0.1739012 -71.11  0.001066375    2.028    0.507
        68  -9.3579    241.9340    161.6173   8.3907339695e+01   1.0277118227e+00    0.2311319     0.170093 -30.07  0.000564418    1.281    0.219
        69  -8.4899    182.6520    138.2871   9.0076073278e+01   1.7383113232e+01    0.1571817    0.1215251 -88.91 0.0004353506    1.657    0.396
        70  -9.3430    161.6204    128.2902   9.2358614861e+01   2.4186734970e+01    0.4299848    0.3099152 -81.47  0.001820129    1.901    0.474
        71  -7.9201     82.0999    163.5931   1.2066267853e+02   3.1220389592e+01    0.2074667    0.1438182  37.39 0.0003606341    1.527    0.345
        72  -7.5142    161.6893    112.2769   8.8375353500e+01   2.7601736657e+01    0.1549786    0.1210962 -87.46 0.0001762953    1.558    0.358
        73  -7.7396    211.1408    159.8582   8.9108044568e+01   7.0084451337e+00    0.1980454    0.1679827 -14.01 0.0008296631    1.285    0.222
        74  -9.1947    196.6135    107.0470   7.9946602384e+01   2.0686269682e+01      0.27268    0.2192841  57.65 0.0005109138    1.284    0.221
        75  -7.8998    134.8627    105.8199   9.3144653742e+01   3.4988586255e+01    0.2129747    0.1846342 -89.52  0.001053023    1.307    0.235
        76  -8.2351    181.0302    104.9819   8.2438424250e+01   2.4637810751e+01    0.2272148    0.2093604 -79.65 0.0003617659    1.050    0.048
        77  -8.8309    170.0547    158.2721   9.7375277456e+01   1.5690762700e+01    0.2124733    0.1996742  53.31 0.0003793114    1.088    0.081
        78  -7.5629    122.6390     96.2650   9.3755083682e+01   3.9609227943e+01    0.1514029    0.1193347  80.86 0.0006986925    1.639    0.390
        79  -7.9645    134.1638     93.8604   9.0086517895e+01   3.7588994158e+01    0.2029153    0.1776664  -5.61 0.0004314996    1.321    0.243
        80  -8.5414     95.1203     93.7821   1.0093988879e+02   4.5579345803e+01     0.215731    0.2006439 -87.79  0.000925583    1.255    0.203
        81  -7.9972    112.8119     88.7661   9.4340632929e+01   4.3160838026e+01    0.1923412    0.1736721  82.39  0.000447741    1.283    0.220
        82  -8.5821    109.9805     84.0652   9.3779547053e+01   4.4650667435e+01    0.2114866     0.204004  11.25  0.001202851    1.003    0.003
        83  -7.6513     71.4485    163.4750   1.2347571353e+02   3.2855808262e+01    0.1458634     0.130513 -81.86 0.0002016145    1.024    0.023
        84  -7.7511    104.5366     82.5158   9.4888546773e+01   4.6035388505e+01    0.1444134     0.136239   3.82 9.620134e-05    1.032    0.031
        85  -8.4489    160.0074     76.8005   7.9478126088e+01   3.4805825877e+01    0.2022903    0.1902637  77.55 0.0004404249    1.004    0.004
        86  -8.2504    101.3147    156.8397   1.1424076436e+02   2.9707652854e+01    0.2786285    0.2116643  40.82 0.0006316024    1.359    0.264
        87  -8.4847    104.7002    154.1573   1.1278692959e+02   2.9768615906e+01    0.3206733    0.2378006  74.31 0.0009776977    1.642    0.391
        88  99.0000     27.4989    211.5755   1.3990288647e+02   2.6738351693e+01     2.742429     1.101149 -70.74   0.01119759    2.134    0.531
        89  -8.8527    155.3157     64.9868   7.7240765088e+01   3.7878648674e+01     0.196338    0.1846369 -52.92 0.0004485046    1.118    0.105
        90  -8.7603    173.9688     57.5273   7.1763596194e+01   3.4605834578e+01    0.2742931    0.1735173  16.95  0.001042583    3.505    0.715
        91  -8.4857    144.8493     56.9498   7.7165448569e+01   4.1575248186e+01    0.2260484     0.189246  31.98  0.001245871    1.311    0.237
        92 -10.8338    159.5280     53.7210   7.3350775338e+01   3.8597738301e+01    0.5368544    0.2873973  44.58  0.002247604    2.013    0.503
        93 -10.9473    166.1025     50.3082   7.1250729284e+01   3.7527134143e+01    0.4685134     0.324262  62.29  0.001121526    1.318    0.241
        94 -10.1950    171.9784     48.4389   6.9763561424e+01   3.6394982209e+01    0.2804773    0.2277519 -78.25 0.0003454223    1.234    0.189
        95  -8.0166    127.1084     54.7305   8.0487893679e+01   4.5959218661e+01    0.1943574    0.1607549  47.75  0.000292274    1.116    0.104
        96  -9.6332      7.8697    220.9048   1.4450450896e+02   2.6709034976e+01     0.100864   0.06811143   6.61 0.0005462443    2.881    0.653
        97  99.0000     10.8719    216.0000   1.4358675640e+02   2.7487529365e+01    0.3032526   0.06427019  30.62  0.001087175    5.265    0.810
        98  -7.5459    222.3255     37.6760   6.0485290933e+01   2.6273459999e+01    0.1371964   0.08052699 -70.93 0.0007048522    1.689    0.408
        99 -11.3516     68.1838    213.4629   1.3136321238e+02   2.1145576561e+01    0.1998367    0.1535784 -75.61 0.0003317104    1.227    0.185
       100 -12.3583     69.6041    208.5374   1.3044904981e+02   2.2087510849e+01    0.2261882    0.1924362  82.93  0.001095389    1.024    0.024
