#   1 NUMBER                 Running object number                                     
#   2 MAG_AUTO               Kron-like elliptical aperture magnitude                    [mag]
#   3 X_IMAGE                Object position along x                                    [pixel]
#   4 Y_IMAGE                Object position along y                                    [pixel]
#   5 X_WORLD                Barycenter position along world x axis                     [deg]
#   6 Y_WORLD                Barycenter position along world y axis                     [deg]
#   7 A_WORLD                Profile RMS along major axis (world units)                 [deg]
#   8 B_WORLD                Profile RMS along minor axis (world units)                 [deg]
#   9 THETA_WORLD            Position angle (CCW/world-x)                               [deg]
#  10 FWHM_WORLD             FWHM assuming a gaussian core                              [deg]
#  11 ELONGATION             A_IMAGE/B_IMAGE                                           
#  12 ELLIPTICITY            1 - B_IMAGE/A_IMAGE                                       
         1  -9.3671    164.0000     65.0035   2.9032994246e+02   6.0437105854e+00   0.01106766   0.00374478 -61.76 0.0008020292    2.940    0.660
         2  -8.5088     75.9334    250.5092   2.9249121978e+02   4.4363741286e+00   0.01018787  0.006509354  27.46 0.0009631735    1.571    0.363
         3 -10.2838     65.8794    248.7454   2.9259645099e+02   4.5167961507e+00     0.021124   0.01477044  46.05  0.001807297    1.496    0.332
         4 -10.2268     51.4590    249.8752   2.9276984949e+02   4.5899466840e+00   0.02344104   0.01166165  29.07   0.00182194    1.986    0.496
         5 -12.6095     24.4127    229.9325   2.9295987661e+02   4.9811712476e+00    0.0927212   0.04817757  52.14  0.008006859    2.395    0.583
         6 -11.0643     13.7381    211.9136   2.9297269779e+02   5.2524596319e+00   0.05382922   0.01408209  45.34  0.002989741    5.533    0.819
         7 -11.7137     35.1779    248.2721   2.9294798392e+02   4.7056342387e+00   0.08164068   0.03846941  53.94  0.006340158    3.015    0.668
         8 -11.9810      8.0397    215.0744   2.9305792006e+02   5.2500226102e+00    0.1127021   0.03003471  44.47  0.006670458    4.856    0.794
         9 -11.5388     10.7350    226.3047   2.9309562336e+02   5.1045555817e+00   0.05325393   0.03056612  74.39  0.004318296    2.994    0.666
        10 -11.9210      4.8501    227.0413   2.9316811406e+02   5.1311541532e+00   0.06056498   0.03343048 -77.34  0.005321742    2.348    0.574
        11 -10.3822     26.1095    249.1081   2.9305780513e+02   4.7501217720e+00   0.02365667   0.01669622  44.17  0.001484318    1.461    0.316
        12 -11.9176     14.5127    240.3746   2.9313820502e+02   4.9199181152e+00   0.04638403   0.03300773  44.47  0.004994877    1.451    0.311
        13 -11.1651      5.9318    235.7093   2.9320872277e+02   5.0248331796e+00   0.04075555   0.01740688  36.96  0.003461891    2.261    0.558
        14 -12.6300      6.6078    246.3418   2.9326602925e+02   4.8982978353e+00   0.08846103   0.05764903  12.58  0.008874672    1.766    0.434
        15 -10.7361     18.7139    249.0593   2.9314289187e+02   4.7948022373e+00   0.02248909    0.0179439  27.97  0.001957546    1.256    0.204
        16 -10.2072    243.5423    235.1616   2.9046371940e+02   3.6080222106e+00   0.01561936   0.01013684 -23.10  0.001498609    1.984    0.496
        17 -10.8063    242.6392    246.0294   2.9054114236e+02   3.4884520906e+00   0.02171158   0.01112925 -59.24  0.001995969    1.897    0.473
        18 -10.4725    240.5650    239.6802   2.9052588241e+02   3.5739408627e+00   0.01277023   0.01072264 -55.60   0.00135968    1.174    0.148
        19 -10.7461    231.9251    245.4837   2.9066119372e+02   3.5590916221e+00   0.02195695   0.01284394 -32.53   0.00201364    2.116    0.527
        20  -9.0418    218.0031    246.4762   2.9082771680e+02   3.6312893933e+00   0.01536891    0.0067118 -45.07  0.001256662    2.431    0.589
        21  -8.7583     57.5468    247.4865   2.9268491989e+02   4.5810941416e+00    0.0115039  0.005577668  39.17 0.0005968267    2.047    0.512
        22 -10.7354    248.8748    244.2809   2.9045854404e+02   3.4710967599e+00   0.01991659   0.01833988 -84.54  0.002272202    1.138    0.121
        23 -10.3304    247.4320    238.8356   2.9044157810e+02   3.5423921600e+00    0.0170169   0.01231772   9.01  0.001366545    1.564    0.361
        24 -10.2042     44.9794    244.7863   2.9281345160e+02   4.6872707936e+00   0.02150645   0.01340051  40.05  0.001463104    1.614    0.380
        25  -9.0979    225.1303    242.1540   2.9071895222e+02   3.6382076792e+00   0.01093611  0.009060967 -25.95  0.001249925    1.298    0.229
        26  -9.8492     53.8404    239.7584   2.9268030419e+02   4.6922633208e+00   0.02058322   0.01399868  62.26  0.001737637    1.809    0.447
        27  -8.9655     73.5572    239.5172   2.9245117838e+02   4.5771937864e+00   0.01565088  0.008942175  59.41  0.001367993    2.388    0.581
        28  -9.8385     44.6965    236.8566   2.9276808607e+02   4.7803136346e+00   0.02018948   0.01235032  56.16  0.001600751    2.000    0.500
        29  -9.4465    237.1444    235.1390   2.9053728157e+02   3.6467276606e+00   0.01274649  0.007357599 -52.48  0.001233414    1.679    0.404
        30  -8.1863     81.3619    235.7068   2.9233767523e+02   4.5744071253e+00  0.007067753  0.004897883  59.00 0.0007029636    1.703    0.413
        31  -8.6917     39.0469    235.0728   2.9282238610e+02   4.8345997401e+00   0.01069093  0.007661899  60.27 0.0007445241    1.634    0.388
        32  -9.7672    249.5020    229.9917   2.9036318009e+02   3.6316647332e+00   0.01868893  0.006011795 -47.96   0.00133388    3.146    0.682
        33  -9.3765     62.6263    230.9016   2.9252449775e+02   4.7417871068e+00   0.02375266   0.01105007  51.21  0.001885928    2.796    0.642
        34  -9.4761     48.2590    229.8036   2.9268367561e+02   4.8402876139e+00   0.01910024    0.0115883  63.01  0.001666375    2.253    0.556
        35  -9.4826     39.9293    229.1472   2.9277584880e+02   4.8975988560e+00   0.01540852   0.01009226  48.15  0.001482056    1.644    0.392
        36  -8.9427    245.6009    229.2156   2.9040332682e+02   3.6640376317e+00  0.009499435  0.005839569 -50.00 0.0004778993    1.597    0.374
        37  -9.7819    235.4525    227.6031   2.9051029266e+02   3.7435773382e+00   0.01708398   0.00953613 -44.97  0.001562243    1.845    0.458
        38  -8.8051    229.4717    227.2630   2.9057710877e+02   3.7834293621e+00   0.01283201  0.005963898 -55.60  0.001120641    2.042    0.510
        39 -10.1793    248.2473    224.2991   2.9034250773e+02   3.7046768111e+00   0.01616917   0.01323458  -8.75  0.001524687    1.364    0.267
        40  -8.4120    223.6924    225.6267   2.9063361685e+02   3.8369797049e+00  0.007253544  0.004821319 -30.29 0.0007031946    1.770    0.435
        41  -8.7542     54.7106    221.7169   2.9255952627e+02   4.8949031804e+00   0.01463723  0.006581272  47.30  0.001178399    2.598    0.615
        42 -10.0985    240.2014    219.6485   2.9040650145e+02   3.8065348025e+00   0.01813737   0.01023478 -41.27  0.001693636    1.922    0.480
        43  -8.8071     44.9819    220.2955   2.9266317210e+02   4.9694011564e+00   0.01401358  0.008415515  79.21  0.001187303    2.664    0.625
        44  -9.6483     29.5372    221.4821   2.9284886123e+02   5.0479493665e+00   0.01192212  0.005459464  39.18  0.001021935    2.164    0.538
        45 -10.7428    247.4614    205.9510   2.9023830894e+02   3.9204317886e+00   0.01886724   0.01293473 -61.21  0.001654865    1.449    0.310
        46  -9.9784    249.8821    199.9864   2.9017358904e+02   3.9744727086e+00   0.02150154  0.008377762 -55.67  0.001463947    2.389    0.581
        47 -10.7937    247.4526    216.3981   2.9030290183e+02   3.8003274285e+00   0.02268831    0.0138443 -59.54  0.002096035    1.609    0.378
        48  -9.9559    250.0000    211.4344   2.9024291619e+02   3.8420988258e+00   0.01776413   0.00937955 -61.45  0.001643861    1.880    0.468
        49  -9.3977     34.0973    217.3484   2.9277082128e+02   5.0683526775e+00   0.01365839  0.008954749 -86.43  0.001315195    1.975    0.494
        50 -10.2315     37.7505    240.6497   2.9287155423e+02   4.7780909654e+00   0.02803001   0.01544728  38.99  0.002670103    1.807    0.447
        51  -8.8241    232.7343    212.8407   2.9045053345e+02   3.9297310397e+00   0.01561306  0.005994871 -64.50  0.001191817    2.778    0.640
        52 -10.1356     22.4782    211.0063   2.9286614589e+02   5.2107723679e+00   0.01344503  0.008646688  43.81  0.001061525    1.609    0.379
        53 -10.7692    240.3643    206.8390   2.9032556469e+02   3.9528957656e+00   0.01945384   0.01028848 -70.47  0.001725839    2.171    0.539
        54  -8.8105     35.9807    208.1768   2.9269276976e+02   5.1627749672e+00   0.01176059  0.006894782  54.28  0.001077839    2.075    0.518
        55  -8.4952     17.5196    206.4777   2.9289565793e+02   5.2925340352e+00  0.006535723  0.006453661 -32.85 7.989686e-05    1.002    0.002
        56 -10.0345      6.4515    205.4467   2.9301723459e+02   5.3704223742e+00   0.01413608   0.01168943  64.90  0.001617757    1.344    0.256
        57  -9.6214     12.4396    203.8877   2.9293847173e+02   5.3526774527e+00   0.01514919   0.01092742  76.69  0.001382942    1.752    0.429
        58  -8.8643      1.4461    204.7417   2.9307075528e+02   5.4083850184e+00   0.01237963  0.006658864 -67.63  0.001122069    2.000    0.500
        59  -9.2612    235.3830    202.8015   2.9035804317e+02   4.0292906063e+00   0.01002896  0.005729402 -50.73 0.0009559824    1.708    0.415
        60 -10.7525    243.4572    199.5586   2.9024497557e+02   4.0180364972e+00   0.01911883    0.0117667 -35.39  0.001842429    1.869    0.465
        61  -9.1376      3.2911    196.6687   2.9299991774e+02   5.4904041924e+00   0.01229889  0.008351974 -77.52  0.001246137    1.693    0.409
        62  -8.0172     14.3155    196.6572   2.9287242541e+02   5.4247951991e+00  0.007028876  0.005001708  64.92 0.0007048108    1.711    0.415
        63 -11.7762    243.4832    181.0193   2.9013016336e+02   4.2311156260e+00   0.02575871   0.01640861 -36.97   0.00256007    1.744    0.427
        64 -11.2933    247.4483    191.2965   2.9014795972e+02   4.0890573018e+00   0.02669535   0.01574785 -52.25  0.002407567    1.646    0.392
        65 -10.4289    249.2895    184.6895   2.9008592784e+02   4.1539674496e+00   0.01593772   0.01313265 -58.20   0.00150453    1.199    0.166
        66 -11.4885    243.8416    186.9166   2.9016246692e+02   4.1611307658e+00   0.02835864   0.01074191 -44.94  0.002144597    2.894    0.654
        67  -9.7234    100.9794    175.9816   2.9174373876e+02   5.1448690302e+00  0.009223847  0.009037036  71.92            0    1.047    0.045
        68 -10.6398    242.2785    153.6886   2.8997511879e+02   4.5526939967e+00   0.01314278   0.01222411 -79.12  0.001259697    1.111    0.100
        69 -11.6403    246.3245    167.7542   2.9001544097e+02   4.3665785371e+00   0.02767194    0.0191675  68.32  0.002790251    1.842    0.457
        70 -10.8436    247.5150    161.8946   2.8996549619e+02   4.4267987363e+00   0.01792248   0.01545954 -40.44  0.002122107    1.169    0.145
        71 -11.4083    246.2731    156.3814   2.8994572227e+02   4.4976767636e+00   0.03397822   0.01098414 -50.80  0.002521624    2.913    0.657
        72 -10.7062    249.9980    153.3677   2.8988415167e+02   4.5099049286e+00   0.03618919   0.01180208 -65.98  0.002453886    3.638    0.725
        73 -10.3538    238.1113    158.6712   2.9005396693e+02   4.5204766366e+00   0.01190366  0.009307319 -77.24 0.0007945785    1.392    0.282
        74 -11.2354    247.1535    116.3786   2.8968807128e+02   4.9523241964e+00   0.03373829   0.01494824 -56.42   0.00291837    2.136    0.532
        75 -11.9367    248.5102    129.4624   2.8975341357e+02   4.7937323981e+00   0.06297938   0.01800096 -63.55  0.004163495    3.775    0.735
        76 -11.6114    245.1178    146.4631   2.8989770308e+02   4.6186879935e+00   0.03751475   0.02110882 -33.29   0.00335829    2.232    0.552
        77 -11.0580    243.4770    139.8053   2.8987543703e+02   4.7051276399e+00   0.03039795  0.009550906 -52.46  0.002248872    2.911    0.656
        78 -10.6253    242.3150    133.3035   2.8984860835e+02   4.7868877032e+00   0.02452631   0.01313492 -56.14  0.002312792    1.795    0.443
        79 -10.9848    234.8936    145.4880   2.9000955150e+02   4.6914635439e+00   0.01842699   0.01226746 -60.42  0.001919064    1.485    0.327
        80  -8.2298    223.6681    145.6900   2.9014025930e+02   4.7567142131e+00  0.007021511  0.004961261 -25.56 0.0007042418    1.671    0.402
        81 -10.0993    238.8853    139.7411   2.8992798038e+02   4.7335185157e+00   0.01911519  0.007761448 -54.11  0.001581623    2.306    0.566
        82  -8.5787    217.0000    136.0193   2.9015737798e+02   4.9080788846e+00   0.01099499  0.003745334 -61.75 0.0007990433    2.919    0.657
        83 -10.8147    232.6566    131.6470   2.8994973701e+02   4.8641036462e+00   0.02630391   0.01239948 -58.13  0.002331875    2.036    0.509
        84  -8.7178    225.5673    133.2587   2.9004147392e+02   4.8882558422e+00  0.009634562  0.005904369 -49.97  0.000949141    1.603    0.376
        85  -8.9087    219.7593    127.2294   2.9007117724e+02   4.9925641665e+00   0.01238174  0.008239485 -65.39   0.00121275    1.539    0.350
        86 -11.0242    239.2090    122.3971   2.8981693463e+02   4.9309982216e+00   0.03274067   0.01548754 -54.46  0.002919222    2.010    0.502
        87  -9.0829    227.0242    123.4843   2.8996419827e+02   4.9918883058e+00   0.01400598  0.008646412 -44.71  0.001387082    1.657    0.397
        88  -9.2592    218.9181    115.8717   2.9001061058e+02   5.1282423221e+00    0.0175746  0.008277115 -50.71  0.001545654    2.056    0.514
        89 -10.2057    231.0847    114.0525   2.8985898767e+02   5.0758828045e+00   0.02339672  0.009884423 -61.06  0.001946381    2.330    0.571
        90 -11.0632    241.0242    109.1790   2.8971417736e+02   5.0720253422e+00   0.02418712  0.009820476 -59.28  0.001991435    2.361    0.576
        91  -9.1052    230.1145    102.5933   2.8979924015e+02   5.2134725512e+00   0.01440014  0.007660765 -45.41  0.001318119    1.935    0.483
        92  -7.8421    213.3353    105.3151   2.9000970010e+02   5.2832500766e+00  0.007063093  0.004952676 -25.71 0.0003637059    1.691    0.409
        93  -8.6317    221.7594    103.9542   2.8990406320e+02   5.2481618620e+00  0.009114014   0.00550208 -60.16 0.0008884448    1.632    0.387
        94  -9.0132    146.4617     67.5302   2.9054833223e+02   6.1201192826e+00  0.006525428  0.006451096 -34.18 0.0002016033    1.001    0.001
