#   1 NUMBER                 Running object number                                     
#   2 MAG_AUTO               Kron-like elliptical aperture magnitude                    [mag]
#   3 X_IMAGE                Object position along x                                    [pixel]
#   4 Y_IMAGE                Object position along y                                    [pixel]
#   5 X_WORLD                Barycenter position along world x axis                     [deg]
#   6 Y_WORLD                Barycenter position along world y axis                     [deg]
#   7 A_WORLD                Profile RMS along major axis (world units)                 [deg]
#   8 B_WORLD                Profile RMS along minor axis (world units)                 [deg]
#   9 THETA_WORLD            Position angle (CCW/world-x)                               [deg]
#  10 FWHM_WORLD             FWHM assuming a gaussian core                              [deg]
#  11 ELONGATION             A_IMAGE/B_IMAGE                                           
#  12 ELLIPTICITY            1 - B_IMAGE/A_IMAGE                                       
         1 -14.2647     24.7585     49.0781   9.7419923541e+01   6.4223044494e+01     3.348825     1.394121 -24.37    0.0128798    3.751    0.733
         2 -16.1189     57.6011     70.8059   9.1138049249e+01   5.6127022790e+01     3.400138     1.702258  37.92   0.01552089    2.241    0.554
         3 -14.4801     67.3506     45.7794   7.8759357031e+01   5.9511042361e+01     2.277122     1.369409  65.18  0.008162819    4.698    0.787
         4 -11.9286     32.3893      3.6742   7.4197856769e+01   7.0757280453e+01    0.6052537    0.2667992  28.82   0.00314915    2.254    0.556
         5 -12.0510     28.3742     11.0100   8.0000797365e+01   7.0328491521e+01    0.3461407    0.2543317 -25.98  0.001045965    1.244    0.196
         6 -14.9828      7.8570     21.3327   9.5443236943e+01   7.0702285802e+01      1.87768    0.6379676 -41.60  0.008920479    2.189    0.543
         7 -15.5149     96.3478     71.1041   7.7988256735e+01   4.9694486065e+01     1.876566     1.625395  60.63  0.006069834    1.375    0.273
         8 -11.8648    217.5889     38.5982   4.3361201985e+01   2.6320026141e+01    0.3699604    0.2566852  51.60   0.00198199    1.630    0.386
         9 -14.7976     36.6595     82.2553   1.0202138060e+02   5.6017761567e+01     2.362875    0.9129799 -55.88    0.0101737    2.083    0.520
        10 -12.7454     83.3383     22.7129   6.3729287250e+01   6.0007153341e+01    0.5642612    0.4415308  48.49 0.0007668107    1.327    0.246
        11 -12.7765    104.7071      4.7312   5.0539405413e+01   5.7290422458e+01    0.6447714    0.6115826  84.99  0.004282021    1.236    0.191
        12 -12.8447    111.7294      3.5510   4.8586040656e+01   5.5792291394e+01       1.0923    0.5106493 -40.07  0.003610669    2.559    0.609
        13 -12.5688     75.7119     13.4225   6.2050876738e+01   6.2555324545e+01    0.4669146    0.3347099 -25.79 0.0009916315    1.441    0.306
        14 -13.6985     85.1093     11.8128   5.8478889398e+01   6.0858848572e+01      1.39313    0.5779956  51.00  0.005961366    2.138    0.532
        15 -13.6042     86.2652      3.5345   5.4524038071e+01   6.1386344005e+01     1.501935    0.4331014  57.73  0.005746626    3.168    0.684
        16 -11.7589     64.4573     18.1613   6.8076919814e+01   6.4074170066e+01    0.4239539    0.2686991  34.02  0.001369266    1.458    0.314
        17 -11.9751    186.7101     11.0117   3.9721298724e+01   3.6942340617e+01    0.2841899    0.1909292  74.50  0.001556504    1.355    0.262
        18 -12.6332    124.0014     10.5285   4.8761906669e+01   5.2327629517e+01    0.4153805    0.2653171  57.62   0.00039317    1.380    0.275
        19 -10.8600    128.8909      5.8389   4.6187563352e+01   5.1575692454e+01    0.2393736    0.2024196   8.13 0.0004124629    1.293    0.226
        20 -11.0128    150.7290      9.2850   4.3823767156e+01   4.5961840998e+01    0.2825055    0.2316414 -78.21  0.001661144    1.281    0.219
        21 -11.6825    192.9397      6.2959   3.7819297320e+01   3.5906303776e+01     0.375625    0.2588622 -35.09  0.001734992    1.504    0.335
        22 -12.0306    188.6143      4.9451   3.7902686189e+01   3.7077900575e+01    0.3311045    0.2834398  29.11 0.0009088631    1.452    0.312
        23  -9.7774     66.4725      8.4743   6.2807747512e+01   6.4806715930e+01    0.1257114    0.1036311  15.69 6.040868e-05    1.011    0.011
        24 -12.1833    138.9162      4.6611   4.4119485130e+01   4.9257903023e+01    0.7360618    0.2640172  55.77   0.00307296    2.262    0.558
        25 -11.4189     73.3886      1.5820   5.7298263821e+01   6.4149108171e+01    0.2166141    0.1398067  48.37 0.0006322031    1.410    0.291
        26 -14.0075     23.3677     19.5922   8.6644148033e+01   6.9625150637e+01     1.351915    0.6875378  -6.89  0.005732633    2.721    0.633
        27 -11.8550    134.5036     95.4527   7.4725244796e+01   3.6737265972e+01     0.349364    0.2640138 -32.36  0.001131641    1.348    0.258
        28 -11.3803    134.6822     92.3139   7.3764110927e+01   3.7346771891e+01    0.2889316    0.2301877 -70.11 0.0009057723    1.527    0.345
        29 -11.6838    141.5589     96.4162   7.3218068417e+01   3.4950263020e+01    0.4937862    0.2822509 -23.54  0.001786962    2.478    0.597
        30 -11.1564    114.0109     97.1165   8.0752996513e+01   4.0763595682e+01    0.3381827    0.2183834 -52.07 0.0007226067    1.582    0.368
        31 -11.9411    188.5840     94.3364   6.2361458472e+01   2.4350014942e+01    0.3305525    0.2860802 -70.56 0.0004103371    1.252    0.201
        32 -12.4826     68.6463     90.3459   9.2922111288e+01   5.0275497310e+01    0.4476359    0.3238292 -36.79  0.002236665    1.324    0.244
        33  -9.8674    246.5328    183.5317   7.2468467516e+01  -2.8147390805e+00    0.1299838    0.1077687 -10.09 -3.846183e-05    1.024    0.023
        34 -10.8898     33.7687    177.4171   1.1780357454e+02   3.3425364485e+01    0.1523792    0.1246048  18.86 0.0009584302    1.661    0.398
        35 -11.6579    203.2254    171.9463   7.8036150343e+01   6.5224540311e+00    0.3274492    0.1619266 -42.33  0.001395038    2.018    0.504
        36 -13.4107     42.0812     47.7656   8.9525127478e+01   6.2698526894e+01    0.6056593    0.4034687  10.52  0.001232186    1.647    0.393
        37 -13.9363     42.3810     42.4771   8.7428558491e+01   6.3638323491e+01     1.119684    0.5780517  10.55  0.003854861    2.806    0.644
        38 -13.3114      5.4871     82.9797   1.1340571088e+02   5.8201126531e+01    0.8703386    0.3610691 -53.73  0.004420624    1.774    0.436
        39 -12.8389      2.1047     66.7801   1.1156038729e+02   6.2010119295e+01    0.3898324    0.2667028 -73.27  0.002461755    1.391    0.281
        40  -9.9852    249.5270     86.4559   5.0862199390e+01   1.2310166704e+01    0.1373378    0.1152699 -47.46 0.0001463164    1.038    0.036
        41 -11.3614    127.7210     81.7041   7.2379662491e+01   4.1041506523e+01    0.3838668    0.2497779 -61.20  0.001579552    2.034    0.508
        42 -12.7568    121.1901     81.0880   7.3942282991e+01   4.2603456449e+01     0.503255    0.3881717   0.60  0.002344662    1.624    0.384
        43 -13.1114    115.6748     76.3272   7.3966788097e+01   4.4731816204e+01     0.639559    0.3914351 -25.35   0.00266976    1.928    0.481
        44 -12.1717    110.5614     76.6498   7.5527395873e+01   4.5748119922e+01    0.3165763    0.2655519 -48.79 0.0009214982    1.230    0.187
        45 -13.0982    123.3881     71.7940   7.0394132073e+01   4.3908842239e+01    0.6633517    0.2694234  52.61  0.001470115    2.668    0.625
        46 -12.5629    143.9002     74.8419   6.6211469336e+01   3.8613295501e+01    0.5176779     0.352085 -26.93  0.001332694    1.590    0.371
        47 -12.7233    117.0810     65.7209   7.0100878222e+01   4.6418436042e+01    0.4812835    0.3000938  33.26  0.002103459    1.791    0.442
        48  -9.7378    160.0394     72.2655   6.1829737118e+01   3.5189259359e+01    0.1886319    0.1320433  53.74 0.0003189277    1.434    0.303
        49 -10.7288    146.3154     67.0162   6.3217780296e+01   3.9424946420e+01    0.2133606    0.1948407 -33.17 0.0004721811    1.096    0.087
        50 -10.4500    214.3817     61.3648   4.9476628731e+01   2.3833099527e+01    0.3355379    0.1623376 -31.81  0.001407677    2.056    0.514
        51 -10.6068    169.2038     63.0301   5.7249014759e+01   3.4491428694e+01    0.4096296    0.1915044  60.33  0.001570315    2.209    0.547
        52 -13.9992     68.5529     54.6327   8.1645567527e+01   5.7740796137e+01     1.153555    0.8017117  64.44  0.003880721    2.550    0.608
        53 -11.6689    125.2678     57.2614   6.5081456489e+01   4.6035709715e+01      0.33548     0.253161  37.13 0.0006054433    1.340    0.254
        54 -10.4179    174.7817     56.7126   5.4374127197e+01   3.4105747549e+01    0.2056409    0.1934187  50.08 0.0006313247    1.102    0.093
        55 -11.3542    152.7451     53.5606   5.7597055645e+01   4.0044839539e+01    0.4052013    0.2300225  40.07  0.001159888    1.975    0.494
        56 -11.4564    133.1306     53.7390   6.1965835703e+01   4.4766502777e+01    0.3441248    0.2569808  54.90  0.001252135    1.329    0.248
        57 -11.5951     53.2120     53.8253   8.7180012242e+01   6.0143970898e+01    0.1934315    0.1742162 -37.02  0.001106666    1.185    0.156
        58 -10.3437    185.4890    167.5075   8.0703954946e+01   1.0726181892e+01    0.1451459    0.1375348  -1.52 6.946824e-05    1.023    0.023
        59 -13.6620      3.3446     46.7916   1.0626957842e+02   6.6182336004e+01    0.7665585    0.6636789  71.42  0.004055799    1.647    0.393
        60 -11.6142    213.9824    164.0043   7.4271564329e+01   5.9432703237e+00    0.2383218    0.1666998  -0.31  0.001149409    1.727    0.421
        61 -13.0315    247.9338    145.3631   6.4290541840e+01   2.9859943367e+00     1.184799    0.4128312 -39.79  0.004623262    2.519    0.603
        62 -11.4262    145.3259     50.8121   5.8263313092e+01   4.2280769863e+01    0.3144648    0.2810284 -49.80 0.0007545462    1.166    0.143
        63 -11.8649     99.0409     50.3030   6.9867629209e+01   5.2907244218e+01    0.4876671    0.1895006  37.93  0.001729267    2.935    0.659
        64 -10.8646    137.5580     48.4224   5.9168764060e+01   4.4521596238e+01    0.3146818    0.2158007 -64.99  0.001409968    1.972    0.493
        65 -11.8707    121.9031     43.9583   6.1307304655e+01   4.8875035107e+01    0.3203917    0.2760521   1.11 0.0009335241    1.207    0.172
        66 -10.0392    175.9036     44.0571   5.0494452990e+01   3.5671454503e+01    0.3398899    0.1590661 -56.69  0.001221244    2.940    0.660
        67 -11.5063    157.5231     43.5925   5.3535557063e+01   4.0315164430e+01    0.3407894    0.2284713  53.89  0.001157861    1.430    0.300
        68 -10.2467    140.9767     44.0308   5.6961507436e+01   4.4330208213e+01    0.1733161    0.1672885  45.98 0.0003838684    1.003    0.003
        69 -11.7125    241.2997    146.2082   6.5550734927e+01   4.0172137328e+00    0.3792513    0.3355779  49.43  0.002288749    1.370    0.270
        70 -10.4503    181.9303     43.4852   4.9381424191e+01   3.4253914870e+01    0.2123865    0.1364069  66.71 0.0004116111    1.531    0.347
        71 -12.7776    233.4737    153.8125   6.8531096618e+01   4.1421973036e+00    0.4130455    0.3142904  29.51  0.001938574    1.394    0.283
        72 -11.5728    199.2273    155.1219   7.5197977718e+01   1.0398350571e+01    0.4531695    0.1878984 -48.77   0.00159924    2.826    0.646
        73 -10.0630    130.1254     37.3378   5.7044070505e+01   4.7863202675e+01    0.1941142    0.1305138  68.69 0.0002427585    1.643    0.391
        74 -10.1593    159.9413     36.2862   5.0826597150e+01   4.0690608187e+01    0.1927371    0.1668469  62.12 0.0001972763    1.099    0.090
        75  -9.9788    140.4735     35.4432   5.4197659439e+01   4.5612340524e+01    0.1420786    0.1317886  44.52 6.198709e-05    1.035    0.034
        76 -11.9660     82.4067     33.8128   6.8680415322e+01   5.8725310978e+01    0.3641102    0.2704623  16.56  0.001348295    1.342    0.255
        77 -12.6180     78.7240     31.2400   6.8835063770e+01   5.9783811519e+01    0.4768578    0.4432219 -50.07  0.001602449    1.395    0.283
        78  -9.9719     97.2393     33.7866   6.4097761158e+01   5.5752931054e+01    0.1961341    0.1488052  15.98  0.001054073    1.351    0.260
        79 -10.3357    176.4867     33.5155   4.7341839084e+01   3.6916858543e+01     0.269785    0.1324507  66.49 0.0008306538    1.965    0.491
        80 -10.3424    150.8078     31.5887   5.0955888714e+01   4.3552307719e+01    0.2041399    0.1321615  75.77 0.0008044225    1.677    0.404
        81 -11.2510     26.7665     30.6020   8.9746753867e+01   6.7468218622e+01    0.2767804    0.1596541 -18.68  0.001528017    1.763    0.433
        82 -10.9826    197.3037     40.7619   4.6423408088e+01   3.0850337155e+01    0.2457813    0.2122231 -79.11 0.0006056566    1.099    0.090
        83 -11.4196     18.5683    154.1504   1.1905945014e+02   4.0355897789e+01    0.1785507    0.1593726  26.07   0.00122353    1.448    0.309
        84 -10.5220    138.8183    152.1910   8.7956638232e+01   2.3225233154e+01    0.2135173    0.1852214 -12.08 0.0008379131    1.325    0.245
        85 -12.5198     58.2541    144.1181   1.0747554633e+02   3.8616733386e+01    0.6430269    0.4431063  60.36  0.003345913    1.580    0.367
        86 -13.3815     47.2222    142.2567   1.1017953577e+02   4.0397950991e+01    0.5456461    0.5190677 -46.58   0.00332445    1.222    0.182
        87 -11.2231     90.6791    145.9719   9.9032089897e+01   3.3478314594e+01    0.2193221    0.1891905 -66.57   0.00118139    1.090    0.083
        88 -12.3286    213.4275    142.4461   6.9591879447e+01   9.9416167651e+00    0.6920324    0.3870973  54.83  0.002966537    2.209    0.547
        89 -11.2310    241.9240     22.5990   3.7251382274e+01   2.2894677162e+01    0.3021721    0.1890007 -59.15 0.0006274724    1.403    0.287
        90 -10.4713    140.0075     21.0711   4.9448656129e+01   4.7422529201e+01    0.2925052    0.1698941  61.50  0.001021768    1.571    0.364
        91  -9.8556    208.6024     18.7854   3.9414201381e+01   3.0856499075e+01    0.1886897     0.105311 -44.03 0.0009491722    1.663    0.399
        92 -12.8050     76.0927    139.1945   1.0171854682e+02   3.7399049495e+01    0.7124714     0.247268 -57.98  0.002552303    2.586    0.613
        93 -10.6720    175.4917     14.5305   4.2021005601e+01   3.9332685651e+01     0.133657     0.120183  83.59 0.0001350699    1.008    0.008
        94 -11.2117     33.6945    135.7595   1.1293421480e+02   4.3422176238e+01    0.2098901     0.189119  64.12  0.001278744    1.208    0.172
        95 -11.1850    224.6428    134.2756   6.5697289168e+01   9.1982311527e+00    0.2725547    0.2433442  16.92  0.001555154    1.182    0.154
        96 -11.5660     82.4911    134.4887   9.9015286993e+01   3.7592518603e+01    0.3239655    0.1342921 -56.68  0.001222405    2.212    0.548
        97 -12.7308    239.6769    153.2122   6.7342337545e+01   3.1388663016e+00    0.4900692    0.3589731 -23.77  0.002711345    1.226    0.184
        98 -13.1301    202.4316    126.0514   6.7799901856e+01   1.5267468466e+01     1.080935    0.7009871 -12.79  0.004505482    2.149    0.535
        99 -11.3823    122.0136    127.2765   8.6518940056e+01   3.2296730662e+01    0.3876308    0.3695022  28.29  0.001508944    1.101    0.091
       100 -13.4771    219.2021    121.4664   6.3645442224e+01   1.2586630317e+01    0.6584386    0.4316165  54.80  0.003146239    1.743    0.426
       101 -10.9474    194.0648    113.1057   6.6197553718e+01   1.9563567005e+01    0.2772656    0.2161124  57.11  0.001355147    1.401    0.286
       102 -11.1532    135.3050     98.3120   7.5341667969e+01   3.5959978363e+01    0.4761979    0.2526212  31.06  0.001521637    2.605    0.616
