#   1 NUMBER                 Running object number                                     
#   2 MAG_AUTO               Kron-like elliptical aperture magnitude                    [mag]
#   3 X_IMAGE                Object position along x                                    [pixel]
#   4 Y_IMAGE                Object position along y                                    [pixel]
#   5 X_WORLD                Barycenter position along world x axis                     [deg]
#   6 Y_WORLD                Barycenter position along world y axis                     [deg]
#   7 A_WORLD                Profile RMS along major axis (world units)                 [deg]
#   8 B_WORLD                Profile RMS along minor axis (world units)                 [deg]
#   9 THETA_WORLD            Position angle (CCW/world-x)                               [deg]
#  10 FWHM_WORLD             FWHM assuming a gaussian core                              [deg]
#  11 ELONGATION             A_IMAGE/B_IMAGE                                           
#  12 ELLIPTICITY            1 - B_IMAGE/A_IMAGE                                       
         1 -18.1366    243.2161     74.8473   3.5833964851e+02   1.9072172733e+01     12.54001    0.8525833 -36.53   0.02962448    9.315    0.893
         2 -13.3953      6.1501      2.5236   3.6572582496e+01   7.8909137505e+01     0.847555    0.3569364  29.24  0.004080878    2.240    0.554
         3 -16.1351      2.4830     12.6898   4.6973643516e+01   7.7491972302e+01     6.197045     1.706857 -64.65   0.01539059    9.556    0.895
         4 -16.5435     10.2505     10.5218   3.8257849836e+01   7.7063334391e+01     7.004049    0.6482968 -46.69   0.01827058    7.741    0.871
         5 -14.9206     19.9405      3.9950   2.5463067928e+01   7.6694462941e+01     1.344539    0.7015551 -46.87  0.006723615    2.412    0.585
         6 -11.6277     80.4116     17.0762   5.6430539619e+00   6.2350993700e+01    0.3032444    0.1527014 -31.85  0.001390028    2.133    0.531
         7 -11.3977     73.5060     15.8717   7.0408025030e+00   6.4134525078e+01    0.3018382    0.1352512 -28.63  0.001299087    2.484    0.597
         8 -12.5172     31.5568     16.2524   2.5767607788e+01   7.2923550604e+01    0.2971905    0.2294029  87.38  0.001573056    2.218    0.549
         9 -10.9463    128.7596     11.9726   3.5446523058e+02   5.0983839101e+01    0.1607616    0.1093092 -31.02 0.0006980921    1.582    0.368
        10 -12.1524     37.5759     10.5173   1.8613867181e+01   7.2631798467e+01    0.2713981    0.1983047 -80.35  0.001379305    2.394    0.582
        11 -10.4484     76.5147      8.4862   2.5781501759e+00   6.4215744826e+01    0.1325541        0.118  70.03   6.4028e-05    1.019    0.018
        12 -11.6071     47.1612      6.1455   1.1139743658e+01   7.1194082529e+01    0.1709353    0.1530404 -87.67  0.001078178    1.318    0.241
        13 -12.6139     38.3102      2.7976   1.3081850897e+01   7.3421570096e+01    0.2952073    0.2451116 -63.13  0.001824496    1.575    0.365
        14 -12.5134    120.6867      2.4970   3.5216971688e+02   5.3869990508e+01    0.2546763    0.2286649  66.35  0.001166507    1.193    0.161
        15 -10.9058     78.9523      1.7955   3.5871581320e+02   6.4244490905e+01    0.1735283    0.1597514  79.75 0.0007659463    1.060    0.057
        16 -11.9775     32.3033      1.5639   1.5429547193e+01   7.4764170398e+01    0.2342712     0.114083  55.51 0.0007651193    2.017    0.504
        17 -12.1706     99.5334    148.0449   4.0853879065e+01   3.1203359169e+01    0.3782092    0.2608896 -75.84  0.001463862    1.766    0.434
        18 -18.6626    113.2403    114.6475   2.9647745814e+01   3.6708460730e+01     17.76444     6.598292 -60.65   0.04649834    4.816    0.792
        19 -11.5027     75.5009     95.0006   3.6514305145e+01   4.8693104725e+01    0.3315926    0.1546218 -60.82   0.00117572    2.415    0.586
        20 -11.9039     85.9878    130.0277   4.1322286989e+01   3.7996167024e+01    0.3988834    0.2243025 -65.71  0.001524631    1.962    0.490
        21 -11.5905     79.5142     61.0173   2.4280755005e+01   5.5538460592e+01    0.3618046    0.1460597 -45.43  0.001309535    2.531    0.605
        22 -11.2236     72.0223     60.1112   2.6723822308e+01   5.7286488504e+01    0.3235194    0.1975896 -50.39  0.001266146    1.700    0.412
        23 -12.2775    134.9227     54.3911   7.3162151508e+00   4.3903902398e+01     0.273232    0.2070102 -33.83 0.0009373273    1.418    0.295
        24 -11.7330     75.9473     53.6698   2.2822212797e+01   5.7734301433e+01    0.3761218     0.205652 -46.36  0.001387484    1.894    0.472
        25 -12.1364     91.7087    115.4397   3.6230560365e+01   4.0651249141e+01    0.4418863    0.2648388 -68.84  0.001239069    2.035    0.509
        26 -11.7337     85.8427    115.9842   3.8250647429e+01   4.1583878268e+01     0.375415    0.2149831 -66.98  0.001228149    2.034    0.508
        27 -12.1922    128.1408     52.0722   7.9175418011e+00   4.5886657415e+01    0.2891992    0.1881752 -34.71  0.001108434    1.623    0.384
        28 -11.7110    133.3233     48.1519   5.6673038236e+00   4.5258142602e+01    0.2102289    0.1801908 -23.32  0.000771003    1.391    0.281
        29 -12.5837     81.9712     82.9991   3.0725782863e+01   5.0304393472e+01     0.550736    0.2512847 -51.81  0.001727788    2.218    0.549
        30 -13.0681    125.7682     35.4303   2.8954065856e+00   4.8924388569e+01    0.3611513    0.2026637 -43.05  0.001141253    1.730    0.422
        31 -13.4030    126.7954     45.4771   6.0459818687e+00   4.7232188054e+01    0.4056855    0.3172045 -25.01  0.001321824    1.514    0.339
        32 -12.8953    128.1297     40.1070   4.0265130591e+00   4.7696744259e+01    0.2724803     0.214554 -31.55 0.0008234465    1.403    0.287
        33 -12.0002     71.8427     42.2944   1.9737266971e+01   6.0685266513e+01    0.3874232    0.2190994 -43.66  0.001422392    1.854    0.461
        34 -11.3439     76.1117     88.6712   3.4515136933e+01   5.0113841059e+01    0.2815266    0.1992178 -63.53  0.001278022    1.502    0.334
        35 -11.6677     68.9776     87.8861   3.6972705514e+01   5.1615577655e+01    0.3682848    0.2198328 -65.95  0.001364426    1.938    0.484
        36 -12.1100    152.5092    144.0230   2.6683434805e+01   2.2916190962e+01    0.3445283    0.2101984 -50.23  0.001535643    1.606    0.377
        37 -11.8969     91.5217    143.5887   4.2342552110e+01   3.3635542644e+01     0.421347    0.2623552 -72.55   0.00153743    1.927    0.481
        38 -12.7099    129.0250     30.1819   5.7285866492e-01   4.8822740088e+01    0.2374432    0.1922913 -43.49 0.0008114001    1.252    0.201
        39 -11.8659     75.6981     30.2555   1.3110354152e+01   6.1735652135e+01    0.3331223    0.1802085 -38.90  0.001519214    1.950    0.487
        40 -11.3994     79.6087    114.8638   4.0069760797e+01   4.2969909551e+01    0.3308148     0.223022 -71.68  0.001034413    1.671    0.401
        41 -16.4918     99.2348     20.9603   2.7723358728e+00   5.7307357035e+01     2.580795     2.345199 -30.34   0.01573109    1.240    0.193
        42 -12.4939     79.4254    107.4634   3.8358044043e+01   4.4880059123e+01    0.4372093    0.2884997 -68.97  0.001297661    1.695    0.410
        43 -11.0382     81.5149    122.5458   4.1165276929e+01   4.0673316057e+01    0.2617389    0.1523348 -71.69  0.001011097    2.095    0.523
        44 -13.1139    146.8927    130.2897   2.4961413161e+01   2.6766430652e+01     0.389922    0.2027041 -48.82  0.001314975    1.845    0.458
        45 -12.3116    107.7360    173.6426   4.3156117602e+01   2.3822712619e+01    0.2764215    0.1992988 -71.51 0.0009884636    1.643    0.391
        46 -12.4488    145.7572    102.5628   1.8618090883e+01   3.2679234191e+01    0.3812291    0.2045447 -46.67  0.001635033    1.750    0.429
        47 -12.8036     82.3390     97.9504   3.4889264643e+01   4.6700570767e+01    0.5532858    0.2896977 -59.84   0.00198969    2.066    0.516
        48 -11.9558    111.9482    183.8629   4.3714221330e+01   2.0902878209e+01    0.2875696    0.2154285 -76.11  0.001112599    1.672    0.402
        49 -13.0343     92.1579    124.8642   3.8265877287e+01   3.8225809329e+01    0.4426914    0.2910999 -77.01  0.001614307    1.949    0.487
        50 -11.0893     68.8578     96.6028   3.9410771292e+01   4.9478368003e+01    0.2593481    0.1745668 -63.08  0.000950151    1.531    0.347
        51 -12.3648     75.1025     78.4222   3.1796845482e+01   5.2703672772e+01    0.5493228    0.2216492 -51.05  0.001940661    2.495    0.599
        52 -12.3471     76.2667     68.5902   2.8131546372e+01   5.4647206232e+01    0.4297178    0.2626945 -55.96  0.001496048    1.764    0.433
        53 -11.4195     99.1481    158.5964   4.2908649083e+01   2.8699861450e+01    0.2590125    0.2009576 -72.07  0.001105664    1.421    0.296
        54 -12.8067    106.2090    156.2592   4.0531678807e+01   2.8121031075e+01    0.4737606    0.3076749 -72.11  0.001599359    1.918    0.479
        55 -11.3518     64.4473     68.6852   3.2794594261e+01   5.6937391557e+01    0.2854586    0.1466933 -57.40  0.001117826    2.168    0.539
