#   1 NUMBER                 Running object number                                     
#   2 MAG_AUTO               Kron-like elliptical aperture magnitude                    [mag]
#   3 X_IMAGE                Object position along x                                    [pixel]
#   4 Y_IMAGE                Object position along y                                    [pixel]
#   5 X_WORLD                Barycenter position along world x axis                     [deg]
#   6 Y_WORLD                Barycenter position along world y axis                     [deg]
#   7 A_WORLD                Profile RMS along major axis (world units)                 [deg]
#   8 B_WORLD                Profile RMS along minor axis (world units)                 [deg]
#   9 THETA_WORLD            Position angle (CCW/world-x)                               [deg]
#  10 FWHM_WORLD             FWHM assuming a gaussian core                              [deg]
#  11 ELONGATION             A_IMAGE/B_IMAGE                                           
#  12 ELLIPTICITY            1 - B_IMAGE/A_IMAGE                                       
         1 -11.2161      4.2557     27.0855   1.1478421545e+02   6.9609323659e+01    0.7961582    0.4277698 -69.13  0.002804702    1.638    0.390
         2 -11.2726     19.7233     25.7655   1.0681066700e+02   6.8915792156e+01    0.6287565    0.4419417 -43.39  0.003191568    1.131    0.116
         3 -11.5872     29.1375     20.3043   1.0013089009e+02   6.9168463237e+01     1.128449    0.4654624 -48.99  0.005624822    1.949    0.487
         4  -9.8856     10.9849      5.9130   1.0373363893e+02   7.3338448595e+01    0.3897333    0.1394393 -40.26 0.0003259168    2.245    0.555
         5 -10.6294     10.6804     10.3688   1.0580388327e+02   7.2536615183e+01    0.3239122    0.1852472 -38.59 0.0004181646    1.399    0.285
         6 -12.4783     36.9364      5.0348   8.9026679900e+01   7.0971302613e+01      1.07898    0.9173399 -25.58  0.006426274    1.148    0.129
         7  -9.9910     31.3889      5.4862   9.2127568251e+01   7.1550187648e+01    0.2225284    0.1752048 -27.21 0.0006100164    1.036    0.034
         8 -11.5250      9.5086     17.5733   1.0916538017e+02   7.1230559463e+01    0.8383949    0.2964228  31.23  0.004181793    3.409    0.707
         9 -12.2052     15.9982     11.3075   1.0323026907e+02   7.1979389621e+01     1.115851    0.2900716 -50.94  0.002417581    2.754    0.637
        10 -10.7910    250.0320     22.8754   4.7891863947e+01   1.9546761870e+01    0.4659763    0.1546473 -30.43  0.001825647    2.510    0.602
        11 -10.8120     92.8301     17.3238   7.2833017745e+01   5.9818496224e+01    0.3981505    0.2529232 -35.04  0.001646584    1.560    0.359
        12 -11.7928     72.1507     13.2369   7.7927783586e+01   6.4397785921e+01     0.686889    0.3939541 -24.91   0.00345525    1.674    0.403
        13  -9.4691     50.4304     13.5970   8.6995065354e+01   6.7825683072e+01    0.2657273    0.1808114 -23.05 0.0004926877    1.344    0.256
        14 -10.3956     64.3212      4.9851   7.6695577714e+01   6.6911678513e+01    0.2332826    0.1923521  10.04 0.0005083209    1.105    0.095
        15  -9.4285     59.4793      3.0920   7.7619092374e+01   6.7982952564e+01    0.3145893    0.1311183 -32.45  0.001219906    2.182    0.542
        16  -9.9330     62.9124      1.4340   7.5325368082e+01   6.7614271289e+01    0.2685294    0.1683617  29.67 0.0006462145    1.602    0.376
        17 -11.1849     53.7471      5.0480   8.1112890602e+01   6.8633672271e+01    0.5873901    0.4036702  -2.27  0.001993962    1.505    0.336
        18 -10.0911     56.1913     15.5416   8.5428393118e+01   6.6676102345e+01     0.413029    0.1469222 -46.19  0.001599991    3.173    0.685
        19  -8.8401     49.6928      3.7085   8.2185458961e+01   6.9438014083e+01    0.1840118    0.1241562  -1.43 0.0002914518    1.564    0.361
        20 -11.5699     73.5533      5.3162   7.3404987141e+01   6.5206011687e+01    0.5793388    0.3568907  45.80  0.003095895    1.651    0.394
        21  -9.3757     23.5809     11.5355   9.9217208472e+01   7.1300886498e+01    0.2120931    0.1509979 -46.12  0.000449752    1.219    0.180
        22 -11.0649     83.3100      8.0083   7.1432043134e+01   6.2978259497e+01     0.811853    0.3356247 -17.22  0.003018894    3.157    0.683
        23 -11.0247     94.9649      5.4332   6.6595709807e+01   6.0844153142e+01    0.3369209    0.3052307 -54.82  0.002025565    1.364    0.267
        24 -10.7752    233.8004      6.4094   4.5026964572e+01   2.5146804701e+01    0.4465612    0.2348179  85.82   0.00203155    2.057    0.514
        25 -10.2560    248.9357      3.6988   4.3155102537e+01   2.1787756108e+01    0.3580369    0.2720212 -58.78  0.002109106    1.204    0.170
        26  -9.6889    102.9696      4.9936   6.4194041758e+01   5.9108176048e+01    0.2338005    0.1463848  26.01 0.0006257455    1.695    0.410
        27  -8.2655    108.6864      1.6955   6.1228700009e+01   5.8121390105e+01    0.1480364   0.09347054  29.03 0.0007022908    1.618    0.382
        28 -11.5999      2.9441      7.3143   1.0904440991e+02   7.3579991552e+01    0.4078092    0.1744497 -43.69  0.001238747    1.734    0.423
        29 -10.9728     61.4529      9.2065   8.0060502089e+01   6.6812385233e+01     0.313406    0.2359843 -38.04  0.001192999    1.381    0.276
        30 -10.0382     92.8991    227.8575   1.1885159486e+02   1.8900276099e+01    0.2248922    0.1802866  37.36 0.0005362795    1.436    0.303
        31 -14.2710    246.7805     78.2230   6.2350574021e+01   1.3483496561e+01     9.754827     3.649395 -15.46   0.02675901    5.349    0.813
        32 -12.6072    208.2466    244.8275   1.0121853258e+02  -4.2494162641e-01     1.278092    0.7020168  57.61  0.003487141    3.047    0.672
        33 -12.0154    204.7099    232.0414   1.0009832959e+02   1.4239247995e+00     0.462717    0.4318409 -77.47  0.000567427    1.700    0.412
        34 -12.6872    202.1951    214.2077   9.7982128407e+01   3.8307972378e+00     1.087567    0.5576043 -33.18  0.005863718    2.397    0.583
        35 -12.6324    193.1393    215.6407   9.9748238174e+01   5.1365481386e+00    0.8564113    0.6910429  -9.59  0.006049629    1.446    0.309
        36 -12.7140    246.0638    128.0839   7.4320127026e+01   6.9354582982e+00     2.230556    0.9949594  27.58  0.008219532    3.392    0.705
        37 -12.4870    244.3472    238.8622   9.4765587027e+01  -5.0830519944e+00    0.8458039    0.7143697 -11.57  0.007038325    1.500    0.333
        38 -12.3745    216.3641    230.7263   9.8014358802e+01  -2.2089585147e-01    0.6321127    0.2832037 -23.50  0.003347391    3.171    0.685
        39 -12.7494    208.4403    200.2122   9.4734743099e+01   4.4814465514e+00     1.668598    0.6142978 -26.32  0.006487932    4.495    0.778
        40 -13.9736    240.2244    152.4182   8.0477800480e+01   4.8729833208e+00     3.761007     1.798248  10.50   0.01119172    5.881    0.830
        41 -13.7199    240.4690    139.9939   7.7822794219e+01   6.4411525604e+00     6.142227     2.312119  27.89   0.01606278    6.824    0.853
        42 -11.8643    230.2130    233.8286   9.6240675906e+01  -2.5973079898e+00    0.2963095    0.2348341 -15.91  0.002314752    1.485    0.327
        43 -13.8066    223.0429    221.6912   9.5619625832e+01  -3.1184860989e-01     1.946047    0.8665885  39.79   0.01086271    1.746    0.427
        44 -12.0721    235.8955    226.7576   9.4314938035e+01  -2.7626993767e+00    0.3390646     0.248029  -6.87 0.0005843177    1.416    0.294
        45 -12.2398    238.3741    217.7534   9.2552880055e+01  -2.2581878302e+00    0.4861081    0.3046005 -10.24  0.001034524    1.726    0.421
        46 -13.6228    225.9628    198.1945   9.1417676900e+01   1.7899135092e+00     2.170717    0.9852443  19.12  0.008384353    3.999    0.750
        47 -14.0525    224.6221    186.4173   8.9614579191e+01   3.4050044993e+00     1.947503     1.632497 -52.01   0.01259012    1.776    0.437
        48 -13.0532    233.8115    172.5317   8.5517735303e+01   3.5030317284e+00     1.468593    0.7028506  -4.85  0.005119123    4.719    0.788
        49 -13.6338    246.7107    161.8271   8.1324992976e+01   2.5393897278e+00     1.565457    0.6082948 -20.52  0.006234301    3.296    0.697
        50 -13.6617    247.8298    217.5080   9.1026887566e+01  -3.6488439859e+00     1.452734    0.3683209 -29.36  0.006218005    4.484    0.777
        51 -13.4539    245.1649    175.9979   8.4305462573e+01   1.1337167589e+00     1.458825    0.6098328  29.43  0.006411899    2.645    0.622
        52 -14.4241    242.4677    196.0428   8.8342659728e+01  -6.5593794382e-01     1.985483    0.9717722  -7.78  0.009275698    3.033    0.670
        53 -12.8552    248.7109    202.4030   8.8430115796e+01  -2.2999486588e+00    0.8742767    0.3954419  -7.76  0.003798604    3.717    0.731
        54  -8.7660    232.1677    250.7280   9.8255608137e+01  -4.4035864928e+00    0.1469862   0.06433894  35.33  0.000396776    1.634    0.388
        55  -8.9290    184.6318    250.1572   1.0565826710e+02   2.5205320900e+00    0.2602731    0.1136733  43.14  0.001037403    1.667    0.400
        56 -10.7626     47.3990    250.2048   1.2775930889e+02   2.1152129534e+01    0.3041503    0.1325747  36.84   0.00109949    2.264    0.558
        57  -9.5247     23.6286    249.3031   1.3130472801e+02   2.3803232580e+01    0.1952229    0.1191185  53.42 0.0008072412    1.189    0.159
        58 -10.4100     16.3602    249.0045   1.3236491589e+02   2.4564818932e+01      0.27425    0.1685102  38.74  0.001098079    1.742    0.426
        59 -10.3731      8.4706    248.6073   1.3350036113e+02   2.5374455613e+01    0.2064897    0.1526471  57.22 0.0007498557    1.300    0.231
        60  -8.8753      1.8477    250.3442   1.3449602057e+02   2.5727331226e+01    0.1235304   0.07946099  57.06   0.00111923    1.162    0.139
        61  -9.1630     89.6577    224.6823   1.1915084498e+02   1.9836038358e+01    0.1827744    0.1511774  33.21  0.000733677    1.527    0.345
        62  -8.9212     92.4867    221.4953   1.1837948083e+02   1.9954296430e+01     0.173655    0.1475016  48.73 0.0006410216    1.268    0.212
        63  -9.9248     79.1635    228.3382   1.2126131671e+02   2.0651644584e+01    0.2285289    0.1548584  43.05  0.000514766    1.354    0.262
        64  -9.0829     29.7440    228.9344   1.2953438957e+02   2.6316483473e+01     0.142599    0.1247701  53.92 0.0006792134    1.503    0.335
        65 -10.0321     20.2437    227.0598   1.3097496494e+02   2.7575155736e+01    0.2060005    0.2019962   6.10  0.001024942    1.863    0.463
        66  -9.5400      1.8012    227.2906   1.3386896039e+02   2.9259481197e+01    0.1683794    0.1130862  64.16  0.001477257    1.072    0.067
        67  -9.6834      8.1897    225.1774   1.3281060782e+02   2.9023137980e+01    0.2575398    0.1454304  38.01  0.001405848    1.817    0.450
        68  -9.7756    120.7662    224.7300   1.1366670675e+02   1.5395414408e+01     0.240171    0.1748434  39.63 0.0008140623    1.269    0.212
        69  -9.6726    140.7440    220.3171   1.0962274829e+02   1.2984718851e+01    0.2241211    0.1659979  33.78 0.0004223858    1.318    0.241
        70  -9.9378    129.7151    223.7510   1.1197606959e+02   1.4191792205e+01    0.2892907    0.2200586  35.70 0.0007824749    1.306    0.234
        71  -9.4511    135.6827    223.1132   1.1084531072e+02   1.3369355448e+01     0.218715    0.1752227  31.12 0.0006835049    1.342    0.255
        72  -8.6817    124.7378    221.0293   1.1257129161e+02   1.5350774507e+01    0.1806657    0.1352924  47.27 0.0005667238    1.071    0.067
        73  -9.1913    128.9313    218.9897   1.1159469507e+02   1.5015669032e+01    0.2151962    0.1585604  30.38 0.0004877769    1.493    0.330
        74  -9.9375     47.5210    217.5404   1.2597512232e+02   2.6262486915e+01    0.2278778    0.1341187  75.78 0.0009887164    1.444    0.308
        75 -10.4550     49.9302    222.3739   1.2585331264e+02   2.5185327346e+01    0.3162266    0.2784943 -42.69 0.0005978993    1.971    0.493
        76  -9.9172     58.9134    220.6742   1.2420697802e+02   2.4413349820e+01    0.3895469    0.1409439  41.77  0.002170255    2.179    0.541
        77 -10.1792     56.0165    216.5805   1.2443919106e+02   2.5439671740e+01    0.1961711    0.1255054 -85.49  0.000627933    1.518    0.341
        78 -10.0911     97.9262    222.0195   1.1746003404e+02   1.9116070652e+01    0.2359486    0.1808422  39.43   0.00047391    1.361    0.265
        79  -9.4234     82.8546    222.8689   1.2019500929e+02   2.1035433609e+01    0.2248338    0.1322663  35.67 0.0007628744    1.781    0.439
        80  -9.5494     74.2973    222.2448   1.2164464756e+02   2.2250436421e+01    0.1931855    0.1488437  50.21 0.0004368726    1.219    0.180
        81  -9.5746     15.6290    221.4652   1.3149311768e+02   2.8932580025e+01    0.1760749    0.1612815 -84.66 0.0008720988    1.629    0.386
        82 -10.0351     40.3669    220.9426   1.2738906315e+02   2.6491037510e+01    0.2578403    0.1953269  22.14  0.001248687    2.151    0.535
        83  -9.3289     28.7772    221.9942   1.2937283157e+02   2.7544280680e+01    0.1809903    0.1181056  44.22 0.0006671809    1.454    0.312
        84  -9.2098     68.4071    221.0130   1.2258182542e+02   2.3196206012e+01    0.1780021    0.1315237  37.69 0.0005237614    1.530    0.346
        85  -8.6962     88.1744    220.0176   1.1901828158e+02   2.0780287574e+01     0.150075    0.1312296  49.25 0.0004855833    1.312    0.238
        86 -10.8027    171.0970    213.9865   1.0338621793e+02   8.9716643883e+00    0.3091483    0.2601874 -42.26 0.0005342232    1.509    0.337
        87  -9.8055    165.6039    214.2659   1.0440568963e+02   9.8373358457e+00    0.2759011    0.1861356  21.35 0.0008768954    1.756    0.430
        88 -10.1370    158.9813    217.7464   1.0604585552e+02   1.0439073713e+01    0.2782969    0.1825396  28.46 0.0005273035    1.581    0.367
        89  -8.8136    154.4672    218.5008   1.0694756221e+02   1.1062232199e+01    0.1618481    0.1227636  23.81 0.0006016422    1.463    0.316
        90  -8.4930    167.5432    207.9509   1.0319107890e+02   1.0388952145e+01    0.2120558    0.1783654  -0.84  0.000570925    1.456    0.313
        91  -9.3382    171.3575    206.1168   1.0223809790e+02   1.0003406850e+01    0.2131336    0.1821166  28.30 0.0005564363    1.136    0.120
        92  -9.2303    173.1741    202.1750   1.0133380606e+02   1.0246177831e+01    0.1982819     0.168184  30.03 0.0005781109    1.107    0.097
        93  -9.1493    136.2865    217.9251   1.1014613781e+02   1.4032028432e+01    0.2204566    0.1376303  37.33 0.0005846616    1.428    0.300
        94  -9.1596    125.3592    210.9928   1.1134452390e+02   1.6793211469e+01    0.2135189    0.1589424  26.67 0.0004801505    1.616    0.381
        95  -9.5629    119.9106    216.9203   1.1300207228e+02   1.6706978441e+01    0.1986777    0.1838612  33.12 0.0005290246    1.340    0.254
        96  -9.1738    124.0791    215.5012   1.1208825731e+02   1.6290744061e+01    0.1931775    0.1630414  30.23 0.0006208671    1.375    0.273
        97  -8.6707     95.7252    217.8303   1.1747260421e+02   2.0091314149e+01     0.154268    0.1311033  53.63 0.0005700854    1.199    0.166
        98  -9.8831      8.1071    216.1868   1.3251160301e+02   3.0506665159e+01    0.2035574    0.1835975 -38.16  0.001238848    2.064    0.516
        99  -8.1980    115.1937    216.8682   1.1385373135e+02   1.7424170211e+01    0.1420489    0.1206205  38.36 0.0003857499    1.296    0.228
       100  -8.7283     77.1362    217.1364   1.2074691706e+02   2.2719718350e+01     0.152456    0.1266282  55.50 0.0003939442    1.214    0.176
       101  -8.8255     72.5791    216.8152   1.2153344999e+02   2.3361296819e+01    0.1738613    0.1232002  45.72 0.0005136691    1.293    0.227
       102  -8.8517     22.0453    216.8027   1.3024961780e+02   2.9084822424e+01    0.1550036    0.1116019 -58.35  0.001202755    2.067    0.516
       103  -8.7526     90.8513    215.6179   1.1815216675e+02   2.1128423908e+01    0.1571647    0.1437927  75.23 0.0005947823    1.289    0.224
       104  -9.7459     83.0578    215.4077   1.1954234149e+02   2.2223100571e+01    0.2070471    0.1775306  26.22 0.0007497928    1.639    0.390
       105  -9.7758     31.2586    214.4330   1.2858824351e+02   2.8552779797e+01    0.1910285     0.180014 -82.08 0.0009415803    1.608    0.378
       106  -9.8905    143.5593    214.3472   1.0840020215e+02   1.3406892905e+01    0.2662525    0.1755125  33.80  0.000856521    1.457    0.314
       107  -8.6590    138.0689    213.6974   1.0932310256e+02   1.4379132238e+01    0.1686979    0.1241665  44.65 0.0005259557    1.093    0.085
       108  -9.6923    132.0773    213.5802   1.1040639224e+02   1.5343309508e+01    0.2592607    0.1722704  34.02 0.0006085959    1.497    0.332
       109  -9.7740     63.1737    212.9458   1.2292051566e+02   2.5191029175e+01    0.2629446    0.2256008  42.12  0.001516136    1.454    0.312
       110  -9.6586     51.4630    212.8944   1.2499683140e+02   2.6597285808e+01     0.176776    0.1675943 -46.81 0.0009063417    1.721    0.419
       111  -9.7987     96.9188    212.3542   1.1674218427e+02   2.0814566057e+01    0.2134005    0.1804558  31.58 0.0006167077    1.485    0.327
       112  -9.0105     41.2431    212.6219   1.2677080102e+02   2.7796116813e+01     0.155074    0.1500068  31.16 0.0007905846    1.671    0.402
       113  -8.6972     74.5708    212.3236   1.2082084763e+02   2.3857775720e+01    0.1562581    0.1193294  32.78 0.0006313519    1.625    0.384
       114  -9.3666     25.2563    210.5970   1.2942147801e+02   2.9819713579e+01    0.1903251    0.1435811 -67.93 0.0009675484    1.696    0.410
       115  -9.0576    149.3755    210.1655   1.0681022263e+02   1.3080776160e+01     0.191425    0.1538382  32.56 0.0004185106    1.227    0.185
       116  -9.1331    146.1795    207.7610   1.0708906932e+02   1.3961250768e+01    0.2024413    0.1776763  22.08 0.0004809977    1.308    0.236
       117  -9.7508    149.5610    205.0913   1.0610995767e+02   1.3805547157e+01    0.3165247    0.2345781 -44.55    0.0020463    1.690    0.408
       118  -9.2234    106.8795    210.1359   1.1467992223e+02   1.9735610339e+01    0.1910854    0.1660759  30.99 0.0005459251    1.425    0.298
       119  -9.6083    109.6673    202.7317   1.1335900700e+02   2.0546599415e+01    0.3504913    0.2065582 -51.74  0.002061196    2.124    0.529
       120  -9.2626    114.6597    206.6863   1.1285403293e+02   1.9132123543e+01    0.2040786    0.1723104  21.95 0.0006599756    1.551    0.355
       121  -8.3928    110.6859    207.7317   1.1371485366e+02   1.9562432005e+01    0.1735734     0.143848  48.41 0.0004417072    1.149    0.129
       122  -8.4389     88.7131    211.3989   1.1816047650e+02   2.2121615412e+01        0.146   0.09335875  38.25 0.0003656624    1.541    0.351
       123  -8.4323     11.2833    211.3241   1.3180852978e+02   3.1035920680e+01   0.08211085   0.06830511 -75.20 0.0005267196    1.597    0.374
       124 -10.5479    176.9313    208.6043   1.0158841982e+02   8.7251937168e+00    0.2616242    0.1995617  24.50 0.0004473706    1.287    0.223
       125 -10.4317    161.3046    208.5903   1.0441594021e+02   1.1340465387e+01    0.2576681    0.2186764  -8.06 0.0004502094    1.504    0.335
       126  -9.3975    169.8484    195.8659   1.0100568392e+02   1.1725326686e+01    0.3164541    0.1678819  42.70 0.0008987986    1.552    0.356
       127  -8.5961    160.1292    200.8288   1.0355049390e+02   1.2666715641e+01    0.1816198    0.1356803  17.28 0.0003883051    1.623    0.384
       128 -10.3478    165.1059    200.1283   1.0252253256e+02   1.1920388576e+01    0.2814971    0.2169405  13.64 0.0005766056    1.563    0.360
       129  -8.6566    162.2775    197.3407   1.0264388184e+02   1.2818222113e+01    0.1789742    0.1642931  -5.67 0.0003918412    1.295    0.228
       130  -8.6821    140.1413    209.6799   1.0845062535e+02   1.4652777795e+01    0.1688196    0.1269022  43.98 0.0006032546    1.090    0.083
       131  -8.3924     56.4858    209.9849   1.2390711462e+02   2.6507036566e+01    0.1441951   0.09299749 -79.62 0.0007309704    1.548    0.354
       132  -8.7541    134.9176    207.9205   1.0920298628e+02   1.5762394780e+01     0.209867    0.1380523  38.82 0.0004634974    1.342    0.255
       133  -8.7800    131.4871    208.0542   1.0985913245e+02   1.6289313372e+01    0.1887753    0.1458479 -39.36  0.001035195    1.760    0.432
       134  -9.0598    117.5778    212.3326   1.1293309014e+02   1.7778508201e+01    0.2059503    0.1557544  37.81 0.0006926054    1.314    0.239
       135  -9.0559     93.6233    208.7950   1.1700956553e+02   2.1873287882e+01    0.1883658    0.1604959  34.99 0.0006201626    1.432    0.302
       136  -9.1144     78.4506    208.7327   1.1981265588e+02   2.3960135886e+01    0.1870154    0.1538582  44.55 0.0005759423    1.329    0.247
       137  -8.9160     72.9249    207.5607   1.2073196422e+02   2.4884877977e+01    0.1661128    0.1471439 -70.86 0.0006494518    1.459    0.315
       138  -9.3888    120.8048    202.4314   1.1120057458e+02   1.8879835879e+01    0.3054646    0.1350682  37.47  0.001486516    2.146    0.534
       139  -9.6109    120.2000    206.1350   1.1174872109e+02   1.8369359093e+01    0.2158825    0.1601597  45.98  0.000473882    1.134    0.118
       140  -8.5167     66.1974    206.7518   1.2190430479e+02   2.5881492457e+01    0.1317134    0.1197664  59.74 0.0005253506    1.351    0.260
       141 -10.0295     46.7817    206.3658   1.2540631662e+02   2.8263210263e+01     0.193449    0.1694728  43.85   0.00050348    1.481    0.325
       142  -8.6870     31.9364    206.7851   1.2806875927e+02   2.9799629073e+01    0.1393876    0.1221207  71.78 0.0007349374    1.351    0.260
       143  -9.7742     86.4998    204.8395   1.1796517654e+02   2.3540949130e+01    0.2201339    0.1765163  60.52 0.0009903597    1.059    0.056
       144 -10.0521    139.6738    203.2534   1.0772213364e+02   1.5718247286e+01    0.3638694    0.2810009 -82.50  0.002214239    1.632    0.387
       145  -9.1037    139.0362    199.0441   1.0729145924e+02   1.6488047380e+01    0.1884899     0.150901  53.58  0.000496865    1.073    0.068
       146  -9.0269    140.5375    195.5397   1.0653114667e+02   1.6800217979e+01     0.198215    0.1706949  33.94  0.000563762    1.202    0.168
       147  -9.0361    104.1916    205.1939   1.1466539468e+02   2.0951804578e+01    0.1869295    0.1372012  39.76 0.0004845494    1.336    0.252
       148  -7.9634     80.5304    204.4851   1.1905313086e+02   2.4415115684e+01     0.112837   0.08995214  61.86  2.91116e-05    1.059    0.056
       149  -8.6159     76.9520    204.0289   1.1968321813e+02   2.4971728301e+01    0.1479262    0.1376387   8.57  0.000549292    1.668    0.400
       150  -9.7177      6.6475    203.8230   1.3229639297e+02   3.2744594384e+01     0.228201    0.1559726  19.17  0.001124848    2.463    0.594
       151  -9.8644    179.1969    202.3413   1.0026064743e+02   9.1931404285e+00    0.2439746    0.1917957  10.16  0.000415989    1.446    0.308
       152 -10.4348    184.0890    194.6267   9.8178729331e+01   9.4139010552e+00    0.3598218    0.2685908  18.91  0.001543879    1.407    0.289
       153  -9.9148    185.6044    188.9861   9.6989222034e+01   9.9396352587e+00    0.2584922    0.2419876  34.18  0.000399173    1.155    0.134
       154  -8.3644     92.9792    202.9757   1.1656100589e+02   2.2955201850e+01    0.1556515    0.1399588   9.66 0.0006333935    1.671    0.402
       155  -9.6311     56.0937    202.0954   1.2341240696e+02   2.7936799196e+01    0.1786957    0.1617557  72.32 0.0004928104    1.331    0.249
       156  -8.8497     21.0367    202.3006   1.2975010672e+02   3.1681284748e+01    0.1510586    0.1222055 -76.63 0.0005038871    1.495    0.331
       157  -8.3239     64.3313    202.2953   1.2189762553e+02   2.6897701850e+01   0.09125882   0.08837865  -2.67 0.0003304253    1.637    0.389
       158  -9.3313    144.4823    200.6344   1.0646737580e+02   1.5332801906e+01    0.2155729    0.1740856  36.34 0.0005325755    1.180    0.153
       159 -10.3153    132.0344    199.8085   1.0873080471e+02   1.7514092323e+01    0.2891531    0.2165388  21.34  0.001760767    1.724    0.420
       160 -10.1682    124.6482    205.8920   1.1088260068e+02   1.7713661432e+01    0.3072295    0.1649249  38.50 0.0004659102    1.676    0.403
       161 -10.1947     98.1565    200.1679   1.1528452893e+02   2.2695259196e+01    0.2511857    0.1884055  83.47 0.0008890788    1.336    0.251
       162  -9.7072     69.3661    200.2762   1.2078699182e+02   2.6621455007e+01    0.1922258    0.1646954  54.40 0.0004294663    1.258    0.205
       163  -9.5099    156.5554    205.2122   1.0482726117e+02   1.2622263915e+01     0.211592    0.1721981  31.27 0.0005717599    1.199    0.166
       164  -9.4170     17.7558    211.0269   1.3071379804e+02   3.0479660888e+01    0.1867134    0.1616213 -38.57  0.001114587    2.120    0.528
       165  -8.6365    155.1346    200.2159   1.0439919397e+02   1.3606643110e+01    0.1808837    0.1409126  30.65 0.0004489001    1.266    0.210
       166  -8.8116     41.4544    199.5499   1.2593305304e+02   3.0067396321e+01    0.1460463    0.1354507 -60.69 0.0005586307    1.622    0.383
       167  -9.0094     80.5682    199.0233   1.1854502322e+02   2.5370089470e+01    0.1817307    0.1463493  37.01 0.0004866456    1.443    0.307
       168  -8.9403     49.3372    198.5185   1.2440760626e+02   2.9368993449e+01    0.1754218    0.1561038  62.43 0.0007492821    1.327    0.246
       169  -8.5998    104.0904    198.1624   1.1392285383e+02   2.2165813881e+01    0.1658034    0.1425451  45.95 0.0003344041    1.219    0.180
       170  -9.7865    176.3357    195.5193   9.9746384242e+01   1.0644361204e+01    0.2280154    0.1997137  20.15 0.0004790235    1.161    0.139
       171  -9.0711    149.3443    196.5251   1.0497705326e+02   1.5157030262e+01    0.1973729     0.172671  35.89  0.000579947    1.138    0.121
       172  -9.2785    124.9203    196.4909   1.0968095966e+02   1.9211521813e+01    0.2278167    0.1686528  30.94 0.0005574668    1.491    0.329
       173  -9.1222     88.9546    195.8310   1.1661402038e+02   2.4779277886e+01     0.211231    0.1546375 -50.82 0.0007089993    1.812    0.448
       174  -7.7219     27.3638    197.3029   1.2836533147e+02   3.1950996998e+01   0.08786198    0.0786302 -54.49 0.0007036367    1.732    0.423
       175  -7.6614      7.2956    197.7082   1.3194501236e+02   3.3762992397e+01    0.1054265   0.05021739  64.03 0.0002227241    1.557    0.358
       176  -8.3861    156.9923    196.3141   1.0349165384e+02   1.3882752015e+01    0.1769138    0.1327064  39.40 0.0004399686    1.136    0.120
       177  -8.7285     60.9126    195.8659   1.2202614051e+02   2.8476197237e+01    0.1523065    0.1356238  69.21 0.0004532066    1.264    0.209
       178  -7.8142     31.6583    195.6732   1.2749051899e+02   3.1810096004e+01   0.09075744    0.0787952 -54.73 0.0007051259    1.737    0.424
       179  -8.5693     16.8885    195.0613   1.3013529078e+02   3.3369628423e+01    0.1324096    0.1106069 -66.50  0.000501833    1.629    0.386
       180  -9.7301    132.7452    193.2424   1.0773340830e+02   1.8475547009e+01    0.2317241    0.2112066  81.56 0.0008528749    1.185    0.156
       181 -10.4833    112.1444    192.8128   1.1172735718e+02   2.1865316762e+01    0.3847366    0.2509781  79.34  0.001339764    1.840    0.457
       182  -8.1428     54.5036    194.5415   1.2314233992e+02   2.9490674965e+01    0.1092665   0.08743308  69.07  0.000338639    1.086    0.079
       183  -8.6925    152.1124    192.3530   1.0384788643e+02   1.5338953616e+01    0.1772055    0.1668797  -2.38 0.0003451237    1.272    0.214
       184  -8.7206     74.9457    198.8561   1.1960421107e+02   2.6150630891e+01    0.1549206     0.139042  58.42 0.0004281818    1.279    0.218
       185  -8.9374     36.0498    193.0594   1.2651831892e+02   3.1830228304e+01    0.1586189    0.1242397  73.82  0.000504418    1.098    0.090
       186  -8.2858    167.7826    191.8927   1.0078639877e+02   1.2675829141e+01    0.1366621    0.1045295 -38.26 0.0004946843    1.571    0.363
       187  -8.4265    157.4811    192.4801   1.0283560282e+02   1.4388703195e+01     0.126943    0.1055397  40.46 0.0001637864    1.046    0.044
       188  -9.2619    145.9084    191.3545   1.0490418427e+02   1.6565885439e+01    0.2721703    0.1956896  29.53  0.001163163    1.478    0.323
       189  -8.8869    124.9572    192.0882   1.0910910454e+02   1.9948807045e+01    0.1737642    0.1449938  13.37 0.0005698496    1.626    0.385
       190  -8.3449     26.5703    192.1507   1.2822312370e+02   3.2968487118e+01    0.1333995   0.08156031 -70.26 0.0007013542    1.700    0.412
       191  -9.7612    162.0276    190.2837   1.0163398125e+02   1.3933229423e+01    0.2068523    0.1853115  12.11 0.0003884982    1.250    0.200
       192  -8.1516     74.4306    193.7769   1.1924090062e+02   2.7135626331e+01    0.1357601    0.1015383 -65.03 0.0004821788    1.534    0.348
       193  -7.8848     49.3129    191.3544   1.2389199256e+02   3.0683717131e+01   0.09671461   0.08321759 -49.62 0.0007044895    1.734    0.423
       194  -8.8979     14.4071    190.8076   1.3037821702e+02   3.4371919303e+01    0.1336639   0.07711925 -73.27 0.0004800853    1.699    0.411
       195  -8.9302    139.9839    189.8684   1.0585007555e+02   1.7820403728e+01    0.1895673     0.159915  43.05 0.0005393785    1.088    0.081
       196  -8.1025     96.5340    190.5407   1.1455713643e+02   2.4636446704e+01    0.1184335   0.09992702  59.39 0.0008070172    1.080    0.074
       197  -9.1008     63.9714    190.0541   1.2094754744e+02   2.9167157115e+01    0.1651437    0.1393088  69.88 0.0004546049    1.134    0.118
       198  -9.7151    172.6908    189.1431   9.9427980528e+01   1.2218715098e+01    0.2229165    0.1953409  10.55 0.0004597957    1.240    0.194
       199  -9.8286    179.0513    187.8198   9.8018000465e+01   1.1278865056e+01    0.2518671    0.2208515  -9.72 0.0004514559    1.295    0.228
       200  -8.0540     77.5368    188.9687   1.1817100597e+02   2.7605506659e+01    0.1435799   0.09173867 -44.58 0.0008077848    2.415    0.586
       201  -9.2568    134.2256    187.3219   1.0662890702e+02   1.9223250358e+01    0.2634833    0.2201757 -82.89  0.001264394    1.364    0.267
       202  -8.5133    134.4513    183.4231   1.0602845513e+02   1.9852186137e+01    0.1947055    0.1605892  45.55 0.0001744197    1.080    0.074
       203  -8.4525     89.8342    188.2346   1.1564076076e+02   2.6030354523e+01    0.1416723    0.1335516  47.53 0.0003941709    1.324    0.245
       204  -9.3646    157.1781    186.4346   1.0197826232e+02   1.5392300418e+01    0.2416936    0.1832781  16.31 0.0007118635    1.628    0.386
       205  -8.9973    150.9131    185.5900   1.0307417139e+02   1.6633466044e+01    0.1821062    0.1699615  18.06 0.0003976216    1.209    0.173
       206  -9.0831    128.4862    185.9210   1.0758003910e+02   2.0427186564e+01    0.2106357    0.1597106  31.64 0.0005052888    1.424    0.298
       207  -8.1519    120.3778    186.2791   1.0925803242e+02   2.1700576929e+01    0.1188184   0.09480215  17.28 0.0006319045    1.708    0.415
       208  -8.6203     20.8925    186.1169   1.2894249820e+02   3.4636936234e+01    0.1357855    0.1162486 -62.13 0.0005618281    1.626    0.385
       209  -8.9534    173.4715    183.7868   9.8413426856e+01   1.2885159009e+01    0.2150393    0.1701427  43.09 0.0004117769    1.086    0.079
       210  -9.4582    166.6006    184.2279   9.9804169366e+01   1.4057649000e+01    0.2841924    0.2027235   7.39 0.0004975054    1.983    0.496
       211  -9.3602    176.8770    179.2922   9.7009690437e+01   1.2948850023e+01    0.2355273    0.1940242  21.92 0.0004566062    1.216    0.178
       212  -8.3107    170.0274    181.0000   9.8614932563e+01   1.3939437163e+01    0.2419718    0.1154437  43.69 0.0004027385    1.789    0.441
       213  -8.4458    173.4057    179.5605   9.7722205211e+01   1.3545101132e+01    0.1887766     0.144609  17.97 0.0004308954    1.452    0.311
       214  -9.0816    140.3232    182.9751   1.0478357170e+02   1.8918632557e+01     0.299484     0.208335 -17.27  0.001521026    2.520    0.603
       215  -8.2590    109.4914    184.0054   1.1116760620e+02   2.3849027560e+01     0.147317    0.1053398 -31.52 0.0005084958    2.273    0.560
       216  -8.1088    103.9730    184.0093   1.1229262625e+02   2.4706120038e+01     0.148021    0.1183888  56.58 0.0003040805    1.050    0.047
       217  -7.9218     80.6537    184.7083   1.1711425272e+02   2.7976361635e+01    0.1031127   0.09468194  -2.78 0.0007028112    1.663    0.399
       218  -8.5304     34.5040    184.5072   1.2625649187e+02   3.3588642420e+01    0.1563604    0.1042637  24.20 0.0007965706    2.156    0.536
       219  -8.1868    146.4492    183.5591   1.0364853729e+02   1.7752029150e+01    0.1284292    0.1090118  46.88 0.0001323453    1.014    0.014
       220  -8.4791     95.3045    182.6112   1.1389647736e+02   2.6274199453e+01    0.1824809      0.14057 -44.81 0.0008909333    1.755    0.430
       221  -8.4275     67.0523    182.9370   1.1968932598e+02   3.0118257598e+01     0.152021    0.1420408 -24.62 0.0005822541    1.644    0.392
       222  -9.7074    183.7845    180.9915   9.5987700865e+01   1.1426359063e+01    0.2404141     0.198169   6.75 0.0005424796    1.323    0.244
       223  -8.4945    154.8857    181.8956   1.0171976044e+02   1.6532446108e+01    0.1881306    0.1578756  22.35 0.0003616179    1.298    0.230
       224  -7.8823    130.6355    181.7229   1.0655477306e+02   2.0797207989e+01    0.1226807   0.09617213  18.20 0.0007008975    1.672    0.402
       225  -9.0254     77.2980    180.9225   1.1740269258e+02   2.9152664495e+01    0.1642459    0.1326906  84.67 0.0005299149    1.131    0.116
       226  -8.0795     62.3206    181.2841   1.2049265217e+02   3.1031721757e+01   0.09688221   0.09145994 -34.71 0.0002106022    1.591    0.372
       227  -8.7223     54.9728    180.5371   1.2191172323e+02   3.2069485156e+01    0.2207232    0.1162766 -54.29  0.001230173    2.401    0.583
       228  -8.2343     46.6165    181.2474   1.2364516779e+02   3.2899795233e+01    0.1409966   0.09080978 -69.27  0.000428583    1.581    0.367
       229  -9.1902    160.0748    179.6516   1.0033659983e+02   1.5963462984e+01    0.1827966    0.1420625  41.05 0.0004373554    1.112    0.101
       230  -8.8172    145.8559    178.9641   1.0306184405e+02   1.8630187247e+01    0.1934317    0.1670586  47.64 0.0005472346    1.014    0.014
       231  -8.3592     34.8533    179.3914   1.2584032006e+02   3.4529425600e+01    0.1278045    0.1005114  32.12  0.000505342    1.632    0.387
       232 -10.1151    190.7410    176.9710   9.3981209660e+01   1.0736327180e+01    0.2988279    0.2116096  37.41 0.0004586392    1.215    0.177
       233  -9.9901    134.2690    177.1700   1.0514337557e+02   2.0975278043e+01    0.2795015    0.2091719  66.69 0.0007598981    1.390    0.281
       234  -8.1012     26.4701    178.0040   1.2739660179e+02   3.5639790953e+01    0.1361957    0.0725031 -56.66 0.0006844815    2.366    0.577
       235  -9.3528    185.0342    163.5209   9.2601444653e+01   1.3851410165e+01    0.3068377    0.2490043 -23.56 0.0005482425    1.365    0.267
       236  -8.8127    183.8257    158.1891   9.1813178190e+01   1.4931545507e+01    0.3198693    0.2115588 -49.29  0.001582271    1.816    0.449
       237  -9.0311    169.5218    176.4633   9.7951418443e+01   1.4745397493e+01    0.2081475     0.158345  13.07 0.0005398476    1.586    0.370
       238  -8.1308    181.5128    161.5203   9.2907493100e+01   1.4851700113e+01    0.1370506     0.120087  31.36 0.0008100136    1.030    0.030
       239 -10.6833    175.7720    172.2076   9.5992931951e+01   1.4253539614e+01     0.657999    0.4012041  37.14  0.003412602    1.490    0.329
       240 -10.1952    178.7280    166.5600   9.4396213803e+01   1.4586345546e+01     0.385072    0.3107674  10.86  0.001379951    1.379    0.275
       241  -9.7663    182.5839    174.0026   9.4996426271e+01   1.2697524378e+01    0.3096976    0.2448119   4.47   0.00057677    1.458    0.314
       242  -9.5146    187.8044    170.9269   9.3446832770e+01   1.2182581647e+01    0.2930309    0.2200098  31.95 0.0004889645    1.204    0.169
       243  -8.9272    183.9792    169.4943   9.3916268746e+01   1.3125546321e+01    0.1987476    0.1170273  43.35 0.0003722327    1.490    0.329
       244  -9.3154    101.1303    176.1731   1.1189757076e+02   2.6604864556e+01    0.2284405     0.158916  73.29  0.001335045    1.470    0.320
       245  -9.6490    197.5001    181.0816   9.3457356786e+01   8.9094734487e+00    0.2431104    0.1698083  18.66 0.0006015133    1.520    0.342
       246  -8.2119      6.4953    177.0399   1.3119085957e+02   3.7627678828e+01    0.1306747   0.06572794 -60.37 0.0007403902    2.355    0.575
       247  -9.8294    197.8650    174.9330   9.2292780579e+01   9.7104798159e+00    0.2642511    0.1985684  13.57 0.0006767297    1.407    0.289
       248  -9.1062    150.0203    175.4099   1.0165698529e+02   1.8488944587e+01    0.2189609    0.1810825  41.81 0.0008040352    1.080    0.074
       249  -8.8645    139.9954    175.0317   1.0363995571e+02   2.0348347893e+01    0.1943302    0.1711628  40.41 0.0004598046    1.112    0.100
       250  -7.5604    112.3564    175.3053   1.0942552889e+02   2.4994911712e+01    0.1191201    0.1002561   6.95 0.0007040626    1.719    0.418
       251  -7.8654     93.5595    175.4415   1.1339775507e+02   2.7890754337e+01    0.1214829    0.1051831  64.75 0.0001083691    1.066    0.062
       252  -8.1901     37.5512    174.9446   1.2498117281e+02   3.5110776218e+01    0.1419361   0.07625016 -54.41 0.0006261799    2.397    0.583
       253  -9.7179    161.4135    173.8161   9.9103425300e+01   1.6672647151e+01    0.2374072    0.1803418  31.86 0.0004107626    1.282    0.220
       254  -9.0130    155.9656    173.5338   1.0014829893e+02   1.7723260717e+01    0.2481066    0.1866169 -26.15  0.001394336    1.708    0.415
       255  -9.3487    129.0115    172.7358   1.0556191194e+02   2.2680850361e+01    0.1919558    0.1826037  87.72 0.0004656741    1.143    0.125
       256  -9.8703    193.0678    171.4023   9.2540237488e+01   1.1119134013e+01    0.2291304    0.1981059  -3.41 0.0004154695    1.216    0.178
       257  -8.4089     89.7866    171.8286   1.1375377719e+02   2.9147761791e+01    0.1661866     0.156845  85.75 0.0005211708    1.219    0.180
       258  -8.7258     24.0686    172.1955   1.2750222614e+02   3.6997886846e+01    0.1480922    0.1288666 -87.65 0.0006168446    1.304    0.233
       259  -8.3982    107.4792    171.4781   1.0993045564e+02   2.6502170450e+01    0.1256882    0.1112771  59.62 0.0007256264    1.074    0.069
       260  -8.0104    102.4962    171.4716   1.1099287156e+02   2.7291023527e+01    0.1253661    0.1095771  62.47 0.0002249057    1.055    0.052
       261  -8.0652     76.4942    171.4819   1.1654937182e+02   3.1097131299e+01    0.1206446    0.1016613  71.06 -3.660001e-05    1.042    0.040
       262  -8.0591     44.4807    170.9652   1.2324758763e+02   3.5148258198e+01    0.1448044   0.07986224 -52.45 0.0007741082    2.378    0.580
       263  -8.7094    143.2253    169.7344   1.0212498097e+02   2.0704273763e+01    0.1747856    0.1462798  24.09 0.0005851773    1.340    0.254
       264  -8.4822    119.2646    170.0074   1.0720910187e+02   2.4847533204e+01    0.1724558    0.1576574  67.40 0.0004734716    1.070    0.066
       265  -8.0293     62.4995    170.5079   1.1942194204e+02   3.3119103447e+01    0.1157164   0.09912803  76.85  0.000808497    1.106    0.095
       266  -8.7944    158.1353    168.9058   9.8923410857e+01   1.8103397993e+01     0.198443    0.1765234  38.05 0.0005570366    1.055    0.052
       267  -8.1437     94.8113    169.4299   1.1237274338e+02   2.8868669079e+01    0.1546491    0.1140286  35.34  0.000292069    1.482    0.325
       268  -8.9161    164.8506    166.4924   9.7140408724e+01   1.7245678372e+01    0.2836767    0.1800798 -20.81  0.001244302    2.396    0.583
       269  -8.9970    134.9088    167.8683   1.0356164640e+02   2.2533632957e+01    0.1922208    0.1695377  21.18 0.0004799477    1.319    0.242
       270  -8.1292     24.3575    168.3076   1.2718994655e+02   3.7735609088e+01   0.09802935   0.07872471 -52.10 0.0007041494    1.728    0.421
       271  -9.2116    169.8760    166.5529   9.6143557437e+01   1.6279704518e+01    0.2036116    0.1910628 -18.88 0.0004014751    1.187    0.157
       272  -8.9640    150.0971    166.9516   1.0023492767e+02   1.9936152566e+01    0.1969883    0.1570006  11.59 0.0004803327    1.600    0.375
       273  -8.5179     85.0099    167.4927   1.1424843035e+02   3.0696430180e+01    0.1733499    0.1117246  41.95 0.0004139806    1.483    0.326
       274  -8.3094      8.7950    167.4527   1.3026844979e+02   3.9281378739e+01    0.1156747    0.1017731  24.83 0.0007491761    1.654    0.395
       275  -8.7001    127.8631    165.9482   1.0475154873e+02   2.4132458670e+01    0.1847838    0.1695811  27.56 0.0004088663    1.241    0.194
       276  -7.9596     90.5247    166.4801   1.1292061937e+02   3.0092329778e+01    0.1242983    0.1083721  68.98 0.0001498001    1.051    0.048
       277  -8.0405     59.0115    165.5030   1.1966450633e+02   3.4556122055e+01    0.1368242    0.1065638  -2.54 0.0006855057    2.335    0.572
       278  -7.9519     44.7088    165.6098   1.2274230531e+02   3.6196195565e+01    0.1082188   0.08122253 -50.86 0.0007009151    1.770    0.435
       279  -8.4061    153.7936    164.6398   9.9069949047e+01   1.9651238025e+01    0.3726144    0.1037433  50.85  0.001119418    4.264    0.765
       280  -9.1607    120.2437    163.2066   1.0596359893e+02   2.5971908485e+01    0.2113297    0.1903915  53.86 0.0004793142    1.074    0.069
       281  -9.9365    191.9732    163.0303   9.1176077841e+01   1.2584156808e+01    0.2838765    0.2226795  -0.55 0.0006923858    1.437    0.304
       282  -8.7174    159.4977    163.1213   9.7624753117e+01   1.8835788058e+01    0.2048057    0.1654678  42.55 0.0006747007    1.103    0.093
       283  -8.2298     80.5378    163.5389   1.1473999073e+02   3.2125794663e+01    0.1227417    0.1060843  73.05 0.0001786893    1.049    0.047
       284  -8.6490    172.7045    162.2940   9.4796790339e+01   1.6437205838e+01    0.1809742    0.1425045  23.70 0.0004431075    1.322    0.244
       285  -8.0404    168.4262    162.5059   9.5695255698e+01   1.7228725034e+01    0.1352424    0.1207598  35.49 0.0001286321    1.033    0.032
       286  -9.0867    163.4917    160.1270   9.6258713437e+01   1.8584483551e+01    0.2351038    0.1906887  20.35 0.0003512322    1.354    0.262
       287  -8.1443    146.8490    161.1953   9.9916070449e+01   2.1564776081e+01    0.1764757    0.1492967  24.39 0.0003574191    1.299    0.230
       288  -8.1573      9.3250    161.3117   1.2982738951e+02   4.0447632602e+01    0.0966717   0.07279839 -59.06  0.000488958    1.659    0.397
       289  -7.7917      5.5087    161.4953   1.3061316487e+02   4.0717857417e+01    0.1064958    0.0786121  80.11 7.197915e-05    1.033    0.031
       290  -8.5292    153.1409    160.1098   9.8399830552e+01   2.0572412268e+01    0.1980253    0.1722275  19.05 0.0003181585    1.271    0.214
       291  -8.9537    158.9489    158.1794   9.6835254803e+01   1.9799982871e+01    0.2122632    0.1984029 -35.22 0.0004275434    1.193    0.161
       292  -8.6193    191.8198    157.8243   9.0193258892e+01   1.3414964824e+01     0.208099     0.167567  19.30 0.0006741622    1.241    0.194
       293  -9.7798    176.7494    156.8290   9.2948539572e+01   1.6548277355e+01     0.254182    0.2197499  -2.90 0.0004158657    1.276    0.217
       294  -8.9001    168.1217    157.7509   9.4866866429e+01   1.8090092409e+01    0.2020963    0.1737119  53.79 0.0005084929    1.145    0.126
       295 -11.2050    129.4617    114.2248   9.4399491302e+01   3.4126227205e+01    0.6666732    0.3740053 -62.30  0.002709949    2.296    0.564
       296  -9.7137    129.4276    106.6960   9.2610774424e+01   3.5686444033e+01    0.2960848    0.2145948  58.48 0.0001982684    1.461    0.315
       297 -10.0762    139.0417    141.1616   9.7895697901e+01   2.6813753069e+01      0.29476    0.2778008  33.17 0.0004253559    1.114    0.103
       298 -10.4854    137.4893    136.1792   9.7253760075e+01   2.8092194455e+01    0.4175382    0.3329809 -16.18  0.001635853    1.674    0.403
       299  -9.3630    136.1816    157.8662   1.0161746391e+02   2.4155703141e+01    0.3745377    0.2360424 -74.21  0.001325534    2.299    0.565
       300 -10.1329    136.6564    129.9944   9.6166121392e+01   2.9484239651e+01    0.3292302    0.2567052 -45.86  0.001104822    1.354    0.261
       301 -11.2885    134.7179    122.7920   9.5066157567e+01   3.1319575499e+01    0.9130622    0.3099838 -50.67  0.003078965    3.209    0.688
       302 -10.9679    133.1808    147.1361   1.0035693934e+02   2.6765676863e+01     0.724064    0.3818345 -61.23  0.003133243    2.367    0.578
       303 -10.6347    132.0154    140.1007   9.9288480858e+01   2.8369691361e+01      0.45055    0.3013148 -64.39  0.001703956    1.735    0.424
       304 -10.8708    134.0679    107.8722   9.1745577048e+01   3.4487656150e+01    0.6437273    0.2993595 -42.08  0.002025136    2.244    0.554
       305 -10.0239     24.7148    155.9106   1.2624254816e+02   4.0199825142e+01    0.2053496    0.1807561  60.69   0.00128727    1.279    0.218
       306  -8.5655    149.7443    157.0159   9.8554836753e+01   2.1773907376e+01     0.180982    0.1757322  73.40 0.0004734759    1.093    0.085
       307 -10.0384    197.3268    154.6603   8.8513937225e+01   1.2815008712e+01    0.2627989    0.2194859   8.39 0.0004313024    1.215    0.177
       308 -10.0920    165.1456    154.0133   9.4762262880e+01   1.9317295323e+01    0.4106137    0.3280381  23.26  0.002274779    1.347    0.257
       309  -9.2229    113.5752    155.2142   1.0617143266e+02   2.8671851017e+01    0.2338869    0.1983773 -18.60 0.0007515259    1.651    0.394
       310  -8.1271     39.6584    156.6667   1.2304500617e+02   3.8568724067e+01    0.1078329   0.08355445 -47.41 0.0007051064    1.754    0.430
       311  -9.8032     18.0923    155.3533   1.2762577998e+02   4.0907889963e+01    0.2385516    0.1117465  80.82  0.001338825    1.941    0.485
       312  -8.4510    154.7346    155.0166   9.7128758083e+01   2.1175868415e+01    0.1794373    0.1783038  61.86 0.0004180736    1.100    0.091
       313  -9.3213    187.8286    153.3651   9.0077069594e+01   1.4908724710e+01    0.3173243    0.2159634 -26.61  0.001494193    1.664    0.399
       314  -8.1133    184.3587    153.2567   9.0734846615e+01   1.5620086258e+01    0.1958112    0.1405358 -30.51 0.0005891579    1.536    0.349
       315  -9.6417    206.1678    152.4814   8.6419569324e+01   1.1392700141e+01    0.2439779     0.192747   4.20 0.0004352161    1.323    0.244
       316  -8.5565    192.8006    152.7906   8.8999075442e+01   1.4005608812e+01    0.2052391     0.169136  20.43 0.0005598217    1.187    0.158
       317  -8.6879    128.0555    155.7478   1.0303107181e+02   2.6035229290e+01    0.1852375    0.1621388  52.29 0.0003473644    1.047    0.044
       318  -9.9778    145.0000    151.1376   9.8488900248e+01   2.3762257842e+01    0.2680166    0.2313761  60.00 0.0004272865    1.119    0.106
       319  -9.6448    143.3339    147.2328   9.8115525042e+01   2.4817522461e+01    0.2817805    0.2132387 -42.16 0.0006928059    1.466    0.318
       320  -9.0485    157.0894    150.9420   9.5855399781e+01   2.1448614040e+01    0.2110308    0.1925356  35.75 0.0005103893    1.062    0.059
       321  -8.7481    151.9671    151.2304   9.7002481529e+01   2.2399040938e+01    0.1930738    0.1649875  42.84  0.000364511    1.080    0.074
       322  -8.4215     99.4584    156.0905   1.0949560568e+02   3.0811159681e+01    0.1749552    0.1227295 -60.94 0.0006135845    1.478    0.324
       323  -8.7430    107.7597    151.1156   1.0683269400e+02   3.0474488981e+01     0.176471     0.164221  80.72 0.0004155342    1.074    0.068
       324  -8.3108    168.2591    150.3418   9.3400126577e+01   1.9335966794e+01    0.1355661    0.1065268   4.32 0.0002723245    1.588    0.370
       325  -9.1786     55.7153    144.4474   1.1811203830e+02   3.9350207576e+01    0.2787603    0.1212498 -55.83  0.001100389    2.366    0.577
       326  -8.9819     54.0001    149.5041   1.1909143830e+02   3.8474657533e+01    0.2086614    0.1490111 -65.79 0.0008267159    1.386    0.278
       327 -10.2184     50.7866    147.4151   1.1960743399e+02   3.9290711772e+01    0.2829258    0.1433315  34.26  0.001506041    2.133    0.531
       328  -9.4865    196.9986    148.2375   8.7260813500e+01   1.3873364158e+01    0.2364455     0.192329  -9.87 0.0003774944    1.311    0.237
       329  -9.3291    182.0108    148.1132   9.0157250735e+01   1.6936686751e+01    0.2144201    0.1955443  -6.64 0.0003057083    1.147    0.129
       330  -8.1398     78.6902    149.6546   1.1336055187e+02   3.5254445788e+01    0.1194381   0.09831581 -33.98  0.000704497    1.703    0.413
       331  -9.7930     67.7943    149.1712   1.1584383157e+02   3.6835154956e+01     0.158085    0.1460712 -53.45 0.0004914618    1.359    0.264
       332  -8.4900      6.4824    149.4654   1.2973839479e+02   4.3057928485e+01    0.1085126   0.08115923  82.85 0.0005482038    1.026    0.026
       333  -8.5225    172.4787    148.4465   9.2152367379e+01   1.8814065130e+01    0.1402457    0.1271753  37.38 5.211458e-05    1.005    0.005
       334  -9.6456    161.7355    147.3107   9.4158726012e+01   2.1177554715e+01    0.2783856    0.2237833  43.98  0.001061174    1.141    0.124
       335  -8.7812    122.0021    148.3593   1.0310851871e+02   2.8569799822e+01    0.1930835    0.1554011  47.40 0.0004045269    1.163    0.140
       336  -9.3381     59.6923    149.6732   1.1779171527e+02   3.7754984555e+01    0.2011126    0.1019011 -65.18 0.0007338177    1.843    0.458
       337  -9.7465    190.6146    146.4745   8.8122104005e+01   1.5450559888e+01     0.354184    0.2187032  35.41  0.001098641    1.578    0.366
       338  -9.0421    187.8554    143.7567   8.8090780500e+01   1.6457696402e+01    0.4632322    0.2005358  29.55  0.001444901    4.098    0.756
       339  -8.8682    150.0065    146.9954   9.6609600845e+01   2.3563486409e+01    0.2081497    0.1670355  10.16 0.0003954578    1.588    0.370
       340  -7.7816     98.3095    146.3284   1.0826172648e+02   3.3003602922e+01    0.1240542    0.1056717 -20.23 0.0004777266    1.662    0.398
       341  -9.1210    176.2091    144.4182   9.0563371015e+01   1.8744460127e+01    0.2515047    0.2048088   8.77 0.0005098165    1.398    0.285
       342  -8.4914     38.9812    145.7623   1.2217965852e+02   4.0926040975e+01    0.1378635   0.09255717  39.86 0.0007447401    1.569    0.363
       343  -9.8259    208.3935    143.1622   8.4055934432e+01   1.2339642907e+01    0.2751439    0.2247444  10.45 0.0006517335    1.220    0.180
       344  -8.1621    176.4893    150.0418   9.1658452941e+01   1.7732654591e+01    0.1854048    0.1389462 -36.35 0.0003894519    1.455    0.313
       345  -7.8488     81.3126    144.3331   1.1199136001e+02   3.6009016832e+01    0.1212429    0.1004555 -31.62 0.0006505136    1.680    0.405
       346  -9.1507    200.2213    143.0557   8.5555782362e+01   1.4024745341e+01    0.2250255    0.1835739  37.02 0.0003634322    1.129    0.114
       347  -9.0467    171.9291    142.9784   9.1142309521e+01   1.9872436486e+01    0.2161115    0.1936447  26.56  0.000521506    1.091    0.083
       348  -8.2763    120.1924    143.1731   1.0259818748e+02   2.9936727319e+01    0.1799645    0.1492111  76.26 0.0003018682    1.236    0.191
       349 -10.4073     74.0887    142.1172   1.1340973117e+02   3.7499778566e+01    0.3294806    0.2338535 -19.80  0.001654216    2.664    0.625
       350  -8.5551    194.4955    141.9267   8.6407067928e+01   1.5382621137e+01     0.196751    0.1379929 -29.98 0.0005616836    1.515    0.340
       351  -9.5060    155.4766    140.8564   9.4192104414e+01   2.3613953564e+01    0.2763172    0.2337576   1.05 0.0005622449    1.430    0.301
       352  -8.7331    147.7342    141.4175   9.6003765277e+01   2.5059820230e+01    0.1978422    0.1276679  35.96 0.0008529911    1.594    0.373
       353  -8.6723      4.4750    141.5264   1.2969625942e+02   4.4838689957e+01    0.1087022   0.08217214  86.88 0.0001768686    1.050    0.047
       354  -8.8398    203.7707    139.7942   8.4185114379e+01   1.3800466408e+01    0.2073324     0.170861  14.76 0.0005107942    1.206    0.171
       355  -8.7422    186.9803    138.9412   8.7232541900e+01   1.7433336166e+01    0.2133363    0.1943578  18.80 0.0004303063    1.055    0.052
       356  -8.3682    181.4941    139.4930   8.8448811054e+01   1.8488298657e+01    0.1437778    0.1300388  26.21 1.520979e-05    1.049    0.047
       357  -9.1498    166.4081    138.4900   9.1352510467e+01   2.1806545077e+01    0.2422909    0.2169432  36.24 0.0005123417    1.056    0.053
       358  -8.1089    160.9762    139.7511   9.2775718733e+01   2.2697778433e+01    0.1822348    0.1144676  45.12 0.0002994245    1.480    0.325
       359  -8.3439    116.1058    138.8309   1.0276248773e+02   3.1555319134e+01    0.1760403    0.1648366  -3.36 0.0003985745    1.315    0.240
       360  -8.7267    151.9399    137.6520   9.4304066009e+01   2.4929171214e+01    0.2181528    0.1944849 -26.21 0.0004623431    1.251    0.200
       361  -7.8746    109.4822    138.4968   1.0428018705e+02   3.2785049112e+01      0.13284    0.1277575  68.61 0.0005576434    1.101    0.092
       362 -11.5330     69.0958    136.1270   1.1378236660e+02   3.9471934086e+01    0.4359407    0.2802931  68.50  0.002078368    1.621    0.383
       363 -10.0186    207.8201    135.6943   8.2533368784e+01   1.3592116885e+01    0.3885141     0.253453  50.29 0.0006100474    1.539    0.350
       364  -9.0690    142.9304    135.8856   9.5953077247e+01   2.7076983461e+01    0.2106193    0.1905121   8.64 0.0005104556    1.274    0.215
       365  -9.2332     10.6925    136.0039   1.2791452183e+02   4.5530772341e+01    0.1773735   0.04150251 -58.79 0.0007014515    4.079    0.755
       366  -8.3351      5.6887    136.6629   1.2911209650e+02   4.5763135482e+01    0.1053917   0.07002909 -57.45 0.0007045016    1.686    0.407
       367  -9.7114    192.9670    134.6463   8.5113387646e+01   1.6879832375e+01    0.2509531    0.2206575 -14.32 0.0003220822    1.167    0.143
       368  -9.2834    198.4253    134.3004   8.3984521147e+01   1.5781049351e+01    0.3265844    0.2732702  62.79  0.001233735    1.379    0.275
       369  -8.6574    198.4274    130.4981   8.3128577665e+01   1.6390266590e+01    0.2009301    0.1341231 -22.05 8.580575e-05    1.663    0.399
       370  -9.5985    171.5866    134.8554   8.9478965272e+01   2.1372723865e+01    0.4035787    0.1991104  53.06  0.001640721    2.105    0.525
       371  -9.2721    155.8584    134.0772   9.2685518719e+01   2.4800336715e+01    0.2756114    0.2313443 -72.11  0.001056394    1.398    0.284
       372  -8.4609    126.9996    134.9539   9.9445950933e+01   3.0352180368e+01      0.20562    0.1725291   1.81 0.0004814444    1.593    0.372
       373  -9.4209    187.9967    133.5319   8.5841483057e+01   1.8119402212e+01    0.2603319    0.1973844 -11.43 0.0005345385    1.532    0.347
       374 -10.5820    154.8604    128.1642   9.1614848880e+01   2.6123693330e+01    0.3209738     0.247195 -17.03  0.001423236    1.641    0.391
       375  -9.3156    163.5254    133.4921   9.0891784978e+01   2.3313338528e+01    0.2596207    0.2324909   2.82 0.0006337151    1.229    0.186
       376 -10.4180    160.8528    129.7480   9.0646516484e+01   2.4565651456e+01       0.3327    0.2656956 -38.10   0.00131096    1.330    0.248
       377  -9.2767    146.9282    136.7239   9.5225585723e+01   2.6116346390e+01    0.2394293    0.1966079 -24.56  0.000319057    1.449    0.310
       378  -8.3529     21.8434    134.4388   1.2516393176e+02   4.4964223952e+01    0.1282772     0.112368   0.02 0.0008282412    1.689    0.408
       379 -10.0094    134.1710    113.4713   9.3067871183e+01   3.3325007664e+01    0.3771311    0.2169984 -39.93  0.001299256    1.877    0.467
       380  -8.4241    119.8677    133.2246   1.0080007044e+02   3.2033617664e+01    0.1837645    0.1681786  -1.36 0.0005231421    1.348    0.258
       381  -7.9322    212.4506    132.4863   8.0972364031e+01   1.3115231058e+01    0.1422586    0.1259103  14.21  0.000199767    1.046    0.044
       382 -10.0103    179.4925    129.8563   8.6729116522e+01   2.0566021786e+01    0.2762413    0.2445676  16.55 0.0004108076    1.151    0.131
       383  -8.9379    114.3893    131.0582   1.0170213011e+02   3.3479738054e+01    0.2168482    0.1899682  34.53 0.0004788981    1.242    0.195
       384  -8.1675     32.4705    131.5048   1.2230284482e+02   4.4642259591e+01    0.1171704   0.09619506 -83.66 0.0001921863    1.090    0.083
       385  -9.7823    125.9019    129.5964   9.8626273097e+01   3.1653911224e+01    0.4537247    0.2347873 -46.20  0.001530306    2.043    0.511
       386  -9.6866    122.9668    125.8464   9.8558133358e+01   3.2985453716e+01    0.4364733    0.3245847   2.39  0.002038667    2.168    0.539
       387  -8.7047    149.8424    133.2381   9.3840551569e+01   2.6194698943e+01    0.2047425    0.1778516  44.15 0.0004149735    1.092    0.084
       388  -8.5866    205.3516    129.2959   8.1550888018e+01   1.5103275307e+01     0.150324    0.1040527  18.10 0.0007033574    1.685    0.407
       389  -8.0537    131.2824    129.3462   9.7293077473e+01   3.0669836477e+01    0.1390104    0.1141263  -7.34 0.0003941706    1.643    0.391
       390  -8.5686     23.5273    128.4874   1.2421299506e+02   4.6105864651e+01    0.1157957    0.0923833 -86.79  9.80652e-05    1.053    0.050
       391  -8.4016    211.5673    126.7404   7.9825362397e+01   1.4175632432e+01    0.2358501     0.180105  72.98  0.001174279    1.806    0.446
       392  -8.9768    192.5009    127.0551   8.3485130686e+01   1.8228460201e+01    0.2562774     0.186618  30.00  0.000436578    1.409    0.290
       393  -8.9339    186.8053    127.1686   8.4636263586e+01   1.9445705467e+01    0.2057177    0.1966835  59.54 0.0004307625    1.133    0.117
       394  -9.2459    171.7225    127.0770   8.7712186289e+01   2.2731451708e+01    0.2782474    0.2000147  38.90 0.0005798516    1.352    0.260
       395  -9.2818    165.6814    126.8013   8.8937265199e+01   2.4081703183e+01    0.2178847    0.1809867  -9.86 0.0005682722    1.404    0.288
       396  -9.4530    200.0105    124.9213   8.1544852703e+01   1.6946694526e+01    0.2202799     0.194233  18.39 0.0003485407    1.094    0.086
       397  -9.9666    151.9765    124.3166   9.1397965760e+01   2.7464822530e+01    0.2599901    0.2150517 -37.57 0.0005255103    1.284    0.221
       398  -8.7088     62.4630    125.4875   1.1391428714e+02   4.2676830078e+01    0.1266274    0.1109669 -83.31 6.279352e-05    1.053    0.051
       399  -9.5578    179.6238    122.0854   8.4906741664e+01   2.1892248190e+01    0.3257375    0.2369582 -14.49  0.001113554    1.672    0.402
       400  -8.6460    107.9446    123.8779   1.0188188881e+02   3.6149695618e+01    0.1971686    0.1857569 -12.95 0.0003021643    1.279    0.218
       401 -10.0200    146.5344    123.5082   9.2456551983e+01   2.8761027197e+01    0.2107661    0.1765078   5.01 0.0006568105    1.477    0.323
       402  -7.7925    164.6503    122.6944   8.8215320984e+01   2.5059844906e+01    0.1522949    0.1141429  14.44 0.0003548115    1.703    0.413
       403  -8.4369    128.1612    121.8698   9.6442407554e+01   3.2807531548e+01    0.1869609    0.1702977 -11.79  0.000432585    1.297    0.229
       404  -9.4334     32.7920    122.4105   1.2123479952e+02   4.6610656140e+01    0.1411218    0.1180342   8.84 0.0009487348    1.685    0.406
       405  -9.2611      1.9839    121.9666   1.2897890026e+02   4.9126311902e+01    0.1683578    0.1059936 -56.57 0.0006808331    1.689    0.408
       406  -9.6146    212.5065    120.5415   7.8211226301e+01   1.4924837231e+01     0.267528    0.2194087  17.12  0.001446008    1.223    0.182
       407  -9.4415    187.9193    121.0392   8.2980731642e+01   2.0240544841e+01    0.2401918    0.2008942  38.11  0.000303477    1.143    0.125
       408  -8.9674    116.9855    121.0276   9.9018713591e+01   3.5118868485e+01    0.2164057    0.1770149 -10.27 0.0007957431    1.684    0.406
       409  -9.2712    202.5035    119.4187   7.9778270931e+01   1.7285396764e+01    0.3311374    0.2086486  49.92 0.0009461599    1.568    0.362
       410  -8.7859    152.3157    120.3032   9.0399074899e+01   2.8165897941e+01    0.1470838    0.1162226   9.95 0.0002758258    1.620    0.383
       411  -8.9071    170.0598    122.9668   8.7115376793e+01   2.3833187610e+01    0.2281203     0.175671   8.05 0.0004473889    1.634    0.388
       412  -8.3833     12.6629    120.6621   1.2621642795e+02   4.8671741382e+01    0.1131505   0.07219322 -52.15 0.0007051323    1.754    0.430
       413  -9.2363    219.7457    118.8631   7.6537850220e+01   1.3619249055e+01    0.3000562    0.2161419  62.59  0.001438353    1.678    0.404
       414  -8.8874    194.0651    118.9436   8.1272952120e+01   1.9229565325e+01    0.2185512    0.1977716  16.18 0.0003235134    1.078    0.072
       415  -9.6080    170.0026    119.0097   8.6193469584e+01   2.4563821883e+01    0.2798725    0.1893495  48.03 0.0004839586    1.422    0.297
       416 -10.7470    157.6200    116.7922   8.8373031370e+01   2.7694314686e+01    0.6532681    0.2934722 -31.60  0.002201554    3.024    0.669
       417  -8.8971    174.0206    117.5184   8.4983536058e+01   2.3942288023e+01    0.2163763    0.2036969 -18.07 0.0004778746    1.091    0.083
       418  -9.6684     65.7999    116.8491   1.1166346137e+02   4.4184961613e+01    0.3169219    0.1879391 -70.46  0.001641377    1.589    0.371
       419  -8.4518    209.2523    117.2112   7.8006508214e+01   1.6149993331e+01    0.1848371    0.1709169 -68.56 0.0005101663    1.309    0.236
       420  -8.2642    184.4368    117.5561   8.2844758822e+01   2.1610671605e+01    0.1475832    0.1374431  20.55 7.758406e-05    1.041    0.039
       421  -9.6637    147.8210    115.9295   9.0402539816e+01   2.9974668987e+01    0.2276422    0.2020637   9.63 0.0006821179    1.280    0.219
       422 -11.0039      7.2085    114.0616   1.2704279790e+02   5.0489469154e+01    0.3076655    0.2255603  78.55  0.002197138    1.164    0.141
       423  -8.4171    199.5677    115.4809   7.9383275197e+01   1.8572098210e+01    0.1480353    0.1342345  13.13 7.512386e-05    1.071    0.066
       424  -8.7693    163.2155    114.7576   8.6639554351e+01   2.6847751295e+01    0.2024773    0.1705757  15.13 0.0004133833    1.339    0.253
       425 -10.1777    122.2641    113.5394   9.6037627924e+01   3.5692026695e+01    0.3337196    0.2349261 -69.57  0.001075149    1.682    0.405
       426  -9.2829     21.6222    114.3410   1.2327822677e+02   4.9370540097e+01    0.2251261    0.1291811 -48.28  0.001100903    2.000    0.500
       427  -7.9792    212.2642    114.3236   7.6769466927e+01   1.5935626640e+01    0.1454124    0.1070883   9.62 0.0003836103    1.561    0.359
       428  -9.1640    203.0671    113.4052   7.8221369997e+01   1.8124402779e+01    0.2874242    0.2344235 -50.03  0.001165275    1.390    0.280
       429  -9.4322    185.6743    113.0689   8.1500085902e+01   2.2104394286e+01    0.2760268    0.2302918  33.60 0.0003259864    1.180    0.152
       430  -8.9076    181.2328    114.3725   8.2720969868e+01   2.2882610612e+01    0.2029261    0.1390675  57.34 0.0004562429    1.547    0.354
       431  -9.2483    153.4990    113.9901   8.8629805626e+01   2.9127728604e+01    0.2171153    0.1476469 -41.25 0.0004613745    1.522    0.343
       432  -9.4667    194.0708    111.7371   7.9516550073e+01   2.0425417413e+01    0.4520429    0.2722993  26.67  0.001736568    2.133    0.531
       433  -8.1465    173.6835    113.2878   8.4023153939e+01   2.4777124605e+01    0.1459879    0.1192646 -87.18  0.000317356    1.590    0.371
       434  -9.2745    114.0687    112.9405   9.7993301956e+01   3.7381766732e+01    0.2170479    0.1771792 -12.26 0.0005412942    1.655    0.396
       435  -8.1383     41.4769    113.4609   1.1779515836e+02   4.7764215312e+01    0.1225573    0.1031466 -73.61 0.0008071333    1.096    0.088
       436  -9.4719    208.6678    110.5588   7.6496883793e+01   1.7321140391e+01    0.3219653    0.2295209 -24.46  0.001588067    1.422    0.297
       437  -9.2960    168.2995    109.9466   8.4342337403e+01   2.6599000154e+01      0.21155    0.1878536 -27.42 0.0004298579    1.166    0.143
       438  -9.3745    143.7901    110.0179   8.9920252365e+01   3.2002242798e+01    0.2036029    0.1970395  70.37 0.0005148648    1.029    0.028
       439  -9.2264    218.6700    113.7018   7.5493522886e+01   1.4625601260e+01    0.4272099    0.2283113  28.34  0.001696908    2.463    0.594
       440  -8.7815     17.2289    109.9933   1.2399805226e+02   5.0675309542e+01    0.1917246   0.09706676 -53.97  0.001063955    1.968    0.492
       441  -8.9586     66.7522    109.4374   1.1011399095e+02   4.5733522296e+01    0.1593306    0.1307062  20.31 0.0005714775    1.544    0.352
       442  -8.6162      1.5422    109.2550   1.2812267433e+02   5.1892460166e+01    0.1566618   0.07821658 -68.19 0.0009323632    1.607    0.378
       443  -9.0962    218.4554    107.7259   7.4076203148e+01   1.5573634076e+01    0.2822013    0.2386882  51.67  0.001247452    1.242    0.195
       444  -9.5030    218.9096    103.0175   7.2832056895e+01   1.6182203579e+01    0.2874383     0.247293   6.49 0.0007677599    1.161    0.139
       445  -9.1848    176.8359    107.9873   8.2036774581e+01   2.5007522987e+01    0.2321857    0.2010536   5.67 0.0006170106    1.258    0.205
       446 -10.5814    123.0612    107.8078   9.4491795073e+01   3.6737649559e+01    0.6064305     0.243137  43.15  0.002236126    2.511    0.602
       447 -10.1465    119.5264    102.0879   9.4009906448e+01   3.8638576896e+01    0.4183766    0.2517065 -39.03   0.00140589    1.807    0.447
       448  -8.3575    201.4400    107.4798   7.7057305497e+01   1.9446266460e+01    0.1486936    0.1368163  11.40 0.0002720039    1.054    0.051
       449  -9.0577    190.1530    107.1685   7.9135952672e+01   2.2086465637e+01    0.2231287    0.1943338  16.10 0.0004023103    1.184    0.156
       450  -8.9556    182.9706    106.7440   8.0460290306e+01   2.3814670909e+01    0.2085027    0.1893373  42.16 0.0003619478    1.074    0.069
       451  -9.1643    160.8826    105.9572   8.4960848420e+01   2.9016927012e+01    0.2229905    0.2114476  13.69  0.000397888    1.082    0.076
       452  -9.3142    112.9115    105.8299   9.6656747053e+01   3.9119975430e+01    0.2093492    0.1983656 -19.81 0.0004224916    1.183    0.154
       453  -8.1940     29.5057    106.4755   1.2019081438e+02   5.0467431104e+01     0.120529   0.09814739 -73.58 4.242093e-05    1.085    0.078
       454 -10.3841     11.9547    105.5909   1.2498401920e+02   5.2028232703e+01    0.2743376    0.1412913  56.26  0.001568393    2.022    0.506
       455  -9.4781    166.5575    105.0250   8.3470298784e+01   2.7898930571e+01    0.3478844    0.2195669  65.91  0.001448205    2.014    0.503
       456  -8.1905     71.3406    105.3109   1.0803965057e+02   4.6048728501e+01    0.1315676    0.1007309 -30.14  0.000704537    1.694    0.410
       457  -9.9193     65.7316    103.8540   1.0937162609e+02   4.7133002184e+01    0.2701144    0.1832033  20.86  0.001180535    1.973    0.493
       458  -8.4896    205.7188    103.0977   7.5165764631e+01   1.9168091887e+01    0.2048694    0.1841238 -10.69 0.0003683076    1.092    0.084
       459  -9.2482    190.0947    102.3818   7.7923055850e+01   2.2907314697e+01    0.2531125    0.2011577 -17.68 0.0004964467    1.337    0.252
       460  -8.8697     16.9956    103.0236   1.2330292263e+02   5.2241855959e+01    0.2378873    0.1057799 -54.37 0.0005442468    2.125    0.529
       461  -9.1634     18.9684     99.9762   1.2238392416e+02   5.2777447762e+01    0.2264445    0.1190628  58.83   0.00123956    2.086    0.521
       462  -8.9917    195.0883    101.6588   7.6772829185e+01   2.1863010906e+01    0.2062352    0.1863067  31.50 0.0004986841    1.082    0.076
       463  -8.5560    185.2580    100.9775   7.8513621731e+01   2.4277227296e+01    0.1898493     0.129391 -34.98 0.0005162644    1.481    0.325
       464  -9.6722    129.2575    100.4344   9.1083292076e+01   3.7010631703e+01    0.4595865     0.256899  27.49  0.001707571    2.754    0.637
       465  -7.8396    176.3037    100.3390   8.0172585661e+01   2.6487320537e+01    0.1569522    0.1179121  11.88 0.0004829396    1.673    0.402
       466  -7.8916     55.4565    158.4682   1.1972247374e+02   3.6425376550e+01    0.1179554   0.09887578  80.99 0.0003439796    1.059    0.056
       467  -8.4712     24.2334     99.5863   1.2080776535e+02   5.2458781485e+01    0.1410767    0.1151645  -8.82 0.0009429959    1.706    0.414
       468 -10.8560      6.0746     97.7310   1.2583727644e+02   5.4144408615e+01    0.3801537    0.1971913 -44.78  0.002170946    2.250    0.555
       469 -10.4136      3.4423     89.6149   1.2576874784e+02   5.6089522400e+01    0.3286198    0.2573383   7.49  0.002391348    1.754    0.430
       470 -10.3936    224.4169     91.9625   6.9128506217e+01   1.6578783299e+01    0.2886138    0.2378159  38.31  0.001015918    1.225    0.184
       471 -10.2174    225.1704     97.4417   7.0395864903e+01   1.5605206089e+01     0.327425    0.2250914 -26.02 0.0006892561    1.406    0.289
       472 -14.0354     98.4302    243.6570   1.1919909632e+02   1.5807324282e+01     5.925779     1.038528  40.23   0.02230831    4.538    0.780
       473  -8.2146    217.3681     97.7976   7.1777786370e+01   1.7318981108e+01    0.1982521    0.1338486 -16.89 0.0002499827    1.586    0.370
       474  -7.8679    209.6060     98.7090   7.3350762545e+01   1.8962531604e+01    0.1590868    0.1078568  22.39 0.0007004616    1.781    0.438
       475  -7.9509    167.2929     98.3612   8.1564826880e+01   2.8949900474e+01     0.157453    0.1194066   8.02  0.000702945    1.701    0.412
       476  -8.8740     89.9880     97.9756   1.0112488850e+02   4.4883359025e+01    0.2147885    0.1924674 -85.07 0.0005645819    1.107    0.097
       477  -7.9071     44.3076     98.3376   1.1468737576e+02   5.0902353016e+01    0.1273825   0.08530131 -43.01 0.0007042376    1.679    0.404
       478  -8.4194    188.9924     97.0283   7.6738264697e+01   2.4068129437e+01    0.1803593    0.1730252  -8.49 0.0004066461    1.031    0.030
       479  -8.3498     36.4863    108.0393   1.1843346881e+02   4.9478274052e+01    0.1690793   0.07714757 -50.22 0.0006794894    2.297    0.565
       480  -8.5897    203.3042     96.0005   7.3775703405e+01   2.0857663603e+01    0.2099387    0.1799446 -20.33 0.0003813849    1.158    0.136
       481  -7.9927    135.6786     95.7012   8.8225877888e+01   3.6610797394e+01    0.1501466    0.1198969   7.32  0.000332417    1.623    0.384
       482  -9.0390     21.2264     94.7359   1.2105855492e+02   5.3784403854e+01    0.1958923   0.06166998 -61.59  0.000877278    2.388    0.581
       483  -8.2741    183.5967     94.1794   7.7043515755e+01   2.5834629259e+01    0.2062955    0.1453379 -19.18 0.0004096236    1.605    0.377
       484  -8.0855     94.4853     94.3730   9.8976342844e+01   4.4926102893e+01    0.1353577    0.1323436 -56.42  0.000159689    1.072    0.067
       485  -7.9821    207.3091     93.3125   7.2356431613e+01   2.0340778540e+01    0.1536188     0.112018  17.07 0.0003864539    1.626    0.385
       486  -7.8653    112.3492     93.6745   9.3789279702e+01   4.1820713083e+01    0.1521613    0.1143924  86.64 0.0007049071    1.753    0.430
       487  -7.9931     75.9912     93.5161   1.0420767950e+02   4.8050422346e+01     0.165057    0.1201908  -6.36 0.0005072712    2.164    0.538
       488  -8.1469     28.3086     93.3655   1.1873003379e+02   5.3529806360e+01     0.126555   0.07587024 -46.97 0.0007037972    1.752    0.429
       489  -8.2529    164.7785     92.2115   8.0447396160e+01   3.0661615071e+01    0.2094264      0.17715   8.23 0.0005883347    1.347    0.258
       490  -8.2208    188.3759     90.8376   7.5198748743e+01   2.5254131160e+01    0.2143087     0.143738 -19.44 0.0007474013    1.694    0.410
       491  -8.6686    127.9649     91.2842   8.8993063644e+01   3.9153701735e+01    0.1955812    0.1853291  36.34 0.0001894147    1.083    0.076
       492  -7.9211    103.6849     91.6416   9.5667898522e+01   4.3889281429e+01    0.1471806    0.1137233 -15.07 0.0007043775    1.750    0.429
       493  -9.4683     13.5174     91.1408   1.2291611438e+02   5.5137978778e+01    0.1910422    0.1184897 -30.99 0.0007966085    2.198    0.545
       494  -8.1191    196.9604     90.0372   7.3355723835e+01   2.3321750178e+01    0.1767239    0.1697886  -7.84 0.0003229181    1.019    0.019
       495  -8.2624    210.0114     89.4835   7.0877924378e+01   2.0298055682e+01    0.2135042    0.1445863  52.35 0.0004516549    1.491    0.329
       496  -8.5455    203.4862     88.9862   7.1888651921e+01   2.1926516031e+01    0.2216152    0.1450069 -30.51 0.0004787972    1.510    0.338
       497  -8.6563    158.1218     88.5060   8.0897669992e+01   3.2913375395e+01    0.2267893    0.2017314 -33.55 0.0004603044    1.137    0.121
       498  -8.2612    183.3320     88.2969   7.5492678230e+01   2.6899971351e+01     0.158499    0.1167191  20.05 0.0003345972    1.642    0.391
       499 -10.4781      9.7819     85.9076   1.2341365397e+02   5.6543908314e+01    0.2864583    0.2005695  53.70  0.001058752    1.571    0.363
       500 -11.8240    225.3224    243.2810   9.8319264860e+01  -2.7692089779e+00    0.7058496    0.2132462 -29.23  0.003342802    4.556    0.781
       501  -8.2655    121.0680     90.0263   9.0462026480e+01   4.0848056212e+01    0.1731884    0.1670003 -53.42 0.0003153876    1.022    0.022
       502  -8.3406     28.4715     84.5092   1.1729853059e+02   5.5520899060e+01    0.1230811    0.0986769 -64.83 0.0008087138    1.078    0.073
       503  -9.9908    217.8411     83.1207   6.7886887172e+01   1.9408457475e+01    0.3456524     0.211536  35.58  0.001519894    1.842    0.457
       504  -8.5597    206.1738     82.8029   6.9750946410e+01   2.2245412983e+01    0.2038436    0.1688957  13.88 0.0003211032    1.311    0.237
       505 -10.0397      2.5309     82.1937   1.2523270785e+02   5.7778584895e+01    0.2943144    0.1726146  82.96  0.001806786    1.614    0.380
       506  -9.4952      9.2688     79.5521   1.2276147688e+02   5.7990763239e+01    0.2263484    0.1194109 -40.37  0.001270036    2.181    0.541
       507 -10.2444      5.3883     79.1935   1.2396735194e+02   5.8290387770e+01    0.2708682    0.1617427  82.36  0.001460257    1.644    0.392
       508  -8.1187    170.9935     82.2605   7.6311398515e+01   3.0942326063e+01    0.1933993    0.1323694  53.08 0.0004435047    1.453    0.312
       509  -8.3526    185.5185     81.4541   7.3152737994e+01   2.7511476030e+01    0.1530956    0.1460988  17.20 4.214764e-05    1.042    0.041
       510  -8.0239    126.7218     80.9933   8.6406200083e+01   4.1492710852e+01    0.1823498    0.1310677 -42.13 0.0004155932    1.375    0.273
       511  -8.1545    159.1501     79.8477   7.8175490342e+01   3.4248073268e+01    0.2077439    0.1789503  11.25 0.0003790385    1.295    0.228
       512  -8.1530    110.5354     80.4895   9.0681514519e+01   4.4943367687e+01     0.145661    0.1396925 -27.94 8.999789e-05    1.063    0.059
       513  -8.4203     19.4761     80.5234   1.1958030295e+02   5.7111040365e+01    0.1199329   0.09520689 -70.39 0.0003289721    1.025    0.024
       514 -13.5353    119.3964    241.4796   1.1552239657e+02   1.3199877005e+01     3.691252     1.788171  26.19   0.01584973    4.500    0.778
       515  -8.5226    215.2054     78.5445   6.7090263409e+01   2.0713823189e+01       0.2002    0.1328531  42.01  0.000389432    1.568    0.362
       516  -8.7569    183.7680     76.7963   7.2161659058e+01   2.8712353440e+01    0.3955606    0.1566803 -41.04  0.001364769    2.537    0.606
       517  -8.8493     85.0334     77.4565   9.7422550982e+01   5.0203692951e+01    0.3743685    0.2239546 -10.71  0.001223159    4.600    0.783
       518  -8.1226     23.6798     78.6916   1.1790210709e+02   5.7214235944e+01      0.12246   0.07582574 -45.12 0.0004611957    1.641    0.391
       519  -7.8664    206.4736     77.3891   6.8219620224e+01   2.3002097398e+01    0.1463935    0.1421026  17.70 0.0001030799    1.025    0.025
       520  -8.3843    150.8207     77.1715   7.9281441890e+01   3.6732530718e+01    0.2096895    0.1787131  15.60 0.0003513722    1.316    0.240
       521  -8.1680    194.1192     75.8131   6.9943321015e+01   2.6293581206e+01    0.2069449    0.1731239  19.77  0.000371683    1.299    0.230
       522 -10.2315    239.2242     75.0440   6.2574932399e+01   1.5595434299e+01    0.2222038    0.2029746  48.60 0.0003309876    1.164    0.141
       523  -8.4248    223.3416     75.2663   6.4936413970e+01   1.9249402768e+01     0.148981    0.1074584  25.57 0.0002977845    1.601    0.375
       524  -8.2890    174.5264     75.5823   7.3639534887e+01   3.1215879100e+01    0.1522934    0.1483107  30.11  0.000107105    1.015    0.015
       525  -8.0957    167.3131     75.3633   7.5071972398e+01   3.3042923794e+01    0.1638392    0.1201152  14.46 0.0007040565    1.758    0.431
       526  -9.4419    234.4685     74.4749   6.3094105113e+01   1.6759302100e+01    0.1425058    0.1324744 -10.06 0.0001707118    1.033    0.032
       527  -7.6944    211.2941     74.3802   6.6591802762e+01   2.2277404266e+01    0.1580011    0.1123764  15.22 0.0007020452    1.752    0.429
       528 -10.2079    228.3736     72.5421   6.3463943478e+01   1.8445798986e+01    0.3914352    0.2214298  13.72  0.001422628    3.104    0.678
       529  -8.0617    157.4941     73.5277   7.6657587145e+01   3.5777556067e+01     0.155288    0.1479083  17.54  0.000108276    1.065    0.061
       530  -8.2448    206.4549     72.5071   6.6869735571e+01   2.3744125791e+01    0.1492675    0.1428717   1.23  0.000151674    1.034    0.033
       531  -7.9738    140.2327     72.0312   8.0248915148e+01   4.0179269926e+01     0.192004    0.1268908 -36.75 0.0003725583    1.514    0.339
       532 -10.4981     92.2027     69.9800   9.3023381817e+01   5.0571971345e+01    0.4551111    0.3583113   2.31  0.002342563    1.643    0.392
       533 -10.7485      1.8938     68.4440   1.2373396180e+02   6.0845482504e+01    0.5081658    0.1415797 -70.40  0.001357854    2.536    0.606
       534 -13.2469    170.7641    245.0957   1.0733148198e+02   5.1495792218e+00     1.905455    0.8462408  28.74  0.009380993    2.891    0.654
       535  -8.0910    203.6405     70.1559   6.6680081273e+01   2.4794619851e+01    0.2038239    0.1409586 -16.28 0.0002221611    1.585    0.369
       536  -8.8821    170.7378     68.2945   7.2231434191e+01   3.3383225318e+01    0.2488818    0.2134087 -24.48 0.0003543688    1.186    0.157
       537  -7.7911    163.2773     69.3232   7.4107207987e+01   3.5080527064e+01    0.1560955    0.1202459  13.81 0.0002898197    1.584    0.369
       538  -8.0746    116.4227     69.4621   8.5695523136e+01   4.5970865375e+01    0.1483383    0.1396211 -12.86 0.0003306562    1.088    0.081
       539  -8.1022    214.4032     68.5125   6.4480569331e+01   2.2376044712e+01    0.1466804    0.1391286 -19.58 0.0001144927    1.020    0.020
       540  -8.7354      7.2993     66.3139   1.2153737159e+02   6.1040311294e+01    0.1186319   0.06694152 -49.42 0.0002780923    1.608    0.378
       541  -8.2021    138.6429     65.1938   7.8475981355e+01   4.1803171096e+01    0.2099793    0.1436207 -25.62 0.0004105289    1.595    0.373
       542  -9.5538     68.5616     63.9696   9.8999154925e+01   5.5641282820e+01    0.2821763    0.2779827  -1.32  0.001148821    1.118    0.106
       543  -8.1030    146.4690     63.5408   7.6057279394e+01   4.0221938193e+01    0.1558278     0.145179  15.77 0.0003360888    1.103    0.094
       544  -8.1668    208.4245     62.5295   6.3742486900e+01   2.4720398326e+01    0.1473963    0.1422676 -12.73 6.927901e-05    1.022    0.021
       545 -12.3132    191.6006    244.5644   1.0386223474e+02   2.0777301647e+00    0.2843766    0.2155427  19.92 0.0004668141    1.294    0.227
       546  -9.4841     12.5676     27.4771   1.1085070625e+02   6.9065752267e+01    0.3586699    0.1748857 -51.96  0.002053356    1.523    0.344
       547  -9.4020    186.5350    245.4942   1.0479793886e+02   2.7369698534e+00    0.1546316    0.1412775  37.17 0.0005834265    1.305    0.234
       548 -11.0462     32.3255    247.5998   1.2993717885e+02   2.3164589967e+01    0.4067211    0.1978698  42.57 0.0009316129    1.682    0.405
       549 -12.0586      9.9473     48.8445   1.1741024546e+02   6.4721762931e+01     1.032029    0.4588708 -62.52  0.005041088    1.664    0.399
       550 -11.4398      2.3458     53.7857   1.2135250062e+02   6.4034295993e+01    0.8602738    0.3611867 -84.58  0.004130417    2.593    0.614
       551 -10.8078     41.7286    244.8836   1.2837893621e+02   2.2565830501e+01    0.3054728    0.1845911  37.56   0.00107245    1.759    0.432
       552  -9.9932      2.0081     45.8975   1.2007520438e+02   6.5754684247e+01    0.2495221    0.1402847 -59.60 0.0003975547    1.320    0.243
       553 -10.2614      4.6823     41.5097   1.1806634764e+02   6.6569661730e+01     0.231225    0.1913748 -65.39 0.0002069865    1.095    0.087
       554 -11.4164    233.7526    244.5385   9.7182089157e+01  -4.0867314322e+00    0.2606918    0.1736048   9.89 0.0004837789    1.427    0.299
       555 -10.7667     25.1294    240.1137   1.3073073428e+02   2.5035032022e+01    0.2590536    0.2079417 -64.24  0.001294456    1.919    0.479
       556 -10.6104     11.0639    240.0428   1.3285831883e+02   2.6418983165e+01    0.3816615    0.1747213  42.27  0.002817879    1.787    0.441
       557 -10.1874    219.8423    238.7053   9.8562019738e+01  -1.5368691809e+00    0.1944076     0.150369   4.05 0.0005399469    1.329    0.248
       558 -10.9072     91.5297    236.0443   1.1975117972e+02   1.7842770793e+01    0.3508009     0.227794  36.70 0.0006739381    1.580    0.367
       559  -8.3282    217.0194     61.0525   6.2015962969e+01   2.2790779496e+01    0.1740592    0.1661942 -24.98 0.0003622066    1.012    0.012
       560 -13.8530    199.8519    198.1915   9.5911592812e+01   6.1991546109e+00     2.935276     1.761359   1.46   0.01447015    2.670    0.626
       561  -8.1978    157.5459     59.4526   7.2234903442e+01   3.8173260273e+01    0.1540553    0.1478318  20.16 5.167432e-05    1.044    0.042
       562 -10.8636     78.7277     53.2454   9.2070941698e+01   5.6299964330e+01    0.4580848    0.4016285  71.26  0.002661558    1.406    0.289
       563  -9.9640     75.5020     51.4844   9.2591280595e+01   5.7174932613e+01    0.2691049    0.2122791 -25.16 0.0006967532    1.296    0.228
       564  -8.0305     47.9797     59.7259   1.0517951071e+02   5.9185246971e+01    0.1384376    0.1149612  24.75 0.0003459675    1.405    0.288
       565  -8.2739    165.0971     57.8275   7.0119880208e+01   3.6520242978e+01    0.2116054    0.1787833  12.46 0.0004278341    1.314    0.239
       566  -8.7339    124.1925     57.8255   7.9743954727e+01   4.6473117782e+01    0.2189094    0.2063622 -76.93 0.0004304408    1.167    0.143
       567  -8.8782     31.5049     58.0184   1.1095688382e+02   6.1191918401e+01    0.1879559    0.1002772 -59.85 0.0004681314    1.516    0.340
       568  -8.7029    146.9079     56.7699   7.3734026542e+01   4.1273113296e+01    0.2319079    0.2019639  21.53 0.0004696708    1.218    0.179
       569  -9.8800    250.2615     54.5297   5.5927159954e+01   1.5771385290e+01    0.2470033    0.1726119 -27.53 0.0005594619    1.309    0.236
       570 -13.3215    156.1740    241.8785   1.0939173047e+02   7.7300230950e+00     2.080098     1.337826 -14.49   0.01192628    3.252    0.693
       571 -11.3391     12.4093     39.4558   1.1423221490e+02   6.6589355815e+01    0.6284651    0.4846192  18.17  0.002754096    1.611    0.379
       572  -8.2513     63.3981     52.8177   9.7398406676e+01   5.8716969603e+01     0.192693    0.1080306 -40.67 0.0005420798    1.668    0.400
       573  -9.3235     21.6786     53.3468   1.1368448885e+02   6.2994009352e+01    0.1771336    0.1106446 -79.44 0.0007540255    1.664    0.399
       574  -9.9412     20.4609     50.5231   1.1351761823e+02   6.3694570547e+01    0.4269758    0.2228205  15.73  0.002349684    2.478    0.596
       575  -8.3166    224.3330     52.3293   5.8570210888e+01   2.2171685797e+01     0.152342    0.1080271  24.64 0.0007051948    1.721    0.419
       576  -9.0739    172.0921     49.9488   6.6207602823e+01   3.5927368118e+01     0.217167    0.2074474  28.38  0.001157635    1.052    0.049
       577 -12.8839    140.5282    246.6983   1.1249771779e+02   9.4514175402e+00    0.9822635    0.5742455  30.81  0.006269469    1.815    0.449
       578  -8.4730     37.8166     40.7907   1.0359832969e+02   6.4276348968e+01    0.2169391     0.106856 -28.09 0.0009481282    2.828    0.646
       579  -9.1550     23.9844     38.2952   1.0881165771e+02   6.6034218338e+01    0.1570279    0.1335781 -42.49 0.0002950362    1.088    0.081
       580  -8.3017     29.4748     37.5321   1.0615926824e+02   6.5735404431e+01    0.1235355   0.09794006 -44.73 0.0002567568    1.038    0.037
       581 -10.9437    246.4394     30.1538   5.0087902793e+01   1.9571591496e+01    0.4740684    0.2768812  -3.23   0.00209437    2.344    0.573
       582 -10.5521    246.7449     36.0215   5.1569773729e+01   1.8822095992e+01     0.301858    0.2059572  40.65  0.001106406    1.712    0.416
       583  -9.3579     25.9267     34.0407   1.0663585589e+02   6.6754949474e+01    0.1823593    0.1429147 -44.42 0.0003430556    1.039    0.038
       584  -8.0854    173.7216     33.7206   6.0594387454e+01   3.7765345935e+01     0.150705    0.1120491  29.54            0    1.504    0.335
       585 -10.5528     59.3101     30.4782   9.0803824160e+01   6.3656320796e+01    0.4872794    0.2248146 -39.48  0.002248121    1.940    0.485
       586  -8.8402     21.0824     32.6968   1.0842890520e+02   6.7413665260e+01    0.1579286    0.1320893 -36.35 0.0004304171    1.123    0.110
       587  -9.2057     30.1704     31.4339   1.0383155181e+02   6.6911154161e+01    0.2344589    0.1680727 -45.27 0.0006215682    1.124    0.110
       588 -10.5636     69.5372     29.9410   8.6557359906e+01   6.2181776055e+01    0.4503674    0.2392031 -22.85  0.001928586    2.444    0.591
       589  -9.3089     66.5042     28.5373   8.7129297732e+01   6.2913358766e+01    0.1897487    0.1637022 -22.66 0.0007941708    1.013    0.013
       590 -12.5819    177.5544    232.6007   1.0470246675e+02   5.5763761737e+00    0.9924669    0.7353196   4.67  0.006840959    1.741    0.426
       591  -8.4892    102.3080     26.3797   7.3950053332e+01   5.6522334072e+01    0.1527592    0.1045377  11.40 0.0007025796    1.789    0.441
       592  -9.5786      3.3683    235.7351   1.3387825109e+02   2.7791366850e+01    0.1682588    0.1390872 -86.01  0.001045904    1.578    0.366
       593  -9.9741     78.6396     22.0548   7.9732142211e+01   6.1907898935e+01    0.3035177    0.2325601 -35.48  0.001239579    1.268    0.211
       594 -10.0018    245.9888     21.6912   4.7952689295e+01   2.0621028903e+01    0.1894537    0.1723253 -72.59 0.0006845113    1.082    0.076
       595  -7.6647    222.2935     22.2620   5.0443457873e+01   2.6355889177e+01    0.1363147    0.1041669  35.82 -0.000275831    1.501    0.334
       596  -9.5091    104.4748    223.6528   1.1644825673e+02   1.7935392047e+01    0.2156675    0.1644254  37.87 0.0006809746    1.374    0.272
       597  -9.0344    111.1685    213.1392   1.1420013400e+02   1.8613764958e+01    0.1707838     0.158244   7.01 0.0005704914    1.542    0.351
       598  -9.0513     47.8220     18.2336   9.0375473112e+01   6.7410228527e+01    0.2764022    0.1592611 -22.70 0.0008956542    1.917    0.478
       599 -10.0320    108.4846    233.2602   1.1662958012e+02   1.5919557571e+01    0.2639595    0.1724096  36.72 0.0006635799    1.501    0.334
       600  -9.7691    109.3915    219.0496   1.1512607614e+02   1.7940827907e+01     0.222133     0.178406  29.31 0.0006246783    1.526    0.344
       601  -9.5404    101.8104    214.4573   1.1604937721e+02   1.9771658796e+01    0.2167467    0.1919612 -22.09 0.0008053531    1.797    0.443
       602  -9.3928    115.1338    221.5253   1.1434320785e+02   1.6713991118e+01      0.23058    0.1811631  21.56 0.0006460964    1.737    0.424
       603 -10.7262    113.6255    228.1790   1.1526593194e+02   1.5932567400e+01    0.3366656     0.193316  42.74 0.0004979675    1.391    0.281
       604 -11.0094     66.4703     22.3647   8.4425020659e+01   6.3964330113e+01    0.4068424    0.3220728  34.07  0.002441391    1.349    0.258
       605  -9.1223    104.0554    218.6599   1.1604960956e+02   1.8776048887e+01    0.1889256    0.1657337  28.46 0.0007244471    1.487    0.328
       606  -8.8626    107.1873    215.5554   1.1517670626e+02   1.8814948851e+01    0.1967242    0.1417524  32.47 0.0004952283    1.567    0.362
       607 -10.5437    100.6069    230.5543   1.1774711956e+02   1.7427254277e+01    0.2971839    0.1967584  35.42 0.0009170548    1.581    0.367
       608  -9.8236     22.8373     15.6662   1.0140474461e+02   7.0611012408e+01    0.2142673    0.1704876 -42.44 0.0003567247    1.089    0.082
       609  -9.6449    107.0944    228.1039   1.1640059547e+02   1.6882986687e+01     0.231612    0.1819673  26.02 0.0006233224    1.673    0.402
       610  -9.6728    109.8089    224.0157   1.1553747666e+02   1.7112837651e+01    0.2555374    0.1660011  47.38 0.0006838696    1.190    0.160
       611  -9.9336     62.7136     13.5407   8.1738601773e+01   6.5967577389e+01    0.2290682    0.1197552  37.28 0.0006270873    2.017    0.504
       612 -10.3095     85.3337    231.4427   1.2044276252e+02   1.9362644448e+01    0.2388161    0.2070333  27.73 0.0006836539    1.641    0.391
       613 -10.3790     35.6017    231.0570   1.2869040872e+02   2.5363088431e+01    0.2581899    0.2226595 -44.37  0.001591837    2.128    0.530
       614 -11.1553     55.3237    230.8207   1.2545310334e+02   2.3198099748e+01     0.341909    0.2096678  33.51  0.001028736    1.935    0.483
       615  -9.5065     10.5496    231.4751   1.3265569773e+02   2.7798844221e+01    0.2401511    0.1230057  36.34  0.001747371    2.031    0.508
       616  -9.7957     44.8510    229.5116   1.2710716584e+02   2.4602053199e+01    0.2013665     0.185038  46.73 0.0008695814    1.597    0.374
       617 -10.8433     68.3072    227.2134   1.2303731243e+02   2.2206847816e+01    0.5289831    0.2157497  36.41 0.0005939344    2.440    0.590
