#   1 NUMBER                 Running object number                                     
#   2 MAG_AUTO               Kron-like elliptical aperture magnitude                    [mag]
#   3 X_IMAGE                Object position along x                                    [pixel]
#   4 Y_IMAGE                Object position along y                                    [pixel]
#   5 X_WORLD                Barycenter position along world x axis                     [deg]
#   6 Y_WORLD                Barycenter position along world y axis                     [deg]
#   7 A_WORLD                Profile RMS along major axis (world units)                 [deg]
#   8 B_WORLD                Profile RMS along minor axis (world units)                 [deg]
#   9 THETA_WORLD            Position angle (CCW/world-x)                               [deg]
#  10 FWHM_WORLD             FWHM assuming a gaussian core                              [deg]
#  11 ELONGATION             A_IMAGE/B_IMAGE                                           
#  12 ELLIPTICITY            1 - B_IMAGE/A_IMAGE                                       
         1  -8.2208    120.8526     20.8442   3.9341592859e+01   5.1228976001e+01    0.1715007     0.143129 -80.65 0.0008657767    1.359    0.264
         2  -7.9887     97.1985     15.1531   4.2623194530e+01   5.7008014573e+01    0.1567451    0.1423583 -84.34 0.0004279859    1.341    0.254
         3  -8.4655     55.7730      9.8695   5.2927313480e+01   6.5677759504e+01    0.1826352    0.1583129 -37.64 0.0006178761    1.591    0.372
         4  -8.2513     91.0239      8.9838   4.1917856526e+01   5.8870651403e+01     0.178568    0.1433011 -82.09 0.0006152887    1.679    0.404
         5  -8.6393      5.9956      8.2078   7.6118403697e+01   7.2705926770e+01     0.133853    0.1167616 -28.44 0.0007150005    1.615    0.381
         6  -8.3771     33.1842      4.3192   5.9698974128e+01   6.9883878640e+01    0.1908646    0.1453771 -46.49  0.001229921    2.271    0.560
         7  -8.6049     79.0812      3.6011   4.2957197183e+01   6.1781534685e+01     0.204583    0.1585765 -41.58 0.0009978517    1.688    0.408
         8  -8.0902     62.4959      1.4261   4.6945676443e+01   6.5196204912e+01    0.1846615    0.1035507  61.56 8.330722e-05    2.039    0.509
         9  -8.7561    218.5428    246.8745   7.1740867440e+01  -8.4748659603e+00    0.3404669    0.1069071 -40.93  0.001438194    3.061    0.673
        10  -9.1246    248.2081    234.6262   6.4257614902e+01  -1.0082331840e+01    0.3084283    0.1749854 -45.14  0.001351105    2.064    0.516
        11  -9.3867    246.6675    228.5246   6.3483592098e+01  -8.9980087254e+00    0.4439972    0.1754704 -39.86   0.00170066    2.233    0.552
        12  -8.6699    249.1191    249.0255   6.6498754727e+01  -1.2240617372e+01    0.3251043    0.1254435 -32.96  0.001657813    2.223    0.550
        13  -9.7143    248.7423    241.8714   6.5382621434e+01  -1.1192710408e+01    0.3585217    0.1951205 -42.29  0.001410873    1.972    0.493
        14  -7.5580     86.4710    250.4979   1.0050190303e+02   9.2879961567e+00    0.1319002    0.1097186  51.79  0.000432689    1.072    0.067
        15  -8.7936    132.2864    247.6564   8.9967930010e+01   3.2806590283e+00    0.2985983    0.2016227  56.48  0.001107142    1.830    0.454
        16  -9.1432    103.8258    246.5732   9.6198732540e+01   7.6414814475e+00    0.4039066    0.2332391 -80.85  0.001831009    2.667    0.625
        17  -8.4533     63.5352    248.4687   1.0529058388e+02   1.2748974749e+01    0.2644624     0.112491  32.56  0.001205777    2.157    0.536
        18  -9.2471    243.2078    246.0420   6.7049275934e+01  -1.1190705449e+01     0.376511     0.143597 -30.12  0.001802386    2.438    0.590
        19 -10.0048    223.9351    243.5086   7.0159553999e+01  -8.6138725744e+00    0.5200485      0.22839 -45.72   0.00247979    2.647    0.622
        20  -9.1801    147.1163    245.8241   8.6417815262e+01   1.4445827067e+00    0.3663271    0.2292732  61.06  0.001657586    2.672    0.626
        21  -9.2378    120.2211    245.0999   9.2323969488e+01   5.5494674701e+00    0.3676732    0.2490739  78.05  0.001668906    2.319    0.569
        22  -8.7172     68.0493    245.5388   1.0403407043e+02   1.2778664864e+01    0.2991559    0.1596841  64.37  0.001410719    2.183    0.542
        23  -8.6276    201.9160    243.0525   7.4368973106e+01  -5.7762203063e+00    0.2667477    0.1699047 -49.41 0.0009638449    2.003    0.501
        24 -10.1149    159.7479    240.9092   8.2895610968e+01   4.9330839065e-01    0.5351822    0.2811069 -46.87  0.001948231    2.063    0.515
        25  -8.3415     49.8134    242.8091   1.0773919229e+02   1.5649585286e+01    0.3187566    0.1301406  84.79  0.001086939    4.572    0.781
        26  -8.8032      9.5786    243.3017   1.1604299416e+02   1.9929219669e+01    0.2347619   0.08301615  83.43 0.0009537262    3.412    0.707
        27  -8.6093    169.1320    243.0927   8.1198527533e+01  -1.2642186198e+00    0.2308161      0.17865  37.77 0.0006737589    1.351    0.260
        28  -8.9149    194.3065    240.2832   7.5453690588e+01  -4.3049404225e+00    0.3335146     0.196017 -51.57   0.00138186    2.226    0.551
        29  -9.3832    183.0064    239.8217   7.7722616079e+01  -2.6643179347e+00    0.3742037    0.2853328  62.46  0.001955303    2.251    0.556
        30  -9.2174     77.9190    243.0509   1.0160096399e+02   1.1991387596e+01    0.3078315    0.1783946  68.25  0.001470277    2.129    0.530
        31  -8.5105     88.0492    241.8420   9.9193668246e+01   1.0852059244e+01    0.2227609    0.1592847  89.22 0.0007750621    1.659    0.397
        32  -8.0851    240.5063    240.0065   6.6525965768e+01  -1.0016653106e+01     0.227949   0.09399605 -34.08  0.001137708    2.107    0.525
        33  -8.5052    242.4970    236.0274   6.5499567065e+01  -9.6517591352e+00    0.2382301    0.1265324  -7.45  0.001208329    2.223    0.550
        34  -8.4241    146.3131    239.4488   8.5649639444e+01   2.7616584397e+00    0.2021576    0.1672611 -87.90  0.000551777    1.739    0.425
        35  -9.1864    135.6457    238.7353   8.7947769904e+01   4.5027965214e+00    0.3130786    0.1810181  50.74  0.001448816    2.038    0.509
        36  -7.8886     41.2257    239.2821   1.0928732820e+02   1.7424860037e+01    0.1885993   0.09160291 -89.07 0.0006178835    2.350    0.574
        37  -8.9619    231.1170    236.8775   6.7704734082e+01  -8.4601587588e+00    0.2375081     0.201336 -69.64  0.001349074    2.359    0.576
        38  -8.1147    209.1742    238.2135   7.2120065165e+01  -5.9396369613e+00    0.1556608     0.145868  -6.44 0.0005579784    1.361    0.265
        39  -8.9665     79.0889    235.2172   1.0048366205e+02   1.3509603504e+01    0.4819463     0.233411 -86.64  0.001806659    3.577    0.720
        40  -7.8438     13.8145    237.6461   1.1487458121e+02   2.0717155053e+01    0.1704497   0.08506923  44.66 0.0006089948    1.711    0.415
        41  -9.1355    217.0017    235.5102   7.0135898568e+01  -6.5097148062e+00    0.2100344    0.2004879 -42.21    0.0010438    1.567    0.362
        42  -9.2863    213.7228    231.6962   7.0118931820e+01  -5.4690393133e+00    0.2627708    0.2411979 -73.66  0.001017039    1.825    0.452
        43  -8.8743    203.1980    234.3519   7.2656300434e+01  -4.5141023319e+00    0.2938273     0.212905 -56.22   0.00128539    2.034    0.508
        44  -9.7956    175.7757    233.3812   7.8202240997e+01  -4.8549640467e-01    0.5014447    0.2440115 -55.27  0.002110275    2.891    0.654
        45  -9.6435    109.1884    234.5010   9.3434520704e+01   9.3414780161e+00    0.4844032     0.251104  57.71  0.001400328    2.683    0.627
        46  -8.2434    170.3837    235.2802   7.9679297398e+01  -4.0432671414e-02    0.1687568    0.1287935 -52.57 0.0005153107    1.594    0.373
        47  -8.6010     99.7047    234.0375   9.5578187238e+01   1.0838986514e+01    0.2971259    0.1960949  72.54  0.001245926    2.008    0.502
        48  -8.1541    123.0274    234.0265   9.0158856034e+01   7.3583415947e+00    0.2197772    0.1592485  64.56 0.0008498958    1.755    0.430
        49  -9.5585     68.5132    231.6438   1.0251897393e+02   1.5721038560e+01    0.6553288    0.3483859  80.93  0.002776078    2.723    0.633
        50  -8.2352    194.3048    232.4319   7.4138930802e+01  -2.9685613841e+00    0.1875107    0.1608086 -58.63 0.0005145264    1.663    0.399
        51  -8.6958    132.8220    232.7128   8.7704684543e+01   6.1324878791e+00    0.2438579    0.1802822  79.11   0.00101647    2.040    0.510
        52  -9.4498    186.3738    230.4131   7.5447674829e+01  -1.4897561475e+00    0.3352027    0.2456342 -66.69  0.001426283    2.287    0.563
        53  -8.0286    157.7714    231.7708   8.1888547612e+01   2.5020857114e+00    0.1784765    0.1566851  48.96 0.0004668282    1.338    0.253
        54  -8.9613    141.0853    230.5497   8.5475299874e+01   5.2983043311e+00    0.5384079    0.2430473  53.42  0.001799614    3.970    0.748
        55  -8.3791     92.5547    231.6128   9.6939307855e+01   1.2400022330e+01    0.2875549    0.1688501  61.33 0.0009168104    2.070    0.517
        56  -9.1492    236.0248    230.0863   6.5645129260e+01  -7.9977920685e+00    0.3080369    0.1470917 -36.58   0.00115353    1.832    0.454
        57  -8.7796      1.5923    230.6998   1.1693271570e+02   2.3369363454e+01    0.2127089    0.1199753  83.85  0.001105264    1.535    0.348
        58  -9.5178    148.8023    224.4819   8.2738794014e+01   5.3201478089e+00    0.3931626    0.2932375  81.30  0.001766997    2.234    0.552
        59  -9.2649    127.9022    227.9452   8.8133871898e+01   7.8709176206e+00    0.4095492    0.2660112 -60.43  0.002022825    1.793    0.442
        60  -8.9359    151.3230    228.6564   8.2839233663e+01   4.0950092934e+00     0.292293    0.2326106  78.07  0.001449132    1.903    0.475
        61  -8.5854     26.1717    237.0057   1.1229693400e+02   1.9590598799e+01    0.3474295     0.130831  64.14  0.001405293    3.149    0.682
        62  -7.9319    229.6217    228.2690   6.6503483501e+01  -6.9356863627e+00     0.175319   0.09756421 -29.90  0.000735537    1.573    0.364
        63  -8.9394    162.4374    227.7574   8.0192095612e+01   2.5622784284e+00    0.3220303    0.2237264  55.96  0.001583766    2.014    0.503
        64  -8.3790    119.9954    227.0586   8.9860729321e+01   9.2794487718e+00    0.2188349    0.1623105  65.59 0.0005036753    1.674    0.403
        65  -8.6059    205.9094    226.0569   7.0683230246e+01  -3.4767075384e+00    0.1829026    0.1730439 -20.88 0.0005641817    1.340    0.254
        66  -8.0812    199.8577    225.5665   7.1818466812e+01  -2.5516064037e+00    0.2083624    0.1455614 -40.12 0.0005777574    1.452    0.311
        67  -7.9547     49.2179    226.2534   1.0638991500e+02   1.9376681054e+01    0.1989406   0.09774671 -86.13 0.0005599452    2.396    0.583
        68  -8.8990    180.7617    224.0436   7.5549382505e+01   4.9254781764e-01    0.2929443    0.2487383  66.19   0.00108337    1.768    0.434
        69  -9.0808     94.0932    224.0082   9.5602459897e+01   1.3856659058e+01    0.4094633    0.2573187  74.11   0.00143183    2.210    0.547
        70  -8.7831    216.5426    223.2176   6.8093301351e+01  -4.4319274820e+00    0.2594576    0.2009576 -58.61  0.001071519    1.982    0.496
        71  -7.8118    113.8149    223.8414   9.0858965411e+01   1.0923918816e+01    0.1912101     0.156622  59.79 0.0003770715    1.316    0.240
        72  -8.8298    104.6508    223.3413   9.2981391626e+01   1.2432041503e+01    0.3512198     0.227652  73.93   0.00142518    2.220    0.550
        73  -7.6657     38.3240    224.6703   1.0870827125e+02   2.1009758900e+01    0.1405037   0.08098792  63.20 0.0007049979    1.699    0.412
        74  -8.3995    173.0144    222.8670   7.7027383028e+01   1.8835475433e+00    0.2224499    0.1814221 -62.62  0.000620905    1.640    0.390
        75  -9.2067    158.9265    220.1750   7.9709427511e+01   4.5949758309e+00    0.3010286    0.2170298  61.19 0.0009360625    2.030    0.507
        76  -7.9323     59.7744    223.1962   1.0365083755e+02   1.8767783496e+01    0.2419284    0.1133833  63.25 0.0009520923    2.787    0.641
        77  -9.3120    239.2797    220.9973   6.3476062803e+01  -6.9628093398e+00    0.3952853    0.2394757 -31.79   0.00164779    1.384    0.278
        78  -9.3257    225.4808    221.5660   6.6099629793e+01  -5.3281175189e+00    0.2392666    0.2331346  76.33  0.001034582    1.653    0.395
        79  -7.8741    140.4988    222.4962   8.4339599219e+01   7.0334964999e+00    0.1409203    0.1293665  35.60 -9.687536e-05    1.108    0.097
        80  -9.1119    120.6091    219.1264   8.8526903567e+01   1.0896650132e+01    0.4903716    0.2620048  59.47  0.001834558    2.998    0.666
        81  -8.8287     82.8249    220.6207   9.7874139004e+01   1.6252115533e+01    0.2732249    0.1674472  74.39  0.001219833    2.167    0.539
        82  -8.2536     73.6459    220.7931   1.0010009365e+02   1.7490278191e+01    0.2998684    0.1581403  78.76  0.001149542    3.047    0.672
        83  -8.1295     27.5594    220.7152   1.1078583641e+02   2.3089940503e+01    0.2339143    0.1063119 -69.04  0.001121588    2.032    0.508
        84  -9.2283    192.2881    221.1586   7.2604225725e+01  -6.8107789019e-01    0.2824007    0.2427504 -67.97 0.0006765465    1.726    0.421
        85  -8.1383    202.5480    220.0022   7.0290992234e+01  -1.9520833889e+00    0.1936136    0.1191094 -37.65 0.0004270545    1.533    0.348
        86  -8.1317    210.2658    218.9971   6.8569357486e+01  -2.8582166155e+00    0.1824403    0.1467509 -25.94 0.0005078166    1.142    0.124
        87  -8.5413    249.2333    218.0725   6.1222212824e+01  -7.6877973552e+00     0.224553    0.1748595  59.66   0.00129908    2.681    0.627
        88  -8.6842    150.8655    217.6858   8.1134740912e+01   6.3796919672e+00    0.2453263      0.20742 -49.91 0.0006050378    1.297    0.229
        89  -9.2768    132.9138    215.8160   8.5050656447e+01   9.6584267703e+00    0.5095494    0.3311365  76.85  0.002033053    2.942    0.660
        90  -8.6642     62.3721    217.5579   1.0242788722e+02   1.9743616442e+01     0.359341    0.1891953  58.05    0.0015911    2.079    0.519
        91  -8.8997     51.6441    217.1955   1.0493981677e+02   2.1178046170e+01    0.3021522    0.1870829  71.84  0.001308922    1.734    0.423
        92  -8.5365    169.3564    215.9954   7.6639605799e+01   3.7835795155e+00    0.2682146    0.2138733 -68.97 0.0008148735    1.764    0.433
        93  -8.5966    142.9273    216.4004   8.2771311508e+01   7.9216034557e+00    0.2602761    0.2041619 -74.99 0.0007734597    1.704    0.413
        94  -8.5060    111.8445    217.0401   9.0332241820e+01   1.2732101191e+01    0.2340709    0.1622799  77.66  0.001038252    2.044    0.511
        95  -8.5710     18.4744    216.0040   1.1244192764e+02   2.5097549496e+01    0.1916682    0.1091857 -80.08  0.001028121    1.582    0.368
        96  -8.9226    232.3634    214.4043   6.3550254456e+01  -5.0310810261e+00    0.2649903    0.1953294 -46.28  0.001003381    1.591    0.372
        97  -9.0530     93.3084    213.7677   9.4407703973e+01   1.6311141774e+01    0.5115454    0.2161146  51.91  0.001662015    2.955    0.662
        98  -7.9410     41.7852    215.1937   1.0706007241e+02   2.2816205241e+01    0.2388862    0.1057987  63.03 0.0009467217    2.783    0.641
        99  -9.4037    213.9441    211.8780   6.6562300341e+01  -2.1256032458e+00    0.3395415    0.3059436  69.59  0.001637041    1.769    0.435
       100  -8.2867    185.6734    214.1328   7.2746368693e+01   1.6122909164e+00    0.2014831    0.1737047 -56.65  0.001026724    1.475    0.322
       101  -9.3449     73.4380    211.8589   9.9065697296e+01   1.9612813308e+01    0.6994682    0.2858328  57.78  0.002281116    3.821    0.738
       102  -8.0338    224.9816    212.2058   6.4515746960e+01  -3.6945504931e+00    0.1736386    0.1267044 -47.51 0.0006034837    1.604    0.377
       103  -9.1621    204.2827    210.8541   6.8287892618e+01  -5.6035568680e-01    0.2910303     0.218703 -52.55 0.0007714233    1.650    0.394
       104  -8.9851    161.6556    211.7459   7.7624776712e+01   5.8648918304e+00    0.3054925    0.2178508 -49.51  0.001211701    1.503    0.335
       105  -7.7679    106.4913    212.5350   9.0970756749e+01   1.4587436966e+01    0.1461737    0.1313935  55.63 0.0008071775    1.112    0.101
       106  -8.6511      8.5093    211.9885   1.1435428463e+02   2.6958630186e+01      0.18727   0.08012432  74.55 0.0008100697    2.551    0.608
       107  -8.2052    192.4619    210.4454   7.0640555133e+01   1.2755433508e+00    0.2203848    0.1295435 -53.56 0.0005626159    2.119    0.528
       108  -9.2874    175.3945    209.6569   7.4166236663e+01   4.0829819823e+00    0.4178627    0.3055848  71.51  0.001798699    2.512    0.602
       109  -8.6437    148.0273    210.4844   8.0562811985e+01   8.3464041532e+00    0.2866661    0.2260583  83.25  0.001082013    1.884    0.469
       110  -9.0872    116.3861    210.1747   8.8162136417e+01   1.3566240287e+01    0.3987609    0.2576647  64.26  0.001037884    2.131    0.531
       111  -8.2144     85.7454    209.4025   9.5684475581e+01   1.8453099493e+01    0.3272223    0.1932944  88.58  0.001341117    2.486    0.598
       112  -8.2486     32.7524    210.1933   1.0871309390e+02   2.5004547179e+01    0.2354905    0.1021317  62.45 0.0009477072    2.732    0.634
       113  -9.2021    236.6844    207.9545   6.1607006624e+01  -4.5162045897e+00    0.2839753    0.2260707 -55.41  0.001222177    1.781    0.438
       114  -8.2708    154.4347    214.7393   7.9806082088e+01   6.4144088935e+00    0.2455037    0.1417734 -55.64 0.0007458906    2.026    0.507
       115  -8.3124     46.3524    209.1175   1.0537467101e+02   2.3733678174e+01    0.1972819    0.1151688 -87.74 0.0009381879    1.818    0.450
       116 -10.0244    246.1637    193.7248   5.7358382959e+01  -3.3614028102e+00    0.4528346    0.2842714 -60.00  0.001717163    2.787    0.641
       117  -9.4777    246.4054    206.9074   5.9720358366e+01  -5.5711120768e+00    0.3115724    0.1781128 -41.00  0.000702348    1.581    0.367
       118  -9.2791    250.1142    201.8992   5.8188806673e+01  -5.2147435593e+00     0.395071    0.1633254 -38.99  0.001138132    1.993    0.498
       119  -7.9020    156.4728    207.9274   7.8137500077e+01   7.5001844170e+00    0.1841616    0.1322675 -80.73 0.0008052207    2.360    0.576
       120  -8.4409    139.2881    207.8488   8.2186207093e+01   1.0353226830e+01    0.2641174    0.2190531  81.26 0.0009392009    1.597    0.374
       121  -8.0922    126.6143    208.3654   8.5351924553e+01   1.2321846590e+01    0.2137592    0.1662472  64.22 0.0007272021    1.565    0.361
       122  -8.5912      5.6397    207.8471   1.1470819857e+02   2.8173944192e+01    0.1860397   0.09615231  87.41 0.0009491129    1.772    0.436
       123  -9.1446     99.3946    205.9041   9.1747189610e+01   1.7233566896e+01    0.4071648    0.2548937  80.60  0.001293994    2.493    0.599
       124  -8.1774     56.4322    205.2629   1.0248580798e+02   2.3442305039e+01    0.2425716    0.1448299  55.22  0.001116323    1.702    0.412
       125  -9.2090    194.6979    203.3082   6.8850222190e+01   2.2869348098e+00    0.2846486    0.2474161 -35.79 0.0008947492    1.193    0.162
       126  -9.5316    192.4812    197.0185   6.8121274322e+01   3.8511357644e+00     0.514221    0.4021057 -86.46  0.001264774    2.297    0.565
       127  -8.9652    183.5230    203.6041   7.1275036950e+01   3.9858550096e+00    0.2953894    0.2466915  66.07  0.001105822    1.738    0.425
       128  -9.6469    163.9863    202.9556   7.5502075764e+01   7.3001740385e+00    0.4663058    0.2801682  51.74  0.001257024    2.182    0.542
       129  -8.6110    131.2952    203.8349   8.3437388254e+01   1.2570077639e+01    0.2741401    0.2197395  77.49 0.0008954438    1.637    0.389
       130  -7.9782     35.2976    204.6059   1.0759055020e+02   2.6073776223e+01    0.1470071   0.08552217  67.75 0.0007006837    1.799    0.444
       131  -9.1573    243.0408    200.5744   5.9148086459e+01  -4.1043702301e+00    0.3243887    0.1598936 -43.41 0.0009634112    1.864    0.463
       132  -8.5552    210.9136    201.6232   6.5256074859e+01   1.5085278490e-01     0.246315    0.1725608 -56.54 0.0007869161    1.907    0.476
       133  -8.9406    140.3004    200.8372   8.0710013053e+01   1.1733092216e+01    0.3536574    0.2533509 -87.59  0.001205576    2.256    0.557
       134  -8.0970     48.4731    201.9462   1.0409090028e+02   2.5226542781e+01    0.2010732    0.1048064  79.21 0.0008091414    2.530    0.605
       135  -8.2449    222.2085    201.2014   6.3010154605e+01  -1.4021509145e+00    0.1714917     0.147591 -45.22 0.0006565357    1.377    0.274
       136  -8.5247     79.7076    200.7537   9.6017942833e+01   2.1414066799e+01    0.2985491    0.1837367  67.87  0.001155531    2.069    0.517
       137  -9.1968    237.1794    198.4729   5.9781344611e+01  -2.9822390091e+00    0.3082213    0.1577531 -45.39  0.001133253    1.906    0.475
       138  -9.4339    149.4847    198.2768   7.8031232229e+01   1.0741860775e+01    0.4490579    0.3154516 -80.83  0.001482634    2.359    0.576
       139  -8.5867    123.8938    198.8943   8.4423400271e+01   1.4933769495e+01    0.3011832    0.2148234 -76.66 0.0008178661    1.845    0.458
       140  -8.9772    176.9052    198.8609   7.1827758420e+01   6.0089019164e+00    0.2421409    0.1950357 -49.79 0.0005476997    1.353    0.261
       141  -9.3316    112.7510    198.0627   8.7104731239e+01   1.6970359250e+01    0.4355373    0.2697648  64.89  0.001630073    2.358    0.576
       142  -8.0316    109.1999    205.1555   8.9158823420e+01   1.5871731088e+01    0.2019744    0.1694831  76.11  0.000781055    1.359    0.264
       143  -9.0377     88.7752    197.7138   9.3234262518e+01   2.0826741778e+01    0.5255706    0.3079023 -77.24  0.001598353    2.148    0.534
       144  -8.2120    202.5498    197.7806   6.6193990599e+01   2.1264227595e+00    0.1839992    0.1262536 -51.00 0.0007189704    1.648    0.393
       145  -9.3556     61.1764    197.0712   1.0029753113e+02   2.4856120622e+01    0.4417739    0.2674846  63.13  0.001737872    1.874    0.466
       146  -8.3185     12.6604    196.6897   1.1229473763e+02   3.0218821594e+01    0.2748166    0.1229183  79.24   0.00116888    2.536    0.606
       147  -8.7382    215.8676    195.2688   6.3093925644e+01   5.8276169474e-01    0.2777925    0.1783487 -53.78  0.001010237    1.933    0.483
       148  -8.1107    132.9932    195.9180   8.1623174618e+01   1.4085441542e+01    0.2243263    0.1804649  71.64 0.0005784743    1.587    0.370
       149  -8.0723     36.2910    196.6302   1.0655748180e+02   2.7920600086e+01    0.1460264   0.08931804  68.62 0.0005370082    1.717    0.418
       150  -7.4514    209.3092    195.6453   6.4438781298e+01   1.4953135342e+00    0.1271631    0.1104657 -75.71 0.0007043233    1.725    0.420
       151  -8.9006    185.3186    194.5690   6.9171659932e+01   5.4946700865e+00     0.268371    0.2322631 -63.36 0.0008184436    1.464    0.317
       152  -8.2441    230.8412    194.0929   6.0091569411e+01  -1.3594693442e+00     0.192246    0.1629309 -38.84 0.0005896894    1.258    0.205
       153  -8.7743    224.4413    193.4220   6.1130656725e+01  -3.3370743896e-01    0.3109722    0.1161026 -44.85  0.001255116    2.513    0.602
       154  -8.8289    160.9701    193.8622   7.4491874872e+01   9.7378839380e+00    0.2914338    0.2397617 -81.03 0.0009449541    1.687    0.407
       155  -8.7557     77.1005    193.6763   9.5691186350e+01   2.3536992715e+01    0.2857365    0.2052283  76.45 0.0005536684    1.610    0.379
       156  -8.9070     44.0022    192.9378   1.0421356834e+02   2.7983731578e+01    0.4655384    0.2387755  69.21  0.001907312    2.513    0.602
       157  -8.2475    199.0848    191.6323   6.5715355046e+01   3.8484946361e+00     0.229902     0.181421 -49.43 0.0005791557    1.389    0.280
       158  -8.7349    172.4373    191.7108   7.1452214596e+01   8.2347909878e+00    0.2694094    0.2052271 -68.13 0.0007722613    1.796    0.443
       159  -7.8088    205.2518    191.6213   6.4468490947e+01   2.8782591265e+00    0.1300655    0.1075395 -64.57 0.0004100275    1.652    0.395
       160  -8.9574    139.6317    190.4761   7.8975136639e+01   1.4189160418e+01    0.3548284     0.246975  71.11  0.001191215    2.255    0.557
       161 -10.3992     92.2798    188.6431   9.0897477531e+01   2.2534161430e+01     1.024029    0.3108459  44.78  0.003095047    3.611    0.723
       162  -8.6616      6.4941    189.9654   1.1323164461e+02   3.2372688631e+01    0.1998759    0.1078035 -79.45 0.0008018727    1.585    0.369
       163  -8.6071    237.3477    188.4129   5.7873073384e+01  -1.2694671268e+00    0.2426955    0.1365848 -42.84 0.0006454902    1.589    0.371
       164  -9.0533    216.6662    187.8533   6.1518325025e+01   1.8308646365e+00    0.3120136    0.2409969 -62.62   0.00104082    1.805    0.446
       165  -9.3239    156.0157    187.3400   7.4398355065e+01   1.2023044601e+01    0.4051933    0.2600918 -62.36 0.0009894286    1.991    0.498
       166  -8.2881    148.4740    189.0033   7.6530118069e+01   1.2977331046e+01    0.2240427    0.1479047 -51.81  0.001013186    1.568    0.362
       167  -8.8808    129.2900    188.4483   8.1188976996e+01   1.6457270489e+01    0.3002743    0.2477159  80.56 0.0007195442    1.532    0.347
       168  -9.3534    249.4123    185.6900   5.5332438393e+01  -2.4320845556e+00    0.3465798    0.1926167 -40.50  0.001215118    1.503    0.335
       169  -8.2122    230.7048    187.3837   5.8845940277e+01  -1.5315565268e-01    0.2309044    0.1435478 -47.78 0.0009975223    1.649    0.394
       170  -8.7081    191.5297    187.3747   6.6447102562e+01   5.9150563839e+00    0.2864369    0.2258655 -77.32  0.001023294    1.984    0.496
       171  -9.5262    120.6905    186.0627   8.2956194756e+01   1.8507977627e+01     0.533561    0.3136486 -75.00  0.001978019    2.699    0.629
       172  -9.0638     55.1019    187.0075   1.0059914991e+02   2.8160177809e+01    0.4731708    0.2419695  63.13  0.001460884    2.589    0.614
       173  -8.6785     34.1281    187.7221   1.0617197289e+02   3.0375293712e+01     0.315948    0.1775226  73.58    0.0014355    2.041    0.510
       174  -8.8337     14.1682    187.6245   1.1118389055e+02   3.2304972414e+01    0.3466449    0.1573874  74.24  0.001446079    2.633    0.620
       175  -8.8018    164.6764    186.5943   7.2221493825e+01   1.0665562534e+01    0.2819726    0.2304694 -68.78 0.0007101237    1.547    0.353
       176  -9.1507    109.6678    186.0121   8.5832607017e+01   2.0385459148e+01    0.4043714    0.2693975  70.54  0.001244209    2.166    0.538
       177  -8.7145    202.8563    184.3376   6.3522717005e+01   4.6624099205e+00    0.2920289    0.1905479 -55.67 0.0009551279    1.868    0.465
       178  -8.7363    183.0751    184.8068   6.7742406574e+01   7.8580308571e+00    0.2800411    0.2323141 -61.64 0.0008911578    1.468    0.319
       179  -9.0612     66.7943    184.1356   9.7068033630e+01   2.7379690598e+01    0.4332145    0.2666672  66.89  0.001204111    2.015    0.504
       180  -8.5143    224.2214    183.4642   5.9262504046e+01   1.5027712101e+00    0.2459646    0.1606648 -39.23 0.0004680209    1.340    0.253
       181  -8.7233    210.0472    183.9452   6.2026460877e+01   3.5900883483e+00    0.2361262    0.1785508 -36.97 0.0004745863    1.192    0.161
       182  -8.3647    197.1748    183.5388   6.4515802371e+01   5.7469748225e+00    0.2491992    0.1641182 -63.33 0.0008963718    2.269    0.559
       183  -8.9670    174.3334    183.3689   6.9381695088e+01   9.6678323188e+00     0.306606    0.2449932 -64.59 0.0007966064    1.561    0.359
       184  -8.2847      2.0406    183.6617   1.1381838973e+02   3.4258755918e+01    0.2014137    0.1297487  54.45  0.001148571    1.526    0.345
       185  -8.8684     44.4658    182.1504   1.0282171488e+02   3.0663906707e+01    0.3826463    0.2102666  68.51  0.001090396    2.279    0.561
       186  -8.5897     19.5679    182.8092   1.0939804677e+02   3.3027108612e+01    0.1912675    0.1110672  89.53 0.0009314251    1.671    0.402
       187  -9.2317    147.6858    180.5562   7.5071601356e+01   1.5032924928e+01    0.3802703    0.3042222 -88.53  0.001100047    1.733    0.423
       188  -8.4220    235.3540    180.8167   5.6775020179e+01   3.4917812141e-01    0.2473115    0.1426006 -33.57  0.001177349    1.494    0.330
       189  -9.5052     25.3821    178.3196   1.0744658680e+02   3.3624804969e+01    0.6947737    0.2791089  82.47  0.002186239    4.391    0.772
       190  -8.1010    240.7456    179.9848   5.5697057823e+01  -2.6988518841e-01     0.177086   0.09400159 -39.41 0.0008881363    1.568    0.362
       191  -9.4219    249.0100    177.1849   5.3807891455e+01  -9.2841813077e-01    0.3127358    0.2267783 -53.42  0.001342207    1.607    0.378
       192  -8.8975    247.4736    173.5176   5.3362760534e+01  -8.4050815581e-02    0.2094788    0.1728092 -23.65 0.0006646289    1.065    0.061
       193  -8.5486    250.4382    172.2962   5.2659448475e+01  -2.8395764054e-01     0.241061    0.1450375 -43.99 0.0006030471    1.447    0.309
       194  -9.3267    191.5176    178.1105   6.4597677866e+01   7.7877188347e+00    0.2913125    0.2642351 -77.21 0.0006356032    1.420    0.296
       195  -8.5681    137.6182    178.8646   7.7241699006e+01   1.7238555390e+01    0.2908085    0.2305355  86.01  0.001052791    1.724    0.420
       196  -8.8666    204.9849    177.5667   6.1750974123e+01   5.6374056333e+00    0.2723375    0.1890309 -46.09  0.000659309    1.400    0.286
       197  -8.2991    169.0770    178.1057   6.9507765936e+01   1.1726266354e+01    0.2251499    0.1879508 -88.54   0.00084084    1.668    0.400
       198  -8.7783    129.3555    177.2684   7.9040154412e+01   1.9099792487e+01    0.3688972    0.2491446  83.04  0.001144851    2.603    0.616
       199  -8.8439     36.0161    176.5377   1.0441475763e+02   3.3024314143e+01    0.5510876    0.2504896  74.89  0.001868046    3.705    0.730
       200  -8.5082    231.0932    176.6436   5.6711187370e+01   1.7206572593e+00    0.2358823    0.1583865 -45.24 0.0008578488    1.402    0.287
       201  -8.5802    217.6231    176.9175   5.9197533996e+01   3.7300830277e+00    0.2322784    0.1968856 -55.74 0.0009803895    1.392    0.282
       202  -7.8739     97.5330    177.4422   8.7576103200e+01   2.4513376513e+01    0.1497514    0.1471927 -28.98 0.0001283144    1.040    0.039
       203  -8.8454     89.2463    176.6672   8.9722737603e+01   2.6026374940e+01     0.322924    0.2281336  68.26  0.001026184    1.748    0.428
       204  -9.2572     58.7944    175.3944   9.8004451116e+01   3.0680419402e+01    0.5469467    0.2692215  64.08  0.001916952    3.191    0.687
       205  -9.4802     56.0195    170.7793   9.8111399451e+01   3.2229432559e+01    0.4460082    0.2552868  75.34  0.001774228    2.481    0.597
       206  -8.9029     12.5641    176.1004   1.1055985941e+02   3.5311915676e+01    0.3017571    0.1582675  82.51  0.001199749    2.010    0.503
       207  -8.2939    211.5250    176.0220   6.0170766902e+01   4.8718025096e+00    0.2157963    0.1237888 -41.94 0.0006499654    1.563    0.360
       208  -9.0226    183.0000    175.7439   6.5927376035e+01   9.7541586780e+00     0.278099    0.2301038 -59.89 0.0008741143    1.407    0.289
       209  -9.1515    158.8259    174.7039   7.1198123684e+01   1.4333332076e+01    0.3876723    0.2896696 -84.91  0.001038706    2.093    0.522
       210  -9.1940    104.4604    174.6433   8.5171079785e+01   2.4076058919e+01    0.6022808    0.3183025  60.31   0.00198998    3.106    0.678
       211  -9.2530     81.8382    154.5855   8.7834993866e+01   3.2869776948e+01    0.5490285    0.3461635  73.21  0.001758213    2.473    0.596
       212 -10.6696     75.9388    170.2058   9.2359727632e+01   2.9692239883e+01     1.387891     0.547353 -73.74  0.003838416    4.544    0.780
       213  -8.3916     79.6337    157.8320   8.9102114101e+01   3.2362312511e+01    0.3537377    0.2309822   8.36  0.001477756    2.086    0.521
       214  -8.4017    224.4567    174.0235   5.7375380103e+01   3.2064374497e+00    0.2046066     0.117083 -41.95 0.0004421011    1.529    0.346
       215  -9.3729    175.7836    172.1084   6.6760430401e+01   1.1812007393e+01    0.3675558    0.2373255 -49.23  0.001078635    1.551    0.355
       216  -8.3562    143.1527    172.6520   7.4598509073e+01   1.7684595224e+01    0.2665528    0.2089054 -63.10 0.0006522133    1.438    0.305
       217  -8.3720    134.7112    171.3540   7.6475306498e+01   1.9542346652e+01    0.2725795    0.1956978 -65.44 0.0007546354    1.636    0.389
       218  -9.0173     45.0160    170.7863   1.0121186257e+02   3.3533800733e+01    0.3800115    0.2160398  86.01  0.001387116    2.205    0.547
       219  -9.0159    230.4472    168.9849   5.5326822727e+01   3.2133471848e+00    0.4541107    0.1884563 -49.78  0.001825179    2.590    0.614
       220  -8.4836    205.7751    170.1633   6.0098619036e+01   6.9588450593e+00    0.2856227    0.1769972 -51.34 0.0009465855    1.698    0.411
       221  -9.3808    121.2979    170.1882   7.9755691134e+01   2.2257696468e+01    0.3868977    0.2881114 -86.97  0.001037918    1.845    0.458
       222  -8.2401    198.6475    170.0616   6.1490002148e+01   8.1920948329e+00    0.2232196    0.1664181 -53.26 0.0006506923    1.446    0.308
       223  -8.5871    149.9082    169.4012   7.2250545394e+01   1.7185504623e+01     0.290584    0.2194252 -68.98 0.0009709238    1.655    0.396
       224  -8.5159    244.6710    169.1735   5.2986724788e+01   1.0698566723e+00    0.1983292     0.142184 -49.20 0.0006715073    1.409    0.290
       225  -8.3295    237.0914    169.3179   5.4260835566e+01   2.1505898174e+00    0.1802718    0.1555125 -31.62  0.000683822    1.074    0.069
       226  -9.1517    167.0954    168.2525   6.7919644855e+01   1.4241769502e+01    0.3707061    0.2771652  67.76 0.0009512842    1.897    0.473
       227  -8.0736     88.6900    168.5470   8.8446201950e+01   2.8193017060e+01    0.2662871    0.1864369 -85.99  0.001159338    1.810    0.447
       228  -8.5012    218.8489    168.1402   5.7220847670e+01   5.1950166315e+00    0.2029591    0.1758258 -49.67 0.0005279916    1.240    0.193
       229  -7.9005    211.4852    168.0157   5.8564758973e+01   6.4241697431e+00    0.2149395    0.1248666 -43.80 0.0008429079    1.557    0.358
       230  -8.5828    112.0645    167.4554   8.1709057409e+01   2.4570753192e+01    0.3263899    0.2340176  76.45 0.0009526747    1.976    0.494
       231  -9.0229    191.8868    166.5915   6.2150657149e+01   1.0080125096e+01    0.2794921    0.1988695 -48.39 0.0005599235    1.385    0.278
       232  -8.9759    185.1928    166.4810   6.3533223380e+01   1.1302841921e+01    0.2701606    0.1917714 -44.24 0.0005389704    1.332    0.249
       233  -8.9990     20.7042    166.0155   1.0737990602e+02   3.7189709031e+01    0.4326479    0.2072671  62.53  0.001628807    2.628    0.620
       234  -8.0029     13.3132    167.6551   1.0955382848e+02   3.7384543952e+01    0.1409567    0.0870598  67.81 0.0007046923    1.710    0.415
       235  -9.8629    137.2224    164.3220   7.4370036606e+01   2.0749800047e+01    0.6936599     0.385319  55.70  0.002121953    2.471    0.595
       236 -10.0538     95.0037    162.6476   8.5546146218e+01   2.8691813286e+01    0.8856451    0.4881582  72.13  0.002568577    4.434    0.774
       237  -8.5144    234.0640    164.6889   5.3864676110e+01   3.4433908238e+00    0.2324387    0.1537009 -45.81 0.0005848405    1.379    0.275
       238  -8.7343    159.6416    164.1881   6.8797681500e+01   1.6543137993e+01    0.3208758    0.2507174 -76.21 0.0009454452    1.712    0.416
       239  -9.5694     33.4777    163.0806   1.0345818912e+02   3.6762471545e+01    0.6325217    0.2504832  53.46  0.002232235    3.421    0.708
       240  -8.2751    240.1772    164.1227   5.2741197660e+01   2.6217973277e+00    0.1761503    0.1387212 -50.93 0.0004419438    1.328    0.247
       241  -8.6273    212.9370    163.4531   5.7361854063e+01   7.0659085958e+00     0.252436    0.1799142 -52.61 0.0004058258    1.476    0.323
       242  -8.4624     57.0626    163.5371   9.6717126216e+01   3.3991351121e+01    0.4241257    0.2029058  10.50  0.001430274    3.637    0.725
       243  -9.2743    246.1779    162.6091   5.1486762775e+01   2.0053955876e+00    0.2365426    0.1510063 -39.56 0.0004962388    1.279    0.218
       244  -8.3960    204.9145    162.6366   5.8718049120e+01   8.5928774234e+00    0.2653222    0.1870331 -46.64 0.0005711202    1.346    0.257
       245  -9.6510      3.8867    162.3427   1.1156419081e+02   3.9426301829e+01    0.4215034    0.2148097  44.75  0.001430136    2.086    0.521
       246  -9.0060    177.4909    160.3375   6.3892581330e+01   1.4023947594e+01    0.3182369    0.2534676 -65.13 0.0008912522    1.500    0.333
       247  -8.7826    151.6693    160.7897   6.9986473036e+01   1.8833633116e+01    0.2866509    0.2299674 -84.29 0.0009905529    1.672    0.402
       248  -9.2165    243.3953    149.8039   4.9436222451e+01   4.6887366356e+00     0.316787    0.1766523 -48.33  0.001011562    1.624    0.384
       249  -8.6422    242.2798    159.6942   5.1541088485e+01   3.0973277519e+00    0.1813691    0.1340956 -22.08 0.0002945667    1.334    0.250
       250  -9.9555    241.8740    154.1180   5.0517602105e+01   4.1533948405e+00    0.4644215    0.3204675 -78.41  0.002229745    2.746    0.636
       251  -9.8089    250.1954    157.4990   4.9884008416e+01   2.3148775134e+00    0.3409255    0.1667922 -44.26 0.0008404948    1.703    0.413
       252  -8.9737    246.7310    155.6286   5.0054781679e+01   3.1522556069e+00    0.2202911      0.13501 -26.71 0.0004289786    1.667    0.400
       253  -8.7431    227.5829    159.0286   5.3842483364e+01   5.5003202844e+00    0.3172728    0.1952238 -59.74 0.0009411048    2.166    0.538
       254  -8.5944     60.7975    159.9344   9.5044991916e+01   3.4458592876e+01    0.3358283    0.2168926  63.50  0.001389401    1.913    0.477
       255  -8.3299    236.9897    158.9229   5.2244715694e+01   4.0398614680e+00    0.1996654    0.1510337 -62.65 0.0007729314    1.656    0.396
       256  -8.2068    128.3342    158.9445   7.5550377309e+01   2.3709525234e+01    0.2842945    0.2192509  66.86  0.001067056    1.633    0.388
       257  -9.5572    105.6807    157.6090   8.1500043047e+01   2.8161262679e+01     0.507993    0.3780723  87.59   0.00150837    1.819    0.450
       258  -8.5067    196.7086    157.8473   5.9328603739e+01   1.1004990707e+01    0.2631732    0.1858877 -57.81 0.0008703493    1.612    0.380
       259  -8.5377    188.1315    157.6243   6.1032388061e+01   1.2617104130e+01     0.254904    0.1877266 -51.29   0.00054981    1.371    0.270
       260  -9.3914    167.6336    157.0596   6.5391110699e+01   1.6607792479e+01    0.3753441    0.2822851  89.40  0.001066197    2.070    0.517
       261  -8.6267    218.0262    156.4092   5.4987839373e+01   7.5661558071e+00    0.2742308    0.1728905 -54.33 0.0008804354    1.729    0.422
       262  -9.0004    157.7863    155.9538   6.7450677935e+01   1.8756810619e+01     0.279311    0.2152984 -67.84 0.0008481864    1.579    0.367
       263  -9.2638    119.4976    154.9324   7.7076886205e+01   2.6338312806e+01    0.4608528    0.3272514 -81.67   0.00127666    2.006    0.502
       264  -9.1488     49.8331    155.1738   9.7542789312e+01   3.7062912175e+01    0.4358468     0.242626  60.59  0.001577619    2.390    0.582
       265  -8.7884     33.5766    156.0906   1.0250577475e+02   3.8572340879e+01    0.3906023    0.1908112  19.50  0.001673806    2.442    0.591
       266  -7.9587    204.9701    155.0480   5.7121706369e+01   1.0089406271e+01    0.2159843    0.1679201 -68.06 0.0007592638    1.642    0.391
       267  -8.6002    144.4809    154.6153   7.0419902341e+01   2.1651474285e+01    0.2962801    0.2289094  69.91 0.0008477646    1.699    0.411
       268  -9.5085     68.1442    153.5210   9.1744874911e+01   3.5152726919e+01    0.4980041    0.3075495  75.26   0.00155154    2.460    0.594
       269  -8.2055    232.9883    153.7119   5.1868668432e+01   5.6161788880e+00    0.2395765    0.1516931 -52.19 0.0007988801    1.603    0.376
       270  -9.6974    132.7310    152.7133   7.3027845675e+01   2.4375823347e+01    0.4798144    0.3667033  82.77  0.001138485    1.843    0.458
       271  -8.9109    133.5678    148.2079   7.1798669995e+01   2.5290025621e+01    0.3289963    0.2635845 -27.22 0.0009751261    1.342    0.255
       272  -8.6969    151.8522    152.3273   6.8079931897e+01   2.0740717519e+01    0.2771369    0.2094528 -56.79 0.0007956162    1.400    0.286
       273  -9.4624     29.6115    150.6496   1.0293821799e+02   4.0367624176e+01    0.5436893    0.2573518  60.80   0.00194121    3.089    0.676
       274  -9.1497     20.2655    152.1968   1.0590013648e+02   4.0783755736e+01    0.2487263    0.1472671  55.81 0.0008739948    1.928    0.481
       275  -8.8109      8.5518    152.7076   1.0932677504e+02   4.1543295003e+01    0.2104876    0.1208248  19.43  0.001073065    2.068    0.516
       276  -8.6368      2.9958    150.7346   1.1069095668e+02   4.2414456335e+01    0.3374259    0.1411188 -74.93  0.001500098    2.004    0.501
       277  -8.1842    182.4800    151.0565   6.0796395886e+01   1.5057333368e+01    0.2273196    0.1397442 -47.08 0.0005132976    1.550    0.355
       278  -8.7739     98.3098    150.4912   8.2143176693e+01   3.1241461197e+01    0.3225656    0.2594479  86.93 0.0008202377    1.529    0.346
       279  -9.4772    248.7780    149.1270   4.8487141529e+01   3.9879812811e+00    0.3106245    0.1706541 -40.16  0.000883998    1.478    0.323
       280  -8.7630    189.3294    149.8622   5.9105850466e+01   1.4006740588e+01     0.265615    0.2057842 -62.10 0.0007162623    1.479    0.324
       281  -8.3744    162.6379    150.3566   6.5061069378e+01   1.9064743457e+01    0.2313355    0.1872185 -89.16 0.0007468723    1.662    0.398
       282  -9.7632     39.9173    147.6864   9.9383797635e+01   4.0124811886e+01    0.5769674    0.2939876  61.15  0.001881666    2.888    0.654
       283  -8.1865    213.0296    149.3372   5.4422591684e+01   9.7874455268e+00    0.1925401    0.1718682 -42.10 0.0005785784    1.063    0.059
       284  -8.4406    198.9121    148.8751   5.6976905136e+01   1.2420629350e+01     0.214384    0.1715728 -73.09 0.0004776558    1.596    0.374
       285 -10.1110     89.3509    146.1653   8.3895071215e+01   3.3848168010e+01    0.7272877    0.4367729  89.45  0.002424757    3.339    0.701
       286  -9.6508    233.3799    147.4682   5.0554536264e+01   6.6963381036e+00    0.2979264    0.1722049 -44.71 0.0008082835    1.483    0.326
       287 -10.0265    139.1751    144.6594   6.9526272396e+01   2.5024669596e+01    0.6235811    0.3937498 -76.31  0.001355455    2.830    0.647
       288  -8.9924    140.0346    136.8054   6.7469550755e+01   2.6679545594e+01    0.3307541    0.2097657 -23.48  0.001276791    2.179    0.541
       289 -10.3484     54.8418    144.3156   9.4190185310e+01   3.9307374599e+01     0.860977    0.4739271  75.71  0.002982422    3.398    0.706
       290  -9.4524     55.7315    135.6600   9.2312702654e+01   4.1449514100e+01    0.4943035    0.2636425  -1.75   0.00171323    3.449    0.710
       291  -8.4227    223.3031    146.9305   5.2117914155e+01   8.4717679794e+00    0.2199844    0.1868653 -77.98 0.0006076563    1.487    0.327
       292 -10.2600    149.0493    144.8889   6.7083863908e+01   2.3001169456e+01    0.6278231    0.4374056  88.33  0.001711525    2.497    0.600
       293 -10.2212    106.9590    144.6022   7.8352073393e+01   3.1201232135e+01    0.7562018    0.4488728  68.84   0.00250667    3.267    0.694
       294  -9.4677     13.7266    146.1222   1.0708547428e+02   4.2854971762e+01    0.3899975    0.2145894  52.81  0.001558139    2.115    0.527
       295  -8.0044    206.6492    146.1948   5.4929913159e+01   1.1540185854e+01    0.1999919    0.1210692 -36.34  0.000585498    1.545    0.353
       296  -8.3424    175.7958    146.1044   6.1136870700e+01   1.7405838012e+01    0.2328215     0.201542 -72.88 0.0008708459    1.343    0.255
       297 -10.3690    241.8489    143.2212   4.8379456186e+01   6.1035210756e+00    0.5106051    0.3141164 -16.04  0.002384345    2.466    0.595
       298  -9.8154    124.9520    142.3700   7.2777352810e+01   2.8366021053e+01    0.5734564    0.3915465 -83.63  0.001461806    2.398    0.583
       299  -9.1989    247.0086    143.5296   4.7664407067e+01   5.2408995087e+00    0.2826044    0.1747102 -34.27 0.0005218359    1.433    0.302
       300  -8.1954    250.5035    140.5278   4.6571179908e+01   5.2277052228e+00    0.1862117    0.1022227 -48.18 4.145725e-05    1.585    0.369
       301  -8.7546    165.5499    143.8733   6.2921981206e+01   1.9921127337e+01    0.2737808    0.2344895 -88.75 0.0006593136    1.441    0.306
       302  -7.4526    194.2996    143.6557   5.6748680716e+01   1.4340844979e+01    0.1467302    0.1138196 -73.86 0.0003843781    1.676    0.403
       303 -10.8405     69.4547    138.7580   8.8521862755e+01   3.8812126474e+01    0.9932963     0.481726 -60.65  0.002860645    2.014    0.503
       304  -8.5067    182.0269    141.4766   5.8764471301e+01   1.7163332560e+01    0.2873508     0.201244 -59.51 0.0007895413    1.612    0.380
       305  -9.2914      2.7400    141.5358   1.0980406914e+02   4.4754751580e+01     0.365324    0.2041536  68.00  0.001371123    2.121    0.529
       306  -8.2900    238.4970    140.4865   4.8350050489e+01   7.1312236053e+00    0.1337443     0.110936 -44.68 -1.222955e-05    1.060    0.057
       307  -8.3902    134.0000    139.9321   6.9779163920e+01   2.7164902665e+01    0.2657619   0.08883244 -48.41 0.0008006283    2.930    0.659
       308  -9.9184     23.5334    137.9271   1.0301821025e+02   4.4196887796e+01     0.495153    0.2547728  63.13  0.001717817    2.809    0.644
       309  -7.9248    218.7502    138.5606   5.1157185489e+01   1.0843661693e+01    0.1711183    0.1357488  65.14 0.0005601167    1.580    0.367
       310  -8.4403    207.6611    137.6048   5.2904156198e+01   1.3039216205e+01    0.2359259    0.1580604 -58.32 0.0005699148    1.651    0.394
       311  -8.5879    197.6398    137.3669   5.4718213503e+01   1.4974015575e+01    0.2858829    0.1983807 -62.75  0.001193702    1.718    0.418
       312  -8.4109    172.2995    138.0319   6.0070199564e+01   1.9831963061e+01     0.259259    0.2136407  88.70 0.0007793076    1.553    0.356
       313  -9.0472    150.4126    136.1762   6.4716407755e+01   2.4704788316e+01    0.5248338    0.3103608  19.59  0.001869881    2.769    0.639
       314  -8.4970     77.9316    146.6412   8.7461146146e+01   3.5526183829e+01    0.3116574    0.2033478 -79.99 0.0008559572    1.984    0.496
       315 -10.4676     83.3478    133.2733   8.2961297214e+01   3.8106932029e+01    0.6295823    0.3965808 -59.20  0.001610959    1.599    0.375
       316  -9.0686    248.5580    134.7914   4.5736609949e+01   6.5295985698e+00    0.2635895    0.1763372 -48.12 0.0009240553    1.276    0.216
       317  -9.4665    250.7432    129.6352   4.4427905754e+01   7.0785699353e+00    0.6428491    0.1311017 -45.42  0.002037007    4.144    0.759
       318  -7.6130    192.6497    136.3443   5.5458826578e+01   1.6142920179e+01    0.1516433    0.1145967 -78.80 0.0007041832    1.809    0.447
       319  -8.4015    162.8549    136.2228   6.1773845506e+01   2.2143449378e+01    0.2364344    0.2084544 -82.69 0.0006994719    1.315    0.239
       320  -9.6130     39.0995    135.5318   9.7678406698e+01   4.3374275438e+01    0.3703793    0.2453325 -83.96  0.001280579    1.701    0.412
       321  -8.0096    188.1599    135.2376   5.6101982962e+01   1.7248110692e+01    0.2059948    0.1667571 -63.91 0.0005612247    1.357    0.263
       322  -7.9734    231.4974    133.9977   4.8128160704e+01   9.4718511933e+00    0.2070263    0.1148716 -41.96 0.0004047983    1.526    0.345
       323  -8.5851    179.4848    133.8208   5.7560149695e+01   1.9272488231e+01     0.275992     0.229306 -76.94 0.0006277077    1.438    0.305
       324  -9.0544    112.7331    133.0302   7.4017060825e+01   3.2974815113e+01    0.3729484    0.2972627  74.05 0.0008584477    1.605    0.377
       325  -8.3098    237.5076    133.0638   4.7015466159e+01   8.6267611983e+00    0.2103777    0.1106368 -44.59  0.001022712    1.593    0.372
       326 -10.1730    132.4601    130.2357   6.7869825368e+01   2.9738214748e+01    0.8256505    0.4174448 -49.75  0.001670757    1.978    0.495
       327  -9.2008    143.1655    131.3350   6.5361146899e+01   2.7289917009e+01    0.3640703      0.26118 -65.42 0.0007671503    1.684    0.406
       328 -10.2230     98.0033    129.7558   7.7606971274e+01   3.6495262520e+01    0.7124316     0.339712 -52.11  0.002109952    2.047    0.511
       329 -10.5973     60.4846    125.4947   8.8697377599e+01   4.3444159823e+01    0.8731734    0.5255707  80.59  0.003143171    3.240    0.691
       330 -10.3028     12.9267    127.7088   1.0495061144e+02   4.7606004899e+01    0.8391988    0.3603145 -79.62  0.003069755    2.526    0.604
       331  -8.4863    246.8902    130.1000   4.5056891945e+01   7.6131500678e+00    0.1996881    0.1486684 -56.00 0.0005970612    1.296    0.228
       332  -8.1844    204.6935    130.1826   5.1829854592e+01   1.5043344945e+01    0.2248752    0.1599508 -55.49 0.0005376072    1.417    0.294
       333  -8.0410    192.9323    130.0003   5.3984328040e+01   1.7365833157e+01    0.2206722     0.170774 -73.48 0.0004507484    1.592    0.372
       334  -9.1385    168.3679    129.3721   5.8919710177e+01   2.2484909818e+01    0.3055983    0.2398453 -85.76 0.0005200444    1.683    0.406
       335  -9.2717    153.0651    129.0556   6.2371314007e+01   2.5742154184e+01    0.3984056    0.2553591 -61.04  0.000885232    1.881    0.468
       336  -9.8303     73.3210    128.9054   8.5200450445e+01   4.0768566256e+01     0.461219    0.3029647 -75.51   0.00131416    1.944    0.486
       337  -8.2681      1.9509    129.9958   1.0873037479e+02   4.7705018510e+01    0.2066517    0.1389017  65.91  0.001127274    1.718    0.418
       338  -7.5660    220.5275    129.5809   4.8973042125e+01   1.2213941026e+01    0.1376922    0.1196753 -51.32 0.0001506931    1.071    0.066
       339  -8.2207    211.5368    128.9334   5.0350201502e+01   1.3990049955e+01    0.2172449     0.124296 -44.85  0.000626318    1.551    0.355
       340 -10.7762     45.1392    123.5178   9.3481386103e+01   4.5815301512e+01     1.139898    0.6281286  75.31  0.003866606    3.902    0.744
       341  -9.8653    117.9360    124.9961   7.0570137500e+01   3.3879069812e+01    0.5657983    0.3968623  87.44   0.00132303    2.390    0.582
       342  -8.0827    228.3811    125.1621   4.6799507697e+01   1.1621779879e+01    0.1998955     0.107935 -50.28 0.0009395527    1.705    0.414
       343  -8.8874    179.2248    124.4406   5.5442023996e+01   2.1265433288e+01    0.2911713    0.2345501 -72.80 0.0005120249    1.447    0.309
       344 -10.3013     28.5718    122.1385   9.8878084028e+01   4.7807394609e+01    0.7968223    0.4175084  76.42  0.002858735    3.683    0.728
       345  -8.7441     26.6490    113.6699   9.8035154401e+01   5.0097784388e+01    0.2251364    0.1621753 -25.26  0.001208668    1.453    0.312
       346  -7.7636    188.5063    123.5540   5.3378336931e+01   1.9542652995e+01     0.147537    0.1352497 -59.44  9.99097e-05    1.073    0.068
       347  -9.4022    158.6614    121.5482   5.9230506158e+01   2.6189123333e+01    0.3757136    0.2711527 -88.09  0.001148771    2.086    0.521
       348  -8.2845    154.3010    123.3208   6.0682158198e+01   2.6733799621e+01    0.1557893    0.1230264  -5.40 0.0003181547    1.626    0.385
       349  -8.7582     84.1014    122.7907   8.0304856045e+01   4.0599809584e+01    0.2859454    0.2190843   1.79 0.0008699836    1.553    0.356
       350  -7.9299    194.9860    121.9889   5.1787355321e+01   1.8544232923e+01    0.2225218    0.1673766 -71.03 0.0005126937    1.593    0.372
       351  -9.5139    171.0275    120.5370   5.6239325399e+01   2.3780064228e+01    0.4413404    0.3174452 -61.71   0.00128322    1.561    0.359
       352  -9.7680     71.1919    119.1266   8.3682035537e+01   4.3531556548e+01    0.4972765    0.3231992 -63.69  0.001280085    1.662    0.398
       353 -10.0160    141.5529    117.8850   6.2440665351e+01   3.0622566003e+01    0.6167699    0.3471142 -55.88  0.001572144    2.036    0.509
       354  -9.7186    130.7734    118.4441   6.5378543901e+01   3.2769600664e+01    0.4295049    0.3156684 -82.04  0.001164469    1.983    0.496
       355  -8.3841    103.5072    118.5207   7.3174055437e+01   3.8192428049e+01    0.2401894    0.1516865  25.98 0.0009889022    1.812    0.448
       356  -9.8190      2.9413    116.7528   1.0671838228e+02   5.0948689393e+01    0.6189332    0.3108336  83.34  0.002553982    2.737    0.635
       357  -7.7924    231.5370    117.4860   4.4741921145e+01   1.2440046289e+01    0.1357389    0.1119923 -54.35 0.0008078194    1.089    0.081
       358  -8.0384    185.7890    115.8082   5.2113869109e+01   2.1637091764e+01    0.2011802    0.1643881 -68.74 0.0004393552    1.324    0.245
       359  -9.8439    109.4934    114.1459   7.0254720860e+01   3.8058786390e+01    0.5161796    0.3565892 -76.27  0.001292556    2.206    0.547
       360  -8.9987     59.5103    114.8082   8.6670645787e+01   4.6245826152e+01    0.4146197    0.2371784 -16.59  0.001580314    2.694    0.629
       361  -8.2639    193.1780    115.1521   5.0566106065e+01   2.0240528801e+01    0.1995845    0.1599283 -66.32 0.0004012787    1.326    0.246
       362 -10.2338     92.6362    112.0235   7.4883027136e+01   4.1716650948e+01    0.6317607    0.3563875 -62.45  0.001343149    2.271    0.560
       363  -9.9543     78.8644    112.2628   7.9442797422e+01   4.4008619517e+01    0.5630452    0.3982151 -86.28  0.001719005    2.223    0.550
       364  -9.8706     75.8164    105.7861   7.8815774203e+01   4.6028100764e+01    0.4904455    0.2868509  21.91  0.002066365    1.975    0.494
       365  -8.3186    250.1814    114.6162   4.1587659806e+01   9.7369304003e+00    0.1538046     0.119724  38.71 0.0009455637    1.687    0.407
       366  -8.2070    167.3308    114.0276   5.5458226776e+01   2.5902344677e+01    0.2171042    0.1868456 -50.91 0.0005695728    1.125    0.111
       367 -10.1495    133.6612    109.2704   6.2241372084e+01   3.4169143083e+01    0.7030868    0.3278426 -50.29  0.002265728    2.277    0.561
       368  -9.8142    121.8994    112.2687   6.6199176606e+01   3.5986536192e+01    0.3506022    0.3087164 -75.78   0.00079606    1.302    0.232
       369  -8.2862    174.8118    111.7503   5.3334636610e+01   2.4756505412e+01    0.2046249    0.1709758 -77.21 0.0005433672    1.340    0.254
       370  -9.0172    159.3969    111.7223   5.6634436432e+01   2.8087205601e+01    0.2841725    0.2296355 -74.92  0.000865148    1.452    0.311
       371 -10.3390     66.4780    109.6859   8.3028478184e+01   4.6524559460e+01    0.5979198    0.3404214 -59.55  0.001952251    1.839    0.456
       372 -10.4386     14.1727    110.7296   1.0193835330e+02   5.1765481877e+01    0.4867939    0.3081881  55.99  0.002291248    2.083    0.520
       373  -9.1281     42.8472    109.1050   9.1307595035e+01   4.9664399221e+01    0.3218818    0.1845391   6.45  0.001411831    2.204    0.546
       374 -10.0729    248.6474    107.7141   4.0442096900e+01   1.1154322564e+01    0.3538396    0.2626601 -39.96  0.002088299    1.208    0.172
       375 -10.4523    249.4571    102.9495   3.9414259690e+01   1.1809363937e+01    0.3980424    0.2444902 -43.57  0.002267015    1.342    0.255
       376  -8.0053    189.4154    108.1571   4.9643676103e+01   2.2361073400e+01    0.2116265    0.1250368 -53.13 0.0009362263    1.709    0.415
       377  -8.9640    110.1143    106.9560   6.8165600760e+01   3.9557119771e+01    0.4804355    0.2591074  18.83  0.001516403    3.541    0.718
       378  -9.6266    118.9563    105.7061   6.5277018949e+01   3.8034489491e+01    0.4622691    0.2871625 -66.69  0.001773704    2.412    0.585
       379 -10.6606    108.7963     98.4468   6.6220276102e+01   4.1669886432e+01    0.8545307       0.5112  67.60  0.001296085    3.133    0.681
       380  -9.3606    107.6292     92.6208   6.4917749968e+01   4.3125362805e+01    0.9141349    0.3624559  31.07  0.002663492    3.997    0.750
       381 -10.5015     45.6564    102.0353   8.8675712097e+01   5.1058880356e+01    0.7852631      0.46386  63.85   0.00304056    3.251    0.692
       382  -9.2525     45.3245     93.0432   8.6602463143e+01   5.3200928120e+01     0.603077    0.3070042 -17.46  0.002228527    3.149    0.682
       383 -10.6855     23.0216    102.4931   9.7225431658e+01   5.3132798264e+01    0.7629479    0.4553563  73.37  0.002300105    2.883    0.653
       384  -9.6499    150.5983    102.7749   5.6367918746e+01   3.1832265005e+01    0.4788004    0.2849265 -63.02  0.001296257    2.321    0.569
       385  -8.5971    150.8933     95.5026   5.4400096078e+01   3.3202075340e+01    0.3607094    0.1994585 -23.70  0.001293062    2.886    0.653
       386  -9.4088    139.9024    104.3334   5.9350488622e+01   3.3861045337e+01     0.385206    0.2889319 -64.70 0.0008743955    1.570    0.363
       387  -8.6267    166.7266    103.9038   5.3088220701e+01   2.8057239578e+01    0.2723431    0.1910478 -59.14 0.0006254009    1.550    0.355
       388 -10.1677    128.5467    101.8057   6.1596364070e+01   3.6842737725e+01    0.4180404    0.2932032 -55.81  0.001424778    1.571    0.363
       389  -9.4279      6.7518    102.5438   1.0324509973e+02   5.4210948218e+01     0.298873     0.166449 -81.54 0.0008334699    2.003    0.501
       390  -7.7451    175.6042    101.8658   5.0777313189e+01   2.6512306465e+01    0.2039172    0.1302474 -52.99 0.0004319863    1.587    0.370
       391  -8.5178    159.7625    100.6623   5.3761956238e+01   3.0225730141e+01    0.2991357    0.1914173 -52.17 0.0006219344    1.615    0.381
       392  -9.2564     82.3642    100.0087   7.5046697089e+01   4.6272131846e+01    0.3679216    0.2842685  87.52  0.001112468    1.965    0.491
       393 -10.3623     63.9524     95.5970   8.0299613796e+01   5.0182252866e+01    0.7171053    0.4188254 -68.37  0.001668977    2.537    0.606
       394  -9.2119     65.3636     87.4055   7.7504174424e+01   5.1787046900e+01    0.7121074    0.2881547  18.61  0.001981103    5.158    0.806
       395  -9.1234     95.1188     96.9631   7.0012172205e+01   4.4655174646e+01    0.3097877    0.2574399 -65.68 0.0006491903    1.428    0.300
       396  -8.5518      6.8548     97.3984   1.0233210191e+02   5.5435542735e+01    0.1742682    0.1104265 -16.05 0.0009449043    1.717    0.418
       397  -8.2399    164.9717     93.9757   5.0956699837e+01   3.0348890383e+01     0.230064    0.1735301 -75.87 0.0004921779    1.601    0.375
       398  -9.9022    247.7100     92.6776   3.7632005279e+01   1.3788143260e+01    0.2635322    0.2042152  40.79  0.001641313    1.783    0.439
       399  -7.8611    188.6508     93.3231   4.6298614776e+01   2.5269061167e+01    0.1502948    0.1055896 -76.00 0.0007048994    1.747    0.428
       400  -8.1329    176.4948     92.9532   4.8423603683e+01   2.7983233708e+01    0.2212722    0.1355843 -45.51 0.0006909595    1.570    0.363
       401  -9.3827    138.9456     91.9623   5.6265756879e+01   3.6550990283e+01     0.388132    0.2782721 -70.44 0.0007414072    1.845    0.458
       402 -10.3433    124.2974     90.1512   5.9505096308e+01   4.0121560316e+01    0.7628681    0.5409738 -18.83  0.001705867    1.795    0.443
       403  -9.5391      5.4290     91.9825   1.0191005969e+02   5.6788669379e+01    0.3493356    0.2336469  62.61   0.00123536    2.120    0.528
       404  -8.2447    157.7197     91.5766   5.1864619805e+01   3.2421144993e+01    0.2502352    0.1702583 -60.94 0.0007052576    1.693    0.409
       405  -9.4839     34.9027     89.7881   8.9849491313e+01   5.5069733063e+01    0.4127504    0.2757319 -88.73  0.001840222    2.476    0.596
       406  -9.2054     23.0161     90.0555   9.4620617905e+01   5.6073825453e+01    0.3735344    0.2413729 -24.71  0.001310457    1.544    0.352
       407  -7.9231    151.1745     89.1039   5.2644732347e+01   3.4355565638e+01    0.2073313    0.1706512 -71.26 0.0005459229    1.354    0.261
       408 -10.1436     86.4728     85.7687   6.9591471467e+01   4.8615179331e+01    0.6404524    0.4169126 -52.93  0.001387913    1.716    0.417
       409  -9.6646     48.5976     84.0631   8.2944691950e+01   5.4819473703e+01    0.5162522    0.3446703  67.36  0.001960893    2.925    0.658
       410  -8.4773     48.9866     78.0164   8.1067576889e+01   5.6066951547e+01    0.3869775    0.1949251   6.10  0.001447511    3.173    0.685
       411  -7.5778    179.4324     85.4766   4.6049163457e+01   2.8673000271e+01    0.1437255    0.1289907 -72.38 0.0001040368    1.066    0.062
       412  -9.8180    104.9266     83.0221   6.2916979353e+01   4.5596194973e+01    0.4468088    0.3355937 -75.02 0.0009975556    1.966    0.491
       413  -8.6776    105.0339     76.9845   6.1063145321e+01   4.6721032798e+01    0.2870841    0.1942641  -8.97  0.001160583    2.102    0.524
       414  -8.4548    158.0132     83.5568   4.9707712935e+01   3.3822059209e+01    0.2726411     0.189479 -56.65 0.0006232536    1.548    0.354
       415  -8.9659    140.9403     82.4839   5.3184674069e+01   3.7884487340e+01    0.3637709    0.2281876 -51.94 0.0009757024    1.743    0.426
       416  -8.4090     34.8989     82.9387   8.8120375885e+01   5.6612144148e+01    0.2479728    0.1195183 -35.48  0.001003824    2.044    0.511
       417  -7.3481    185.6414     82.3218   4.4200585409e+01   2.7850369140e+01    0.1498389    0.1028726 -76.08 0.0007044281    1.769    0.435
       418  -7.9845     64.2959     82.6621   7.6518941761e+01   5.2959126778e+01    0.1343925    0.1158579  80.55 0.0007030533    1.653    0.395
       419  -9.7417     24.7897     80.4004   9.1628523572e+01   5.8114435198e+01    0.4320017     0.305144  86.62  0.001425003    2.297    0.565
       420  -9.6046      9.7576     80.7294   9.7950383446e+01   5.9126017000e+01    0.3275781    0.2177908  49.13  0.001483661    2.110    0.526
       421  -8.7063    119.4957     80.1563   5.7917332678e+01   4.3070589340e+01    0.3193744    0.2248735 -64.56 0.0008630459    1.896    0.473
       422  -8.8909     74.5835     80.0612   7.1977751945e+01   5.1857251444e+01    0.3216731     0.250977 -79.29  0.001107701    2.001    0.500
       423  -9.1310    249.6062     80.1548   3.5005045554e+01   1.5432129475e+01    0.1706163    0.1029438 -35.58  0.000945727    1.705    0.413
       424  -8.3250    166.8747     79.3589   4.6851058129e+01   3.2548391544e+01    0.2363726    0.1812265 -51.98 0.0004743933    1.296    0.228
       425  -8.3652    150.1017     80.0782   5.0462033854e+01   3.6237816217e+01    0.2334583    0.1744032 -77.80   0.00101494    1.681    0.405
       426  -7.9803    184.2363     78.0604   4.3414517929e+01   2.8879333853e+01    0.1800625    0.1126977 -40.02 0.0007103746    1.582    0.368
       427  -8.1774    157.3684     76.2030   4.7901559670e+01   3.5251953052e+01    0.2012495     0.126919 -51.13 0.0003886969    1.661    0.398
       428  -9.2815    128.1156     74.9876   5.4161849860e+01   4.2105729362e+01    0.3586035    0.2324151 -53.48 0.0007077733    1.782    0.439
       429  -8.2715    140.3540     75.0185   5.1241254350e+01   3.9340485235e+01    0.2016468    0.1809029 -52.92 0.0005380409    1.153    0.133
       430  -9.7685     82.5419     72.4135   6.6803975241e+01   5.1956691471e+01    0.4662106    0.2990775 -61.24 0.0009484589    2.343    0.573
       431 -10.0165     63.1258     73.1375   7.4055495044e+01   5.5079721500e+01    0.4675866    0.2843319 -55.78  0.001410139    2.015    0.504
       432  -8.3356    163.6648     73.3506   4.5916547508e+01   3.4293276237e+01    0.2514669    0.1593313 -51.93 0.0008347164    1.639    0.390
       433  -8.4922    115.7634     72.7155   5.6713918244e+01   4.5222973801e+01    0.2759767    0.1951124 -50.01 0.0006630337    1.575    0.365
       434  -8.3291     42.8835     72.7054   8.1982016891e+01   5.7924315219e+01     0.229716    0.1816981 -86.01  0.000864545    2.042    0.510
       435  -7.6595    175.5065     72.4512   4.3532531642e+01   3.1753691579e+01    0.1380551    0.1291248 -87.01 0.0001968761    1.027    0.026
       436  -7.7645    151.3243     72.7011   4.8205260680e+01   3.7227163793e+01    0.1462286    0.1099103 -81.33  0.000314676    1.629    0.386
       437  -9.4177    106.1398     71.6952   5.9111954377e+01   4.7451985173e+01    0.2800407    0.2488082 -87.32  0.000827955    1.399    0.285
       438  -9.3385     95.1377     70.8869   6.2187197039e+01   4.9838884357e+01    0.3815556    0.2386551 -53.75  0.001021166    2.011    0.503
       439  -9.5687     51.5610     69.5368   7.7459174320e+01   5.7460488893e+01    0.4331756    0.2627284 -64.49   0.00144328    2.614    0.617
       440  -9.1623     28.9508     70.2762   8.7176606278e+01   5.9919841847e+01      0.34365    0.1580138 -23.65  0.001199703    2.805    0.644
       441  -9.1586     16.6046     69.7882   9.2436048137e+01   6.1063604329e+01    0.2582161    0.1941048 -76.37 0.0007857096    1.745    0.427
       442  -8.7352    147.0497     67.8624   4.7777154453e+01   3.9006226850e+01     0.303559     0.195198 -51.46 0.0007627099    1.685    0.407
       443  -7.4355    203.3134     66.6760   3.7869600372e+01   2.6561736786e+01    0.1395668   0.09062266 -70.35 0.0003712568    1.661    0.398
       444  -8.5409    138.7130     65.9510   4.9047918655e+01   4.1228347580e+01    0.2578034     0.184904 -57.88 0.0007117096    1.598    0.374
       445  -9.0110    121.6655     65.3418   5.2930696560e+01   4.5180070488e+01    0.3493611     0.237168 -44.18  0.001159038    1.581    0.367
       446  -9.0290     37.3827     64.0448   8.1664928176e+01   6.0306918616e+01    0.2829852    0.2237363 -84.20  0.001044863    2.148    0.534
       447  -8.9768    110.2477     63.3659   5.5347415346e+01   4.8002328119e+01    0.2934797    0.2364063 -61.09 0.0008154683    1.525    0.344
       448  -8.3846     95.3205     64.3547   6.0034633735e+01   5.0947229866e+01     0.149958    0.1068636   7.53 0.0007046441    1.755    0.430
       449  -7.7469    157.2959     69.6748   4.6183391079e+01   3.6355928988e+01    0.1451736    0.1065996 -75.26  0.000372439    1.625    0.385
       450  -8.5775     65.9249     62.2336   6.9435107955e+01   5.6695472497e+01    0.4237941    0.2066945  16.35  0.001460452    3.682    0.728
       451  -8.0647    158.4229     61.9144   4.3904206901e+01   3.7323052627e+01    0.1988069     0.133402 -41.34 0.0007288382    1.535    0.349
       452  -9.2113     97.7198     60.3895   5.8008790192e+01   5.1121497854e+01    0.3189074    0.2519394  59.05 0.0008791059    1.421    0.296
       453  -9.7446     73.4231     59.3835   6.5697934121e+01   5.5927870698e+01    0.3887084    0.2594418 -51.61  0.001126208    1.886    0.470
       454  -8.1030    146.9969     58.9747   4.5324610131e+01   4.0409587780e+01    0.1659296    0.1574458 -56.90  0.000535455    1.106    0.096
       455  -8.1267     89.1261     59.2151   6.0294985164e+01   5.3036191486e+01    0.1802534    0.1688304 -89.16 0.0005315682    1.363    0.266
       456  -9.9561     23.4490     56.1250   8.5428917873e+01   6.3274959475e+01    0.4019649    0.3028131  86.95  0.002131441    2.628    0.620
       457  -9.6199      7.5703     56.7938   9.3094579437e+01   6.4359193644e+01    0.3127806    0.2483808  81.57  0.001313991    2.032    0.508
       458  -7.9965    216.0622     57.3301   3.4218725278e+01   2.5290130655e+01    0.1699845     0.144878 -86.00 0.0004258953    1.091    0.083
       459  -8.4975    130.8447     57.1927   4.8278079067e+01   4.4391496769e+01    0.2084469    0.1839745 -88.69 0.0006627773    1.240    0.193
       460  -8.3043    140.0332     56.0346   4.5929242459e+01   4.2456386294e+01    0.2114446    0.1613996 -75.40 0.0004598464    1.575    0.365
       461  -9.1503    119.1240     55.1078   5.0439045876e+01   4.7349159010e+01    0.3936231    0.2246858 -49.96  0.001397362    2.127    0.530
       462  -8.9590     44.2245     54.8694   7.5679579619e+01   6.1204347476e+01    0.3557988    0.1940501 -48.81   0.00156899    1.989    0.497
       463  -8.9349     62.9521     54.5578   6.7920116921e+01   5.8516000373e+01    0.2388237     0.188351 -42.68 0.0006114695    1.431    0.301
       464  -9.0109     54.0125     53.5295   7.1103194449e+01   6.0077581796e+01    0.3573658    0.1935284 -53.52   0.00154953    2.591    0.614
       465  -8.5917    105.7136     52.8997   5.3252004948e+01   5.0614082122e+01    0.2372042    0.1855798 -53.47 0.0006368681    1.543    0.352
       466  -9.4462     92.4921     50.4013   5.6256829995e+01   5.3746720530e+01    0.3593404    0.2352932 -50.65  0.000977419    1.965    0.491
       467  -8.5883    144.7231     48.9652   4.2976690144e+01   4.2382398459e+01    0.1848112    0.1714425 -57.67 0.0004044558    1.141    0.124
       468  -8.1993    129.8151     48.8135   4.6015180015e+01   4.5839053137e+01     0.185974    0.1581996 -78.64 0.0004695092    1.334    0.250
       469  -8.4289    120.8620     47.1952   4.7562363612e+01   4.8095208416e+01    0.1980717    0.1808213  78.83 0.0005578995    1.164    0.141
       470  -8.3572    112.1668     46.6770   4.9526787819e+01   5.0104472244e+01    0.2182883    0.1822364 -48.23 0.0005728903    1.368    0.269
       471  -8.8704     82.1954     46.2794   5.8081494997e+01   5.6392458012e+01    0.2575272    0.2071744 -42.95 0.0006368245    1.464    0.317
       472  -8.4249     45.0907     44.6130   7.1613631228e+01   6.2846922479e+01    0.2023744    0.1652361 -35.71 0.0006499522    1.347    0.258
       473  -9.1626     16.8892     44.3740   8.4742451642e+01   6.6048836890e+01    0.2350278    0.1727257 -63.22  0.001069669    1.913    0.477
       474  -9.6474      5.3433     41.9330   8.9786479406e+01   6.7360135395e+01    0.3773096    0.2177497 -71.17  0.001876798    3.002    0.667
       475  -8.6779    132.9743     42.9777   4.3604493671e+01   4.5900844664e+01    0.2086268    0.1559597 -74.15 0.0004777406    1.645    0.392
       476  -9.4449     69.6084     41.4653   6.0660262724e+01   5.9428628149e+01    0.3159559    0.2528503 -59.86  0.001061453    1.894    0.472
       477  -8.9416     58.2015     42.2071   6.5256426199e+01   6.1260003280e+01    0.3189073    0.2248976 -55.27   0.00142624    2.189    0.543
       478  -8.6223    106.1203     41.3297   4.9336371435e+01   5.2147689164e+01    0.2574774    0.1959385 -72.98 0.0006320993    1.878    0.467
       479  -7.7230    140.2358     40.9671   4.1573037357e+01   4.4485125762e+01    0.1578767    0.1132795 -35.43 0.0004458516    1.537    0.350
       480  -8.6495     36.8636     40.3841   7.3690257529e+01   6.4618543503e+01    0.1975701    0.1608583 -36.55 0.0006099155    1.378    0.274
       481  -8.5593     95.5890     37.7979   5.0995075665e+01   5.4853424196e+01    0.2290109    0.1925979 -71.77 0.0007231716    1.620    0.383
       482  -8.0889     80.6192     36.7522   5.5143723315e+01   5.8018107494e+01    0.1661421     0.121529 -39.62 0.0005372092    1.601    0.375
       483  -9.4604     26.2195     34.9623   7.6665462686e+01   6.6745040387e+01    0.3127087    0.1939071 -46.97  0.001023684    1.842    0.457
       484  -8.2312    125.9910     35.3610   4.2771231808e+01   4.8457162164e+01    0.1893129    0.1516939  57.01 0.0003749777    1.100    0.091
       485  -8.6758    111.9345     34.4401   4.5620974693e+01   5.1735020192e+01    0.2317567    0.1793813 -54.31 0.0007733817    1.573    0.364
       486  -7.8542     88.5755     34.5006   5.1859164965e+01   5.6719715908e+01    0.1311931    0.1142306  31.67 0.0001243445    1.015    0.015
       487  -8.3881    119.2806     33.1148   4.3516195266e+01   5.0247480035e+01    0.2395927    0.1642742 -89.75 0.0008138606    1.997    0.499
       488  -8.5841     60.8167     32.5073   6.0474236026e+01   6.2203419444e+01    0.2071095    0.1682884 -20.00  0.000506375    1.271    0.213
       489  -8.8230     48.4763     32.9182   6.5605757506e+01   6.4136661140e+01    0.2021624    0.1878544  29.75 0.0006549706    1.401    0.286
       490  -8.8805     72.1344     31.0289   5.5805509042e+01   6.0368431180e+01    0.2281725    0.1823953 -34.29 0.0007941097    1.458    0.314
       491  -9.2222     12.9151     29.8124   8.1500138010e+01   6.8887508416e+01    0.3033443    0.1590541 -53.06  0.001463108    2.364    0.577
       492  -8.1687    101.5066     29.0077   4.6369153438e+01   5.4652458385e+01    0.1766232     0.129099 -28.57 0.0006281402    1.547    0.353
       493  -8.0112     42.3153     29.6794   6.6955983726e+01   6.5498299994e+01    0.1061134    0.1001661  53.37 0.0007040373    1.657    0.397
       494  -8.9513     81.5224     27.0770   5.1257820611e+01   5.9028906594e+01    0.2697046    0.2103104 -61.53 0.0008875357    1.936    0.483
       495  -9.6437      3.4865     26.8515   8.5533167573e+01   7.0117212428e+01     0.310276    0.1867465 -59.38   0.00179389    2.336    0.572
       496  -8.5821     91.9786     26.2643   4.7923916599e+01   5.6985207229e+01    0.2075634    0.1743076 -63.15 0.0006722712    1.600    0.375
       497  -7.8299    145.5704     25.5537   3.6286559055e+01   4.5072073206e+01    0.1282416    0.1105075  78.36  5.77789e-05    1.046    0.044
       498  -8.2522     34.9464     22.9864   6.7488992153e+01   6.7437460354e+01    0.1915349    0.1222061  50.58  0.001009999    2.618    0.618
       499  -8.0067    104.5281     22.5659   4.3433209607e+01   5.4692214665e+01    0.1286884    0.1096371  50.91 7.793769e-05    1.028    0.027
       500  -8.8751     63.7239     20.8125   5.4680016217e+01   6.3120895568e+01     0.251427    0.1988605 -44.41 0.0007545367    1.734    0.423
       501  -8.8618     48.4766     21.5046   6.0849717588e+01   6.5634600754e+01    0.2121537    0.1967676  10.56 0.0006164394    1.334    0.251
       502  -9.1260    211.2917    246.9102   7.3148108855e+01  -7.5875690985e+00    0.3346349     0.237335 -64.31  0.001487118    3.041    0.671
       503  -8.9248     74.1958     19.2221   5.0520355070e+01   6.1328538405e+01    0.2616195    0.1994362 -45.81 0.0008861971    1.772    0.436
       504  -8.0919     38.6406     17.8112   6.3500410278e+01   6.7579637235e+01    0.1493728    0.1042578 -34.16 0.0004357151    1.664    0.399
       505  -8.2781     87.8843     17.1720   4.5728959490e+01   5.8783560601e+01    0.1787033    0.1615538  64.45 0.0005011635    1.247    0.198
       506  -7.7244     19.7104     21.3047   7.4371551047e+01   6.9523887424e+01   0.09744653   0.08989277  17.39 0.0004177968    1.570    0.363
       507  -8.1913     30.1681     15.8921   6.6619039059e+01   6.8992722051e+01    0.1636646    0.1437023   5.29 0.0005970525    1.328    0.247
       508  -8.4788    191.3150    249.2002   7.7511241951e+01  -5.3723921776e+00    0.2170183     0.150448  47.23 0.0008983371    1.994    0.499
       509  -7.8179     17.4204     13.9395   7.2297850479e+01   7.0788598772e+01     0.124862    0.1012294 -55.88 0.0004746538    2.343    0.573
       510  -9.1104    175.8332    247.5328   8.0465516239e+01  -2.9845232124e+00    0.3033325    0.2444551  73.73  0.001558499    2.212    0.548
       511  -7.5834     47.7012     10.2898   5.6225494868e+01   6.7012539047e+01   0.09928627   0.09311529  51.47 0.0002032768    1.559    0.359
       512  -9.0435    156.5205    248.0295   8.4682942224e+01  -3.2632946345e-01    0.3018836    0.2205982  64.25  0.001193146    2.159    0.537
       513  -8.7699      7.8053     15.1969   7.8271062636e+01   7.1572607576e+01    0.1527999    0.1232715  56.84 0.0009474232    2.825    0.646
       514  -8.4622    113.0390    248.4968   9.4374523410e+01   5.9301552265e+00    0.2377149    0.1823318 -88.26  0.001255483    1.689    0.408
       515  -8.2352     93.9468    249.0561   9.8693637264e+01   8.5426269757e+00    0.2184344    0.1371539  61.08  0.001115439    1.802    0.445
       516  -8.9064    232.5556    246.7080   6.9084874401e+01  -1.0099976499e+01    0.2607392    0.1828056 -35.94  0.001067064    1.493    0.330
