#   1 NUMBER                 Running object number                                     
#   2 MAG_AUTO               Kron-like elliptical aperture magnitude                    [mag]
#   3 X_IMAGE                Object position along x                                    [pixel]
#   4 Y_IMAGE                Object position along y                                    [pixel]
#   5 X_WORLD                Barycenter position along world x axis                     [deg]
#   6 Y_WORLD                Barycenter position along world y axis                     [deg]
#   7 A_WORLD                Profile RMS along major axis (world units)                 [deg]
#   8 B_WORLD                Profile RMS along minor axis (world units)                 [deg]
#   9 THETA_WORLD            Position angle (CCW/world-x)                               [deg]
#  10 FWHM_WORLD             FWHM assuming a gaussian core                              [deg]
#  11 ELONGATION             A_IMAGE/B_IMAGE                                           
#  12 ELLIPTICITY            1 - B_IMAGE/A_IMAGE                                       
         1 -14.5966     68.4150    144.7751   9.4250978483e+01   3.7547253607e+01     5.499985     2.956713  89.04   0.01351049    3.896    0.743
         2 -13.8402    208.4142     45.0385   3.6705551159e+01   2.8492844688e+01     1.347084      1.20813  33.27   0.00516474    1.573    0.364
         3 -13.4609    216.2842     40.3014   3.4850176092e+01   2.7464809814e+01     1.035417    0.6752571 -54.35   0.00363563    1.324    0.245
         4 -13.8461    236.4356     22.9296   2.9606354102e+01   2.5579877428e+01     1.116515    0.8860306  53.61  0.002600806    1.764    0.433
         5 -11.5504      2.8784      3.5585   7.9280743795e+01   7.4441041010e+01    0.4355409    0.2034023 -27.38  0.002548635    1.931    0.482
         6  -9.9062     42.0571    230.6420   1.1234610403e+02   1.9509574230e+01     0.243486    0.1547164  88.13 0.0005421378    1.551    0.355
         7 -10.2766    117.0468    250.5066   9.7859486514e+01   5.2807303399e+00    0.2082853    0.1119478  34.51  0.001035036    1.598    0.374
         8 -10.5696     86.9492    249.5572   1.0430858685e+02   9.7218557661e+00    0.2311385    0.1921178 -75.53 0.0006841205    1.332    0.249
         9 -14.8222      8.9824    208.1842   1.1798351964e+02   2.8098503066e+01     2.258585    0.9996672 -75.68   0.00479896    1.967    0.492
        10 -16.2225     26.6534    243.0639   1.1651838356e+02   1.8559084756e+01     9.129237     2.924661  21.99   0.02929007    6.159    0.838
        11 -10.5120     73.8936    207.2165   1.0245244180e+02   2.0843869071e+01     0.414048    0.2511681  82.97  0.001326012    2.114    0.527
        12  -9.8744    110.9219    204.0754   9.2780774672e+01   1.5986926388e+01    0.2173958    0.1891579  63.39 0.0004340182    1.205    0.170
        13 -10.5985    193.2700    195.4068   7.2258116912e+01   4.1421683915e+00     0.875307    0.4597915 -65.15  0.002374426    6.925    0.856
        14  -8.9818    122.4002    199.2293   8.9144450658e+01   1.5220134014e+01    0.2001251    0.1429412 -69.75 0.0009395501    1.665    0.399
        15  -9.1065     99.3315    181.0402   9.1958970747e+01   2.3405656931e+01    0.2076631    0.1909486 -64.17 0.0004808871    1.085    0.078
        16  -9.8823    186.9674    175.0694   6.9541986572e+01   9.2164083948e+00    0.3396333    0.2049693 -50.27  0.001305026    1.715    0.417
        17 -13.6396     58.0136    155.9800   9.9400700196e+01   3.6020141334e+01    0.8952451    0.4627485 -58.69  0.002228295    1.753    0.430
        18 -13.3523     78.2023    154.5813   9.3141751391e+01   3.3536158133e+01      1.70154      1.16961  85.10  0.000639838    1.912    0.477
        19 -16.0343     31.9499    186.4002   1.1066103678e+02   3.1164402069e+01     8.850082     3.594168  82.11   0.02849924    4.190    0.761
        20  -8.9357    110.7992    167.8030   8.6429973098e+01   2.4755156848e+01    0.2105481    0.1798817  85.77 0.0004685486    1.332    0.249
        21 -12.2011     36.4579    160.8173   1.0645184510e+02   3.7274283645e+01    0.7150665    0.3516742  59.56  0.002865284    2.587    0.613
        22 -11.3109     29.8653    221.2814   1.1428437456e+02   2.2991233893e+01    0.4890715    0.2971531  70.45  0.001665114    1.546    0.353
        23  -8.5518    124.6567    151.2862   7.9245766340e+01   2.6276015479e+01    0.1599952    0.1247168  74.63 0.0007019537    1.644    0.392
        24  -9.1424    174.8240    149.2459   6.6608157854e+01   1.6872269189e+01    0.2427998    0.1664623 -86.20 0.0009385434    2.710    0.631
        25 -10.1916    133.8797    145.8148   7.5580658103e+01   2.5792519486e+01    0.8903168    0.1965612 -54.00  0.001756343    7.416    0.865
        26 -11.8198     71.3840    160.5750   9.6226903736e+01   3.2982007082e+01    0.3694318    0.3428171  66.04  0.002026301    1.091    0.084
        27  -8.4566    201.2356    144.6718   6.0260360813e+01   1.2760849313e+01    0.1393162    0.1056275 -62.56 0.0002294038    1.526    0.345
        28 -10.7772     96.0287    139.9363   8.4826235831e+01   3.4384110630e+01    0.7135001    0.4428509 -17.72  0.002575868    2.752    0.637
        29 -12.4315     82.5356    139.2729   8.8773756816e+01   3.6826613377e+01    0.3339173     0.286751 -48.61 0.0005173351    1.120    0.107
        30  -9.3231    143.1812    138.9401   7.1608763307e+01   2.5526832509e+01    0.2352242    0.2087018 -80.89 0.0004938109    1.272    0.214
        31 -10.8264    106.5480    130.7108   7.9583240693e+01   3.4764066097e+01    0.4087394    0.3441748  12.48  0.001248457    1.342    0.255
        32 -11.6713     65.7662    127.1470   9.1523010153e+01   4.2497010702e+01    0.6291136    0.4983617  81.30  0.002011745    1.539    0.350
        33 -12.3858    244.7921    124.1935   4.8886677582e+01   8.8414925239e+00    0.5679695    0.2406661 -33.39  0.002388317    2.488    0.598
        34  -9.1972    160.6675    127.3255   6.4649000290e+01   2.4476014517e+01    0.1585012    0.1225849 -84.27 0.0004856591    1.710    0.415
        35  -8.9687    162.4352    120.2024   6.2512846657e+01   2.5617130204e+01    0.2195388    0.1401872 -54.90 0.0009375477    1.650    0.394
        36  -9.7696    105.0578    119.0253   7.7131773044e+01   3.7867159507e+01     0.223263    0.2167199 -21.14 0.0002992666    1.024    0.024
        37  -9.2994     32.9864    115.4986   1.0038233714e+02   4.9407392873e+01     0.196849    0.1011022  49.09 0.0008102565    2.531    0.605
        38  -9.0628     93.8402    126.1951   8.2317698963e+01   3.8210994414e+01    0.2113323    0.1805845 -20.63 0.0004880022    1.274    0.215
        39  -8.7740    168.3717    113.6861   5.9619765131e+01   2.5685578415e+01    0.1587273    0.1182365 -83.31 0.0007034108    1.783    0.439
        40  -9.4783    114.4791    124.6819   7.5812035029e+01   3.4681864784e+01    0.2696273     0.195177  14.34 0.0007578213    1.797    0.444
        41 -10.1803    205.3067    110.5508   5.1946720069e+01   1.8537059075e+01    0.3100718    0.2504674  30.20  0.001113689    1.561    0.359
        42  -9.6253     68.7748    104.6810   8.5184066788e+01   4.7624378989e+01    0.2901219    0.2682118 -19.08  0.001403142    1.055    0.052
        43 -11.5742    243.4753    101.0195   4.4391215878e+01   1.2986847547e+01    0.2888932    0.1682469 -27.12  0.001409166    2.175    0.540
        44  -8.9891     63.0973    100.5006   8.6112730702e+01   4.9464374507e+01    0.2057795    0.1446538  29.47 0.0004131972    1.489    0.328
        45 -12.1717    240.2487    170.9989   5.8842343183e+01   1.3855580053e+00    0.5366159    0.2339661  33.91  0.002403928    2.869    0.651
        46 -10.1811     43.1123     89.4606   9.0750819210e+01   5.4666588704e+01    0.3040805    0.2060657  50.36 0.0009993097    1.929    0.482
        47  -9.9609    162.8030     84.1666   5.3212320933e+01   3.2612530443e+01    0.1979298    0.1783931   8.85  0.000540951    1.351    0.260
        48  -9.5297     63.3317     81.2671   8.0602737448e+01   5.3754299214e+01    0.2747754    0.2105798  81.32 0.0009751004    2.140    0.533
        49  -8.8185    184.5328     77.4620   4.7570102013e+01   2.8845231490e+01    0.1386654    0.1295504 -71.15 4.431886e-05    1.050    0.047
        50  -9.5124     59.9699     74.9727   7.9942119834e+01   5.5582886081e+01    0.2126367    0.1791617  77.64  0.001132348    1.732    0.423
        51  -9.4050     52.9144     73.9432   8.2398915955e+01   5.6819753109e+01    0.2081997    0.1720947  68.17 0.0009777813    1.756    0.431
        52 -11.2326     13.4426     60.2939   9.5592571595e+01   6.3868353297e+01    0.2772655     0.219998 -58.67 0.0004404027    1.342    0.255
        53 -12.0441     60.6394    169.4307   1.0075160776e+02   3.2149974335e+01     0.364115    0.3035196 -36.31  0.001227263    1.348    0.258
        54 -13.4254     24.0839    199.8705   1.1387089720e+02   2.8640362832e+01    0.6559384    0.4648074  83.77  0.001640695    1.260    0.207
        55 -12.7220    224.0065     33.4263   3.2687580846e+01   2.6761443687e+01     0.537042    0.4334514  60.76  0.001286758    1.508    0.337
        56 -12.2145     54.8841    174.6344   1.0311643032e+02   3.1538987087e+01    0.6888656    0.4060708 -22.53  0.002708345    2.939    0.660
        57  -9.0056     26.2927     51.4413   8.6674744648e+01   6.4499317533e+01    0.1515329    0.1138744  26.11 0.0004624329    1.440    0.305
        58 -11.6239      1.9804     48.2805   9.7773867234e+01   6.7046133217e+01    0.5260987    0.1091332 -57.78  0.001956531    3.723    0.731
        59 -10.1135    128.6871     28.5219   4.3925649888e+01   4.8843242631e+01    0.2224976    0.1945797 -87.58 0.0004512715    1.178    0.151
        60 -11.5873      7.6835     25.7607   8.6765770222e+01   7.0740221196e+01    0.2511991    0.1943169  33.52  0.001707102    1.735    0.424
        61  -9.7324    189.8269     15.5983   3.2032214310e+01   3.6116051003e+01    0.1827007    0.1649457 -45.89 0.0007004636    1.309    0.236
