#   1 NUMBER                 Running object number                                     
#   2 MAG_AUTO               Kron-like elliptical aperture magnitude                    [mag]
#   3 X_IMAGE                Object position along x                                    [pixel]
#   4 Y_IMAGE                Object position along y                                    [pixel]
#   5 X_WORLD                Barycenter position along world x axis                     [deg]
#   6 Y_WORLD                Barycenter position along world y axis                     [deg]
#   7 A_WORLD                Profile RMS along major axis (world units)                 [deg]
#   8 B_WORLD                Profile RMS along minor axis (world units)                 [deg]
#   9 THETA_WORLD            Position angle (CCW/world-x)                               [deg]
#  10 FWHM_WORLD             FWHM assuming a gaussian core                              [deg]
#  11 ELONGATION             A_IMAGE/B_IMAGE                                           
#  12 ELLIPTICITY            1 - B_IMAGE/A_IMAGE                                       
         1  -8.5364    118.9677     32.6399   2.9979331675e+01   5.0973385337e+01    0.2956551    0.1593781 -49.07  0.000933687    1.989    0.497
         2  -8.5371     55.8341     10.0802   3.6914951747e+01   6.8727408570e+01     0.190617     0.173428 -71.71 0.0006000612    1.349    0.259
         3  -8.1827     91.0121      8.9661   2.6126365532e+01   6.0567037160e+01    0.2146968    0.1489572 -67.81 0.0006561514    1.693    0.409
         4  -8.0168      6.0076      8.0133   6.6622544403e+01   7.7563852605e+01    0.1473743    0.1219929 -10.89 0.0004108604    1.008    0.008
         5  -8.0807     70.4725      6.0430   2.9773058273e+01   6.5800519883e+01      0.18067    0.1305194 -20.02 0.0005017337    1.530    0.346
         6  -8.3672     33.2148      4.3568   4.3796814373e+01   7.3972746295e+01    0.2275636    0.1531886 -52.20  0.001209726    2.215    0.548
         7  -8.5639     79.1877      3.5556   2.6223241634e+01   6.3931897667e+01    0.2595678    0.1469229 -40.50  0.001146921    1.973    0.493
         8  -7.8872     44.5419      3.0001   3.7189903306e+01   7.1872233977e+01    0.1650112   0.09943093 -50.01 0.0005298083    2.375    0.579
         9  -7.8993     62.5175      1.4336   2.9578708699e+01   6.8054809777e+01    0.1288096    0.1136847  52.54 9.774771e-05    1.034    0.033
        10  -8.9806    103.7493    246.6337   8.2097526953e+01   1.0280590602e+01    0.3494621    0.2113832 -86.24  0.001799421    2.951    0.661
        11  -9.4262    243.0982    245.7574   5.5878098223e+01  -5.2097351969e+00     0.372327    0.1473913 -25.50  0.002106784    2.258    0.557
        12 -10.1620    248.6371    243.7597   5.4756522506e+01  -5.4896210516e+00    0.7117106    0.1555904 -36.24  0.003008679    4.044    0.753
        13  -8.6752    247.6429    234.2267   5.3506964786e+01  -4.3298786671e+00     0.222347    0.1120453 -20.48  0.001110031    1.643    0.391
        14  -9.6311    246.7296    228.6483   5.2805173045e+01  -3.5979529855e+00    0.4344937    0.1605742 -31.57  0.002348372    2.261    0.558
        15  -9.0958    232.8141    246.3439   5.7554460426e+01  -4.3199728683e+00    0.3460925    0.1845819 -23.22  0.001936953    1.578    0.366
        16  -9.1335     93.2728    250.1895   8.4696165749e+01   1.0928137170e+01    0.2898337    0.1741065  22.98  0.001688517    1.475    0.322
        17  -7.8514     26.3371    250.3094   9.9068644292e+01   1.8180937697e+01    0.1020014   0.08541771 -15.69   0.00042214    1.682    0.405
        18 -10.1201    223.9277    243.9545   5.8634397565e+01  -3.1800445183e+00    0.3720226    0.1912737 -42.28  0.002276226    2.443    0.591
        19  -8.4986    169.2355    247.3870   6.8798614896e+01   2.2815459454e+00    0.1645984   0.08796211  34.02 0.0009539027    1.716    0.417
        20  -7.8823    142.6473    247.6957   7.4072747833e+01   5.3816382448e+00    0.1224063   0.07892729  -0.51 0.0003948732    1.708    0.414
        21  -9.2104    147.0754    245.6383   7.2923761201e+01   5.1602418543e+00    0.2142495    0.1741646  58.10  0.001073428    1.794    0.443
        22  -9.0136    146.7522    240.1120   7.2287157849e+01   6.0496676227e+00     0.336726    0.2329579  76.73  0.001637253    3.652    0.726
        23  -9.3050    120.1445    245.2399   7.8447463533e+01   8.5125552981e+00    0.3050188    0.2030175  63.44  0.001701982    2.306    0.566
        24  -8.7453     67.4778    244.5549   8.9827684689e+01   1.4928338671e+01      0.20641    0.1196002 -70.69  0.001184444    2.077    0.519
        25  -8.7480    201.8914    243.0109   6.2217136142e+01  -7.8502608283e-01    0.2198278    0.1460564 -44.56  0.001014558    2.032    0.508
        26  -8.6698    139.3884    244.2042   7.4309916375e+01   6.3161506620e+00     0.140577    0.1173278 -69.68 0.0009076753    1.766    0.434
        27  -8.9656      9.5715    243.3619   1.0232157360e+02   2.1035061421e+01    0.2228837    0.0725304  75.18 0.0009549489    3.517    0.716
        28  -9.4799    193.9983    239.3074   6.3088697467e+01   5.6695396358e-01    0.1874438    0.1437453 -19.89 0.0005218974    1.249    0.199
        29  -8.6971    168.9716    243.1564   6.8284968308e+01   2.9116714137e+00    0.1644921    0.1394047  22.88  0.000490398    1.275    0.216
        30  -8.8210     77.6814    242.7315   8.7423794844e+01   1.4085826125e+01    0.2335133    0.1315771  71.42  0.001176791    2.544    0.607
        31  -8.0617    214.3510    241.2316   5.9825137845e+01  -1.8779718891e+00    0.1772221    0.1260388 -31.31  0.001056733    1.510    0.338
        32  -9.3103    183.3032    240.4278   6.5201346384e+01   1.6281283525e+00    0.3200531    0.2517531  63.58   0.00194395    2.735    0.634
        33  -8.0533     88.1765    242.1953   8.5055106402e+01   1.2937507627e+01    0.1640218    0.1236173  53.86 0.0005320419    1.349    0.258
        34  -7.3612     49.6795    242.3560   9.3596797790e+01   1.7305588446e+01    0.1318834   0.06881378  54.17 0.0007045795    1.758    0.431
        35  -9.3127    159.9221    240.0444   6.9631865079e+01   4.4478282963e+00    0.2364429    0.2160737  83.31  0.001124204    1.782    0.439
        36  -7.8278    153.3286    241.6714   7.1159741912e+01   5.0036763808e+00    0.1121842   0.08597825  48.36  0.000705109    1.708    0.414
        37  -9.1678    241.2356    238.5148   5.5110480644e+01  -4.2196460357e+00    0.3507464    0.1272411 -21.99  0.001687512    3.245    0.692
        38  -9.1874    231.0659    236.8677   5.6453456769e+01  -3.0430832456e+00    0.2356383    0.2175702 -54.44  0.001654091    2.294    0.564
        39  -9.3145    217.3090    235.6840   5.8518271420e+01  -1.4943064316e+00    0.2224613    0.1943776 -48.68  0.001644284    2.040    0.510
        40  -9.4026    213.8173    231.7081   5.8512541130e+01  -6.1586282583e-01    0.2762441    0.2340996 -53.35  0.001456516    2.140    0.533
        41  -8.5420    209.0148    238.0411   6.0267742941e+01  -9.1321074597e-01     0.142573    0.1329922  14.62 0.0005300993    1.653    0.395
        42  -8.3463    135.4072    238.3337   7.4408162388e+01   7.7462714923e+00    0.1947934    0.1258467  42.99 0.0005003274    1.615    0.381
        43  -8.1357    128.8586    238.6091   7.5823616325e+01   8.5239735995e+00    0.1778346   0.09236848  37.51 0.0008644715    1.695    0.410
        44  -8.3711     25.9630    237.2005   9.8538294370e+01   2.0723373569e+01    0.2364112   0.06802413  58.82 0.0008992407    3.751    0.733
        45  -8.4569     13.7857    237.6271   1.0121558002e+02   2.1773839140e+01    0.1737294   0.07717881  38.08 0.0009298608    1.676    0.403
        46  -9.0261    203.1969    234.4312   6.0746731295e+01   1.9108375423e-01    0.2620449    0.1796609 -48.97   0.00104418    2.205    0.546
        47  -9.7442    175.7541    233.2611   6.5607708454e+01   3.5357049791e+00    0.4082712    0.2324297 -54.19  0.002185188    2.724    0.633
        48  -7.6261     57.3225    236.6587   9.1490044989e+01   1.7562809819e+01    0.1332283   0.07302621  54.14 0.0007050616    1.725    0.420
        49  -9.1802    108.6247    234.0339   7.9676052957e+01   1.1873623024e+01    0.3250964    0.2004556  60.20  0.001018279    2.250    0.556
        50  -9.6042    186.4421    230.8686   6.3244671756e+01   2.6029329706e+00     0.359253    0.2370206 -48.74  0.001836937    2.046    0.511
        51  -8.1731    122.9988    234.0083   7.6519985925e+01   1.0044315299e+01    0.1950407    0.1358916  54.18 0.0008957645    1.774    0.436
        52  -8.0746     99.6391    233.7467   8.1648345885e+01   1.3061051726e+01    0.2212841    0.1434925  76.52  0.001147604    2.400    0.583
        53  -8.5168     78.5012    234.1116   8.6467093432e+01   1.5596309431e+01    0.2150354    0.1417674  47.58  0.001229055    1.374    0.272
        54  -9.5541     68.4397    232.2721   8.8604185139e+01   1.7144760513e+01    0.4870239    0.1944522  54.09  0.002040426    2.931    0.659
        55  -8.6798      8.3712    234.2626   1.0226467150e+02   2.2918725485e+01      0.15851   0.09088907  75.60 0.0009494715    1.628    0.386
        56  -8.7445    194.1844    232.4706   6.2061966661e+01   1.4743465912e+00    0.1634661    0.1469627 -11.39 0.0005600203    1.376    0.273
        57  -8.1265    144.9898    233.4666   7.1779911313e+01   7.3253773881e+00    0.1695811   0.08672678  46.40 0.0007284318    2.456    0.593
        58  -8.6218    132.4192    232.6278   7.4319061968e+01   9.0710075683e+00    0.1951788    0.1251042 -58.68 0.0007436441    2.040    0.510
        59  -9.6182    235.5903    230.4783   5.4785392920e+01  -2.7259186210e+00    0.3607216    0.1764155 -22.50  0.001538926    1.794    0.443
        60  -8.3154    157.5770    231.8467   6.8982201423e+01   5.9911119162e+00    0.1992054    0.1254456  30.81 0.0006532296    1.403    0.287
        61  -8.4039     92.8372    231.7125   8.2967802995e+01   1.4290567597e+01     0.238177    0.1481563  65.87   0.00123422    2.175    0.540
        62  -9.2217    151.4811    228.9793   6.9827120678e+01   7.2215710270e+00    0.2595253    0.2222219  81.08  0.001504415    1.896    0.473
        63  -9.4112    148.6135    224.3244   6.9770868200e+01   8.3570846058e+00    0.3123198    0.2422442  70.41  0.001354603    2.195    0.544
        64  -8.7431    140.0679    230.1599   7.2370745984e+01   8.4987145643e+00    0.2226596    0.1435343  41.92 0.0007876433    1.603    0.376
        65  -8.3820      1.6327    230.3386   1.0360064085e+02   2.4277652890e+01    0.1956462   0.09119317  55.04  0.001089783    1.680    0.405
        66  -8.4732    229.8169    228.7404   5.5433438840e+01  -1.9286677471e+00    0.1803976    0.1135235 -38.29  0.001212862    1.793    0.442
        67  -8.5745    162.4247    228.0052   6.7464996014e+01   5.9799514994e+00    0.2709251    0.1492502  43.29  0.001419108    2.139    0.532
        68  -8.9702    127.9479    227.1780   7.4583341862e+01   1.0588549162e+01    0.3127812    0.1921858  53.37  0.001590019    2.155    0.536
        69  -7.8877    223.2389    226.9689   5.6226111849e+01  -1.0181569298e+00    0.1351837   0.07768144 -31.15 0.0004611766    1.562    0.360
        70  -8.6803    206.3465    225.8071   5.8900636781e+01   9.9361658640e-01    0.2468337    0.1594904 -44.04  0.001552905    1.938    0.484
        71  -7.8344    120.0262    227.5175   7.6369733267e+01   1.1567956949e+01    0.1714302   0.08828856  47.92 0.0005063221    2.227    0.551
        72  -8.3639     49.3392    226.3033   9.2560041450e+01   2.0508575788e+01    0.3067345    0.1550651  75.57  0.001368465    2.493    0.599
        73  -9.0676    180.6142    224.2993   6.3362655211e+01   4.2665894322e+00    0.2633673    0.1783689  43.95 0.0009048991    1.927    0.481
        74  -8.8266     94.3524    224.2185   8.1811310850e+01   1.5524745947e+01    0.3615991    0.1788692  57.92   0.00153071    2.938    0.660
        75  -8.9640    216.5551    223.1657   5.6747604100e+01   2.0119521678e-01    0.2159089    0.1678754 -38.64 0.0009793371    1.647    0.393
        76  -8.8720    104.7087    223.5680   7.9344255279e+01   1.4304808806e+01    0.3062401    0.2081108  66.08  0.001636878    1.996    0.499
        77  -7.9892     38.2926    224.6169   9.5029315311e+01   2.2036176042e+01     0.136738   0.07234535  57.45 0.0007016995    1.755    0.430
        78  -8.3746    173.1515    222.7578   6.4570918200e+01   5.4351376159e+00    0.1858919    0.1580888 -41.58 0.0006730959    1.462    0.316
        79  -9.2244    238.8338    220.9008   5.2811597749e+01  -1.8840485627e+00    0.2162856    0.1255834 -32.93 0.0009478841    1.564    0.361
        80  -9.3662    225.6030    221.6761   5.5022875558e+01  -5.9283188969e-01    0.2006997    0.1807421   4.55 0.0007719777    1.506    0.336
        81  -9.3415    192.3715    221.1504   6.0682668834e+01   3.2892823004e+00    0.2463586    0.2213245 -52.80  0.001213058    1.725    0.420
        82  -9.2144    160.4561    221.0826   6.6854919739e+01   7.3364180765e+00    0.4736273    0.2082835  46.82  0.001942844    3.464    0.711
        83  -7.8389    140.4083    222.2668   7.1221857715e+01   9.7916897559e+00    0.1493393    0.1245252 -63.90 0.0005521113    1.607    0.378
        84  -8.3116     27.5315    220.5229   9.7306814103e+01   2.3980418843e+01    0.2089771   0.09613122 -62.65  0.001034196    2.401    0.584
        85  -8.2452    202.7847    220.1134   5.8644955802e+01   2.1917525666e+00    0.1640127    0.1397495  -4.90 0.0005414244    1.205    0.170
        86  -9.2449    120.3209    218.9361   7.5200133259e+01   1.3092290029e+01    0.4426175     0.236379  53.86  0.001973208    2.652    0.623
        87  -8.2867     82.4872    220.2805   8.4174161393e+01   1.7814593468e+01    0.2306437    0.1255793  47.48 0.0009225322    1.744    0.426
        88  -8.0567     72.8467    220.0451   8.6451164130e+01   1.9061659474e+01    0.2123155    0.1276776  66.77 0.0006663514    2.018    0.504
        89  -8.3302    210.0493    219.0278   5.7206834416e+01   1.4949716341e+00     0.145271    0.1401117 -16.17 0.0004963406    1.626    0.385
        90  -8.6850    249.0365    218.0333   5.0826686383e+01  -2.5608139190e+00    0.1894179    0.1448252  46.87  0.001308596    2.607    0.616
        91  -9.2057    132.9410    215.7550   7.1936266820e+01   1.1954069385e+01    0.4576542    0.2811413  64.15  0.001826363    3.200    0.687
        92  -8.6432     51.7883    217.1830   9.1274603110e+01   2.2139215534e+01    0.2768408    0.1714389  66.57 0.0009896037    1.690    0.408
        93  -8.0919    179.3750    217.2316   6.2518902868e+01   5.4951009779e+00    0.1529565    0.1115677 -46.25 0.0006520252    1.671    0.401
        94  -8.9047    169.3662    215.8604   6.4268805277e+01   7.0097390117e+00    0.2835716    0.2123836 -65.95  0.001023095    2.257    0.557
        95  -8.6296    143.0684    216.3887   6.9812013704e+01   1.0454324292e+01    0.2456864    0.1885038  64.46  0.001386031    1.971    0.493
        96  -8.2752     61.7021    216.7116   8.8827378882e+01   2.1096000158e+01    0.2475762    0.1343155  73.30 0.0008925568    2.411    0.585
        97  -9.1349    243.4433    215.4779   5.1257654334e+01  -1.6848897955e+00    0.1470213   0.08527628 -36.15 0.0008717639    1.680    0.405
        98  -8.6922    232.1721    214.5384   5.2845153971e+01  -3.7986377180e-01    0.1930494    0.1549215 -40.83 0.0006974423    1.754    0.430
        99  -7.9826    154.4447    214.9462   6.7179906997e+01   9.1555186882e+00    0.1509527    0.1160304 -82.98 0.0005120415    2.410    0.585
       100  -7.6931     18.5023    215.4829   9.9171956522e+01   2.5915702239e+01    0.1264163   0.09884796  55.01 0.0008101164    1.040    0.038
       101  -8.4052    185.4898    214.0317   6.0849356531e+01   5.2053870763e+00    0.1716853    0.1100803 -36.67 0.0007596296    1.553    0.356
       102  -9.0174     92.7400    213.6223   8.0977682511e+01   1.7836228209e+01    0.3283249    0.1614693  54.37  0.001138289    2.561    0.610
       103  -9.3761     73.1857    211.7767   8.5537522746e+01   2.0744165276e+01    0.6951293    0.2344767  52.79  0.002259276    4.262    0.765
       104  -8.3121    200.1731    226.1649   6.0042202840e+01   1.6533863526e+00     0.141443    0.1250935  -7.94 0.0005301924    1.321    0.243
       105  -9.4307    214.1556    212.0176   5.5386158219e+01   1.9857657734e+00    0.2969265    0.2471644  47.65  0.001509043    1.968    0.492
       106  -7.9965    224.9446    212.1875   5.3623862374e+01   7.2486687453e-01    0.1437234    0.1117401 -36.61 0.0006011638    1.552    0.356
       107  -8.9871    204.3994    210.7331   5.6864482417e+01   3.3342147813e+00    0.2213774    0.1910793 -47.43 0.0007363095    1.687    0.407
       108  -8.5577    161.7851    212.1548   6.5230075451e+01   8.6304065851e+00    0.1793473    0.1664948  39.87  0.000927749    1.361    0.265
       109  -7.8525    106.4560    212.5182   7.7569276715e+01   1.6210841038e+01    0.1332441     0.114684  39.33 0.0003422083    1.098    0.089
       110  -8.3805    192.4941    210.5137   5.8976685830e+01   4.8483584838e+00    0.1846991    0.1112304 -49.07 0.0005982863    2.149    0.535
       111  -9.4570    175.4242    209.7445   6.2106573791e+01   7.1906678411e+00    0.3277735    0.2750992  69.96  0.001595224    2.068    0.516
       112  -8.7150    147.7420    210.1460   6.7875189278e+01   1.0908928139e+01     0.247543    0.2039388 -83.90 0.0008038111    1.903    0.475
       113  -8.7533    116.2611    210.0830   7.4941140363e+01   1.5334369799e+01    0.3030853    0.2052178  71.94 0.0009259727    2.360    0.576
       114  -9.2543      6.6788    209.0950   1.0169807501e+02   2.8346890212e+01     0.466854    0.1243161  65.07  0.001614101    4.256    0.765
       115  -9.2902    236.5782    208.3242   5.1156302236e+01  -5.2124009996e-02    0.2508954    0.2048724 -48.17  0.001341784    1.984    0.496
       116  -8.2195     46.5657    209.4463   9.1934591848e+01   2.4397342469e+01    0.2488963    0.1247973  66.80  0.001128589    2.300    0.565
       117  -8.4872     32.4030    210.0113   9.5490121752e+01   2.5772035327e+01    0.3085319   0.08454992  53.04 0.0009167868    3.716    0.731
       118  -7.9770     85.3726    209.1862   8.2250060795e+01   1.9726287228e+01    0.1787619    0.1248375 -87.31 0.0009400908    1.806    0.446
       119  -9.3172    246.4612    207.1531   4.9473854316e+01  -9.5680120811e-01    0.2250812    0.1478916 -30.38 0.0005177361    1.350    0.259
       120  -8.2871    139.1665    207.5356   6.9352734015e+01   1.2585870769e+01    0.2116089     0.158272 -84.25 0.0009895037    2.259    0.557
       121  -8.0699    126.4352    208.2503   7.2329264989e+01   1.4257027289e+01    0.1627212    0.1314355 -71.12 0.0005695826    1.611    0.379
       122  -9.0904     99.4197    206.0014   7.8415402124e+01   1.8495847683e+01    0.3505577    0.2195675  68.93   0.00111261    2.367    0.577
       123  -8.3753     56.2833    205.2038   8.9120519736e+01   2.4229565438e+01    0.2938456    0.1385815  59.23  0.001101252    2.440    0.590
       124  -9.0924    183.6883    203.7295   5.9520544660e+01   7.0498427583e+00    0.2711378    0.2263354  62.73  0.001132089    1.991    0.498
       125  -8.1063    109.0363    205.0595   7.5962246322e+01   1.7346708140e+01    0.2094665    0.1514581  60.33  0.000700048    1.675    0.403
       126  -9.3278    194.8858    203.5068   5.7384419140e+01   5.6070959792e+00    0.2603897    0.2497634  22.69    0.0011331    1.453    0.312
       127  -9.7780    192.4767    197.4146   5.6798751383e+01   6.8724093258e+00    0.3746459    0.3001956 -63.35  0.001616939    2.046    0.511
       128  -9.6134    163.8127    202.8010   6.3322692282e+01   9.9374942408e+00    0.3910172    0.2498228  48.78  0.001153899    2.053    0.513
       129  -8.6172    131.1821    203.6322   7.0560192016e+01   1.4460631212e+01    0.2606891    0.2008657  69.35  0.001245612    1.869    0.465
       130  -9.3537    250.1070    201.8957   4.8083850336e+01  -6.7559508136e-01    0.3011894    0.1263577 -33.73  0.001143891    1.932    0.482
       131  -8.9470     80.0176    201.6712   8.2708943769e+01   2.2044181995e+01    0.3228821    0.2189399 -89.50  0.001464398    1.842    0.457
       132  -9.1248    243.3466    200.6930   4.8877586369e+01   2.0242477234e-01    0.2878586    0.1441281 -39.10  0.001103446    1.914    0.477
       133  -8.5063    211.0316    201.6243   5.4204173576e+01   3.8390390266e+00    0.2045198    0.1506112 -44.17 0.0007362429    1.670    0.401
       134  -8.8700    140.3314    200.9443   6.8075612747e+01   1.3642683858e+01    0.2925332    0.2240527  88.87  0.000962476    2.185    0.542
       135  -8.1462     48.7450    202.1607   9.0771140882e+01   2.5782341251e+01    0.2494231    0.1017897  58.01 0.0009647718    2.873    0.652
       136  -8.0473     10.9824    202.4646   1.0035864041e+02   2.9466009642e+01    0.1928518   0.05932078  45.52 0.0008084564    2.470    0.595
       137  -8.0011    222.3287    201.1999   5.2241574174e+01   2.5284513766e+00     0.156509   0.09257723 -40.22 0.0004640495    1.734    0.423
       138  -9.1126    237.2192    198.4605   4.9429338052e+01   1.1763975724e+00    0.2654159    0.1287199 -39.13  0.001065619    1.940    0.485
       139  -9.4189    149.6776    198.3761   6.5598772596e+01   1.2754202761e+01    0.4193204    0.3010033  76.35  0.001312654    2.790    0.642
       140  -8.8254    124.0921    199.0980   7.1517713506e+01   1.6376936057e+01    0.2985186    0.2252569  80.11  0.001005358    1.998    0.500
       141  -8.7168    177.2265    198.8046   5.9951457271e+01   8.7343546606e+00    0.2020525    0.1963851 -77.28 0.0009383901    1.479    0.324
       142  -9.2427    112.8005    198.1617   7.4076720578e+01   1.8217300541e+01    0.3950035    0.2397778  59.98  0.001773502    2.336    0.572
       143  -8.9544     88.6926    198.2424   8.0082898416e+01   2.1623679947e+01    0.3467607    0.2157206  67.68  0.001161657    2.165    0.538
       144  -8.3213    202.1270    197.2858   5.5023402036e+01   5.6156709834e+00    0.1961871    0.1560666 -59.09 0.0006726399    2.018    0.505
       145  -8.9626     61.4353    196.9232   8.6975100155e+01   2.5479801697e+01    0.4557443    0.2094243  59.70  0.001806326    2.751    0.636
       146  -8.1292     12.5113    197.0145   9.9705604959e+01   3.0582346083e+01    0.1959979   0.07669672  67.82 0.0008105579    2.643    0.622
       147  -9.7349    245.6498    193.3793   4.7315214835e+01   9.0493745643e-01    0.2691287    0.1959246 -49.29  0.001683686    2.088    0.521
       148  -8.7356    215.9088    195.4770   5.2332108977e+01   4.1264061810e+00    0.2095204    0.1510549 -44.99 0.0008577741    1.701    0.412
       149  -7.9280     53.6622    196.3515   8.8957604064e+01   2.6544705682e+01    0.1507316   0.08585615  58.07 0.0007044821    1.794    0.443
       150  -8.7035    224.7035    194.1042   5.0652123181e+01   3.2408170177e+00    0.2269501     0.133447 -41.52  0.001021378    1.770    0.435
       151  -7.7752    209.3893    195.2170   5.3395441728e+01   4.9892185676e+00    0.1588964    0.1027956 -42.60  0.000615118    1.674    0.403
       152  -8.9951    185.2849    194.6396   5.7675160498e+01   8.2999951569e+00    0.2220867    0.2051194 -48.57 0.0007344253    1.447    0.309
       153  -9.4376    160.8575    194.1108   6.2490827115e+01   1.1887505870e+01    0.2884461    0.2479975  78.65  0.001007437    1.786    0.440
       154  -8.1766    231.1119    194.1553   4.9644460683e+01   2.4667231148e+00     0.147397    0.1202813 -29.20 0.0005460534    1.326    0.246
       155  -8.7271     77.1641    193.8621   8.2506002335e+01   2.4161147875e+01    0.2646932    0.1985902  49.40 0.0006094089    1.259    0.206
       156  -8.8769     44.2631    193.4535   9.1173844042e+01   2.8293027949e+01    0.4295762    0.2092954  63.92  0.001849809    2.344    0.573
       157  -8.3736    198.9657    191.5676   5.4598971918e+01   6.9178484978e+00    0.1872105    0.1439572 -26.14  0.000411111    1.168    0.144
       158  -8.4814    172.5014    191.5982   5.9657509200e+01   1.0627756165e+01    0.2209904    0.1782018 -75.85 0.0008984946    2.085    0.520
       159  -9.2831    139.2504    190.1773   6.6572269513e+01   1.5866509857e+01    0.4038248    0.2858398  74.29  0.001468942    2.535    0.605
       160  -8.7534     22.3888    191.6245   9.6834030727e+01   3.0959465245e+01    0.2680674   0.05424811  37.85 0.0009522649    3.218    0.689
       161 -10.2413     92.2038    188.6196   7.7885311330e+01   2.3258307635e+01    0.9461365    0.2912995  43.41  0.003001288    3.207    0.688
       162  -8.3304    237.4700    188.4817   4.7693579528e+01   2.4982408758e+00    0.1825599   0.09212146 -42.37 0.0006839682    2.049    0.512
       163  -8.9434    216.3978    187.6833   5.0893810271e+01   5.2095013604e+00    0.2420246     0.181397 -42.87 0.0007030189    1.543    0.352
       164  -8.8322    191.5989    187.5191   5.5233038608e+01   8.5794835792e+00    0.2728742    0.2072207 -66.47   0.00110258    2.297    0.565
       165  -9.3628    155.9569    187.4715   6.2391650187e+01   1.3832041434e+01    0.3317907    0.1957596 -51.52 0.0009672777    1.923    0.480
       166  -8.6294    148.7123    188.9436   6.4232260324e+01   1.4659953195e+01    0.2268039    0.1900602 -70.66   0.00102987    1.610    0.379
       167  -8.9090    129.2816    188.4516   6.8607298319e+01   1.7737367244e+01    0.2837924    0.2053234  64.56 0.0008617747    1.944    0.486
       168  -9.5723    120.6621    186.0770   7.0293994496e+01   1.9554615695e+01    0.4832749    0.2920628 -75.52  0.002012518    2.792    0.642
       169  -8.9850     34.3388    188.0841   9.3379302090e+01   3.0630150959e+01    0.3604422    0.1679769  66.54   0.00125464    2.439    0.590
       170  -9.2841    249.2304    185.3105   4.5425630280e+01   1.5690793874e+00    0.2494283    0.1578939 -35.68 0.0008740238    1.427    0.299
       171  -9.1990     54.7041    186.4567   8.7674073102e+01   2.8745080565e+01    0.4570583    0.2380683  72.17  0.001829133    2.527    0.604
       172  -8.2947    230.6581    187.1191   4.8500396146e+01   3.5033831136e+00    0.1726752    0.1245934 -38.19 0.0007431539    1.449    0.310
       173  -8.6952    164.9691    186.5535   6.0316096361e+01   1.2633953323e+01    0.2262953    0.1858919 -60.07 0.0007535556    1.592    0.372
       174  -9.1677    109.6196    185.6909   7.2977636199e+01   2.1327841368e+01    0.4008686    0.2707844  73.54   0.00126013    2.254    0.556
       175  -8.9085    210.0546    184.0060   5.1309026997e+01   6.5979829696e+00    0.2280422    0.1486258 -33.60 0.0005186539    1.362    0.266
       176  -8.7396    202.9273    184.4783   5.2632578723e+01   7.4917314272e+00    0.2161728    0.1630325 -45.84 0.0007692992    1.555    0.357
       177  -8.5803    183.0891    184.6182   5.6327170728e+01   1.0280897852e+01     0.232902    0.1991561 -65.24 0.0009176874    1.703    0.413
       178  -8.9809     66.8438    184.4976   8.4126958299e+01   2.7693801557e+01    0.3702883    0.1963152  56.18 0.0009052709    2.104    0.525
       179  -8.4587    224.2202    183.4806   4.8874183869e+01   4.8261717618e+00    0.2118786    0.1331365 -32.16 0.0005673561    1.351    0.260
       180  -8.9169    174.3391    183.4515   5.7840952799e+01   1.1777010342e+01    0.2394121     0.217307 -66.96 0.0007482136    1.510    0.338
       181  -8.3020    240.3951    180.2113   4.5815476136e+01   3.2898638938e+00    0.2123421   0.09146672 -43.68  0.001056261    2.465    0.594
       182  -9.1409     44.5141    182.3071   9.0064653292e+01   3.0931582446e+01    0.4018175    0.1963685  57.59  0.001039597    2.177    0.541
       183  -8.1459      1.7836    183.5729   1.0184038671e+02   3.4609417126e+01    0.1824307   0.09556008  39.48 0.0009421335    1.655    0.396
       184  -9.1954    147.3453    180.3286   6.3025890439e+01   1.6533508127e+01    0.2856665    0.2383427 -76.63  0.001024127    1.649    0.394
       185  -9.4262     25.8246    178.9865   9.5001807685e+01   3.3689434048e+01    0.6893128    0.2415078  67.09  0.002231066    4.111    0.757
       186  -8.8169    137.4419    179.4429   6.5142402406e+01   1.8287174242e+01      0.27203    0.2355603  82.34  0.001148121    1.529    0.346
       187  -9.3381    191.6652    178.3627   5.3557347370e+01   1.0079158672e+01    0.2559038    0.2374967  75.72 0.0008118617    1.605    0.377
       188  -9.0272     36.3516    176.9462   9.1854020799e+01   3.3138776576e+01    0.6134857    0.2287504  69.38  0.001837286    4.710    0.788
       189  -8.6423    250.5533    172.5400   4.3013659584e+01   3.1291601990e+00     0.211119   0.08774254 -35.21 0.0005381664    1.902    0.474
       190  -9.2628    249.0122    177.0577   4.4023878413e+01   2.6989345122e+00    0.2500939    0.2022794 -44.94  0.001316113    1.632    0.387
       191  -8.7075    247.2911    173.6576   4.3665521558e+01   3.3650686119e+00    0.1665533    0.1129725 -38.87  0.000506505    1.443    0.307
       192  -8.9943    231.3142    177.0064   4.6607248554e+01   4.8634191263e+00    0.2558371    0.1685935 -50.45 0.0007262958    2.065    0.516
       193  -8.6763    217.6418    177.1700   4.8801684490e+01   6.6225263275e+00    0.2002729    0.1876395 -73.91 0.0007706093    1.683    0.406
       194  -8.6469    205.1185    177.6143   5.0998472035e+01   8.2721224664e+00    0.2135139    0.1510246 -39.93 0.0005546832    1.403    0.287
       195  -8.1350    169.2173    178.2645   5.7933197986e+01   1.3484841111e+01    0.1664652     0.158769 -68.51 0.0005950004    1.361    0.265
       196  -8.7090    129.3267    177.2792   6.6691534718e+01   2.0035573835e+01    0.3322961    0.2285524  82.97  0.001125058    2.686    0.628
       197  -8.6228     88.9225    176.4888   7.6990189159e+01   2.6517803965e+01    0.2626734    0.1986354  86.36 0.0007961277    1.597    0.374
       198  -9.4347     58.7699    175.3696   8.5277067756e+01   3.0935737903e+01    0.5089499    0.2411762  59.75  0.001913086    2.683    0.627
       199  -9.2999     55.8394    170.6671   8.5549006337e+01   3.2470105332e+01    0.4151715    0.2380112  77.53  0.001759475    2.212    0.548
       200  -7.5057    211.6448    176.2651   4.9631953986e+01   7.5763535402e+00    0.1051229   0.09967373 -80.47 0.0002879128    1.627    0.385
       201  -9.2266    182.9659    175.7515   5.4719994769e+01   1.1819687202e+01    0.2382607    0.2192608 -57.42 0.0007767231    1.412    0.292
       202  -9.0898    158.8129    174.6567   5.9454823558e+01   1.5798000776e+01    0.3195665    0.2385062  80.00 0.0009438824    2.471    0.595
       203 -10.7087    101.8575    175.4698   7.3353404059e+01   2.4793675336e+01    0.4839434    0.3616144  16.30            0    1.456    0.313
       204 -10.7046     75.8975    170.0515   7.9665402689e+01   2.9948004432e+01     1.295861    0.5444128 -78.41  0.003913757    4.410    0.773
       205  -9.5883     81.1498    155.0598   7.5759151403e+01   3.2882852898e+01    0.5681742    0.5156398 -35.07  0.002419891    1.190    0.160
       206  -8.7826    224.6458    173.9600   4.7090039936e+01   6.1719318074e+00     0.224021    0.1243183 -36.68 0.0007513117    1.555    0.357
       207  -9.4859    175.7480    172.2368   5.5475447448e+01   1.3554139393e+01    0.2841168    0.2109881 -39.50 0.0006832111    1.311    0.237
       208  -8.3772    143.0777    172.6034   6.2587589697e+01   1.8760054451e+01    0.2333084    0.1919625 -59.38 0.0006717457    1.409    0.290
       209  -8.3803    134.8202    171.5535   6.4335018693e+01   2.0337275745e+01    0.2563156    0.1936878 -74.59 0.0008126952    1.823    0.451
       210  -9.5607    121.4274    170.3702   6.7409557005e+01   2.2800986275e+01    0.3872585    0.2894171 -84.00  0.001117929    1.887    0.470
       211  -9.0498     45.2196    170.8930   8.8682096855e+01   3.3680561550e+01    0.4151763    0.2325789  79.85  0.001557244    2.115    0.527
       212  -8.5874    237.2893    169.4148   4.4338035056e+01   5.1939091332e+00    0.1910543    0.1229251 -45.61  0.000673148    1.745    0.427
       213  -8.7209    230.6468    169.8813   4.5414288994e+01   5.9843607575e+00    0.1949701    0.1213987 -22.48  0.000653696    1.408    0.290
       214  -8.3337    205.6483    169.8975   4.9465830377e+01   9.4295759966e+00    0.2348341    0.1419557 -48.11 0.0007948771    1.878    0.467
       215  -8.4598    198.5314    170.0222   5.0739397229e+01   1.0452166309e+01    0.2027415     0.173914 -67.19 0.0007966359    1.720    0.419
       216  -8.5014    244.9882    169.2392   4.3199946191e+01   4.2544483576e+00    0.1721557    0.1694703  75.01  0.001068103    1.622    0.384
       217  -9.0327    166.8979    168.2816   5.6523130515e+01   1.5694593863e+01     0.265226    0.2327796  78.89 0.0008577709    1.608    0.378
       218  -8.4332    149.8226    169.1755   6.0400652110e+01   1.8333663954e+01    0.2045617     0.191519  74.82 0.0007991122    1.317    0.241
       219  -8.0258     88.7914    168.7656   7.5824667003e+01   2.8366098843e+01    0.2077949    0.1622041  61.25 0.0008552523    1.380    0.275
       220  -8.6040    218.7861    168.1202   4.6941364708e+01   7.8469644341e+00     0.177217     0.148773 -34.37 0.0005599069    1.244    0.196
       221  -7.9694    211.4701    167.9799   4.8114545556e+01   8.8982048609e+00    0.1638401    0.1015739 -55.40 0.0005330272    2.423    0.587
       222  -9.1084    191.9404    166.6005   5.1279014079e+01   1.2022348249e+01    0.2393183    0.1731999 -41.99 0.0005176638    1.369    0.270
       223  -8.9669    184.9669    166.3834   5.2545127440e+01   1.3144277098e+01    0.2327855    0.1741129 -49.91 0.0005957311    1.511    0.338
       224  -8.4041    111.3803    167.0473   6.9398771432e+01   2.5192255338e+01    0.2687269    0.1926738  58.27  0.001051688    1.640    0.390
       225  -8.0893    140.9368    166.2289   6.1880100874e+01   2.0420988438e+01    0.2613009    0.1845499  44.40  0.000751688    1.481    0.325
       226  -9.1982    136.0225    163.8395   6.2586927426e+01   2.1755395306e+01    0.3718196    0.2423977  53.16  0.001040698    1.848    0.459
       227  -9.9330     94.9225    162.2683   7.3024349489e+01   2.8969123175e+01    0.9232887    0.5640392  78.52   0.00341092    2.840    0.648
       228  -8.9659     20.6860    166.1820   9.5477990001e+01   3.7375603855e+01    0.3490808    0.1208381  40.39  0.001294397    2.468    0.595
       229  -8.3440    234.0268    164.6786   4.3948195907e+01   6.3010247042e+00    0.2042374    0.1323529 -38.58 0.0007015515    1.396    0.284
       230  -8.0149    240.3649    164.1236   4.2925386076e+01   5.5567262138e+00    0.1672246   0.08906655 -41.68 0.0005960755    1.746    0.427
       231  -8.7292    212.9457    163.4411   4.7005085621e+01   9.4035572904e+00    0.2203123    0.1550292 -44.34 0.0005765379    1.480    0.324
       232  -8.5738    159.3732    164.0133   5.7286563099e+01   1.7752815928e+01    0.2322485    0.1970195  67.82 0.0009349218    1.575    0.365
       233  -8.6416     12.7632    176.3863   9.8474652931e+01   3.5495081837e+01    0.2451069    0.1404611  74.07  0.001067299    1.655    0.396
       234  -9.6290     33.5437    163.1737   9.1351650350e+01   3.6915118437e+01     0.627006    0.2149722  46.95  0.002291288    2.812    0.644
       235  -8.7390    245.9997    162.8130   4.1894186343e+01   5.0262528882e+00    0.2018252    0.1313322 -30.81 0.0003954641    1.205    0.170
       236  -8.6157    204.9643    162.4867   4.8162939159e+01   1.0731808115e+01    0.2256247    0.1601456 -45.66 0.0006139741    1.489    0.329
       237  -9.3115      3.5112    162.2347   1.0028319093e+02   3.9750067430e+01    0.4555446    0.1586984  46.07   0.00175988    2.504    0.601
       238  -8.9449    152.0593    161.0089   5.8300711745e+01   1.9587731297e+01    0.3192716    0.2417359 -76.12  0.001095053    1.979    0.495
       239  -9.0332     60.3204    160.5137   8.2882426993e+01   3.4464791940e+01    0.4019359    0.2548372 -73.23  0.001875774    1.631    0.387
       240  -9.2058    177.4992    160.4543   5.2824864326e+01   1.5405040386e+01    0.2970716    0.2400809 -64.93  0.001092446    1.664    0.399
       241  -8.9188    243.2307    159.3950   4.1650298523e+01   5.8617256680e+00    0.3040836    0.1513119  23.87  0.001532366    2.889    0.654
       242  -8.7303    227.3480    158.9218   4.3866122508e+01   8.0590724214e+00    0.2853676    0.1702163 -51.65  0.001112497    2.194    0.544
       243  -9.7731    250.2028    157.5336   4.0358276002e+01   5.2348379221e+00     0.298337    0.1395455 -36.63 0.0008400962    1.690    0.408
       244  -8.4017    246.5726    155.4492   4.0461635801e+01   5.9897941226e+00    0.1874661     0.121236 -25.87 0.0004958721    1.241    0.194
       245  -8.7113    237.2657    158.9804   4.2415761339e+01   6.7026905890e+00    0.1747469    0.1223059 -30.32 0.0005943678    1.144    0.126
       246  -8.2101    128.0295    158.7954   6.3563257108e+01   2.4217760848e+01    0.2332996    0.1632636  63.42 0.0005934359    1.938    0.484
       247  -9.6444    105.8416    157.8658   6.9202782971e+01   2.8229094202e+01    0.4730749      0.31047  69.64  0.001205688    2.258    0.557
       248  -8.4719    196.6200    157.5810   4.8657076365e+01   1.2830086329e+01    0.2068625    0.1435478 -51.30 0.0006448759    1.666    0.400
       249  -9.1956    167.7678    157.2519   5.4148853838e+01   1.7630699918e+01    0.3163346    0.2530964 -88.89  0.001415727    1.975    0.494
       250  -8.4984    218.0351    156.4648   4.4835630610e+01   9.7628287105e+00    0.2338775    0.1492725 -46.27 0.0007286937    1.643    0.391
       251  -8.0768    188.3884    157.2997   5.0100834540e+01   1.4192109748e+01    0.1840728    0.1167392 -46.38 0.0007101995    1.604    0.377
       252  -9.2282     49.9438    155.1604   8.5351421499e+01   3.7157770298e+01    0.5064002    0.2135061  54.00   0.00167268    2.855    0.650
       253  -8.8478    157.7485    155.9468   5.6015252085e+01   1.9611074207e+01    0.2535637     0.193831 -61.71  0.001061583    1.609    0.379
       254  -9.1575    119.5831    155.1698   6.5006156216e+01   2.6496386927e+01    0.3715284    0.2726716  89.51  0.001320555    2.004    0.501
       255  -9.7371    241.7862    153.9720   4.0840693366e+01   6.8271199113e+00    0.2722946    0.2193543  82.01  0.001714141    2.378    0.580
       256  -9.3541     68.1564    153.5817   7.9451036469e+01   3.5169691582e+01    0.4737701    0.2524976  60.63  0.001430906    2.472    0.595
       257  -8.2707    232.7573    153.7720   4.2082472403e+01   8.0806895495e+00    0.1756327    0.1310207 -62.37  0.001036293    2.102    0.524
       258  -8.3694    144.2472    154.4033   5.8748240264e+01   2.2301709500e+01     0.245449    0.1789864  46.33 0.0006769849    1.460    0.315
       259  -9.6712    132.8083    152.7467   6.1155438062e+01   2.4693790107e+01    0.4328552    0.3479754  79.65  0.001178013    1.677    0.404
       260  -9.1932    133.6558    147.8442   5.9921923209e+01   2.5605782857e+01    0.3101479    0.2647893  10.82  0.001554645    1.256    0.204
       261  -8.3358     20.0958    152.6682   9.4517663966e+01   4.0923134515e+01    0.1847509    0.1700382  56.23 0.0005587683    1.088    0.081
       262  -8.3282    182.7551    151.4360   4.9966467706e+01   1.6165571452e+01    0.2492201    0.1773121 -71.33  0.001173702    2.395    0.582
       263  -9.6069     29.3531    150.2445   9.1319121843e+01   4.0709005685e+01    0.5763179    0.2210031  62.61  0.001672226    3.725    0.732
       264  -9.5400    248.9390    149.1601   3.8975897808e+01   6.5704297085e+00    0.2969943    0.1357118 -36.19 0.0008344083    1.710    0.415
       265  -8.9586    189.5726    150.0653   4.8407041928e+01   1.5269288141e+01    0.2786147    0.2038748 -58.28 0.0008436296    1.738    0.425
       266  -8.6272     98.4631    150.7599   6.9918204463e+01   3.1159359030e+01    0.2934944    0.2256003  67.79 0.0008504051    1.539    0.350
       267  -8.9859    243.2357    149.6337   3.9825412517e+01   7.2582539787e+00    0.2323075    0.1278401 -35.86 0.0009809139    1.446    0.309
       268  -8.0475    204.5552    155.0511   4.6770720823e+01   1.2015981601e+01    0.1964662    0.1116004 -38.72  0.000636931    1.557    0.358
       269  -8.5009    162.3184    150.0551   5.3802153619e+01   1.9965428499e+01    0.2043358    0.1711612 -42.33 0.0008195731    1.173    0.148
       270  -8.9775      2.8919    149.7662   9.9722845748e+01   4.2994945673e+01     0.280864    0.1318001  66.25  0.001231176    2.112    0.527
       271  -8.2530    212.9918    149.3722   4.4241782629e+01   1.1643504473e+01    0.1697799    0.1511834  -9.73 0.0004779331    1.103    0.093
       272  -8.5188    198.8938    148.6793   4.6457189417e+01   1.3979948185e+01    0.2425715    0.1702929 -43.24  0.000555683    1.365    0.268
       273  -9.8919     89.2207    145.9571   7.1697923294e+01   3.3872670420e+01    0.7164889    0.4081177 -89.82  0.002358821    3.557    0.719
       274 -10.3984     55.2827    144.7976   8.2155816385e+01   3.9202072064e+01    0.9200266    0.4253825  64.80  0.002921629    3.693    0.729
       275 -10.3541     56.9905    134.9945   7.9987367201e+01   4.1566842752e+01    0.6800175    0.3428465   6.39  0.002181517    3.812    0.738
       276  -9.9995     40.1852    147.7596   8.7509541848e+01   4.0237770577e+01    0.6117678    0.2715029  56.26  0.002042195    2.691    0.628
       277  -8.6666    233.5981    147.5683   4.0769168785e+01   8.8879545832e+00    0.2371969     0.119529 -37.35 0.0007995754    1.620    0.383
       278 -10.4879    148.8951    145.0382   5.5692859688e+01   2.3401919800e+01    0.5854859    0.4116408  85.50  0.001683495    2.637    0.621
       279  -8.2221    223.1529    146.8106   4.2150761336e+01   1.0516115112e+01    0.1772976    0.1472076 -36.79 0.0003748019    1.172    0.147
       280 -10.2448    106.5895    143.8780   6.6236485269e+01   3.1406319982e+01    0.7854814    0.5190481  87.01  0.002351374    2.549    0.608
       281  -8.7052     77.8841    146.7886   7.5299044428e+01   3.5468006579e+01    0.2806488    0.1885756  78.95  0.000875627    1.973    0.493
       282  -9.3886     13.3983    146.0000   9.6087240341e+01   4.3228589664e+01    0.4350668    0.1872923  50.12  0.001611318    2.281    0.562
       283  -8.1226    206.4168    146.2480   4.4683245263e+01   1.3179822020e+01    0.1768814    0.1093849 -44.28 0.0003606954    1.544    0.352
       284  -8.1448    175.5594    145.8025   5.0180953156e+01   1.8437098823e+01    0.1925216    0.1249113 -51.28  0.000624003    1.665    0.400
       285  -9.8515    139.0967    144.7086   5.7922070588e+01   2.5281385409e+01    0.4185539    0.2956436 -71.37  0.001492214    1.978    0.494
       286  -9.9793    240.4375    145.0645   3.9335424317e+01   8.3014782810e+00    0.2289855    0.1562073 -25.23 0.0005144304    1.222    0.181
       287  -9.6901    243.1817    141.3679   3.8257609601e+01   8.4593420055e+00    0.3759778    0.1136216 -33.89  0.001556496    2.821    0.646
       288  -9.7730    125.2909    142.9010   6.0977568164e+01   2.8235789363e+01    0.5244864    0.3665599  89.68  0.001635477    2.374    0.579
       289  -8.9375    247.0453    143.6691   3.8189618976e+01   7.6009357155e+00    0.2206611     0.132572 -29.43 0.0004706426    1.332    0.249
       290  -8.9241    165.6593    143.9131   5.1784488095e+01   2.0562052430e+01    0.2804892    0.2256619  71.01 0.0008922918    1.696    0.410
       291  -7.6161    194.2831    143.6753   4.6228175431e+01   1.5599520014e+01    0.1270143    0.1022667 -63.06 0.0003345388    1.598    0.374
       292 -11.0031     69.3500    139.0134   7.6593727830e+01   3.8757936185e+01     1.002411    0.4191351 -62.89  0.003302524    2.415    0.586
       293  -9.9467     73.1918    129.1618   7.3429083262e+01   4.0725808725e+01    0.4000466    0.2896625  85.96 0.0009374763    1.705    0.413
       294  -7.6676    230.6885    142.3228   4.0159685188e+01   1.0094755770e+01    0.1169036   0.08827587 -55.49 0.0007038576    1.653    0.395
       295  -8.4348    182.0093    141.5245   4.8017506013e+01   1.8091336064e+01    0.2518996    0.1799314 -53.88 0.0006308547    1.571    0.363
       296  -9.2359      2.5286    141.4396   9.9290711331e+01   4.5195629477e+01      0.38541    0.1980532  64.49  0.001563016    1.917    0.478
       297  -8.1194    250.5110    140.5035   3.7144601541e+01   7.5845548129e+00    0.1181705   0.09033022 -29.43 2.494554e-05    1.023    0.023
       298  -9.8727     23.4210    137.9383   9.1951271720e+01   4.4542312114e+01    0.5743659    0.2691361  61.62   0.00183348    2.483    0.597
       299  -8.7725    172.4444    138.1364   4.9138093173e+01   2.0434129859e+01    0.3065576    0.2126146 -63.25 0.0009181356    1.936    0.483
       300  -7.7740    218.5322    138.4914   4.1178807932e+01   1.2525583236e+01    0.1278427     0.106022 -30.00 0.0003448174    1.030    0.029
       301  -8.3644    207.6606    137.7253   4.2720710090e+01   1.4388521350e+01    0.2452655    0.1337125 -52.57  0.001132488    2.243    0.554
       302  -8.5823    197.6665    137.4185   4.4317287952e+01   1.6107853473e+01    0.2508404    0.1749726 -55.04  0.001152518    1.676    0.403
       303 -10.4560     83.3312    133.1531   7.0956799975e+01   3.8060776676e+01    0.6321011      0.40074 -63.64   0.00145161    1.646    0.392
       304  -9.0904    248.5310    135.0808   3.6359941983e+01   8.6234680039e+00    0.2574843    0.1485005 -44.24 0.0009287412    1.587    0.370
       305  -8.5996    247.1312    129.9190   3.5537269361e+01   9.5572149371e+00    0.2233154    0.1318928 -34.52 0.0007312059    1.314    0.239
       306  -8.2526    162.6365    136.1448   5.0705530220e+01   2.2634024543e+01    0.2220797    0.1694411 -56.47 0.0006615549    1.445    0.308
       307  -8.2640    140.5112    136.4789   5.5758582660e+01   2.6771559020e+01    0.1485589    0.1412084 -16.65 0.0001223809    1.036    0.034
       308  -9.1501     39.1684    135.7376   8.6232165796e+01   4.3560099984e+01    0.3046123    0.1993836  70.56 0.0008829757    1.692    0.409
       309  -7.6562    231.2626    133.9946   3.8424432006e+01   1.1271767346e+01    0.1613251   0.08850274 -35.88 0.0003279281    1.477    0.323
       310  -8.5197    179.4338    133.7402   4.6805227164e+01   1.9977760690e+01     0.267996    0.1784587 -56.68 0.0009119033    1.782    0.439
       311 -10.0207    132.3746    131.2780   5.6558204751e+01   2.9467429951e+01    0.5431405    0.3668236 -80.43  0.001161342    2.492    0.599
       312  -8.8488    112.7299    133.0259   6.2161172995e+01   3.2845545405e+01    0.3439475    0.2511393  71.10 0.0009811986    1.821    0.451
       313  -7.5381    237.5217    133.4921   3.7474125830e+01   1.0419177081e+01    0.1224992   0.09706307 -33.88 0.0001458299    1.068    0.063
       314  -9.0112    143.1579    131.5684   5.4002744890e+01   2.7300258461e+01    0.2963294    0.2366493 -81.84 0.0007414703    1.654    0.396
       315  -9.0420    250.7135    129.1460   3.4948123171e+01   9.1640368063e+00    0.4544558   0.07980555 -37.17  0.001534167    4.265    0.766
       316 -10.0282     12.9704    128.7112   9.4639110574e+01   4.7875190924e+01    0.6395854    0.2906906  70.28  0.002203641    2.613    0.617
       317  -7.9012    220.5635    129.7911   3.9088621357e+01   1.3580285320e+01    0.1745538     0.102574 -43.51 0.0004752828    1.522    0.343
       318  -8.0871    204.5513    130.0167   4.1591260424e+01   1.6189272865e+01    0.2018964    0.1133298 -39.91 0.0006022184    1.546    0.353
       319  -8.1474    192.9520    130.0082   4.3527601792e+01   1.8210304907e+01    0.2000586    0.1587678 -66.65 0.0004258818    1.604    0.377
       320  -9.2393    168.2610    129.3393   4.7999513150e+01   2.2889490052e+01    0.2895348    0.2387739  88.58 0.0008552035    1.630    0.386
       321  -9.5822    152.9001    128.7622   5.1118751864e+01   2.5975204433e+01    0.4678848     0.261625 -51.65  0.001852702    1.887    0.470
       322  -9.4291     97.9753    128.0873   6.5316811608e+01   3.6763540358e+01    0.5792922    0.2293063 -55.33  0.001968959    2.604    0.616
       323  -8.6498     99.2812    120.2609   6.3084798684e+01   3.8418289037e+01    0.5959065    0.3526199  -5.26  0.001594722    5.396    0.815
       324  -8.3508     24.3431    130.3074   9.0740236786e+01   4.6514744359e+01    0.1489763   0.09974108 -39.00 0.0007043252    1.692    0.409
       325  -8.0596      1.7582    130.1618   9.8737563403e+01   4.8227153832e+01    0.2465887   0.09542463  56.77 0.0009422129    2.767    0.639
       326  -7.9965    211.6013    128.8100   4.0224565988e+01   1.5200237801e+01    0.1879737    0.1040618 -45.89 0.0006802831    1.708    0.414
       327  -9.9288    117.9592    124.8203   5.8801949416e+01   3.3738536900e+01    0.6020285    0.4293207 -88.28  0.002134535    2.126    0.530
       328 -10.5490     60.2194    125.1379   7.7065267411e+01   4.3728537817e+01    0.7937698    0.4479114  74.25  0.002833422    2.893    0.654
       329  -8.1549    228.4976    125.4843   3.7079806389e+01   1.2992395071e+01    0.1261476    0.1021794 -29.47 0.0008102522    1.033    0.032
       330  -8.7979    179.2849    124.5524   4.4760015437e+01   2.1692441777e+01    0.2698266     0.212462 -72.26  0.000845649    1.654    0.395
       331 -10.2727     28.4488    121.9650   8.8131113472e+01   4.8391510075e+01     0.911749    0.3969094  69.90  0.002905541    3.824    0.739
       332  -9.3269     28.8254    113.4157   8.6698097924e+01   5.0670524491e+01    0.5130956    0.1255208  25.05  0.001598576    3.856    0.741
       333  -7.9046    244.0000    123.9754   3.4759581749e+01   1.0865058756e+01    0.1970102   0.05473047 -36.49 0.0005013918    2.817    0.645
       334 -10.7358     45.2086    123.5547   8.2163313048e+01   4.6137205321e+01     1.266777    0.6021412  71.28  0.003850502    4.102    0.756
       335  -7.7349    188.4754    123.5275   4.2864388753e+01   2.0159783187e+01    0.1379159    0.1229505 -36.59 0.0002297416    1.030    0.029
       336  -9.6675    158.7143    121.4402   4.8120640815e+01   2.6289272857e+01    0.3761005    0.2542502 -74.08  0.001149853    2.360    0.576
       337  -8.0387    194.8579    121.5717   4.1331096926e+01   1.9331249439e+01    0.2287658    0.1398909 -42.99 0.0005452266    1.469    0.319
       338  -8.7292    171.9059    121.3066   4.5411234405e+01   2.3710262695e+01    0.2393664    0.1800872 -49.23 0.0004631572    1.303    0.233
       339  -7.7121    203.0182    121.7532   4.0041771109e+01   1.7837426672e+01    0.1503247    0.1154732  47.73 0.0003107767    1.505    0.336
       340 -10.2305    131.1594    118.0575   5.3668650201e+01   3.2592242568e+01    0.6642499     0.441594 -66.64  0.001999892    1.964    0.491
       341  -9.9431    133.8033    109.1741   5.0731456170e+01   3.3939476542e+01    0.7024267     0.327959 -50.14  0.002469565    2.213    0.548
       342 -10.0600    141.4646    117.6966   5.1062902172e+01   3.0551656355e+01    0.6377468    0.2928096 -52.83  0.001263944    2.457    0.593
       343  -9.4958     71.0970    119.3774   7.2066326771e+01   4.3588084314e+01    0.3767778    0.2479294 -82.23  0.001078771    1.948    0.487
       344  -9.5871      2.9155    116.8123   9.7200182927e+01   5.1728239906e+01    0.6184692    0.2618481  69.45  0.002378727    2.783    0.641
       345  -7.8297    231.4521    117.2537   3.4990699911e+01   1.3775732108e+01    0.1791903   0.09461413 -44.76 0.0009329602    1.670    0.401
       346  -7.7951    185.8017    115.8275   4.1567293416e+01   2.2024448337e+01    0.1892367    0.1516181 -57.22 0.0004355203    1.324    0.244
       347  -9.9522    109.4527    114.0371   5.8514483907e+01   3.7907772812e+01    0.5262218    0.3511397 -76.11  0.001381521    2.194    0.544
       348  -9.5014    109.7352    107.2595   5.6656411580e+01   3.9404430453e+01    0.4492689    0.2569527  14.99  0.001309141    4.372    0.771
       349  -8.2897    250.1750    114.8509   3.2222473217e+01   1.1265112638e+01    0.1578948    0.1222012 -15.87  0.001065609    1.335    0.251
       350  -7.5884    203.3144    115.7172   3.8658603231e+01   1.8790906035e+01    0.1283176   0.09818262 -64.63 0.0002408362    1.576    0.366
       351  -8.2800    192.9887    114.8337   4.0115025832e+01   2.0837350251e+01    0.2478966    0.1510405 -48.72 0.0006094283    1.598    0.374
       352 -10.0169     92.8135    112.4908   6.3175308403e+01   4.1517790517e+01    0.5241075    0.3462707 -70.62  0.001267508    1.887    0.470
       353  -9.9348     79.2269    112.6040   6.7693552817e+01   4.3957299668e+01    0.5965514    0.3917225  81.72  0.001738757    2.400    0.583
       354  -8.7881     60.3967    114.7077   7.4862619977e+01   4.6449458421e+01     0.370739    0.1986425  13.89  0.001337234    2.762    0.638
       355  -8.0709    167.2755    114.5359   4.4700118133e+01   2.5903143147e+01    0.1911107    0.1389597  35.31 0.0007545623    1.555    0.357
       356  -9.6133    122.1027    112.4552   5.4590006837e+01   3.5685362740e+01    0.3537537    0.2626974 -66.45 0.0005883108    1.568    0.362
       357  -8.6697    174.8195    111.5534   4.2532413880e+01   2.4942265547e+01    0.2822067    0.1679008 -53.84 0.0007762035    1.838    0.456
       358  -9.0846    159.1686    111.6669   4.5633465705e+01   2.8106719211e+01    0.2942099    0.2105926 -63.44 0.0008463732    1.664    0.399
       359 -10.1678     66.6115    109.5223   7.1414435098e+01   4.6844284495e+01    0.6604095    0.3363083 -60.43  0.002078409    1.968    0.492
       360  -9.8033     14.3106    110.8451   9.2097980311e+01   5.2600423110e+01    0.4535346    0.2318585  69.46  0.001284495    2.365    0.577
       361 -10.9404    249.1102    102.8920   2.9963020186e+01   1.3108771743e+01    0.5008993    0.2430432 -36.64  0.002756342    1.579    0.367
       362  -8.0920    182.7819    109.0613   4.0499966759e+01   2.3808199029e+01    0.1910258    0.1040228 -40.22 0.0004856481    1.648    0.393
       363  -8.0057    189.2379    107.6506   3.9067042754e+01   2.2790720053e+01      0.25376    0.1422351 -46.85 0.0006535086    1.674    0.403
       364 -10.6267     45.8990    102.2491   7.7732594481e+01   5.1734288640e+01    0.8869287    0.4575506  63.82  0.003038399    3.260    0.693
       365 -10.8168     22.8234    102.5247   8.7377472476e+01   5.4161574465e+01    0.7734332    0.4009725  64.68  0.002411351    2.570    0.611
       366  -8.8938    166.8565    103.9636   4.2164618248e+01   2.7966490254e+01    0.3764208    0.1783308 -45.91  0.001017347    2.011    0.503
       367  -9.5851    150.6846    102.9380   4.5194886302e+01   3.1593085040e+01    0.4728666    0.2659852 -60.91  0.001431889    2.443    0.591
       368  -9.2660    139.9292    104.4217   4.8005008477e+01   3.3614132060e+01    0.3705737    0.2787172 -88.47 0.0006942759    1.811    0.448
       369  -8.8491     78.9507    104.6390   6.5784696866e+01   4.5991509505e+01    0.4465818    0.2299545  21.66  0.001516031    2.958    0.662
       370 -10.1450    128.6364    101.3120   4.9912319311e+01   3.6699715610e+01    0.5874456    0.3321029 -39.95  0.001584023    1.780    0.438
       371  -9.9193      6.6581    102.4904   9.4191674576e+01   5.5354649479e+01    0.3924901    0.2323547  76.61  0.001712328    1.818    0.450
       372  -8.0750    175.5813    101.7971   4.0003740931e+01   2.6550177848e+01    0.2022963     0.121487 -48.95 0.0005415916    1.614    0.380
       373  -8.4953    159.7797    100.8767   4.2764943133e+01   3.0037077388e+01    0.2688109    0.1852575 -56.14 0.0005741865    1.538    0.350
       374 -10.2601    108.8257     98.5142   5.4509502450e+01   4.1558096570e+01    0.5845491    0.3890913  73.14  0.001433058    2.232    0.552
       375  -8.9543    108.2499     92.0614   5.2810042706e+01   4.3094827692e+01    0.5180622    0.3321467  22.99  0.001879068    2.284    0.562
       376  -9.2082     82.2727    100.0904   6.3414981823e+01   4.6498360994e+01     0.380493    0.2867921 -89.24 0.0009410785    1.742    0.426
       377 -10.1725     64.0016     95.7568   6.8940081703e+01   5.0759492455e+01    0.6067971    0.3909374  78.94  0.001596894    2.549    0.608
       378  -8.5457     63.8525     88.2506   6.6918454696e+01   5.2638005926e+01    0.4018034    0.2325611 -26.59  0.001485721    2.643    0.622
       379  -9.1934     95.0354     96.8566   5.8251336648e+01   4.4785421189e+01    0.3616989    0.2439733 -60.08 0.0006015277    1.618    0.382
       380  -8.3360    150.9868     95.5026   4.3152110282e+01   3.2959848082e+01     0.303698    0.1919598  -2.73  0.001043435    3.553    0.719
       381  -7.7717    149.7689    109.9765   4.7216777408e+01   3.0399131332e+01    0.1978457    0.1194086 -41.84 0.0004325724    1.582    0.368
       382  -8.3244    164.8779     94.0770   4.0003104345e+01   3.0194090435e+01    0.2256234    0.1834163 -63.44 0.0005078054    1.286    0.222
       383  -7.8184    188.7365     93.0155   3.5633550590e+01   2.5371899981e+01    0.1874116    0.1083158 -38.59 0.0008896895    1.538    0.350
       384  -8.3664    176.3465     92.9871   3.7658179451e+01   2.7939593924e+01     0.249766    0.1879067 -75.17 0.0007478868    1.610    0.379
       385  -9.2348    138.9620     91.8086   4.4776697674e+01   3.6343174216e+01    0.4666884    0.2743275 -54.91  0.001370265    1.880    0.468
       386 -10.2143    124.1257     90.8809   4.8113340723e+01   3.9852371998e+01    0.5161858    0.4900792  32.24  0.001077789    1.117    0.105
       387  -9.7576      5.2296     91.6933   9.3430718150e+01   5.8313468665e+01     0.413911    0.2178651  57.10  0.001279534    2.231    0.552
       388  -8.1112    157.7684     91.3925   4.0661878818e+01   3.2233101809e+01    0.2686462     0.164229 -49.71  0.000602768    1.612    0.380
       389  -9.0136     46.2546     91.9589   7.5175946148e+01   5.4364197625e+01    0.3351062    0.2060122   2.98  0.001227253    2.313    0.568
       390  -9.7213     34.9408     88.5942   7.9318624817e+01   5.6634681685e+01    0.8171831    0.3307406 -69.36  0.002916443    2.715    0.632
       391  -9.1179     22.6058     90.3797   8.5296801929e+01   5.7414484225e+01    0.4157985    0.2895155 -26.44  0.001919325    1.602    0.376
       392  -8.3093    150.9873     88.9747   4.1370538370e+01   3.4185105687e+01    0.2340823    0.1722664 -70.61 0.0005083596    1.627    0.385
       393 -10.0187     86.5456     85.7832   5.7772167072e+01   4.9020917458e+01    0.6830745    0.4201045 -61.76  0.001817203    1.942    0.485
       394  -7.9231    163.9833     86.9838   3.8294307726e+01   3.1654511335e+01    0.2307393    0.1645761 -67.57 0.0005744784    1.642    0.391
       395 -10.1410     48.6611     83.9690   7.2035875947e+01   5.6052228906e+01    0.6401005     0.428233  82.30  0.002463643    2.258    0.557
       396  -7.7707    179.0000     85.0119   3.5181444032e+01   2.8732665912e+01    0.2307077   0.07370737 -37.01 0.0004958914    2.856    0.650
       397  -9.7192    104.8674     83.0426   5.1061711484e+01   4.5752063365e+01    0.4796335    0.3354389 -75.75  0.000903791    2.019    0.505
       398  -8.3801    158.1060     83.6985   3.8504718670e+01   3.3542492058e+01    0.2490573    0.1824266 -50.65 0.0003460739    1.312    0.238
       399  -8.9733    250.4187     82.6263   2.5741741699e+01   1.5694913595e+01    0.2540961   0.05771811 -44.02 0.0009627035    3.393    0.705
       400  -7.4403    170.6703     83.3313   3.6133160711e+01   3.0816634381e+01    0.1507742    0.1041143 -67.96 0.0007051811    1.717    0.418
       401  -9.1983    141.0498     82.7770   4.1726948861e+01   3.7589922393e+01    0.3042884    0.2279585 -62.91 0.0008245201    1.455    0.313
       402  -7.8773     63.8854     82.5974   6.5232092762e+01   5.3993821021e+01    0.2116334    0.1365004  48.34 0.0008424421    1.680    0.405
       403  -9.7014     24.7129     80.3195   8.2182234010e+01   5.9839800526e+01    0.5280023     0.314466  83.56  0.001751612    2.359    0.576
       404  -9.4151      9.9970     81.0145   8.9524982546e+01   6.0834748241e+01    0.4399827    0.1967029  52.20   0.00171631    2.936    0.659
       405  -8.7903    119.3356     79.9904   4.6079216839e+01   4.3118324043e+01    0.3188672    0.2182635 -61.13 0.0009513616    1.691    0.408
       406  -8.8019     74.5816     80.1237   6.0287342344e+01   5.2640226502e+01    0.3779063    0.2377164 -73.58  0.001032121    2.468    0.595
       407  -8.1225    150.2318     80.2571   3.9080096777e+01   3.5940874527e+01      0.20745    0.1639649 -67.28  0.001044248    1.354    0.262
       408  -8.2110    166.9562     79.3281   3.5704272416e+01   3.2315117971e+01    0.1942798    0.1781262 -57.77  0.000573368    1.008    0.008
       409  -8.1217    184.0000     78.0004   3.2608152104e+01   2.8809412944e+01    0.2325995    0.0719652 -36.02 0.0008007738    2.931    0.659
       410  -7.9998    157.1428     76.1229   3.6578157357e+01   3.5077863733e+01    0.2053566    0.1608406 -66.03 0.0004349409    1.336    0.251
       411  -9.3250    128.1808     75.2186   4.2393981873e+01   4.1978783589e+01    0.3650537     0.234927 -58.22  0.000660231    1.767    0.434
       412 -10.0108     63.1847     73.4481   6.2603721778e+01   5.6244734273e+01      0.50081    0.3221805 -66.87  0.001140367    1.971    0.493
       413  -8.5452    140.3397     74.9126   3.9564418865e+01   3.9185931068e+01      0.26129    0.1715049 -44.82 0.0007454955    1.472    0.321
       414  -9.7732     82.4381     71.7143   5.4610061728e+01   5.2929252102e+01    0.7064124      0.32271 -49.56  0.001074824    2.283    0.562
       415  -8.2415    163.4765     73.0704   3.4593309885e+01   3.4143255451e+01    0.2199651    0.1313045 -40.41  0.001014735    1.556    0.357
       416  -7.9666    151.2358     72.9707   3.6790453005e+01   3.6979610393e+01    0.1904313    0.1172117 -39.29 0.0004175714    1.556    0.358
       417  -8.5375    115.7592     72.7196   4.4710074012e+01   4.5346434852e+01    0.2980427    0.1942808 -49.96 0.0005402367    1.575    0.365
       418  -8.3040     42.7220     72.5929   7.1419614020e+01   5.9670114164e+01    0.2471145    0.1786665 -83.04 0.0008143992    1.799    0.444
       419  -9.1960    105.9046     71.5068   4.7023001357e+01   4.7849363750e+01    0.2943442    0.2043703 -59.28 0.0007749329    1.642    0.391
       420  -9.2476     95.2311     71.1924   5.0137818237e+01   5.0305864544e+01    0.3726729    0.2491195 -60.88   0.00102318    1.800    0.444
       421  -9.5379     51.6399     69.8024   6.6390288348e+01   5.9010596824e+01    0.4209051    0.2847791 -74.89  0.001368575    2.011    0.503
       422  -9.2597     30.1414     69.5082   7.6697885053e+01   6.1991867938e+01    0.4316442    0.2240432  -5.55  0.001569243    3.266    0.694
       423  -8.7960    147.0454     68.3936   3.6254265737e+01   3.8736080211e+01    0.2828156    0.1852773 -53.82 0.0007390155    1.560    0.359
       424  -8.2749    163.5404     66.9895   3.2885705997e+01   3.5114153922e+01    0.2233261    0.1320254 -37.60  0.001032503    1.599    0.375
       425  -8.7277    138.7456     65.9715   3.7181350525e+01   4.1114721182e+01    0.2740702    0.1867198 -55.30 0.0006829591    1.526    0.345
       426  -8.6147    121.7738     65.8536   4.0945734925e+01   4.5189823388e+01    0.2767181    0.1928792 -58.74 0.0006991483    1.587    0.370
       427  -8.8183     37.2922     64.0320   7.1366309863e+01   6.2431926458e+01    0.3582902    0.2370963  86.69  0.001521237    2.543    0.607
       428  -8.8403    110.2526     63.4674   4.3084151481e+01   4.8346289795e+01    0.3257906    0.2332568 -62.45 0.0005906026    1.625    0.385
       429  -8.7669     65.0568     62.6791   5.8036198120e+01   5.8262884867e+01    0.4017764    0.2280143  11.54  0.001261088    4.125    0.758
       430  -9.0561     16.7847     69.8708   8.3761312853e+01   6.3194472791e+01     0.289944    0.2030014  83.66 0.0008856467    1.750    0.428
       431  -8.0264    158.1817     61.4673   3.2205546443e+01   3.7230401367e+01    0.1864011    0.1329097  85.49  0.000358063    1.570    0.363
       432  -9.6646     73.3724     59.2825   5.3437943592e+01   5.7329917242e+01    0.4717397    0.2601596 -51.69  0.001349134    2.007    0.502
       433  -8.9153     97.3609     60.1828   4.5592791200e+01   5.1941134179e+01    0.2850373    0.2095273  59.15 0.0007460674    1.391    0.281
       434  -7.9747     89.1508     59.2169   4.7817564408e+01   5.3974914551e+01     0.205371    0.1744124 -74.32 0.0005992604    1.363    0.266
       435  -8.4446    130.8475     57.5636   3.6164851668e+01   4.4408099272e+01    0.2880059    0.1704099 -52.62 0.0006250552    1.809    0.447
       436  -9.8942     23.4002     56.1891   7.6290876373e+01   6.5906018032e+01    0.4716932    0.2994166  78.46   0.00190223    2.719    0.632
       437  -9.5241      7.7526     57.2663   8.5766358601e+01   6.6968065958e+01    0.3331856    0.2262528  65.17  0.001151384    1.919    0.479
       438  -7.6613    193.7086     56.3519   2.5800493307e+01   2.9970485427e+01    0.1430877   0.08530051 -59.16 0.0007028621    1.675    0.403
       439  -8.2036    140.0804     55.8494   3.3751488133e+01   4.2436054720e+01     0.224956    0.1823155 -67.11  0.000454859    1.251    0.201
       440  -8.7532    119.3043     55.7034   3.8125082203e+01   4.7516088299e+01    0.2987862    0.2167194 -70.77 0.0007491688    1.646    0.392
       441  -8.6307     44.2116     55.3364   6.4767104089e+01   6.3402370636e+01    0.2878678    0.2228319 -68.79   0.00110171    1.577    0.366
       442  -9.0395     62.7753     53.9570   5.5619551142e+01   6.0474419802e+01    0.4922684    0.2067817 -51.57  0.001669747    2.785    0.641
       443  -9.2623     54.0360     53.7147   5.9393976799e+01   6.2124976581e+01    0.3749316    0.2069202 -59.00  0.001176343    2.344    0.573
       444  -8.2065    163.2168     52.9838   2.8955756248e+01   3.7321238042e+01    0.1850557    0.1073645 -35.80  0.000402875    1.652    0.395
       445  -8.3717    105.7671     52.9386   4.0548112552e+01   5.1236059235e+01    0.2662458    0.1918008 -56.84 0.0006726966    1.539    0.350
       446  -9.5323     92.4814     50.4081   4.3399037083e+01   5.4788312625e+01    0.4130998    0.2429512 -51.55  0.001205108    1.950    0.487
       447  -8.9704    144.5725     49.6752   3.0984718442e+01   4.2275156154e+01    0.2630942    0.2307694 -12.29  0.001461275    1.356    0.262
       448  -8.6140    129.8193     49.0463   3.3557819737e+01   4.5987537238e+01    0.2255799    0.1856128 -69.17 0.0005425061    1.245    0.197
       449  -8.2015    120.5427     47.0657   3.4835959283e+01   4.8571558779e+01    0.2116664    0.1418162 -35.74 0.0007548687    1.529    0.346
       450  -8.3647    112.3114     46.7045   3.6600782767e+01   5.0648265047e+01    0.2589958    0.1603722 -46.67 0.0006577915    1.677    0.404
       451  -9.0185     82.2957     46.3922   4.5066438348e+01   5.7787389665e+01    0.3047391    0.2329712 -58.61 0.0006598319    1.526    0.345
       452  -8.5357     45.0046     44.4996   5.9916066465e+01   6.5512169311e+01    0.2489546     0.194707 -62.47 0.0007529726    1.570    0.363
       453  -9.0062     16.7832     44.1988   7.6181544887e+01   6.9302159276e+01    0.2586423    0.1794343 -72.92 0.0008242194    1.733    0.423
       454  -9.0238     58.2962     42.6208   5.2739054101e+01   6.3477462488e+01    0.3439181    0.2388507 -65.16  0.001243206    2.097    0.523
       455  -8.5472    132.8193     43.0948   3.0977122290e+01   4.6111243165e+01    0.2232119    0.1808846 -65.21 0.0004758363    1.239    0.193
       456  -8.4811     74.6918     51.7202   4.9956991560e+01   5.8502628645e+01    0.3527704     0.211031   8.27  0.001146048    4.017    0.751
       457  -9.4625     69.7369     40.6689   4.7137688282e+01   6.1491221484e+01    0.5475654    0.2714351 -43.77  0.001748632    2.152    0.535
       458  -9.7887      5.3318     41.7148   8.2955078642e+01   7.0790091210e+01    0.3938609    0.2337949 -88.48    0.0017006    2.430    0.588
       459  -8.5985    105.9767     40.9901   3.6009305233e+01   5.3053326147e+01     0.228353    0.1660991 -68.33 0.0004533397    1.639    0.390
       460  -8.5198     36.9104     40.5870   6.2502988678e+01   6.7564167061e+01    0.2486875    0.1980234 -52.68 0.0007368414    1.370    0.270
       461  -7.7558    160.7503     39.7348   2.5453715259e+01   3.9734559875e+01    0.2256045   0.08472991 -43.02  0.000543476    2.402    0.584
       462  -8.6373     95.6845     37.9522   3.7496021994e+01   5.5993118074e+01    0.2576614    0.1844226 -51.54 0.0006791104    1.536    0.349
       463  -8.0718     80.6627     36.3666   4.1338434813e+01   5.9757284658e+01    0.2073126    0.1637227 -76.01  0.000804148    1.620    0.383
       464  -9.3217     26.2022     35.1194   6.6368335037e+01   7.0155143537e+01    0.3111296    0.2235094 -63.90 0.0009869499    1.762    0.433
       465  -8.0185    125.9445     35.4793   2.9652183191e+01   4.8858724885e+01    0.2029671     0.132388  66.15 8.460647e-05    1.455    0.313
       466  -8.7325    111.8124     34.1590   3.2037187762e+01   5.2563162642e+01    0.2181735    0.1810841 -71.01  0.000583628    1.268    0.211
       467  -7.7320     88.6914     34.3356   3.7967506322e+01   5.8182076382e+01    0.1447713    0.1089003 -71.98 0.0004663408    1.677    0.404
       468  -9.5474    211.0723    246.6001   6.1145476391e+01  -2.2010639814e+00    0.2795449    0.1639464 -44.41  0.001279496    2.323    0.570
       469  -8.7338     48.5716     33.0406   5.2737968798e+01   6.6988923519e+01    0.2341562    0.1894388  57.56  0.000717376    1.460    0.315
       470  -8.7877     72.0976     30.6787   4.1672137930e+01   6.2530021445e+01    0.2602809    0.1856795 -52.23 0.0007314487    1.665    0.399
       471  -8.8901     13.0470     30.5027   7.3196541396e+01   7.2596180677e+01    0.2194486    0.1821279 -73.52 0.0007764284    1.531    0.347
       472  -8.4238    101.7041     29.1438   3.2367263143e+01   5.5720639057e+01    0.2249894    0.1655666 -55.80 0.0007223045    1.496    0.331
       473  -8.7339     81.6399     27.3241   3.6968005735e+01   6.0804114080e+01    0.2873717    0.2111262 -70.81 0.0009672169    1.783    0.439
       474  -9.1304      3.8409     27.3086   7.8818088879e+01   7.4051532955e+01    0.2533592    0.1781551 -79.60  0.001164478    1.896    0.473
       475  -7.7589    110.0000     26.9848   2.9664591266e+01   5.3922931745e+01    0.2125471   0.08034967 -28.23 0.0004336252    2.839    0.648
       476  -8.8751     91.7816     26.0208   3.3523872316e+01   5.8544653546e+01    0.2868978    0.1766426 -39.07 0.0006647351    1.715    0.417
       477  -8.0633     34.7525     22.9684   5.4796191000e+01   7.1087724352e+01    0.1933211     0.156477 -75.35 0.0009304788    1.981    0.495
       478  -8.0774    104.3360     22.6896   2.9151550076e+01   5.5843238053e+01     0.144971    0.1008968 -70.08 0.0007044099    1.682    0.405
       479  -8.9916     63.6403     20.7692   3.9839843882e+01   6.5752770203e+01    0.3408027    0.1983206 -46.95   0.00101189    2.094    0.522
       480  -8.8208     48.4907     21.3454   4.6576161003e+01   6.8835205053e+01     0.232873    0.2115598 -54.73 0.0008270831    1.347    0.258
       481  -8.2895     19.5105     21.0402   6.3667310014e+01   7.3682955012e+01    0.1826563    0.1200114 -45.68  0.000570636    1.548    0.354
       482  -8.9261     60.8794     32.4382   4.6848297633e+01   6.4677997691e+01    0.2438364      0.19081 -54.09 0.0006410253    1.531    0.347
       483  -8.7850     74.1016     19.4475   3.5559405251e+01   6.3549199873e+01    0.2432622    0.1796778 -48.77  0.000642807    1.560    0.359
       484  -8.1144     38.8798     18.1920   4.9660196087e+01   7.1107097004e+01    0.1830699    0.1786595  60.14 0.0005869244    1.278    0.217
       485  -8.2304     87.8784     17.1384   3.0573002867e+01   6.0525369538e+01    0.2033696    0.1758876 -73.13  0.000547124    1.266    0.210
       486  -7.5735    112.5604     16.5519   2.5105583176e+01   5.4440770239e+01    0.1359593    0.1227501  83.83 0.0001180648    1.022    0.021
       487  -8.0295     30.2797     15.9581   5.3325673126e+01   7.2931348768e+01    0.1743211    0.1549457 -11.63 0.0006069461    1.106    0.096
       488  -8.0916     97.2743     14.9776   2.7437975677e+01   5.8435271368e+01    0.1827077    0.1734665 -48.70 0.0004736625    1.138    0.121
       489  -7.6238     17.3274     14.2658   6.1223325668e+01   7.5141099204e+01    0.1270443   0.08666012  -3.13  0.000668373    1.571    0.364
       490  -7.3848    119.7056     11.3093   2.1941631374e+01   5.3149841587e+01    0.1389557   0.09224212 -64.58 0.0003546252    1.589    0.370
       491  -8.8835    201.7859    248.6518   6.3027409868e+01  -1.4888981833e+00    0.2987365    0.1342864   7.57  0.001415831    3.064    0.674
       492  -8.2363    191.7464    249.5903   6.4929400419e+01  -5.3647054984e-01    0.1487081     0.086281  32.00 0.0006409705    1.668    0.400
       493  -9.4153    175.5143    247.4054   6.7612139512e+01   1.5582412758e+00    0.2466781    0.2293123 -79.45  0.001272886    1.905    0.475
       494  -8.8227    132.5577    248.1264   7.6185796269e+01   6.5344110156e+00    0.2667713    0.1844986  58.58 0.0009426316    2.143    0.533
       495  -8.1122    113.1061    248.6293   8.0308494011e+01   8.8132397261e+00    0.1777176    0.1613197  78.68  0.001226723    1.432    0.302
       496  -8.6929    218.6435    247.4900   6.0004727199e+01  -3.0752947753e+00    0.2211014    0.1066474 -33.28  0.001328763    1.953    0.488
       497  -8.8442    156.2834    247.8530   7.1369764155e+01   3.7299306414e+00    0.1940079    0.1653352  45.36 0.0007918993    1.555    0.357
