#   1 NUMBER                 Running object number                                     
#   2 MAG_AUTO               Kron-like elliptical aperture magnitude                    [mag]
#   3 X_IMAGE                Object position along x                                    [pixel]
#   4 Y_IMAGE                Object position along y                                    [pixel]
#   5 X_WORLD                Barycenter position along world x axis                     [deg]
#   6 Y_WORLD                Barycenter position along world y axis                     [deg]
#   7 A_WORLD                Profile RMS along major axis (world units)                 [deg]
#   8 B_WORLD                Profile RMS along minor axis (world units)                 [deg]
#   9 THETA_WORLD            Position angle (CCW/world-x)                               [deg]
#  10 FWHM_WORLD             FWHM assuming a gaussian core                              [deg]
#  11 ELONGATION             A_IMAGE/B_IMAGE                                           
#  12 ELLIPTICITY            1 - B_IMAGE/A_IMAGE                                       
         1 -13.5024    182.1510    114.5344   9.5456260639e+01   2.2108584766e+01     3.821363     2.968175 -59.03    0.0179528    1.510    0.338
         2 -11.1185    229.0372     24.0950   6.3864987980e+01   2.4331529139e+01    0.8478492    0.6827855  14.23  0.003504236    1.678    0.404
         3 -11.6788    236.0259     46.1964   6.8570059264e+01   1.9900204580e+01     1.940301     1.583503  48.73  0.008450184    1.368    0.269
         4 -12.9773    184.6098     94.8438   8.9709048904e+01   2.5125403309e+01     2.241493     1.917068  68.56  0.006635733    1.247    0.198
         5 -13.1309    183.0198     50.6199   7.7300756281e+01   3.2739020561e+01     2.922191     1.272122  47.32  0.009493699    2.352    0.575
         6 -11.8581    184.4927     32.7014   7.1727819078e+01   3.4733887707e+01     1.739958     1.200047 -13.54  0.008298407    1.754    0.430
         7 -11.0365    203.5816     11.0805   6.3153214330e+01   3.2149680539e+01     1.210076    0.7838756  80.42  0.006199823    1.433    0.302
         8 -12.8402    218.0182     10.9627   6.1664548729e+01   2.8500158294e+01     1.134919    0.7884033  40.14  0.006004363    1.785    0.440
         9 -12.0957    246.1126     17.1902   6.0654877514e+01   2.1077226528e+01    0.4506705    0.3531887  78.98 0.0004755688    1.241    0.194
        10 -13.5376    244.1900      5.6690   5.8188121162e+01   2.2764434917e+01     1.591424     1.130884  66.56  0.009505797    1.436    0.303
        11 -13.0070    167.9344     28.4849   7.3066084559e+01   3.9650716160e+01    0.4705538    0.3626128 -86.24 0.0004466948    1.422    0.297
        12 -10.6568    154.0727     28.3914   7.5488632268e+01   4.3331595884e+01     1.163003    0.7944037  71.38  0.005563524    1.472    0.320
        13 -11.9315    205.2225     37.7936   7.0224359937e+01   2.8653595154e+01     2.562303     1.245405 -39.24   0.01085828    1.994    0.499
        14 -11.9527    249.4155     24.3270   6.2006563184e+01   1.9505095841e+01    0.8744753    0.6025358  -4.94  0.001000621    2.115    0.527
        15 -10.3383    112.4877     35.2005   8.7495653643e+01   5.2802556323e+01    0.7701772    0.3752767 -39.21  0.003211862    2.219    0.549
        16  -8.7833    147.1748     20.3509   7.4036414436e+01   4.6048200183e+01    0.6024285    0.4105875  83.70  0.002861946    1.689    0.408
        17 -11.9965     79.1149     21.1557   9.2000735503e+01   6.1678393763e+01     1.713378    0.9269935   9.48  0.007038001    2.869    0.651
        18 -11.2472     70.2128      8.7973   8.9394962208e+01   6.4831225533e+01     0.636137    0.3781212 -18.75 0.0008116305    1.647    0.393
        19  -8.5602    144.5912     10.7348   7.1154095245e+01   4.7689530708e+01    0.7732591    0.4045297  14.19  0.003028833    2.924    0.658
        20 -11.8110    105.6305     25.4663   8.5550541547e+01   5.5637665256e+01     1.091661    0.4819104 -17.99   0.00129607    2.883    0.653
        21 -11.1859     97.7634     20.0016   8.5533698867e+01   5.8034016905e+01    0.7425864    0.5319695  18.98  0.003142072    1.399    0.285
        22 -11.3101    137.5567      5.2177   7.0436641562e+01   4.9996445355e+01    0.6298368    0.3799199 -61.88 0.0006741587    2.291    0.564
        23 -12.8373    101.6255      6.5946   7.8717707449e+01   5.8591572943e+01     1.998778    0.8286713  54.73  0.008099323    2.077    0.518
        24 -11.6882     82.1043      3.4026   8.2801099311e+01   6.3086134326e+01    0.8325302    0.6694098  53.51  0.002977323    1.344    0.256
        25  -9.9707    155.9247     15.3216   7.0786575941e+01   4.4278414386e+01    0.7113138    0.2514576 -42.27 0.0006238226    3.236    0.691
        26 -11.7501    149.4221     14.1678   7.1499402949e+01   4.6100777077e+01    0.4302293    0.3031226   5.01   0.00046922    1.724    0.420
        27 -10.4342    130.2279      8.9334   7.3181436140e+01   5.1526226701e+01    0.5691194    0.2892795  72.56  0.002155533    2.157    0.536
        28 -11.0153    125.5987      6.1517   7.3052312612e+01   5.2930550868e+01    0.7431232    0.4357751  37.84  0.002627428    1.640    0.390
        29 -10.3623     87.8488     22.6190   8.9713409853e+01   5.9784097805e+01    0.4665251    0.3269704  -6.03 0.0007347474    1.476    0.322
        30 -10.0244    135.2068     20.2935   7.6375051154e+01   4.9132454902e+01    0.3753869    0.2588412 -20.86  0.001292219    1.583    0.368
        31 -11.0634     62.1055     18.5318   9.7147876048e+01   6.5024668764e+01    0.4363355    0.4088528  30.75  0.001768493    1.368    0.269
        32 -11.2343     63.1009     12.6720   9.3961767561e+01   6.5624944858e+01    0.5277259    0.4123721 -38.07  0.003257126    1.559    0.359
        33 -11.7215    117.2577     15.4475   7.8511890662e+01   5.4080602319e+01    0.5371362    0.4810009   7.73  0.001928061    1.131    0.116
        34 -10.4368    182.9450     12.0270   6.5825579059e+01   3.7447024465e+01    0.2305196    0.2029303 -65.37  0.000352796    1.153    0.133
        35  -9.6778     29.9019     11.7982   1.0851499059e+02   7.0385644655e+01    0.1926178    0.1601419  33.95  0.001150322    1.630    0.386
        36  -8.6656     17.3303      9.9907   1.1430206865e+02   7.1894743442e+01     0.164006   0.09253295 -63.50  0.000705174    4.403    0.773
        37  -7.8128    160.3109      8.6753   6.7910550425e+01   4.3762024951e+01    0.2339073    0.1302664 -66.38 0.0009621064    2.438    0.590
        38  -8.4946    157.3251      7.6824   6.8035852353e+01   4.4639999557e+01      0.18586    0.1372249  -0.75 0.0009624063    1.626    0.385
        39 -10.9336     63.5924      1.9916   8.8425212601e+01   6.6755753467e+01    0.5722862    0.1997185  46.98  0.001393131    2.621    0.618
        40  -9.3951      3.5250      5.0190   1.1989696667e+02   7.3724951396e+01    0.1666152   0.08438908 -46.30  0.001033232    1.595    0.373
        41  -9.5051     46.5537      2.7880   9.5849811489e+01   6.9449557430e+01    0.2768468    0.1808724 -32.37  0.001695412    1.602    0.376
        42  -8.3858    213.1940      1.7678   5.9784606254e+01   3.0624954333e+01     0.166517     0.144185  51.46 0.0002751311    1.303    0.232
        43  -9.0071    164.7461      1.6252   6.5030650174e+01   4.3213069455e+01    0.2684341    0.1803066  86.31 0.0009925526    1.480    0.325
        44  -8.9395    160.2024      1.2962   6.5541723883e+01   4.4436166311e+01    0.2860532    0.1214614  75.69  0.000758292    2.324    0.570
        45  -8.2494    208.8963      1.4812   6.0100751514e+01   3.1734023457e+01    0.1906935    0.1184926  78.82 0.0009793853    1.442    0.306
        46  -8.9738    171.8134      1.5745   6.4104016809e+01   4.1354941400e+01    0.4795188    0.1303296  73.12  0.001158854    3.574    0.720
        47 -13.1804     36.0279    211.4601   1.4501764694e+02   2.7746967770e+01     2.386774    0.8600872  43.70   0.01120528    2.225    0.551
        48  -8.4981     55.3027    250.5624   1.4417036576e+02   1.8488414901e+01    0.1277471    0.0859447  43.16 0.0004955684    1.427    0.299
        49 -13.8489     49.6008    193.8795   1.4098614633e+02   2.9655246504e+01     2.131056    0.9568033  50.72   0.01125306    1.919    0.479
        50 -12.2114    231.5211     58.4305   7.2173359316e+01   1.9306280291e+01    0.8619295    0.6545714 -24.46  0.000645423    1.387    0.279
        51 -12.1623    213.1521     61.9363   7.5646065683e+01   2.3303326007e+01     1.188317     1.081965 -12.05  0.004250614    1.202    0.168
        52 -10.8807    228.4310    131.8134   9.0700854180e+01   8.6071152523e+00    0.8991232    0.6532582 -41.83  0.003956371    1.432    0.301
        53  -9.4283    231.0380    138.0420   9.1671566843e+01   7.0706004610e+00    0.2385318    0.2073005   9.57 0.0003428339    1.096    0.088
        54 -12.1050    206.7047     74.7985   8.0127778418e+01   2.2961461797e+01     1.658019    0.9450085  45.93  0.006712333    1.839    0.456
        55 -11.9657    214.5402     43.2714   7.0466595281e+01   2.5558925970e+01    0.6562443    0.4100746 -27.75  0.000845391    1.682    0.406
        56 -12.0516    218.6281     34.4460   6.7632714469e+01   2.5660606750e+01     0.965175    0.5818331  65.78  0.004668795    1.593    0.372
        57 -13.0065    192.3491     71.0318   8.1574906507e+01   2.7205534726e+01     3.362234      1.24469  38.87  0.008989312    4.686    0.787
        58 -12.1468    182.9960     67.5770   8.2305773679e+01   3.0175659248e+01     1.035528    0.6596695  27.06  0.001774122    2.135    0.532
        59 -12.8601    166.2553     69.1735   8.6129621637e+01   3.4256113311e+01      1.95231     1.101323  75.16  0.004305766    2.658    0.624
        60 -12.4579    175.0747     63.5602   8.2637364547e+01   3.2878384911e+01    0.7037059    0.3762005  42.48 0.0003542483    2.009    0.502
        61 -10.4185    229.6025    142.6756   9.2973725860e+01   6.6292043598e+00    0.5200885    0.3873626  41.42  0.001899775    1.339    0.253
        62 -10.2118    231.9501    120.9221   8.7541094832e+01   9.6103811530e+00    0.3767523    0.2887523 -11.03 0.0007788097    1.373    0.272
        63 -12.9496    167.8846     34.8925   7.5107131212e+01   3.8879546653e+01    0.6830558     0.383435 -48.58  0.001011618    2.023    0.506
        64 -13.4889    244.8488    175.2458   9.7236783515e+01  -1.0963652122e+00     2.966135    0.9403413 -34.08  0.008239101    3.098    0.677
        65  -8.6014    172.2791    130.7024   1.0166030090e+02   2.1315321280e+01    0.2757611    0.1966417 -42.93  0.001266218    1.462    0.316
        66 -11.3043    227.8036     75.4765   7.7003357867e+01   1.7705647568e+01    0.7519293    0.4592661 -53.81  0.001098049    1.806    0.446
        67 -11.9311    245.9570    129.4265   8.7193915621e+01   5.3945404405e+00    0.8277411    0.5605477  32.62  0.002943198    1.564    0.361
        68 -11.3031    146.7466     58.7226   8.7166834814e+01   4.0966018666e+01     1.575012    0.7862191 -53.93  0.005427422    2.951    0.661
        69 -11.3772    205.9921    119.3417   9.1842346054e+01   1.5644351115e+01     1.063608    0.7978534 -62.80  0.004984424    1.722    0.419
        70  -7.9638    229.3283     96.1205   8.1957457530e+01   1.4151146640e+01     1.086843    0.8062513 -16.87  0.005440911    1.456    0.313
        71  -9.9970    210.7511    112.8195   8.9325543175e+01   1.5674242232e+01    0.3250105    0.2664895 -44.02 0.0003864162    1.255    0.203
        72 -10.2627    213.0360    106.4907   8.7319773077e+01   1.6218622620e+01    0.4138786    0.2983961 -39.65 0.0006304118    1.372    0.271
        73 -10.5506    232.7302     84.4245   7.8525857419e+01   1.5193593335e+01    0.4386849    0.3556246 -81.98  0.001720328    1.451    0.311
        74 -11.4260    221.8651    119.3396   8.8911952584e+01   1.2061917596e+01    0.4120417    0.3053508  53.08 0.0005752558    1.422    0.297
        75 -11.7698    221.3737    112.4581   8.7324174098e+01   1.3309732905e+01    0.7686079    0.6845913  42.82  0.004227271    1.144    0.126
        76 -11.1379    212.8521     99.9807   8.5698283883e+01   1.7354788216e+01     1.064988    0.6784212  51.53  0.004061978    1.583    0.368
        77  -9.8241    218.9251     97.9926   8.4138655579e+01   1.6253768480e+01    0.7362372    0.3953546 -32.22  0.002039409    1.833    0.454
        78 -10.0360    249.8213    101.7094   8.0191286834e+01   8.8090734469e+00    0.2940902    0.1981197 -26.95 0.0004155322    1.405    0.288
        79 -11.0042    247.0594     95.9533   7.9232468484e+01   1.0258760357e+01    0.6988966    0.4797865  -5.53  0.002684139    1.846    0.458
        80 -12.0296    233.1043    104.1966   8.3337114088e+01   1.2024351213e+01     1.224723    0.8044227  53.80  0.005949458    1.607    0.378
        81  -9.9720    220.6854    104.0280   8.5356547457e+01   1.4855860839e+01    0.2643564    0.2364094  35.25 0.0004274831    1.141    0.123
        82 -10.7446    236.5503     92.1217   7.9854538127e+01   1.3143392884e+01     0.395018      0.33829 -74.26  0.001567876    1.336    0.251
        83 -11.2816    242.0633     90.5518   7.8659937544e+01   1.2158553561e+01    0.5392326    0.3899296 -51.63  0.001703172    1.442    0.306
        84 -12.3489    246.0494    154.4897   9.2711349847e+01   1.6365024577e+00     1.285078    0.9042423  23.66  0.007019034    1.418    0.295
        85 -11.2206    134.2467    109.3933   1.0548715539e+02   3.4291876204e+01    0.6361389    0.3295491 -42.81  0.002484502    1.971    0.493
        86  -8.3179    232.0628    112.2969   8.5465486427e+01   1.0965145355e+01    0.1876457     0.177204  40.12 0.0003625269    1.113    0.102
        87  -8.5852    114.6597    112.3250   1.1153462854e+02   3.7763160582e+01    0.1571324    0.1199672  83.01 0.0007051219    1.728    0.421
        88 -10.1938    244.8346    108.0153   8.2415565836e+01   8.8976777851e+00    0.5592246    0.3434229 -31.30  0.002015043    1.513    0.339
        89  -7.9000    165.2542    107.3527   9.7312188056e+01   2.7528672808e+01    0.1580316    0.1240887   1.50 0.0004359907    1.602    0.376
        90 -11.2690    152.1751    101.4022   9.8785785631e+01   3.1825385366e+01    0.5643303    0.4724431 -50.02  0.002254884    1.253    0.202
        91 -10.3508    141.2628    103.7808   1.0216372897e+02   3.3888896314e+01    0.3355416    0.2820475  52.24   0.00164713    1.187    0.157
        92  -8.2066    205.3620     94.1036   8.5515037953e+01   2.0138852881e+01    0.2294245    0.1311131 -44.87 0.0009430383    1.806    0.446
        93  -9.9718    165.8629     92.6082   9.3108265652e+01   3.0196851854e+01    0.3172073    0.3114041 -62.23  0.001671605    1.057    0.054
        94  -9.3608    161.1409     92.0826   9.4035498186e+01   3.1462256381e+01    0.3080713    0.2311107  50.71 0.0009181201    1.302    0.232
        95 -10.6637    139.4425     74.0327   9.3875692088e+01   4.0133100775e+01     1.197397    0.5320355 -30.74   0.00414804    2.622    0.619
        96 -10.1146    132.8578     70.0430   9.4302407362e+01   4.2432211007e+01    0.6386262    0.4427219  52.17  0.002273798    1.433    0.302
        97  -8.9033    149.0942     69.4601   9.0065808700e+01   3.8574886510e+01    0.3322949    0.2696479 -42.55 0.0009383476    1.284    0.221
        98 -11.6178    143.8990     86.7951   9.6650573019e+01   3.6664445779e+01     1.035681    0.5740952  55.27  0.003853948    1.894    0.472
        99 -10.9181    162.0665     79.6957   9.0210787622e+01   3.3507623878e+01     0.997155    0.4787841  49.93  0.003089036    1.997    0.499
       100 -11.3203    152.3271     83.7787   9.3685265228e+01   3.5191644370e+01    0.8630293     0.629922  76.43  0.003748416    1.769    0.435
       101 -11.1409    146.5480     76.3348   9.2824575682e+01   3.7983914965e+01    0.6970438    0.5822794 -17.06  0.002269789    1.303    0.232
       102  -9.2359    248.1787     85.7430   7.6646808706e+01   1.1541419948e+01    0.3472847    0.2483483 -15.64  0.001588342    1.549    0.354
       103  -9.0167    122.4111     84.7636   1.0174895647e+02   4.2002669885e+01    0.2645356    0.1881799  22.33  0.000580764    1.718    0.418
       104  -8.4051    240.5526     82.4878   7.6918185088e+01   1.3708182475e+01    0.1393948    0.1309667 -24.29 0.0008074969    1.059    0.056
       105 -10.6888    249.8235     77.1626   7.4385611634e+01   1.2437626539e+01     0.288568    0.2440983 -88.86 0.0005515873    1.319    0.242
       106  -9.1687    242.4270     74.8241   7.4794822797e+01   1.4418778737e+01    0.3049336    0.2821299 -50.03  0.001608511    1.023    0.023
       107  -9.8728    236.9523     77.5040   7.6200231062e+01   1.5268578679e+01    0.3773859    0.3333369 -27.30  0.002113586    1.116    0.104
       108  -9.2949    233.1430     73.1742   7.5657541888e+01   1.6793221687e+01    0.3786244    0.1812364 -44.76  0.001202268    2.044    0.511
       109  -8.7131    240.5671     69.3671   7.3709341672e+01   1.5632852759e+01    0.3556914    0.2045986 -32.88  0.001666005    1.634    0.388
       110  -8.1212    246.7796     65.9550   7.2092560642e+01   1.4711848688e+01    0.3687826    0.1926586 -30.20  0.001669162    1.844    0.458
       111  -9.5455    244.7596     60.9797   7.1142422398e+01   1.5864210751e+01    0.3584087    0.2327867 -36.44  0.001520039    1.416    0.294
       112  -9.5535    247.5246     60.4855   7.0692443007e+01   1.5307571000e+01     0.242577    0.1748741 -32.15 4.133041e-05    1.323    0.244
       113  -8.2288    127.0391     65.6634   9.4417627135e+01   4.4584810646e+01    0.2116611    0.1918357  35.50 0.0004666901    1.067    0.063
       114  -9.5558    126.3644     60.5355   9.2879354674e+01   4.5638913318e+01    0.4450644    0.3069438  73.22  0.001224851    2.007    0.502
       115 -10.1247    116.0049     60.9958   9.5914104855e+01   4.7923528081e+01    0.5502131    0.3950201   7.49   0.00183734    1.785    0.440
       116  -9.9153    119.9208     58.1369   9.3820466309e+01   4.7539373446e+01    0.3748584    0.3198383  -8.76 0.0006732562    1.221    0.181
       117 -10.1137    134.1588     59.1616   9.0377682827e+01   4.4012759698e+01    0.4975922    0.3722822  28.22   0.00159801    1.445    0.308
       118 -12.3554    239.2514    141.1909   9.0957777092e+01   4.9272960751e+00     1.347967    0.8847622  34.88   0.00685503    1.542    0.351
       119  -9.4562    119.2045     50.7925   9.1433790847e+01   4.8922491837e+01    0.5486885    0.3405601 -68.20  0.001990339    3.267    0.694
       120  -9.0527    122.0770     48.4688   8.9819467363e+01   4.8623480970e+01    0.3602499    0.2461645  52.55  0.001576519    1.435    0.303
       121  -7.8108    102.7264     51.2903   9.6428192189e+01   5.2461856719e+01    0.1333189     0.116295 -73.93 0.0006926318    1.515    0.340
       122  -7.9328    146.6489     50.7829   8.4561756426e+01   4.2233508179e+01    0.1560403    0.1064167  35.93 0.0002741177    1.546    0.353
       123 -10.0040    154.1148     48.6196   8.2211027464e+01   4.0634212037e+01    0.3045047     0.251196  50.28 0.0002651927    1.142    0.124
       124  -8.3921    108.8741     47.9321   9.3338840282e+01   5.1701749525e+01    0.2290926    0.1868861  18.23 0.0007527216    1.241    0.194
       125  -8.7548    139.0403     46.2942   8.4788982023e+01   4.4828700480e+01    0.2510139    0.2059072  -3.45 0.0008847114    1.346    0.257
       126  -8.6715     78.5310     46.8443   1.0282953780e+02   5.7854044382e+01    0.2039934    0.1768659  21.90    0.0011975    1.139    0.122
       127  -8.4072     88.1989     43.8246   9.8309433492e+01   5.6606863691e+01    0.2009945     0.155223   5.95 0.0006704031    1.353    0.261
       128  -9.0754    126.2418     42.6495   8.6630564562e+01   4.8512434095e+01    0.3893578     0.251667 -30.64 0.0008585027    1.607    0.378
       129 -11.3791    220.2582     82.9553   8.0071716625e+01   1.8352452899e+01      2.35277    0.8419219  49.16  0.008202133    2.853    0.649
       130  -9.1145    140.7628     40.7457   8.2468617364e+01   4.5187490127e+01    0.2610784    0.2246179 -70.68 0.0006834776    1.369    0.269
       131  -9.0113     92.1680     41.0572   9.5913413577e+01   5.6281540960e+01    0.2126307      0.17388   4.26 0.0004154019    1.203    0.169
       132 -10.0636    130.4079     38.9752   8.4264658105e+01   4.8021307563e+01    0.2769699    0.2428176  45.58 0.0003907438    1.065    0.061
       133 -10.3251    131.0817     33.9969   8.2297409014e+01   4.8526472145e+01    0.5347512    0.4214515  33.39  0.002777898    1.238    0.192
       134 -10.4556    236.2623    125.4589   8.7877966009e+01   7.9807337319e+00    0.3706574    0.3383909  22.34  0.001098623    1.093    0.085
       135 -11.5374    240.8028    121.1541   8.6127825060e+01   7.7112506793e+00    0.7687925    0.4097108 -43.39   0.00199052    1.940    0.485
       136 -11.3137    248.1647    120.0426   8.4700311504e+01   6.3771611753e+00    0.7441671    0.4520531 -32.70  0.003672566    1.513    0.339
       137 -12.5070    243.8316    168.8056   9.6099282662e+01  -1.6165474803e-02     1.130613    0.7393354  40.61  0.003830404    1.511    0.338
       138 -11.6799     29.5599    194.1308   1.4505267544e+02   3.1853174218e+01    0.9185727    0.4837118  27.44    0.0051835    2.484    0.597
       139 -10.0662    225.2401    154.6422   9.6413026518e+01   5.6158879982e+00     0.304015    0.2434429 -24.80 0.0002346652    1.224    0.183
       140 -11.0904    226.6659    166.1995   9.8618162238e+01   3.5485872793e+00     0.496665    0.2999674 -44.80  0.002149164    1.982    0.496
       141 -11.2022    233.7948    177.5344   9.9647116290e+01   5.5040127022e-01    0.3540325      0.27489  47.26  0.002043171    1.465    0.317
       142 -10.1927    155.9719     20.7652   7.2592720268e+01   4.3697231786e+01    0.2794508    0.2470224   6.23 0.0004652217    1.256    0.204
       143 -11.5030    230.4980    149.9953   9.4441896850e+01   5.2992362232e+00     1.279243    0.4103154  48.63  0.004471424    3.233    0.691
       144 -11.6553     18.5461    189.9395   1.4693685898e+02   3.3797704818e+01    0.9280193    0.5191925 -60.12  0.005766256    1.994    0.498
       145  -9.3442     91.5202    157.3263   1.2691682574e+02   3.1717873983e+01    0.2533906    0.1226413  38.76  0.001098162    2.036    0.509
       146 -10.3475      4.2210    151.6967   1.4732341953e+02   4.3017282590e+01     0.287163    0.1267257 -69.21  0.001614601    1.838    0.456
       147 -10.0242    221.9057    147.2791   9.5404472656e+01   7.4641982392e+00    0.4920201    0.2822252 -51.30  0.002060902    2.378    0.580
       148 -10.6850    214.9127    144.6004   9.6113537472e+01   9.3570461602e+00    0.4912015    0.3370974  24.14  0.001128059    1.591    0.372
       149  -8.9426     96.0505     36.7113   9.2947742170e+01   5.6162886393e+01     0.199815     0.166231  30.48 0.0007711145    1.125    0.111
       150  -7.6616    148.2840     36.6361   7.9423981340e+01   4.3812551936e+01    0.1526663    0.1125883 -63.90 0.0007018847    1.686    0.407
       151  -8.9478     91.3316     36.3302   9.4311027250e+01   5.7176401239e+01    0.1446921    0.1293514   8.49 0.0008386819    1.007    0.007
       152  -8.7800     89.3058     34.2920   9.4151135251e+01   5.7882185542e+01    0.1872346    0.1256554 -39.48  0.000445146    1.600    0.375
       153  -9.4036    235.0081     34.3606   6.5773551209e+01   2.1657417289e+01    0.2905983    0.2128427 -51.29 0.0006491413    1.266    0.210
       154  -9.5833     81.8399     31.8400   9.5671574195e+01   5.9679802388e+01    0.4291764    0.2607414   1.43  0.001743118    2.241    0.554
       155  -9.3917    205.8139    148.0295   9.8649170905e+01   1.0702260990e+01    0.2716326    0.2258497  20.62 0.0004632986    1.176    0.150
       156  -8.3464    149.4799     33.4640   7.8097937682e+01   4.3910796078e+01    0.1478223    0.1387448  74.13 0.0002180099    1.088    0.081
       157  -7.6121    123.3387     32.2902   8.3540658876e+01   5.0643397442e+01    0.1548653    0.1019761  28.60 0.0007023379    1.642    0.391
       158  -9.7297     93.8855     30.7641   9.1223408199e+01   5.7465677345e+01    0.2204399    0.1749043  17.20 0.0005654884    1.205    0.170
       159  -9.0165     27.3957     30.7795   1.1790902961e+02   6.7478979365e+01    0.2258245    0.1307653  54.87 0.0009739136    4.383    0.772
       160  -7.8798    122.0000     28.9803   8.2621937663e+01   5.1389166610e+01    0.2268889    0.1281298  -7.01  0.000491782    2.385    0.581
       161  -9.6476    125.3036     26.3112   8.0811049747e+01   5.0914464286e+01    0.2980357    0.2702906  15.67 0.0006105252    1.092    0.085
       162  -9.1124     31.0180     28.5136   1.1531579180e+02   6.7538777438e+01    0.1484608   0.09814816  49.54  0.000810286    2.541    0.606
       163  -9.0113    131.3536     25.7871   7.9223504930e+01   4.9480431052e+01    0.2485803    0.2060696  42.62 0.0006001487    1.099    0.090
       164  -9.5295    207.7082    142.1883   9.6951921599e+01   1.1298503316e+01    0.3967924    0.2879686  -3.55  0.001745502    1.647    0.393
       165  -7.6380    160.6042     21.1889   7.1942868853e+01   4.2426739769e+01    0.1739174     0.140781   1.04 0.0004390381    1.438    0.304
       166 -10.0171    211.9278    136.8914   9.4913293443e+01   1.1291961794e+01    0.4771311    0.3205505 -38.68  0.000694407    1.513    0.339
       167  -9.7027    206.4550    130.7490   9.4521719607e+01   1.3550932345e+01    0.3493042    0.3054524 -82.73  0.001688279    1.464    0.317
       168  -8.2604    218.3925    128.2798   9.1678263544e+01   1.1337977038e+01    0.2537938    0.1327224  38.15 0.0008489873    2.041    0.510
       169  -7.8054    189.1720     18.6794   6.6963654931e+01   3.5112400011e+01      0.13299   0.09319699 -50.40            0    1.476    0.323
       170  -9.6737    175.1629     16.3432   6.8165075310e+01   3.9072205928e+01    0.2322774    0.1947041 -44.69 0.0002226375    1.270    0.212
       171  -9.2344    167.7418     15.2131   6.8893232616e+01   4.1160314142e+01    0.2218444    0.1720172  74.66 0.0003011537    1.196    0.164
       172  -9.6784    217.7024    134.0228   9.3156765673e+01   1.0528011277e+01    0.2805389    0.2619642 -80.20 0.0006277791    1.316    0.240
       173  -8.3772    132.5123     13.6185   7.4471261919e+01   5.0505985661e+01    0.2397867    0.1235577  61.50 0.0008581376    1.740    0.425
       174 -10.3151    214.1700    131.3719   9.3194449650e+01   1.1740495181e+01    0.4973824    0.3865167  72.87  0.001783369    1.715    0.417
       175  -9.6664    221.5451    140.6623   9.3977834027e+01   8.6149214197e+00    0.3358354    0.2638247 -71.70 0.0009751079    1.911    0.477
       176  -9.7038    202.5359    138.0652   9.7018267711e+01   1.3139134931e+01    0.3858902    0.3407244  72.83  0.001572872    1.369    0.270
       177  -8.6226    195.4463    131.8098   9.6968792653e+01   1.5833279466e+01    0.2702586    0.1850269  11.48  0.001046085    1.995    0.499
       178  -8.6227     63.3908    132.2141   1.3013335432e+02   4.1586165809e+01    0.1896912    0.1185209 -75.77 0.0006374951    1.614    0.381
       179  -8.2336    112.3568    238.2943   1.3297517009e+02   1.2534777648e+01    0.1114748   0.08792703  21.47   0.00070317    1.694    0.410
       180 -11.2199    202.2354     53.9612   7.5128111924e+01   2.7237356045e+01    0.8649664    0.7150408 -69.93  0.004507829    1.266    0.210
       181  -9.0386    115.4653    235.4935   1.3209079296e+02   1.2508404991e+01    0.1224027    0.0956191  51.63 0.0008095535    1.019    0.018
       182 -11.4216     71.9994    224.8199   1.3928528974e+02   2.0777005094e+01    0.5648813    0.4703585  44.00  0.002687896    1.340    0.254
       183 -11.8291    161.4794     44.7645   7.9455010518e+01   3.9260413967e+01     1.446052    0.8772683  76.06  0.004209404    1.980    0.495
       184 -12.8521      8.8846    184.4337   1.4849101264e+02   3.5789224164e+01     1.864088     1.068723 -74.45   0.01234467    1.531    0.347
