#   1 NUMBER                 Running object number                                     
#   2 MAG_AUTO               Kron-like elliptical aperture magnitude                    [mag]
#   3 X_IMAGE                Object position along x                                    [pixel]
#   4 Y_IMAGE                Object position along y                                    [pixel]
#   5 X_WORLD                Barycenter position along world x axis                     [deg]
#   6 Y_WORLD                Barycenter position along world y axis                     [deg]
#   7 A_WORLD                Profile RMS along major axis (world units)                 [deg]
#   8 B_WORLD                Profile RMS along minor axis (world units)                 [deg]
#   9 THETA_WORLD            Position angle (CCW/world-x)                               [deg]
#  10 FWHM_WORLD             FWHM assuming a gaussian core                              [deg]
#  11 ELONGATION             A_IMAGE/B_IMAGE                                           
#  12 ELLIPTICITY            1 - B_IMAGE/A_IMAGE                                       
         1 -12.1850    182.5711     24.8451   7.3857589990e+01   3.6249365812e+01     1.021731    0.9459127  20.86  0.003544531    1.097    0.088
         2 -12.3580    190.6793     11.2617   6.8250708136e+01   3.5569732090e+01     1.100839    0.7781635  11.35  0.002834876    1.627    0.386
         3  -9.4014    164.0000     19.0685   7.4730980510e+01   4.1824384710e+01    0.5864224    0.0835975 -23.35  0.001255062    6.962    0.856
         4 -10.5026     79.4553    246.2337   1.3656039018e+02   1.9676329169e+01     0.434564    0.2019905  67.40  0.002906982    2.155    0.536
         5 -10.0618    163.9698    248.0192   1.2414595282e+02   8.2376523147e+00    0.2588179    0.1373876 -42.12  0.001821682    2.709    0.631
         6 -10.2279    140.5300    250.3131   1.2782801734e+02   1.1256102012e+01    0.2672007    0.1062049  42.22  0.001647032    1.850    0.459
         7 -19.3496     20.6777    127.4235   1.3842411678e+02   4.6413028105e+01     15.45931     1.414171 -73.89   0.03812177   10.086    0.901
         8 -10.1347     95.1296    249.5766   1.3447422373e+02   1.7323244040e+01    0.3396892    0.2619059  54.37  0.001661593    1.182    0.154
         9  -9.8991    108.8326    234.8805   1.3129413912e+02   1.7429605593e+01    0.1780699    0.1242206  34.86   0.00135258    1.616    0.381
        10 -11.8786    109.0977    246.0444   1.3214596894e+02   1.5976129104e+01    0.8164221     0.359157  32.92  0.004380264    3.277    0.695
        11 -10.5275    163.8228    223.8366   1.2156296866e+02   1.0922856492e+01    0.5514576       0.2021 -44.56  0.002959257    3.645    0.726
        12 -10.9855    149.4256    228.5315   1.2434963396e+02   1.2513044952e+01    0.3710893    0.1956329  41.86  0.002429053    1.469    0.319
        13  -8.9225     64.6927    229.8606   1.3776307341e+02   2.3671936691e+01    0.1662163     0.118142  56.75 0.0008663397    1.113    0.101
        14  -9.2156     88.9444    230.0000   1.3400510572e+02   2.0686926888e+01    0.1665787    0.0432399  42.16 0.0008055996    2.964    0.663
        15  -8.8201     73.5861    250.2585   1.3766120587e+02   1.9850374645e+01    0.1442526   0.09931944  36.51  0.001183502    1.742    0.426
        16  -8.6310    134.6046    209.7993   1.2471173816e+02   1.7133035167e+01    0.1362027   0.09971441 -79.75 0.0009183722    1.735    0.424
        17  -8.1652    164.2823    203.4178   1.1897469375e+02   1.3353702024e+01    0.1642241    0.1026411 -46.41  0.001048783    2.025    0.506
        18  -9.9677     79.7690    196.9909   1.3284367068e+02   2.6831889498e+01    0.3308534    0.2473886 -89.03  0.002523304    1.297    0.229
        19  -9.1923    193.5490    195.4289   1.1302072056e+02   9.5443342481e+00    0.3121008    0.1917595 -69.85  0.001333453    5.015    0.801
        20  -7.8940    134.3624    193.8091   1.2286979846e+02   1.9450768790e+01    0.1366457    0.1066919 -40.83 0.0005235107    1.695    0.410
        21 -10.5777     83.6405    187.8534   1.3130705934e+02   2.7828564751e+01    0.3282508     0.213527 -53.04  0.002170913    1.999    0.500
        22 -10.1014     87.0679    181.8652   1.3007499417e+02   2.8378104680e+01    0.2619018     0.210194 -46.97   0.00110418    1.761    0.432
        23 -10.3719     81.5822    241.4812   1.3593889303e+02   2.0045334500e+01    0.4353002    0.1958547  71.29  0.002427315    2.702    0.630
        24  -9.7625    104.8497    173.1284   1.2571756075e+02   2.7323569777e+01    0.2712083    0.1424322  40.68  0.001493874    1.814    0.449
        25 -10.3683     93.6673    170.5468   1.2756245924e+02   2.9420213048e+01    0.3413333    0.2559147  76.56 0.0005875935    1.228    0.186
        26 -10.3958     98.4723    163.5006   1.2574591687e+02   2.9975021532e+01    0.4746765     0.312728 -37.67  0.001504008    2.423    0.587
        27  -9.1394    134.7309    172.4846   1.1995093282e+02   2.2686786114e+01    0.2967142    0.1413808 -50.27  0.001516797    2.414    0.586
        28  -9.5011    134.0000    143.5042   1.1546664630e+02   2.7739121910e+01    0.4534384   0.07362761 -48.86  0.001225007    6.640    0.849
        29 -10.7931     97.7804    146.4557   1.2353975921e+02   3.3242397625e+01    0.2369402    0.2151086  54.05 0.0004801738    1.190    0.160
        30  -8.3809    164.0000    144.4997   1.0968030924e+02   2.1970593292e+01    0.2751894   0.07566525 -42.43 0.0009425052    3.998    0.750
        31  -9.3244    109.0673    145.5863   1.2101424665e+02   3.1626321578e+01    0.4561754     0.247963 -42.72  0.002235833    2.409    0.585
        32  -8.8978    115.7338    133.8919   1.1762595469e+02   3.2728768715e+01    0.2708551    0.1959467 -32.81  0.001093725    1.884    0.469
        33  -9.3751    104.1782    130.7410   1.1962784236e+02   3.5276277142e+01    0.2585776    0.2268771  16.83 0.0007485891    1.515    0.340
        34  -8.7818    135.0000    128.0047   1.1234995251e+02   3.0367465320e+01    0.1793127    0.1207001 -49.57 0.0007425112    1.553    0.356
        35 -10.0254     68.9831    244.2195   1.3798018350e+02   2.1183227817e+01      0.24953    0.1063482  49.60  0.001379376    1.606    0.377
        36  -7.8115    164.0000    125.0097   1.0572899070e+02   2.5189378542e+01    0.2235292   0.07858441 -40.82 0.0008120579    3.010    0.668
        37  -8.1086    111.0659    121.7494   1.1642287989e+02   3.5892642572e+01    0.1790069    0.1579758  61.22 0.0003766772    1.089    0.082
        38  -8.9577    134.8120    113.6440   1.0938006730e+02   3.3084384702e+01    0.3232465    0.1205504 -47.60  0.001215877    2.753    0.637
        39  -9.9688     64.1556    250.5512   1.3903685470e+02   2.0901614268e+01    0.2360054   0.09573355  39.85 0.0004144546    2.182    0.542
        40  -7.9485    168.8081    113.6144   1.0221710462e+02   2.6106574091e+01    0.1957976    0.1303011  61.09 0.0004988336    1.662    0.398
        41  -8.8445    164.0000     64.9776   9.0132797589e+01   3.5363685587e+01    0.2511007   0.08427092 -32.89 0.0006494453    2.936    0.659
        42  -9.6880    134.6173     60.4198   9.5090506232e+01   4.3035529622e+01    0.5311956    0.1450699 -34.65  0.001532228    3.883    0.742
        43  -9.9009    163.8600     51.7640   8.5998168864e+01   3.7465314811e+01    0.4480775    0.1779736 -35.30  0.001607302    2.369    0.578
        44  -9.0305    164.0000     33.5378   7.9848033944e+01   4.0027372930e+01    0.5889132    0.0843202 -26.70  0.001246933    6.874    0.855
        45  -9.4216    164.0000     46.5018   8.4245941659e+01   3.8213879552e+01    0.4460865    0.1623811 -26.65  0.001460938    2.903    0.656
        46  -9.2612    164.0000     40.5053   8.2236579540e+01   3.9074576306e+01    0.5557798    0.1268721 -27.33  0.001449257    4.544    0.780
        47  -9.7372    134.5160     40.5232   8.8315659069e+01   4.6357963562e+01    0.4196385    0.1412062 -32.15  0.001395396    2.860    0.650
        48 -10.7986    173.5461     32.3793   7.7805137999e+01   3.7699734021e+01    0.4550364    0.3998066  64.32  0.001216587    1.166    0.143
        49 -10.6629    103.4637    242.5135   1.3272086044e+02   1.7152952629e+01    0.2206299    0.1530284  74.26  0.000604677    1.419    0.295
        50 -11.4641     99.9737    243.5166   1.3332148707e+02   1.7475515155e+01    0.4290837     0.236282  46.73 0.0005815632    1.331    0.249
        51 -10.2201    172.3638     41.0012   8.0893445983e+01   3.6862818410e+01    0.4637587    0.2322184  69.77  0.001747025    2.393    0.582
        52  -8.1116    134.6268     25.7909   8.2769308274e+01   4.8477863409e+01    0.2207473    0.1253611 -37.54 0.0009507715    1.725    0.420
        53  -9.4056     67.2918    247.3391   1.3840675065e+02   2.0964665638e+01    0.1776642    0.1399844  49.24 0.0008963378    1.395    0.283
