#   1 NUMBER                 Running object number                                     
#   2 MAG_AUTO               Kron-like elliptical aperture magnitude                    [mag]
#   3 X_IMAGE                Object position along x                                    [pixel]
#   4 Y_IMAGE                Object position along y                                    [pixel]
#   5 X_WORLD                Barycenter position along world x axis                     [deg]
#   6 Y_WORLD                Barycenter position along world y axis                     [deg]
#   7 A_WORLD                Profile RMS along major axis (world units)                 [deg]
#   8 B_WORLD                Profile RMS along minor axis (world units)                 [deg]
#   9 THETA_WORLD            Position angle (CCW/world-x)                               [deg]
#  10 FWHM_WORLD             FWHM assuming a gaussian core                              [deg]
#  11 ELONGATION             A_IMAGE/B_IMAGE                                           
#  12 ELLIPTICITY            1 - B_IMAGE/A_IMAGE                                       
         1 -13.6170    204.7892     42.2484   3.8321397400e+01   2.9258160543e+01     1.504573     1.231423  30.73  0.007639958    1.735    0.424
         2 -13.5123    216.9295     31.2042   3.4565452311e+01   2.8045960775e+01    0.9428152    0.8306655  29.94  0.005095834    1.648    0.393
         3 -12.8419    243.1928      6.1654   2.7492308855e+01   2.5612601079e+01    0.7660269    0.5511373 -77.36  0.005400172    1.102    0.092
         4 -10.3100      2.0000      9.9659   8.5734540714e+01   7.3246755218e+01    0.3998602   0.05371972 -47.01  0.001245234    6.856    0.854
         5  -9.2182     52.7727      4.6065   5.7422705148e+01   6.7164232574e+01    0.1609862    0.1040374  52.46 0.0009487214    1.657    0.396
         6  -9.5089     47.8105      2.4963   5.8307020816e+01   6.8221615236e+01    0.1928409    0.1699705   7.30 0.0004289385    1.233    0.189
         7  -8.5745     56.4908      1.4634   5.4568704653e+01   6.6772953166e+01    0.1207254   0.09536953  28.24 7.632237e-05    1.015    0.015
         8  -8.5158     66.7245    196.5983   1.0518396692e+02   2.4327567214e+01    0.1928636    0.1164786  46.06  0.000927549    1.583    0.368
         9  -9.3017    139.9438    249.9520   9.5387960961e+01   2.2588929200e+00    0.2036068    0.1451425  57.33  0.001137792    1.714    0.417
        10  -9.9799    102.2078    249.8786   1.0339386508e+02   7.7756701138e+00    0.2471712    0.1891709  61.79  0.001018108    1.338    0.252
        11 -10.5729    101.4891    243.9897   1.0287428457e+02   9.0066142830e+00     0.381923    0.1695228 -60.97  0.001748278    2.589    0.614
        12 -12.2350     66.6806    169.9730   1.0149921410e+02   3.0953931735e+01     1.230429    0.5956873 -29.79  0.003644232    4.914    0.796
        13 -14.8984     69.6810    151.2092   9.7536478777e+01   3.5364567099e+01     12.60675     4.594458  51.07  0.006204557    4.268    0.766
        14  -9.8707     89.3085    173.6974   9.5932596661e+01   2.6681499784e+01    0.2291179    0.2062275  75.86 0.0004908463    1.128    0.114
        15 -13.6526     15.1058    215.1432   1.1887690540e+02   2.5925329346e+01    0.9977739    0.5113755  27.65  0.004540404    2.188    0.543
        16 -10.6062    240.2413    169.1127   6.0930401355e+01   1.2080641394e+00    0.2445451    0.1638748 -47.80 0.0007613788    1.554    0.357
        17 -10.7739    192.5620    194.3943   7.4893134735e+01   4.2213062447e+00    0.9812015      0.47253 -59.95  0.002980894    5.195    0.808
        18  -9.2347     46.4632    167.1734   1.0665014101e+02   3.4220667435e+01    0.2216819    0.1748108  66.83 0.0003727437    1.282    0.220
        19 -10.2470     34.0940    160.4101   1.0918352269e+02   3.7294635311e+01    0.2635669    0.2107753  62.37 0.0008087352    1.273    0.215
        20 -10.2635     32.3534    155.8154   1.0908702909e+02   3.8646506790e+01    0.2861747    0.2223296 -70.40  0.001277316    1.126    0.112
        21 -11.2200     23.2686    156.3433   1.1169481732e+02   3.9363103908e+01     0.376883    0.2901231  88.49  0.001222154    1.201    0.167
        22 -11.6294     85.6393    152.5123   9.3116380494e+01   3.2630102950e+01    0.6687734    0.4600068 -24.22  0.002909443    1.938    0.484
        23 -10.4309    133.3905    142.7846   7.7720146105e+01   2.6368690907e+01    0.8328583    0.2381565 -53.71  0.002124789    4.458    0.776
        24  -9.1906    174.2361    148.7243   6.9254044262e+01   1.6810100520e+01    0.3345815    0.2472147 -60.98  0.001556709    1.590    0.371
        25  -9.4853     99.3075    181.0970   9.4533142757e+01   2.3253502515e+01    0.2863189    0.2465714 -20.03 0.0008411689    1.351    0.260
        26 -13.4564     48.3521    187.1010   1.0863776946e+02   2.8983607501e+01     1.455047     1.025695  65.54  0.007803298    1.415    0.293
        27  -9.8372     32.9083    144.1604   1.0734837244e+02   4.1592372259e+01    0.4354225    0.2756395  73.98  0.002085358    1.877    0.467
        28 -10.6253    100.5760    138.4987   8.5832701563e+01   3.3657098339e+01     0.595015    0.3877431 -16.75  0.002294454    2.397    0.583
        29 -11.6221     87.5453    137.9913   8.9587305689e+01   3.6021912754e+01    0.3312218    0.2784086 -43.16 0.0004738607    1.167    0.143
        30  -9.8633    186.5774    174.5276   7.2174915464e+01   9.1234608254e+00    0.3689286     0.337034 -72.60  0.001430376    1.376    0.273
        31  -9.8705    105.8756    130.6878   8.2477485535e+01   3.4618265591e+01    0.3793699    0.3365103 -49.43  0.001219918    1.096    0.087
        32  -9.6061    110.1746    129.5736   8.0963040518e+01   3.4078205267e+01    0.3476633    0.2637524   5.35 0.0008255693    1.696    0.410
        33  -9.8655    134.8275    128.9932   7.4037055818e+01   2.9287000897e+01    0.3651997    0.2736459  66.01  0.001616348    1.670    0.401
        34 -15.3594     37.6852    195.9144   1.1221159422e+02   2.8059609290e+01     7.801135      3.07337  72.56   0.01808937    4.982    0.799
        35  -8.8932    161.4723    128.5015   6.7368657374e+01   2.3777520089e+01    0.1551806    0.1490115 -42.30 0.0008099718    1.018    0.018
        36  -9.9396     97.3270    125.1803   8.3696822071e+01   3.7531664949e+01    0.3058794    0.2452312 -11.89  0.000876033    1.482    0.325
        37  -8.6016    116.3360    124.2862   7.7899119285e+01   3.4143518707e+01    0.1603909    0.1249383  -5.68 0.0002865783    1.628    0.386
        38  -9.2457     67.2257    124.5930   9.3039604321e+01   4.2551454696e+01    0.2001881    0.1466018  13.14  0.000949655    1.610    0.379
        39  -9.9794     43.8515    122.4105   1.0029304051e+02   4.6056827720e+01    0.2982032    0.1513084 -47.32 0.0006675937    1.813    0.449
        40  -9.1092    106.9713    118.4342   7.9126547997e+01   3.7358353880e+01    0.2193659     0.202957 -39.32 0.0003295095    1.049    0.046
        41 -16.7041     15.5151    242.3462   1.2045418377e+02   2.0078160626e+01     6.703962     2.770193  23.06   0.03083622    3.472    0.712
        42  -9.7714    231.3879    113.9076   5.0856237027e+01   1.2414633013e+01     0.276902    0.2184229 -43.17 0.0008321115    1.083    0.076
        43  -9.1289    205.3686    110.1202   5.4149793585e+01   1.8183584054e+01    0.2266379    0.1994939  37.57 0.0006774568    1.294    0.227
        44  -8.3243    114.6444    109.6628   7.4577725229e+01   3.7867681974e+01    0.1664707    0.1238702  -5.23 0.0007041973    1.804    0.446
        45  -9.6861     86.4109    175.8214   9.7068347949e+01   2.6601531349e+01    0.2469075    0.2175734  29.13 0.0005024325    1.197    0.165
        46  -9.9575     53.6939    105.2192   9.3241821345e+01   4.9189272647e+01    0.3772023    0.1185488 -43.50  0.001205533    3.275    0.695
        47 -10.0384    245.4957    100.0031   4.5971089680e+01   1.2196055872e+01    0.1984883   0.08671847 -54.96 0.0008106341    2.612    0.617
        48 -10.7421     10.3140     92.7161   1.0659459574e+02   5.6259034627e+01    0.2875051    0.2306788  48.40   0.00113148    1.549    0.355
        49  -9.6840     52.8536     91.1797   9.0027280197e+01   5.2626940095e+01    0.2064089    0.1514071 -30.17 0.0005056465    1.328    0.247
        50  -9.2911     19.5006     90.7026   1.0269014471e+02   5.6115491708e+01    0.3239735   0.09182623  27.02   0.00122687    3.604    0.723
        51  -8.9758     73.0111     83.8089   8.0529096913e+01   5.1325202644e+01    0.2080998    0.1940317  61.05 0.0005793693    1.295    0.228
        52  -8.4208    160.2968     83.3423   5.5897002662e+01   3.3094790490e+01    0.1490037    0.1189947   9.24 0.0005415913    1.665    0.399
        53  -8.3379     91.0109     66.2213   6.8725540265e+01   5.1563390729e+01    0.1930216    0.1142074  42.00 0.0008677288    1.651    0.394
        54 -10.0899     13.5315     59.9814   9.7811728084e+01   6.3408130515e+01    0.2517815    0.1846389 -44.31 0.0004545971    1.127    0.113
        55 -12.4129    194.9335     49.0745   4.1156232039e+01   3.0530645120e+01    0.6291747    0.5430706  61.17  0.001025878    1.245    0.197
        56  -9.7335    122.5829    199.3163   9.1730998773e+01   1.5121311071e+01    0.3115879    0.2419478 -84.89  0.001553969    1.632    0.387
        57  -9.9064    119.6795    245.0093   9.9070579562e+01   6.1506364812e+00    0.2586779    0.1209335 -55.61  0.001204272    2.460    0.594
        58  -8.4529    234.4906     45.4711   3.5882478025e+01   2.2566347270e+01     0.124474     0.100353 -65.69 2.204649e-05    1.005    0.005
        59  -9.2484     48.1172     42.4472   7.6066407372e+01   6.3025626486e+01    0.4238149    0.2049369  48.98  0.001733031    3.360    0.702
        60  -9.0026    197.9415     23.8467   3.4826042837e+01   3.3068001614e+01    0.1798814    0.1622026  51.08 0.0006971588    1.375    0.273
        61  -8.7797    189.4953     15.0348   3.3640546177e+01   3.5940095955e+01    0.1723647    0.1165049 -37.97 0.0007216865    1.553    0.356
        62 -11.6699    146.3608    228.0458   9.0833735045e+01   5.2844950246e+00     0.508126    0.3660387  19.81  0.002754167    1.371    0.271
        63 -14.5722     10.4169    206.5377   1.1930314311e+02   2.8308397052e+01     1.121881      1.08109 -80.76  0.003818868    1.307    0.235
        64  -9.8595    111.0595    203.5297   9.5214838937e+01   1.6068406047e+01    0.2475351    0.1998785  89.90 0.0005686915    1.451    0.311
        65  -9.7418    147.2781    187.4054   8.3635564221e+01   1.3486387641e+01    0.5413465    0.2573914 -60.61  0.001900435    3.028    0.670
