#   1 NUMBER                 Running object number                                     
#   2 MAG_AUTO               Kron-like elliptical aperture magnitude                    [mag]
#   3 X_IMAGE                Object position along x                                    [pixel]
#   4 Y_IMAGE                Object position along y                                    [pixel]
#   5 X_WORLD                Barycenter position along world x axis                     [deg]
#   6 Y_WORLD                Barycenter position along world y axis                     [deg]
#   7 A_WORLD                Profile RMS along major axis (world units)                 [deg]
#   8 B_WORLD                Profile RMS along minor axis (world units)                 [deg]
#   9 THETA_WORLD            Position angle (CCW/world-x)                               [deg]
#  10 FWHM_WORLD             FWHM assuming a gaussian core                              [deg]
#  11 ELONGATION             A_IMAGE/B_IMAGE                                           
#  12 ELLIPTICITY            1 - B_IMAGE/A_IMAGE                                       
         1 -14.2257     66.7713     82.9921   4.5509066786e+01   5.2364097149e+01     2.825479     1.446195  70.05  0.008487578    5.063    0.802
         2  99.0000     35.7717     21.3257   3.8809087974e+01   6.8419821614e+01     2.786721    0.9793412  51.11   0.01190661    2.752    0.637
         3 -10.7648     76.1585      6.6072   1.9840706415e+01   6.2329211950e+01    0.9687924    0.4756244  71.29   0.00531621    1.787    0.440
         4 -13.6787     99.9390     72.1708   3.2806754308e+01   4.8232898176e+01     1.420725     1.252659 -12.57  0.004110235    1.689    0.408
         5 -13.9844      4.3027     54.7776   6.7319574048e+01   6.6791572406e+01     1.842334    0.9453807 -77.20  0.008485062    2.786    0.641
         6 -12.5851     79.0308     22.6159   2.4305891305e+01   5.9963806511e+01     1.138597    0.3741133  51.93  0.004982168    2.641    0.621
         7 -13.3978     67.4672     14.8913   2.4851282366e+01   6.3217129082e+01     1.151803    0.8098577  78.17  0.006056587    1.378    0.274
         8 -14.1156     35.9184     56.2595   5.0713232252e+01   6.2730704857e+01     1.823802     1.333253   3.31  0.007089845    1.717    0.418
         9 -14.0860      9.3241     35.8317   5.8825375611e+01   6.9937395884e+01     1.202855     1.104555  70.32  0.005404589    1.401    0.286
        10 -13.8373     63.4541     35.0466   3.2844684737e+01   6.1436510798e+01     1.540762     1.025608  54.12  0.009119648    1.265    0.209
        11 -13.7517     81.5777     41.9401   2.9504205560e+01   5.6854491220e+01    0.9847569    0.7365668 -37.51  0.005665428    1.697    0.411
        12 -13.7355    176.0522     85.6128   2.1550066219e+01   3.1698842625e+01     1.373642     1.014664  -7.68   0.00629536    4.579    0.782
        13 -13.7425    189.8196     38.4608   1.1409684330e+01   3.6353822227e+01     1.314986     1.010278 -71.74  0.008157918    1.158    0.136
        14 -11.8769    244.2811     22.1292   5.0757901224e+00   2.9950564765e+01    0.5982233    0.2691703  78.33  0.004476161    2.226    0.551
        15 -13.9798    217.1982     53.0513   1.1546732644e+01   3.0015642223e+01      1.94039    0.8737091 -77.82   0.01091078    2.615    0.618
        16 -12.3702    160.5926     38.3722   1.4369010595e+01   4.1577441438e+01     1.014499    0.7037895  55.31  0.006732029    1.902    0.474
        17 -13.3002    225.7275     24.5499   6.4595266084e+00   3.2345932509e+01     1.064188    0.5082224  80.21   0.00310836    2.002    0.500
        18 -13.5222    222.5630     10.5699   4.4767822723e+00   3.4424089165e+01    0.7773303    0.4136946 -76.25   0.00454815    1.383    0.277
        19 -12.6503    178.8147     38.0021   1.2356992105e+01   3.8318690580e+01    0.5513574    0.4429295 -58.73  0.003146005    1.369    0.270
        20 -13.1943    238.2504     51.4682   9.7303957622e+00   2.7180717778e+01     1.503484    0.3766981 -58.95  0.006825156    3.835    0.739
        21 -13.8762    243.4530      8.1256   3.1070204711e+00   3.1634580365e+01    0.9283371    0.3201308 -80.49  0.005594163    2.988    0.665
        22 -13.1680     25.8998     40.7369   5.0828062497e+01   6.6988161067e+01     1.629982    0.7930931 -34.13  0.007335943    2.962    0.662
        23 -11.1309    101.7922     22.1389   1.9187927764e+01   5.5326916826e+01    0.4146952    0.1845511 -44.06  0.002187649    2.431    0.589
        24 -11.5107     20.5683     22.6656   4.7212737490e+01   7.0645549179e+01    0.3824953    0.2328266 -53.30  0.002247203    2.112    0.526
        25 -10.3216    112.6091     22.6465   1.7406624215e+01   5.3036882360e+01    0.3611985    0.3083242 -70.02  0.002641179    1.243    0.195
        26 -10.9207    118.1933     16.8641   1.5045436694e+01   5.2563432669e+01    0.4374167    0.2557586  82.62  0.002685217    1.460    0.315
        27 -11.3257    113.1681     14.5640   1.5213474239e+01   5.3847787189e+01    0.2343836    0.2139397  11.93 0.0006204619    1.804    0.446
        28 -12.0622    116.1812      8.0250   1.3081442379e+01   5.3929100177e+01    0.5252265    0.3560093 -64.32  0.002884385    1.392    0.281
        29 -11.2916    123.7268     24.0802   1.6017816385e+01   5.0596503085e+01    0.5832164    0.3174745 -28.71  0.003058816    3.081    0.675
        30 -10.3472    154.8213     15.1805   1.0215127362e+01   4.5515582951e+01    0.1664058    0.1465293  -3.31 0.0009733925    2.258    0.557
        31 -10.5710     14.0924     12.6701   4.6965117050e+01   7.2997724254e+01    0.2136305    0.1636879  64.84  0.001036206    1.851    0.460
        32 -10.5148    108.5796      9.4152   1.4558549196e+01   5.5342428414e+01     0.427422    0.2777991 -35.52   0.00279845    1.978    0.494
        33  -9.7756    103.1231      9.8476   1.5548859988e+01   5.6422262400e+01    0.2460274    0.1492331  49.61  0.001492272    1.945    0.486
        34  -8.5264    100.7290      7.0816   1.5172792771e+01   5.7201480042e+01    0.2745988    0.1382614 -64.40  0.001500001    2.271    0.560
        35 -10.9307     38.0010     12.3249   3.4203822638e+01   6.9175808261e+01     0.187234    0.1531812  31.98 0.0003618184    1.250    0.200
        36 -11.0724    125.5105     11.3875   1.2672905886e+01   5.1681997379e+01    0.2920796    0.1683992 -62.09  0.001429805    1.625    0.385
        37 -10.1209     88.6829     12.0503   1.8844537613e+01   5.9179326281e+01    0.1453084    0.1279597  88.16 0.0004253905    1.175    0.149
        38  -9.7681     92.6864     11.3083   1.7830066872e+01   5.8429019207e+01    0.1301458    0.1072683 -40.94 0.0004724045    1.550    0.355
        39 -10.1136    144.4050     10.2029   1.0206377447e+01   4.8066196376e+01    0.2280519    0.1065617 -86.70 0.0009752764    2.065    0.516
        40 -10.8667     26.2224      9.9019   3.8773699080e+01   7.1500853378e+01    0.2680346    0.1464942  35.55 0.0009747811    1.648    0.393
        41 -11.8790    193.7734      8.2021   5.7648671837e+00   3.9302356706e+01    0.2145484    0.1447259 -88.06 0.0009132064    1.220    0.180
        42 -12.6355    173.2380      6.4246   6.8730351369e+00   4.3072881020e+01    0.2985222    0.1820071 -41.28   0.00172143    1.891    0.471
        43 -11.3944    150.1827     13.3049   1.0284150884e+01   4.6610877308e+01     0.189418    0.1313565 -72.46 0.0005009058    1.138    0.121
        44  -9.0618     44.5607      8.2306   2.9863791421e+01   6.8439048872e+01    0.2228804    0.1689929   3.74  0.001453626    1.953    0.488
        45 -10.4181     48.7604      6.2357   2.7526843982e+01   6.7854199400e+01    0.2902176    0.1810965  53.08  0.001511652    1.264    0.209
        46 -11.2404     46.1267      2.2548   2.6851544910e+01   6.8770119588e+01     0.265666    0.1600987  46.56  0.001670183    1.435    0.303
        47  -9.6402    164.5171      7.4645   7.7648295395e+00   4.4549857402e+01    0.1058937   0.07633383 -81.12 0.0001995241    1.055    0.052
        48 -10.4262     84.8042      2.7683   1.6763742213e+01   6.0921971533e+01    0.5034971   0.08907232 -32.13  0.001702597    7.429    0.865
        49 -11.4959     88.2643      1.2900   1.5648148500e+01   6.0346201330e+01    0.2102748   0.08161154  68.81 0.0002572561    2.036    0.509
        50  -9.6972    207.5825      2.7968   4.0389871203e+00   3.7611017965e+01   0.08272009   0.05849029  75.95 0.0006789947    1.653    0.395
        51  99.0000    209.6983      5.9622   4.4393292369e+00   3.6933324444e+01    0.2253743    0.1147708 -85.75  0.001487504    1.572    0.364
        52 -11.4654    216.2357      2.4017   3.5256192079e+00   3.6283701747e+01     0.379753    0.1464065  77.57  0.001923524    2.354    0.575
        53 -10.5021      3.4028      6.2247   5.1393996919e+01   7.5288227978e+01     0.372231    0.2234381  -0.66  0.002115004    2.237    0.553
        54  -9.8643    188.7461      5.2502   5.5715694309e+00   4.0475862374e+01   0.09841156   0.05134305 -70.09 0.0002329686    1.420    0.296
        55  -9.7125    184.4267      3.3086   5.5064040093e+00   4.1426931273e+01    0.2222957    0.1050485  64.45  0.001307021    2.354    0.575
        56  -9.4375    142.5300      3.6142   8.9423965768e+00   4.9121766135e+01    0.1943188    0.1179825  53.45   0.00115088    2.229    0.551
        57 -11.0765     55.6136      3.5234   2.4215471886e+01   6.6792836600e+01    0.3012639    0.1809681  48.11 0.0006319074    1.493    0.330
        58 -11.5606    154.4471      2.1833   7.5398665619e+00   4.6982823367e+01    0.1820222    0.1284679 -80.71 0.0002899115    1.009    0.009
        59  -9.9757    126.9210      1.6928   1.0151945126e+01   5.2395512826e+01    0.1524274    0.1031168  86.54   0.00030845    1.111    0.100
        60 -12.0104     99.5554     54.9385   2.8515833564e+01   5.1235088596e+01     0.966681    0.6748257  36.69   0.00526697    1.980    0.495
        61 -11.6394      3.3803    248.5520   8.8099029276e+01   1.6078496020e+01    0.4419978    0.2858911  58.79  0.002369856    1.462    0.316
        62 -12.2107    184.3372     95.4283   2.2204060740e+01   2.8692996724e+01    0.4834225    0.2594467  70.54  0.002098303    2.264    0.558
        63 -12.5437    199.6286     96.3748   2.0437146132e+01   2.6175536082e+01    0.2584276    0.1937488 -69.26 0.0005450133    1.060    0.057
        64 -12.5420    102.2421     96.5005   3.7963737630e+01   4.3077139889e+01    0.4342024    0.3542391 -75.78 0.0005466953    1.199    0.166
        65 -13.1295    106.9867     96.1880   3.6675480749e+01   4.2256077294e+01    0.7446398    0.5317624  20.03  0.003527367    2.375    0.579
        66 -11.8917     95.1625     89.8618   3.8339530616e+01   4.5761595294e+01    0.5127163    0.3390125  59.72  0.001102269    1.505    0.335
        67 -10.7382    250.5271     93.5473   1.4922176809e+01   1.9759077443e+01    0.1733116    0.1135771 -68.28 0.0001488948    1.235    0.190
        68 -10.5864     11.7075     98.0690   7.2090002918e+01   5.6242067913e+01     0.197826    0.1805981 -55.06 0.0007567044    1.105    0.095
        69 -11.5205    180.9092     98.6464   2.3241078871e+01   2.8688018161e+01    0.3591063    0.2262395 -48.24  0.001419513    1.477    0.323
        70 -10.4384     16.8945     96.8897   6.9453790054e+01   5.6076837153e+01    0.2096288    0.1790257 -24.51 0.0003253056    1.181    0.153
        71 -11.0031    159.4844     95.8101   2.5931035192e+01   3.2755078145e+01    0.3251166    0.1637359  61.85   0.00108038    2.197    0.545
        72 -12.8652     59.4781     91.3594   5.0192193754e+01   5.1792486795e+01    0.4658928    0.3974498  76.12  0.001570093    1.247    0.198
        73 -11.8260     45.1846     92.6643   5.6086733556e+01   5.3696977881e+01    0.4518813    0.2550298  18.00  0.001915895    2.136    0.532
        74 -10.7413    221.1593    121.0814   2.1878250860e+01   1.9121375453e+01    0.2758109    0.1812204  67.64  0.001416936    1.944    0.486
        75 -14.2500    195.8660     80.7745   1.8225862553e+01   2.9261598906e+01     1.910062      0.93025  73.69   0.01053171    2.523    0.604
        76 -12.7106    168.6077     78.5484   2.1252562291e+01   3.4140187117e+01    0.7600889    0.3185838 -59.46  0.003050535    2.334    0.571
        77 -10.1591    196.2095    123.1417   2.5324247480e+01   2.2085525293e+01    0.2328892     0.132045 -64.43  0.001332274    1.669    0.401
        78 -10.4811    228.7722    118.9603   2.0710992672e+01   1.8519370638e+01    0.1841777    0.1398437  61.44 0.0009639862    1.710    0.415
        79 -11.6275    204.0489    116.6681   2.3238787483e+01   2.2126383400e+01    0.4306558    0.2658616 -83.33  0.002538349    2.084    0.520
        80 -12.3334    233.4008     36.6186   7.8280316375e+00   2.9757224354e+01    0.7192345    0.2543917 -72.75  0.003191527    3.703    0.730
        81 -14.4145    207.9592     68.2225   1.4839142375e+01   2.9285318040e+01     1.250153    0.6090905  72.63  0.002654804    2.279    0.561
        82 -13.4395    208.5335     59.1506   1.3282655589e+01   3.0498770977e+01    0.7142592    0.4260385  65.53  0.003860486    1.910    0.477
        83 -11.8729    149.3225     40.7768   1.6256258172e+01   4.3387601644e+01    0.7167627    0.5246427  49.77  0.004647565    1.953    0.488
        84 -10.5272    247.8087    117.5919   1.8584240076e+01   1.6490574124e+01     0.227881    0.1402934  84.31   0.00159093    2.335    0.572
        85 -10.4385    181.4592    114.4036   2.5935274950e+01   2.5808791000e+01    0.2839452    0.2086085 -70.16  0.001836713    1.199    0.166
        86 -10.4671    171.9588    116.5046   2.7755361266e+01   2.6890354916e+01    0.1887545    0.1378565 -59.53 0.0003014547    1.136    0.120
        87 -12.1508    172.3339     43.8904   1.4142669482e+01   3.8685457695e+01    0.3772975    0.2945387  68.31  0.001126705    1.511    0.338
        88 -10.9189    192.0114    104.0335   2.2685003269e+01   2.6034896407e+01    0.3032598    0.1671145 -69.79  0.001367916    1.935    0.483
        89 -12.8316    221.4926     39.5322   9.0712883539e+00   3.1143427567e+01    0.6597151    0.2930087 -69.93  0.001246472    1.996    0.499
        90 -10.1668    196.2171    112.9811   2.3641919932e+01   2.3869730903e+01      0.33578    0.1474117 -53.64  0.001363989    1.819    0.450
        91 -13.1592    230.3882     46.8974   9.5880139478e+00   2.8886775537e+01    0.5276446    0.3624786  68.22  0.004308985    1.863    0.463
        92 -12.7711    165.1742     65.6255   1.9227967927e+01   3.6810688255e+01    0.9835193    0.4033494  56.88  0.004953977    2.590    0.614
        93 -12.3935     86.2341     63.7151   3.4296369810e+01   5.2425327549e+01    0.4597439    0.4533035 -47.08  0.002344652    1.266    0.210
        94 -10.9998    196.8198    107.9950   2.2731498415e+01   2.4641624462e+01     0.387267    0.1972363 -66.82  0.002053926    2.103    0.525
        95 -12.2656    162.2327     83.5089   2.3128710343e+01   3.4428669731e+01    0.4154788    0.3452154 -86.77  0.002841949    1.099    0.090
        96 -12.4228    207.3108     86.7823   1.7971141251e+01   2.6571052732e+01    0.4094363    0.1639331 -47.04  0.002210103    2.097    0.523
        97 -10.7501    249.9948     97.3103   1.5502514582e+01   1.9274709855e+01    0.2881262    0.1141857 -58.36  0.001735987    1.993    0.498
        98 -11.5229    237.5740     86.5855   1.5010154790e+01   2.2394604526e+01    0.2964087    0.1935117  85.45 0.0007410342    1.690    0.408
        99 -11.3815    233.5460     84.4915   1.5049825919e+01   2.3231574661e+01    0.2721048    0.1898208  86.29  0.001718123    1.520    0.342
       100 -11.9131    106.6580     87.0947   3.4693133642e+01   4.4130847738e+01    0.4775253    0.2695103  45.51  0.001520202    1.821    0.451
       101 -11.9407    114.7070     86.5437   3.2648484607e+01   4.2697773559e+01    0.3257132    0.2559644  67.83 0.0006287082    1.195    0.163
       102 -12.9295    114.5975     80.7967   3.1363227282e+01   4.3796881617e+01    0.6780274    0.4052943 -54.50  0.002519273    1.653    0.395
       103 -12.1236    148.2223     84.4439   2.5555548150e+01   3.6781481329e+01    0.4355946    0.2924667 -84.87  0.001048575    1.550    0.355
       104 -11.5375    147.1307     78.6935   2.4562139939e+01   3.7979066956e+01    0.3369836    0.2192793 -63.02  0.001111756    1.380    0.275
       105 -12.5821     58.1591     60.5414   4.2594123591e+01   5.8275175797e+01    0.6296113    0.4568361 -85.11  0.002625391    1.839    0.456
       106 -12.3391    248.9567     83.0596   1.3551353340e+01   2.1454998100e+01    0.2061295    0.1385719 -67.71 0.0003838683    1.140    0.123
       107  -9.8418     80.5553     84.2698   4.1269853937e+01   4.9621246945e+01    0.1875716      0.13116 -43.39 0.0009515199    1.647    0.393
       108 -10.9727     18.1304     82.5405   6.6085074456e+01   5.9413184364e+01     0.402141    0.2031707 -13.42  0.001250122    3.067    0.674
       109 -10.7177     81.5425     79.3566   3.9740137486e+01   5.0420397991e+01    0.2452901    0.2207411  45.57 0.0006865396    1.163    0.140
       110 -11.0159     87.0044     76.7980   3.7467642742e+01   4.9883303606e+01    0.3561288    0.2845006 -48.37  0.002036784    1.393    0.282
       111 -12.0672     85.3770     71.6426   3.6623766576e+01   5.1165307821e+01    0.5648227    0.3331448  47.50  0.001440784    1.588    0.370
       112 -12.2639    235.8378     79.9507   1.4169242374e+01   2.3588390132e+01     0.472669    0.2162995  78.06  0.002780891    3.107    0.678
       113 -12.0003     74.0507     75.5552   4.1137542799e+01   5.2557736072e+01    0.5551216    0.3276023  48.93  0.001519896    1.561    0.360
       114 -11.2406     74.4710     70.6355   3.9706283617e+01   5.3424108882e+01    0.3552278    0.2712614  50.36  0.001106087    1.193    0.162
       115  -9.7541     70.5257     70.4783   4.0964854776e+01   5.4185577777e+01    0.1986729    0.1730992  49.58  0.000607106    1.081    0.075
       116 -10.2296     67.5027     70.5242   4.2008156238e+01   5.4729431323e+01    0.2428659    0.1237117  33.71   0.00103044    2.279    0.561
       117 -10.3294    154.9947     76.8808   2.2926863273e+01   3.6841776147e+01    0.3158269    0.1222458  57.76  0.001400043    2.646    0.622
       118 -11.9891    249.5419     72.8169   1.2038796917e+01   2.2811994072e+01    0.4450965     0.154923 -48.22  0.002333871    2.069    0.517
       119 -12.0703    240.9031     73.9249   1.2859652186e+01   2.3775718163e+01    0.3614198    0.1956407 -70.51  0.002570926    1.618    0.382
       120 -11.6697    239.5641     68.2479   1.2125063272e+01   2.4744506679e+01    0.4823053    0.2159452 -80.38  0.002639927    3.248    0.692
       121 -12.1984    231.9860     72.6253   1.3387609640e+01   2.5159114529e+01    0.2965533    0.1630299 -46.33  0.001501274    1.650    0.394
       122 -12.0600    137.0302     71.4059   2.4759308234e+01   4.1115644472e+01     1.118445    0.3245033  58.58  0.004223643    3.559    0.719
       123 -10.0174    136.6300     62.0494   2.2782176131e+01   4.2717252795e+01    0.2341409     0.192478 -84.07 0.0007240542    1.028    0.027
       124 -11.0486    137.4692     58.0046   2.1748981583e+01   4.3186283310e+01    0.3779089    0.2302199  84.11  0.001236098    1.681    0.405
       125 -11.4509    154.8071     65.1974   2.0590770878e+01   3.8769814062e+01    0.4760181    0.2415927 -53.38  0.001759974    1.760    0.432
       126 -10.7166    152.0515     59.2328   1.9764222802e+01   4.0207155763e+01    0.2389985    0.2122287 -51.26 0.0002937287    1.468    0.319
       127 -10.6695    142.5166     54.8738   2.0260335421e+01   4.2684055987e+01    0.2460575     0.202169 -52.68  0.001210838    1.391    0.281
       128 -10.5979    145.9127     52.0503   1.9141303582e+01   4.2449141884e+01    0.2230209    0.1520885  59.83 0.0008302904    1.569    0.362
       129 -11.8667    144.0602     67.9996   2.2833289250e+01   4.0337511133e+01    0.3046139     0.237932 -73.19 0.0004601735    1.087    0.080
       130 -11.8935    148.7144     65.7660   2.1623591205e+01   3.9817398743e+01    0.5723055    0.3026103 -73.61  0.001835254    2.276    0.561
       131 -11.3785    144.7269     59.6550   2.0949490755e+01   4.1531375010e+01    0.4541583    0.2730068  44.99  0.001757164    2.479    0.597
       132 -12.6666    229.5269     64.9706   1.2420316652e+01   2.6578329032e+01    0.3959334    0.2521307 -56.00  0.002885936    1.202    0.168
       133 -12.0122    223.7496     61.3851   1.2333913498e+01   2.7902652148e+01     0.381583    0.1802162 -59.63 0.0008144312    1.570    0.363
       134 -10.8136    127.0017     58.7426   2.3729852140e+01   4.5126438087e+01    0.3254176    0.2326194  44.72  0.001892661    1.860    0.462
       135 -11.5468    173.7158     56.8027   1.6454642471e+01   3.6615761132e+01    0.2482473    0.1907956  87.63 0.0004708613    1.178    0.151
       136 -11.0362    167.9693     51.6766   1.6148355420e+01   3.8384971110e+01    0.2825622    0.2440676  62.07  0.001473405    1.604    0.377
       137 -11.2435    161.4154     51.4216   1.6902711245e+01   3.9619190958e+01    0.3934177     0.240183 -44.35  0.002313603    1.772    0.436
       138 -11.3607    162.3975     56.9210   1.7876444029e+01   3.8634960103e+01    0.3400891    0.2550996 -82.79  0.002347955    1.072    0.067
       139 -10.6055    156.4669     54.4335   1.8158816384e+01   4.0099152828e+01    0.3371788    0.1485865  59.16  0.001429778    2.286    0.562
       140 -10.8418    249.6290     50.1407   8.7880659667e+00   2.5812399961e+01    0.2785899    0.1270377 -56.37  0.001389386    1.445    0.308
       141 -10.8919    245.1745     53.5960   9.5741291551e+00   2.5959346150e+01    0.1978797    0.1020344 -52.17 0.0008104555    1.401    0.286
       142 -11.1058    245.0793     49.9892   9.0570427825e+00   2.6439206056e+01     0.182435    0.1150322 -52.57 0.0003054177    1.348    0.258
       143 -10.2599    249.7002     55.5233   9.5525721067e+00   2.5108310956e+01    0.1695439    0.1328946 -47.15  0.001467513    1.725    0.420
       144 -11.6446    123.5480     53.5949   2.3160227454e+01   4.6609932883e+01    0.3344427    0.1940413  69.65 0.0007549475    1.599    0.375
       145 -12.0098    125.1612     45.4837   2.0950752770e+01   4.7485272868e+01    0.5255039    0.2551397  72.45 0.0009590983    2.061    0.515
       146 -11.9990    133.7308     46.6284   1.9799662570e+01   4.5612793251e+01     0.286781    0.2059071  82.21 0.0009245474    1.185    0.156
       147 -11.5939    133.0827     40.4131   1.8477133834e+01   4.6612531958e+01    0.3876382     0.254077 -75.45  0.002401053    1.405    0.288
       148  -9.1696     99.4499     46.5259   2.6317919423e+01   5.2551863351e+01    0.1970645    0.1483263 -68.89 0.0009248382    1.344    0.256
       149 -10.1434    104.8446     42.7772   2.4141896841e+01   5.1997502895e+01      0.27078    0.1521709  66.67  0.001462541    1.587    0.370
       150 -10.7257     96.3426     42.3681   2.5907466710e+01   5.3794769599e+01    0.6624798    0.2251672  54.35    0.0021676    2.568    0.611
       151  -9.0209     94.2882     47.6635   2.7841182559e+01   5.3430822794e+01    0.1289844    0.0884626 -86.30 0.0007019261    1.633    0.388
       152 -10.4373    199.8107    106.2167   2.2056999390e+01   2.4507784399e+01    0.2068945    0.1637494 -53.42  0.000324546    1.231    0.188
       153 -11.2824     41.3377     45.1210   4.4755897644e+01   6.3866832245e+01    0.2918533    0.2841806  67.38   0.00119772    1.148    0.129
       154 -11.9269     41.4331     39.6560   4.2899911475e+01   6.4749835568e+01    0.2879029    0.2597343  16.24  0.001073789    1.202    0.168
       155 -11.2927    247.3949     41.8051   7.7315960773e+00   2.7162641641e+01    0.3262489    0.1419538 -66.27  0.002009658    1.800    0.444
       156  -9.9158    250.4900     39.4508   7.2143035345e+00   2.7038300284e+01    0.1596278   0.08204663 -59.78 0.0009243217    1.254    0.203
       157 -10.3623    111.9455     38.9758   2.1736463120e+01   5.1078815136e+01    0.3397929    0.1124307  55.99  0.001043873    2.698    0.629
       158 -12.3362     92.1631     33.3515   2.4351863276e+01   5.5902586922e+01    0.5364617    0.3070935  45.86  0.002882348    1.982    0.495
       159 -11.1529    239.6133     32.2698   6.8048493538e+00   2.9405887110e+01    0.2741049    0.1556265 -54.14  0.001431678    1.316    0.240
       160 -10.7773    131.5971     33.2588   1.7042969398e+01   4.7863142621e+01    0.3244445    0.1497528 -61.05  0.001656124    2.275    0.560
       161 -10.5092    111.9702     32.3221   2.0023520429e+01   5.1963938697e+01    0.3351288    0.2165037  53.09  0.002015291    1.665    0.399
       162  -9.5849    114.4905     28.4013   1.8572649463e+01   5.1947926919e+01    0.1183116   0.09395216  79.44 0.0001054097    1.078    0.072
       163 -11.5155    247.6757     32.7508   6.4185353594e+00   2.8231995154e+01    0.1554444   0.09304062 -66.30  0.000356276    1.071    0.067
       164 -13.1248    181.1606     71.2221   1.8254534607e+01   3.3153698006e+01     4.746053     1.406833  69.92   0.01440324    7.706    0.870
       165 -11.0980    121.7963     33.0479   1.8514698614e+01   4.9864716685e+01    0.2015921    0.1384656  73.04 0.0005607933    1.229    0.186
       166 -11.3278    103.8365     29.8793   2.0909492341e+01   5.3951256172e+01    0.3589082    0.2101327  75.77  0.001308782    1.554    0.357
       167 -11.4904    126.5662    115.9797   3.6223283664e+01   3.4582803541e+01    0.3075824    0.1966073  44.29 0.0006638626    1.685    0.407
       168 -11.0238     97.4216     21.9447   1.9979512150e+01   5.6253933105e+01    0.2176777    0.1860001 -66.62 0.0008654882    1.268    0.211
       169 -11.7877    159.0135     26.7930   1.2185051839e+01   4.3353897269e+01     0.263287    0.1901506 -37.84  0.001677263    1.882    0.469
       170 -10.8330    154.2221     26.0805   1.2557298776e+01   4.4347283861e+01    0.3130431    0.1679441 -78.22  0.001229022    1.744    0.426
       171 -10.2398    148.2251     24.7611   1.2956004305e+01   4.5657850711e+01    0.1883269     0.139691 -82.54 0.0007028591    1.007    0.007
       172 -10.3005    151.3033     21.9627   1.2010089572e+01   4.5401245834e+01    0.2230814    0.1601332  76.22  0.001138654    1.292    0.226
       173 -10.6577    138.5454     29.0009   1.5092911171e+01   4.7025951790e+01    0.2778741     0.158392 -29.18  0.001477511    3.018    0.669
       174 -11.6821     84.7696     28.9800   2.4829183743e+01   5.7992910347e+01    0.6053597    0.1740311  52.54  0.002442731    2.995    0.666
       175 -10.5105    134.8226     26.4916   1.5018355871e+01   4.8074873026e+01     0.212124     0.169716 -35.11 0.0009366038    1.783    0.439
       176 -11.7424    134.3938     21.0020   1.3807095669e+01   4.8819904471e+01    0.3315575    0.1995011  81.59 0.0009702862    1.374    0.272
       177 -10.7774    176.2935     24.9310   1.0134211225e+01   4.0414140789e+01     0.288252    0.1300853 -60.56  0.001730627    1.833    0.454
       178 -10.9721    209.7520    105.3982   2.0728922515e+01   2.3227251794e+01    0.3524489    0.1840163 -67.78  0.001615443    1.993    0.498
       179  -9.9349    128.6883     23.6449   1.5195655116e+01   4.9647362917e+01    0.2132499     0.161343  58.69  0.001463163    1.538    0.350
       180 -12.2437    160.7816    104.5451   2.7378311816e+01   3.0936630090e+01    0.4293633    0.2003427 -54.13  0.000251253    1.877    0.467
       181 -10.2228     15.3108    106.8886   7.1864616633e+01   5.3682329344e+01    0.1978654    0.1794331 -49.24 0.0004723237    1.096    0.087
       182 -10.1167    184.7381    105.4919   2.3915659265e+01   2.6893679659e+01    0.1890934     0.112078  62.51 0.0006250649    1.927    0.481
       183 -11.2581    148.6843    104.0021   2.9375652328e+01   3.3111680792e+01    0.2147814     0.179107  74.11 0.0006397444    1.198    0.165
       184 -13.3540    184.1344     61.5324   1.6142506578e+01   3.4116494955e+01    0.9023646    0.5516151 -61.49  0.001187958    1.295    0.228
       185 -12.4722    194.8773     56.8896   1.4188264051e+01   3.2997012273e+01    0.5085624    0.4392502 -54.56  0.002897036    1.528    0.346
       186  -9.5209    120.4678     28.4628   1.7599602490e+01   5.0719962005e+01     0.121232   0.09135628 -88.57 8.262439e-05    1.077    0.072
       187  -9.5797    200.6823     15.7379   6.6075801318e+00   3.7308876408e+01    0.1787995   0.08933167 -68.59 0.0003607583    1.508    0.337
       188 -10.9313    202.3062     19.3470   7.1093316440e+00   3.6625946501e+01    0.2014754    0.1555895 -63.47  0.000974439    1.333    0.250
       189 -10.2007    204.3511     16.7352   6.5350169329e+00   3.6594527040e+01    0.1644879    0.1054646 -85.04 0.0006494833    1.229    0.186
       190 -11.2179    161.9925     20.2831   1.0558732622e+01   4.3578859145e+01    0.3038085    0.1566643  88.66 0.0008484247    1.714    0.416
       191  -9.9560    170.6820     19.3757   9.5711654714e+00   4.2086125354e+01    0.1341248   0.08140264  71.30 0.0009226322    1.588    0.370
       192 -11.2503    144.4904    103.0494   2.9963051144e+01   3.4029448462e+01    0.2939754    0.2140178  49.26  0.001041346    1.552    0.355
       193  -9.8309    194.5128     18.5034   7.5079340890e+00   3.8017155419e+01    0.1051504   0.07027769 -72.91 -0.0001081363    1.019    0.019
       194  -9.8513    105.4104     17.2962   1.7206686234e+01   5.5140017347e+01    0.1395307   0.09585842 -64.01 0.0002932659    1.450    0.310
       195 -10.0501     93.1817     16.7809   1.9340503097e+01   5.7728577477e+01    0.1669805    0.1120049  56.56   0.00105765    1.416    0.294
       196 -14.6836    133.8562     90.9313   2.9531500966e+01   3.8254244819e+01     2.042973     1.722124 -69.33   0.01281725    1.094    0.086
       197  -9.2460    102.2795     14.6435   1.7023444133e+01   5.6082605999e+01    0.1190095   0.07365619 -76.44 0.0007012656    1.659    0.397
       198 -13.8677     50.6942     85.4313   5.2149555860e+01   5.4505265958e+01    0.9453111    0.7398226  43.40 0.0002680755    1.196    0.164
       199  -9.0397    187.2936     13.5917   7.1591756492e+00   3.9808852530e+01    0.1151272   0.05119509 -66.52 0.0004723168    1.828    0.453
       200 -10.9234     36.9970    248.7390   7.9307210004e+01   1.3323329182e+01    0.2564528    0.1017667 -38.56 0.0009077183    3.541    0.718
       201 -14.3035     38.9652     79.4451   5.5602894050e+01   5.7563306176e+01      1.50348     1.093333 -25.58  0.006274589    1.680    0.405
       202 -11.4452     12.6681    247.6749   8.5638667610e+01   1.5584826930e+01    0.3789017    0.1530716 -74.44  0.001595353    2.580    0.612
       203 -11.0458    180.6377    244.0852   4.5764713347e+01   1.3271892546e+00    0.2112303    0.1495906  -5.29  0.001085735    1.362    0.266
       204 -11.7343     11.6196     24.4503   5.3346913725e+01   7.1579103400e+01    0.2514766    0.2478478  53.18 0.0005091862    1.293    0.227
       205  -9.6791    218.5871    239.7641   3.8971247361e+01  -7.0633324436e-01    0.1362421   0.08276594 -52.12 0.0005368915    1.556    0.357
       206 -10.5275     15.9894    238.4810   8.4257388979e+01   1.7564153570e+01    0.2548355     0.177716 -52.97 0.0007598894    1.579    0.367
       207 -12.1881    123.7678     70.1455   2.6969041728e+01   4.3897947909e+01    0.4171889    0.3306156 -76.59  0.001086779    1.138    0.121
       208 -13.6413    117.0403     60.6961   2.6111452788e+01   4.6796195748e+01    0.8545486    0.5363539 -64.46  0.003611981    1.620    0.383
       209  -9.4598      9.3001     10.2538   4.9034456792e+01   7.3983655285e+01    0.1098326   0.07566575  11.48 0.0002922108    1.501    0.334
       210  -9.8415     26.5025    207.0118   7.9098754567e+01   2.4873119501e+01    0.2201217   0.09403194 -48.87  0.000810143    2.523    0.604
       211  -9.6383    101.0918    176.0901   5.3433402921e+01   2.4514133172e+01    0.1798331    0.1611339  74.17            0    1.199    0.166
       212 -13.7056      6.8969     68.1583   6.8898672410e+01   6.3720019209e+01      1.02329    0.9195471  38.88  0.002511213    1.190    0.159
       213 -13.2690     17.6618     63.8010   6.2012108346e+01   6.3612455032e+01     1.495419    0.5404248  48.08  0.005008458    4.224    0.763
       214 -10.1647    236.9062    146.0235   2.3775479240e+01   1.3187384436e+01     0.159912    0.1148115 -52.87 0.0004475345    1.017    0.017
       215 -10.2940    250.1377    132.0119   2.0388907946e+01   1.4013405267e+01    0.1512906    0.1025024 -55.28 0.0004012195    1.019    0.019
       216 -13.1048     51.0711     54.5031   4.3570038723e+01   6.0601567993e+01    0.9493471    0.7114297 -55.76  0.004894283    1.519    0.342
       217 -13.1490     51.9401     44.5555   4.0119100967e+01   6.2136264672e+01    0.6952842    0.3801315  27.69  0.001459113    2.616    0.618
       218 -13.2672     61.0460     43.4632   3.6370668561e+01   6.0637733919e+01    0.4269159    0.3431704  81.93 0.0005292997    1.380    0.276
       219  -9.6373    174.1865    130.6460   2.9875601534e+01   2.3868489878e+01    0.1513295    0.1187371  37.38 0.0007847631    1.672    0.402
       220 -14.2750     76.9461     58.8616   3.5709144264e+01   5.5074339606e+01     1.053994    0.6585039  50.21  0.005242174    1.433    0.302
       221  -9.5544    222.3067    124.6897   2.2297400498e+01   1.8380697355e+01    0.1524527   0.07984275 -47.20    0.0002906    1.526    0.345
       222 -12.5239     75.1415     41.7302   3.1274378746e+01   5.8171262062e+01    0.2949826    0.2381381  79.47  0.000567727    1.205    0.170
       223 -10.8287    215.7042    100.5679   1.9289682112e+01   2.3184323757e+01    0.3412951    0.1628472 -39.51  0.001817671    2.593    0.614
       224 -11.8066    169.5767     96.8392   2.4549441706e+01   3.0856252844e+01    0.4584871    0.2693904 -47.28  0.001665445    1.624    0.384
       225  -9.9261    165.4760     96.4748   2.5107357001e+01   3.1610688859e+01    0.1615363      0.14064 -40.26 0.0007007229    1.502    0.334
       226 -11.9903    151.1415     96.3373   2.7434377942e+01   3.4117060846e+01    0.4480406     0.255513 -63.54  0.002332883    1.689    0.408
       227 -11.7011     87.7080     98.2776   4.2422547331e+01   4.5375489465e+01    0.3429205    0.3078583  17.67 0.0009972313    1.370    0.270
