#   1 NUMBER                 Running object number                                     
#   2 MAG_AUTO               Kron-like elliptical aperture magnitude                    [mag]
#   3 X_IMAGE                Object position along x                                    [pixel]
#   4 Y_IMAGE                Object position along y                                    [pixel]
#   5 X_WORLD                Barycenter position along world x axis                     [deg]
#   6 Y_WORLD                Barycenter position along world y axis                     [deg]
#   7 A_WORLD                Profile RMS along major axis (world units)                 [deg]
#   8 B_WORLD                Profile RMS along minor axis (world units)                 [deg]
#   9 THETA_WORLD            Position angle (CCW/world-x)                               [deg]
#  10 FWHM_WORLD             FWHM assuming a gaussian core                              [deg]
#  11 ELONGATION             A_IMAGE/B_IMAGE                                           
#  12 ELLIPTICITY            1 - B_IMAGE/A_IMAGE                                       
         1 -12.6386     23.2569     19.7266   1.1571816588e+02   6.9811986953e+01      0.61688    0.3468578 -20.23  0.003558124    1.861    0.463
         2 -12.0425     56.3224     14.3497   9.8260080943e+01   6.6562280220e+01     0.409965    0.2867935 -52.99  0.002188839    2.207    0.547
         3 -11.5740    199.9271     14.3720   6.5872507885e+01   3.3224990453e+01    0.5408152    0.1025234 -35.17  0.001694706    3.939    0.746
         4  99.0000    195.8135     11.0994   6.5414948099e+01   3.4640423994e+01    0.5142254    0.1861819 -15.84  0.001677017    4.214    0.763
         5 -10.6348    177.3974      9.2325   6.7085470896e+01   3.9657002739e+01    0.1486292   0.09093404  48.11 0.0006902428    1.656    0.396
         6 -10.0120    152.0166      9.7678   7.0913964062e+01   4.6254869770e+01    0.1838884    0.1087342  66.92 0.0004508938    1.547    0.353
         7 -11.8574    107.3867      7.7518   7.8952964271e+01   5.7415882435e+01    0.3377032    0.2360652 -73.29  0.001663454    2.216    0.549
         8 -12.2494    185.8604     20.2206   6.9300256112e+01   3.6264240415e+01    0.4032116     0.183414 -33.93  0.001671502    2.163    0.538
         9 -15.5942     68.9789    162.4960   1.3367704230e+02   3.3826897602e+01     1.740618     1.325816 -19.64   0.00783676    2.297    0.565
        10  99.0000    148.5349     33.3426   7.9697575929e+01   4.4480656964e+01     7.487601     7.179271 -63.61   0.04268135    1.101    0.091
        11 -12.6475    135.8877    130.2291   1.1145886004e+02   2.9437314554e+01    0.5929947    0.2055048 -49.89   0.00186957    2.997    0.666
        12 -13.0978    135.1020    120.9819   1.0947328584e+02   3.1602744758e+01    0.8501143      0.23044 -48.83  0.002061775    3.845    0.740
        13 -14.2741    134.5962    107.7821   1.0627074544e+02   3.4547622796e+01     1.262244     0.384571 -46.02  0.003828608    3.282    0.695
        14 -12.3951    154.6194    132.8289   1.0761846825e+02   2.4866207698e+01    0.3460423    0.2486386  63.93   0.00150813    1.565    0.361
        15 -11.7737    153.8645    125.8912   1.0615015693e+02   2.6467335245e+01      0.23658    0.2169239   8.94 0.0007341544    1.221    0.181
        16 -14.1523    120.8971    101.4132   1.0815258272e+02   3.8838602684e+01     0.969374    0.7258516 -15.12  0.004406704    1.827    0.453
        17 -12.6545    121.9614    112.9848   1.1086156293e+02   3.6092881479e+01    0.3806334    0.2978854 -82.38  0.001582932    1.532    0.347
        18 -12.7123    118.1746    110.1954   1.1116388595e+02   3.7475906297e+01    0.3441178    0.2989512  49.65   0.00130636    1.167    0.143
        19 -12.0909    112.3884    104.0767   1.1116561743e+02   3.9979441517e+01     0.411646    0.3607362  51.78  0.001672463    1.169    0.144
        20 -13.0835    153.7242    109.6853   1.0210053682e+02   2.9838243036e+01    0.4494236    0.2776277  50.01  0.001586574    1.609    0.379
        21 -10.5267     25.2778    109.0371   1.3756977063e+02   5.0976703046e+01    0.1682259    0.1262259 -75.07 0.0002751318    1.082    0.076
        22 -14.8164    178.8339     76.0766   8.7215692774e+01   3.0066621948e+01      2.45616      1.18233 -53.54  0.007396667    2.730    0.634
        23 -14.2358    160.6562     69.5663   8.9013056669e+01   3.5820705630e+01     1.161308    0.5652436  53.48  0.003724016    2.000    0.500
        24 -11.9354    113.3413     95.0957   1.0849670544e+02   4.1748489024e+01    0.2494092     0.209101  31.34 0.0003927472    1.297    0.229
        25 -13.0550    136.5485     89.8211   1.0080888208e+02   3.7846175078e+01    0.4613319    0.3548982  64.27   0.00175038    1.434    0.303
        26 -12.7769    181.7293    161.0657   1.0790706571e+02   1.3531327451e+01    0.5353814    0.3025722 -35.47  0.001946068    1.965    0.491
        27 -17.4343    238.5746    124.7777   8.9149167367e+01   7.7208314247e+00     12.24895     4.461133 -35.41   0.04597637    2.542    0.607
        28 -12.5951    142.4604     79.7412   9.6332497175e+01   3.8446916982e+01    0.3436124    0.2785238  -5.32 0.0008438613    1.500    0.333
        29 -12.7043    141.5011     76.5138   9.5577791017e+01   3.9286518927e+01    0.3822228    0.3028519  34.28   0.00110393    1.350    0.259
        30 -13.1232    189.7966    148.3741   1.0353983599e+02   1.4136324587e+01    0.4561322    0.2855805 -55.15  0.001965165    2.000    0.500
        31 -10.7331    207.5221     78.5318   8.2701547730e+01   2.2402270068e+01    0.2658218    0.1492481 -18.78  0.001009851    2.365    0.577
        32 -13.6924    168.6297    151.1200   1.0857586006e+02   1.8162368942e+01    0.6192307    0.5685793 -62.41  0.003421592    1.175    0.149
        33 -12.5630    188.7124     62.8846   8.1532191530e+01   2.9704175248e+01     0.653934    0.6200604  44.92  0.002556844    1.096    0.088
        34 -10.5901    204.8733     64.6636   7.9337010089e+01   2.5275685473e+01    0.2049081    0.1761738  81.66 0.0009507529    1.194    0.163
        35 -11.5090    225.9157     62.3812   7.5610090263e+01   2.0382477295e+01    0.2208973    0.1804265  85.00 0.0008186196    1.290    0.225
        36 -13.6426     93.5831     57.1045   1.0252996697e+02   5.3299025376e+01    0.5285616    0.4066666  46.26  0.002623908    1.385    0.278
        37 -11.5796    143.9639    145.6200   1.1292802593e+02   2.4474516826e+01    0.2798702    0.2150836 -83.27  0.001342775    1.611    0.379
        38  -9.2549    224.5871     54.4638   7.3720911327e+01   2.1857237476e+01    0.1466669    0.1287148 -60.21 0.0003019934    1.075    0.070
        39 -12.9672    200.0321     52.7502   7.6752220474e+01   2.8310817917e+01    0.6569895    0.2980825  51.07  0.002529793    2.234    0.552
        40  -9.6161    215.4977     49.3910   7.3586911046e+01   2.4838999895e+01    0.1474438    0.1303903 -71.97 0.0003932221    1.089    0.082
        41 -12.6489    186.2728     44.3274   7.6462578299e+01   3.3108818207e+01    0.4924378    0.2215084 -43.09  0.001678108    2.239    0.553
        42 -11.5323    133.7010    145.8282   1.1537848586e+02   2.6522154846e+01    0.8327852    0.1896601 -53.96  0.001995182    6.104    0.836
        43 -10.5120    219.5111     44.6321   7.1782992880e+01   2.4489199110e+01    0.1429729    0.1287241 -77.12 0.0006453318    1.051    0.049
        44 -10.5948    215.9251     36.7160   7.0114767341e+01   2.6446200281e+01     0.199661    0.1721999  89.09 0.0009872388    1.111    0.100
        45 -11.7624    207.7412     35.7593   7.0887245061e+01   2.8659551748e+01    0.3423241    0.2115458 -50.18  0.001594787    1.610    0.379
        46 -11.0521     10.3387     36.2279   1.2783605586e+02   6.7776427231e+01    0.2591113    0.1159421 -61.16  0.001299998    1.965    0.491
        47 -11.8390     23.8640     35.8598   1.2160277669e+02   6.6865307834e+01    0.1937397    0.1308042 -33.73 0.0007923616    1.250    0.200
        48 -11.1959    201.6020     34.4721   7.1335748597e+01   3.0413639033e+01    0.2499694     0.143406 -41.76 0.0006155127    1.693    0.409
        49 -10.1167    101.4892    135.4954   1.2124247721e+02   3.4898424470e+01    0.1436059    0.1329701 -89.46   7.2254e-05    1.007    0.007
        50 -13.2806    131.5590     96.3402   1.0394836454e+02   3.7629383777e+01    0.4836135    0.4103025  -3.25 0.0009566206    1.429    0.300
        51 -12.0148    138.9571    104.0414   1.0417899087e+02   3.4372588473e+01    0.3655274    0.2643724 -27.91 0.0009321268    1.610    0.379
        52 -11.1397    193.7785    236.4290   1.1866382584e+02  -4.5699308677e-01    0.2401322   0.09456214  45.15  0.001137566    2.130    0.531
        53 -10.9917    170.1878    228.0352   1.2173097083e+02   4.6410257973e+00    0.2266395    0.1461514  43.63  0.000560811    1.252    0.201
        54 -16.1709     32.9823    190.1816   1.4423680692e+02   3.2293940042e+01     2.118299     1.738339  33.59  0.008674609    1.624    0.384
        55 -11.7963     38.9965     16.2047   1.0662760734e+02   6.8693835738e+01    0.2162597    0.1509036 -32.14  0.000903488    1.243    0.195
        56 -14.0902    143.3705    100.1725   1.0203147840e+02   3.4174535776e+01    0.7399192    0.6303868  67.25  0.001865473    1.246    0.198
        57 -11.5206    192.5778    194.6196   1.1218349438e+02   5.6991129026e+00     0.810616     0.410306 -63.08  0.002246907    7.742    0.871
        58 -14.1579      5.7846    182.3929   1.4899521792e+02   3.6527824106e+01    0.9915067    0.5860133  87.43  0.005373632    1.286    0.222
        59 -13.4842     68.3157    144.8558   1.3134426000e+02   3.7914310198e+01     1.131865    0.5572199  56.34  0.003941489    2.266    0.559
        60 -13.2860     60.2309    170.4505   1.3665001748e+02   3.3240270825e+01    0.3403103      0.28957 -58.02 0.0009549339    1.406    0.289
