#   1 NUMBER                 Running object number                                     
#   2 MAG_AUTO               Kron-like elliptical aperture magnitude                    [mag]
#   3 X_IMAGE                Object position along x                                    [pixel]
#   4 Y_IMAGE                Object position along y                                    [pixel]
#   5 X_WORLD                Barycenter position along world x axis                     [deg]
#   6 Y_WORLD                Barycenter position along world y axis                     [deg]
#   7 A_WORLD                Profile RMS along major axis (world units)                 [deg]
#   8 B_WORLD                Profile RMS along minor axis (world units)                 [deg]
#   9 THETA_WORLD            Position angle (CCW/world-x)                               [deg]
#  10 FWHM_WORLD             FWHM assuming a gaussian core                              [deg]
#  11 ELONGATION             A_IMAGE/B_IMAGE                                           
#  12 ELLIPTICITY            1 - B_IMAGE/A_IMAGE                                       
         1 -12.2445    233.3500     43.8588   4.0094698189e+01   2.2667938879e+01     1.139167     0.691238 -11.97  0.005161939    2.984    0.665
         2 -13.2471    238.1922     72.3678   4.5923545108e+01   1.7537331395e+01     1.765783     1.217797  26.04  0.008760196    2.410    0.585
         3 -10.9398    241.9974      2.7868   3.0689416538e+01   2.5769568110e+01    0.6072333    0.3605703 -78.14  0.003733334    1.484    0.326
         4 -11.9917    239.8414     33.3604   3.7180033047e+01   2.2673545891e+01    0.7958651    0.5327753 -36.98  0.001736177    1.457    0.314
         5 -12.3289    238.3378     16.2435   3.3691867791e+01   2.5050931230e+01     1.109323    0.6616756 -66.23  0.006510514    1.497    0.332
         6 -10.3825    249.8408      7.6910   3.1150351825e+01   2.3659903984e+01    0.2931719    0.1793678 -56.05 0.0007812517    1.316    0.240
         7 -12.5735    246.6096     36.6343   3.7269097595e+01   2.0862489170e+01     1.394982    0.7937503 -27.74  0.007389479    2.039    0.510
         8 -12.4843    248.6247     20.5914   3.3801904771e+01   2.2436800102e+01     1.526713    0.5227513 -35.44  0.007057343    2.594    0.615
         9 -13.1245    246.4291    103.9265   5.1854613096e+01   1.0875704226e+01     2.810644    0.6898952 -43.93  0.009222966    3.566    0.720
        10 -11.0996    234.0750      2.9995   3.1259685995e+01   2.7387128830e+01    0.8854305    0.3408836 -65.11  0.003703935    2.810    0.644
        11 -11.2952    224.3301     24.8436   3.6734474442e+01   2.7040242504e+01     0.532321    0.2640017 -39.18  0.002732711    1.837    0.455
        12 -10.9486     87.9277     16.4635   5.6790462910e+01   5.9799215461e+01    0.3924302    0.3077815 -55.34  0.002274963    1.774    0.436
        13  -9.5225     60.6810     12.3581   6.3946363355e+01   6.5474358924e+01    0.2795799      0.19324  19.88  0.001019446    1.300    0.231
        14 -10.5249     66.1006     14.0589   6.2752834430e+01   6.4318604420e+01    0.4276008    0.2625468  -4.05  0.001845928    1.785    0.440
        15 -10.2213    121.7744     17.5909   4.8942081435e+01   5.2154932063e+01    0.2450057    0.2187872 -23.07 6.102635e-05    1.241    0.194
        16 -12.5151    113.1166     12.5215   4.8943528502e+01   5.4656225480e+01    0.3538127    0.2607585 -17.67 0.0003235059    1.509    0.337
        17  -9.8102    113.1823      4.9186   4.6137563093e+01   5.5306567384e+01    0.3908294    0.2268017  48.17  0.002017971    1.475    0.322
        18 -10.4489    204.6746     12.4981   3.5735001790e+01   3.2846792856e+01    0.3469805    0.1954219 -65.83 0.0009029763    1.784    0.440
        19 -11.3760    101.3610     13.7228   5.2105981138e+01   5.7192896129e+01    0.2720956    0.2262241  39.64 0.0002658732    1.041    0.039
        20  -9.6871    100.2799      9.7031   5.0794028710e+01   5.7807398459e+01    0.1788695    0.1742207  49.17 0.0002058825    1.171    0.146
        21  -9.3436     42.3434     11.4637   7.1059941128e+01   6.8540544294e+01    0.2318137    0.1585434  -4.09 0.0006798645    1.323    0.244
        22 -10.8743    141.1327     12.7115   4.3737453838e+01   4.8013635057e+01    0.3159539    0.2627561   2.86 0.0006303497    1.420    0.296
        23 -10.7087     25.5776      9.9708   7.8457502143e+01   7.0957900221e+01    0.6018693    0.3413438  50.03  0.002838979    3.948    0.747
        24 -10.3605     13.1515     10.1046   8.5329589865e+01   7.2253502967e+01    0.2728352     0.144815  17.28  0.001639688    1.830    0.454
        25 -10.2942      6.2932      6.5078   8.7582553164e+01   7.3384808387e+01    0.5105779    0.1631398 -44.94  0.002463109    2.845    0.648
        26  -9.4868    209.1680     10.1396   3.4769364457e+01   3.2073449694e+01    0.1707079    0.1542681 -86.89 0.0003872078    1.138    0.121
        27  -9.0572    127.9756      9.8118   4.5047602885e+01   5.1430464410e+01    0.1870578    0.1346219  22.48  0.001036548    1.589    0.371
        28  -8.9821     91.3817     12.7605   5.4296347529e+01   5.9448444719e+01    0.2559044    0.1856927  21.12  0.001116841    1.356    0.263
        29 -10.7952    223.5970      6.2610   3.2707261765e+01   2.9282296088e+01    0.3057995    0.2199641 -56.46 0.0003264481    1.211    0.174
        30 -10.2882     32.6830      6.4070   7.3020987031e+01   7.0514253002e+01    0.2350829    0.2099737  -5.23 0.0006661865    1.384    0.277
        31  -8.2573    148.2834      7.3640   4.0965337648e+01   4.6776609593e+01    0.1337257   0.08860721  36.96 0.0003802063    1.685    0.407
        32 -11.4519     65.5215      6.1093   5.9264174359e+01   6.5243967795e+01    0.4391183    0.2378647  37.00  0.001830212    1.589    0.371
        33  -9.3185    138.5146      6.0306   4.2021907602e+01   4.9245226298e+01    0.1807397     0.155746  63.15 0.0003155874    1.014    0.014
        34  -9.8267     94.8172      5.4982   5.0443805264e+01   5.9369794202e+01    0.3903376    0.1918194  63.60  0.001683763    2.041    0.510
        35  -9.6742     73.7747      5.1668   5.6129220137e+01   6.3755549235e+01    0.2870215    0.2228051 -59.38  0.001700949    2.028    0.507
        36  -9.4852    217.9567      3.4934   3.2538842012e+01   3.0798496653e+01    0.1776036    0.1036959  77.14 0.0005117925    1.542    0.351
        37  -9.7704     78.0152      2.7133   5.3752135712e+01   6.3124986194e+01    0.1916993    0.1666058  -0.82 0.0003283939    1.203    0.168
        38  -8.8036     14.8352      3.1573   8.0800791431e+01   7.3055659295e+01    0.1592215    0.1019681  -7.57 0.0008056534    1.309    0.236
        39  -8.8321    103.5047      7.9881   4.9368580713e+01   5.7243125059e+01    0.1680522   0.09769173 -49.34 0.0008077053    2.371    0.578
        40 -11.1494    186.1840      4.4679   3.5573929675e+01   3.7951568858e+01    0.4343743    0.2959276  -7.15  0.001683831    2.080    0.519
        41  -8.8881    146.8006    157.7527   8.3609971135e+01   2.0582167763e+01    0.2115985    0.1848401  82.04 0.0009087257    1.357    0.263
        42  -9.8020    226.4439    156.6361   6.6548196362e+01   5.4532975908e+00    0.3089852    0.2421486   7.26  0.001489543    1.380    0.276
        43 -10.2609    222.0011    153.3570   6.6642742941e+01   6.8313410717e+00     0.345988    0.2363781 -67.35  0.001543729    2.475    0.596
        44  -8.6059     41.5161    157.5002   1.1136734105e+02   3.7406624829e+01    0.1354078    0.1165469 -84.20 0.0008104653    1.007    0.007
        45  -9.6506    245.0184    144.0226   6.0730010997e+01   4.4032863320e+00    0.2931948    0.1689094 -27.78  0.001212291    1.661    0.398
        46 -10.3164    242.6150    153.7643   6.3169968780e+01   3.1683771836e+00    0.3858854    0.2153068 -47.33  0.001715599    1.885    0.469
        47  -9.9519    250.1430    151.4722   6.1478742024e+01   2.3080013488e+00    0.3929097    0.1891854 -43.95  0.001649256    1.960    0.490
        48 -10.7487    244.6579    149.3680   6.1915174663e+01   3.5650623809e+00    0.4389912    0.3440807 -65.40  0.001911223    1.784    0.439
        49  -9.3667    233.2283    153.0281   6.4592555797e+01   4.8950264483e+00     0.203844    0.1647817 -28.22 0.0009750716    1.077    0.072
        50  -8.4946     39.5650    152.4769   1.1124139930e+02   3.8860727540e+01    0.1350077    0.1156981 -75.32 3.577999e-05    1.036    0.035
        51 -10.0061    235.3152    147.9657   6.3157369563e+01   5.4074912851e+00    0.2312257    0.1973203 -81.68  0.001235248    1.669    0.401
        52  -9.7423    229.5879    147.8035   6.4099554534e+01   6.4514083726e+00     0.201334    0.1185503 -45.41 0.0009497902    1.661    0.398
        53 -10.7105    224.3493    146.2940   6.4687392518e+01   7.6704535101e+00    0.3474207    0.2691678 -31.20  0.001387801    1.153    0.133
        54 -10.4387    230.3432    140.9767   6.2485590291e+01   7.5188067718e+00    0.3410544    0.2126733 -49.65  0.001494593    1.693    0.409
        55  -9.6281    250.2224    140.4366   5.9160070905e+01   4.1219163352e+00    0.2472182    0.1631184 -34.74 0.0008985403    1.278    0.218
        56  -9.5613    224.9787    140.3023   6.3259592673e+01   8.6287597945e+00    0.1939326    0.1793746 -20.43 0.0008108375    1.054    0.051
        57  -9.4543    219.0151    138.8412   6.3986617470e+01   1.0019747332e+01    0.2159454    0.1689605  86.27 0.0006758798    1.930    0.482
        58 -11.4300    241.6895    133.9523   5.9102081568e+01   6.6923326681e+00     0.668901    0.4074667 -19.95  0.002969846    1.924    0.480
        59  -9.9598    249.0002    135.1909   5.8237243650e+01   5.2041720493e+00    0.3259232     0.218921 -39.08  0.001015943    1.273    0.214
        60 -10.1014    248.7650    130.5638   5.7287001940e+01   6.0186073154e+00    0.2686811    0.2306313 -64.52  0.001011103    1.387    0.279
        61 -10.0741    233.6786    134.7682   6.0567813220e+01   7.9992527092e+00    0.2527813    0.2323179 -35.11  0.001275716    1.086    0.080
        62  -9.1426    209.7585    138.5518   6.5614299664e+01   1.1870197972e+01    0.1948279    0.1435702  60.02 0.0009536811    1.682    0.406
        63  -8.4986     13.6036    133.1960   1.1604650339e+02   4.5932892622e+01    0.1802678    0.0946729 -63.17 0.0004209985    1.535    0.348
        64  -9.2312     65.1864    131.9439   1.0059951505e+02   4.0977602209e+01     0.214411    0.1843036  87.72 0.0004036802    1.217    0.178
        65  -9.2255    221.7671    129.8236   6.1470876104e+01   1.1129479744e+01     0.252899    0.1902054  89.07  0.001222106    2.045    0.511
        66  -8.7591     86.6663    129.3420   9.3624050950e+01   3.8447701440e+01    0.1571796     0.116313  77.66 0.0007050897    1.756    0.431
        67  -8.6281    186.5463    128.5136   6.7824053224e+01   1.8587194695e+01    0.1518432    0.1435385 -36.50  0.000300021    1.024    0.023
        68 -10.9161    241.0885    124.6962   5.7182241731e+01   8.3818555549e+00    0.4657815    0.2579959 -52.12  0.002139403    1.989    0.497
        69 -10.5177    228.0906    125.5745   5.9443995816e+01   1.0668165683e+01    0.3442421    0.2508391 -46.67  0.001819177    1.300    0.231
        70  -8.8132    206.4914    126.5116   6.3440483936e+01   1.4796516524e+01    0.1476164    0.1358491 -36.94 0.0008103818    1.026    0.025
        71  -8.5522    200.6909    126.3630   6.4497923218e+01   1.6025214108e+01    0.1532382     0.115129 -69.69 0.0007039674    1.746    0.427
        72  -9.1147    212.9031    123.1235   6.1482671330e+01   1.4117793830e+01    0.2282723    0.1931943 -58.93  0.001056624    1.269    0.212
        73  -8.9323    188.6854    122.8633   6.6016283068e+01   1.9251999879e+01    0.3193634    0.1340219 -34.36  0.001096498    2.580    0.612
        74  -9.9857     69.3141    122.9261   9.7525977417e+01   4.2665788806e+01     0.240637    0.2135235  32.47 0.0003081867    1.226    0.184
        75  -9.0298    233.7851    247.6037   8.2266837655e+01  -9.6651575008e+00    0.1590411    0.0946785  36.69 0.0009552629    1.755    0.430
        76  -9.0557    226.2939    243.9995   8.3028528294e+01  -8.2282256059e+00     0.210303    0.1353349  38.03  0.001283551    1.685    0.407
        77  -8.7509    230.5924    236.8348   8.1073978750e+01  -7.8481427179e+00    0.1511143    0.1065266 -38.51 0.0009445212    1.699    0.411
        78  -8.8842    247.2951    241.0280   7.8827125556e+01  -1.0533278301e+01     0.164711    0.1230919  -6.40  0.001154764    1.083    0.077
        79  -8.4830    249.3614    234.6582   7.7403645102e+01  -9.9840042740e+00   0.09720301   0.09530407  31.70 0.0007032993    1.835    0.455
        80 -10.7921    243.6373     58.2476   4.2179946895e+01   1.8520314704e+01    0.4177108    0.2761393 -82.80 0.0009131404    1.690    0.408
        81 -11.9802    243.6484     50.9986   4.0607007846e+01   1.9541768734e+01    0.7674258    0.5892826 -87.69  0.004774957    1.299    0.230
        82 -10.1510    249.9747     41.1925   3.7921234196e+01   1.9589120716e+01    0.2570657    0.2115794 -25.70 0.0007859041    1.483    0.326
        83  -9.3309    238.7455    231.8495   7.8776510337e+01  -8.2588537781e+00    0.2005213    0.1505936  48.66  0.001227214    2.126    0.530
        84  -8.8330    248.3384    227.6532   7.6379822476e+01  -8.9432430915e+00    0.1471189    0.1419221 -21.06 0.0006783177    1.687    0.407
        85  -8.7124    229.4915    228.5428   7.9869837391e+01  -6.5630272515e+00    0.1231683   0.09808263   3.02 5.813834e-05    1.021    0.021
        86  -8.2787    137.2658    119.6619   7.7040939789e+01   3.1132816432e+01    0.1568299    0.1252329 -79.81 0.0004001719    1.593    0.372
        87 -10.2766    235.8133    117.0767   5.6307741713e+01   1.0673977611e+01    0.3143387    0.2116538 -50.56  0.001152998    1.459    0.315
        88 -10.8638    230.7971    116.1000   5.6868569685e+01   1.1809976119e+01    0.4720094     0.297809 -48.17  0.002333853    1.508    0.337
        89  -8.5067     52.3259    113.6949   1.0101965124e+02   4.7153465318e+01     0.140141    0.1056102  73.34 0.0007034422    1.646    0.393
        90  -9.1023    104.8895    111.8792   8.4003145125e+01   3.9463375970e+01    0.2323015     0.207466  -7.29 0.0005684895    1.214    0.176
        91  -9.5954     25.9961    111.9824   1.0930619181e+02   5.0201286004e+01     0.194685    0.1650042 -66.49            0    1.032    0.031
        92  -9.7333     15.3856    111.9775   1.1272417282e+02   5.1000357433e+01    0.1930409    0.1700336  69.74 0.0006402403    1.269    0.212
        93  -8.8088    207.5930    110.2159   5.9361087804e+01   1.7601722463e+01     0.210057    0.1336316 -28.32 0.0005542565    1.665    0.400
        94  -8.8500    236.6653    108.1099   5.4171817995e+01   1.2042774324e+01    0.2284812    0.1501991 -50.91  0.001163442    1.468    0.319
        95 -11.3011    235.2841     58.8867   4.3243016700e+01   2.0153908789e+01     0.812741    0.2774673 -36.42  0.002714509    2.599    0.615
        96  -9.0564    230.5557    102.8919   5.3898234885e+01   1.4136608739e+01    0.2183538    0.1225097 -38.81 0.0007837944    1.568    0.362
        97  -9.7327    119.7312    102.9198   7.7295149575e+01   3.8548077020e+01    0.2890056    0.2296985  52.17 0.0007065598    1.341    0.254
        98 -11.8151    246.8732     81.8856   4.6970353860e+01   1.4327101100e+01     1.179988    0.4547127 -46.92  0.004944069    2.310    0.567
        99  -9.3690     72.3223     95.9405   9.0131323861e+01   4.8740706631e+01    0.2089297    0.1791286 -42.57 0.0005531426    1.070    0.066
       100  -8.7920    164.9952     94.7860   6.3732460589e+01   3.0104823337e+01    0.2089644    0.2036683  73.70 0.0004721382    1.046    0.044
       101 -10.5119    231.4872     92.3719   5.1350691185e+01   1.5717457622e+01    0.4160601    0.2349292 -28.01  0.001831181    1.939    0.484
       102 -10.8328    236.5199     90.4134   5.0204170964e+01   1.5019907091e+01    0.3628272    0.2420148 -28.24  0.001550064    1.557    0.358
       103  -8.5049    177.6693     92.3697   6.0442161146e+01   2.7609684142e+01    0.1631257    0.1161541 -71.79 0.0007031325    1.826    0.452
       104  -9.3331     19.9412     91.3025   1.0768142168e+02   5.5644925793e+01    0.2369392    0.1797185 -44.49  0.001444652    1.161    0.139
       105  -8.7801     38.3140     89.9873   1.0069608772e+02   5.4386366093e+01    0.1894803    0.1514855 -51.49 0.0003059905    1.074    0.069
       106  -8.4001     99.2947     90.6679   7.9832869293e+01   4.5304955536e+01    0.1487079    0.1220326 -86.23 0.0004993277    1.638    0.389
       107  -9.1321     54.3016     88.6489   9.4528531695e+01   5.2908179702e+01     0.136197     0.109154  83.15 0.0004981998    1.697    0.411
       108 -11.9225    229.4121     84.2371   4.9767904201e+01   1.7480643123e+01    0.5853072    0.4307625  34.01   0.00224311    1.798    0.444
       109  -8.8899    195.5246     77.1112   5.3163276926e+01   2.6143965029e+01    0.2745632    0.1299865 -40.99 0.0008315056    1.973    0.493
       110 -11.0515    195.5955     82.1577   5.4451634994e+01   2.5273429864e+01     0.320078    0.2611315  57.74 0.0002080458    1.276    0.216
       111 -10.2275    188.9310     82.0495   5.5583800596e+01   2.6836302002e+01    0.3091221    0.2241055  50.67  0.000356803    1.440    0.305
       112  -8.7480    135.4168     83.2617   6.7381234288e+01   3.9187302808e+01    0.2111503    0.1435149 -49.93 0.0006922016    1.559    0.358
       113  -9.6779     88.0270     82.3618   8.0950268140e+01   4.9164341874e+01    0.2913414    0.2643574 -41.00   0.00134433    1.098    0.089
       114  -9.3764     63.5036     82.0090   8.9360903135e+01   5.3179585845e+01    0.2140668    0.1296648 -50.10 0.0004641951    1.530    0.346
       115  -9.1721    174.8845     78.6796   5.7280711759e+01   3.0733044507e+01    0.2572645    0.2045976 -26.52 0.0006179616    1.352    0.260
       116  -8.4987     48.6269     79.7143   9.4238070608e+01   5.5618360213e+01    0.1444674   0.09426586 -22.48 0.0007017853    1.713    0.416
       117  -9.6385    188.9611     88.0621   5.7151096654e+01   2.5772848903e+01    0.2132939    0.2018136 -62.58            0    1.022    0.021
       118  -9.4844    199.6833     76.9844   5.2448921426e+01   2.5205425204e+01    0.2263814    0.2014447  73.96   0.00126716    1.153    0.133
       119  -9.0706    146.8936     73.4730   6.1672350768e+01   3.8326025789e+01    0.3460075    0.1880651 -20.24  0.001238164    2.794    0.642
       120  -8.5415     45.6856     74.6933   9.3965686515e+01   5.7067346986e+01     0.141713    0.0913161 -26.14 0.0004442147    1.625    0.384
       121  -9.2083     19.8266     74.2068   1.0409254963e+02   5.9584811709e+01    0.1882138    0.1219901 -37.79 0.0009263366    1.358    0.264
       122 -10.6841    128.9517     71.0054   6.5273627479e+01   4.2948086109e+01     0.355279    0.2903799  18.51 0.0003768778    1.372    0.271
       123 -10.4513    114.0491     70.3785   6.9106443994e+01   4.6375709413e+01     0.434101    0.3455624 -72.13  0.001690305    1.678    0.404
       124  -9.9148     28.8771     71.4480   9.9765825895e+01   5.9474549926e+01    0.2496413    0.1812089 -59.57 0.0003295269    1.313    0.238
       125  -9.2577    160.9824     71.3334   5.7979454279e+01   3.5329900012e+01    0.2122951    0.1889573  62.86 0.0004569535    1.119    0.106
       126  -8.2471     80.3346     71.6885   8.0181832371e+01   5.2714363363e+01     0.137907    0.1171686  85.41 0.0007044514    1.681    0.405
       127  -9.1684     59.5095     70.6138   8.7413041309e+01   5.6184379256e+01    0.2914374    0.1255606 -48.69   0.00106097    2.141    0.533
       128  -9.4132     37.2753     71.0555   9.6268894762e+01   5.8767532316e+01    0.2001111    0.1764928  -6.21 0.0003829151    1.166    0.143
       129  -9.4594    203.9478     68.8403   4.9721465840e+01   2.5546366465e+01    0.2583818    0.1951964 -53.91 0.0006422857    1.259    0.206
       130  -8.5021    192.1179     69.6171   5.1776657396e+01   2.8170899476e+01    0.2068572    0.1263913  47.81 0.0009382649    1.772    0.436
       131 -10.6411    139.2993     68.9874   6.2080898548e+01   4.0905585284e+01    0.4237284    0.2406493  51.86  0.001303364    1.727    0.421
       132 -10.2843    227.4726     66.3937   4.5891046802e+01   2.0696867669e+01    0.3139028    0.2589577 -33.20  0.001341737    1.256    0.204
       133 -10.1337    222.2281     67.5044   4.6825954345e+01   2.1661303879e+01    0.4177005    0.2706428  23.68  0.001814274    2.882    0.653
       134  -9.8484    222.7010     62.0348   4.5476011412e+01   2.2386631840e+01    0.4252523    0.1977999 -67.36  0.001450669    3.908    0.744
       135  -9.0607    168.8297     67.5156   5.5327623210e+01   3.4076907875e+01    0.2379553    0.1940997 -65.07 0.0006823938    1.307    0.235
       136 -10.1570     95.0413     66.5412   7.3566921619e+01   5.1003948637e+01    0.3624371    0.2173086 -19.96  0.001154437    2.188    0.543
       137 -11.0542    100.9014     62.8520   7.0480447707e+01   5.0505885336e+01    0.4247731    0.3645661 -86.32  0.001187151    1.579    0.367
       138 -10.1067    149.0386     66.9851   5.9237834460e+01   3.8935493270e+01    0.2800242    0.2075733  60.85 0.0004046769    1.370    0.270
       139  -9.8852    144.4058     64.3145   5.9456225600e+01   4.0489529916e+01    0.2774318     0.255754 -75.33 0.0007480289    1.160    0.138
       140  -9.2917     49.2638     65.3803   8.9758503748e+01   5.8618453724e+01    0.2378642    0.1810867 -20.98 0.0007777469    1.250    0.200
       141  -8.8564     28.5993     65.7699   9.8348542021e+01   6.0730497811e+01    0.1668212    0.1130393 -62.75 0.0003633228    1.529    0.346
       142  -9.8862     15.1535     66.0541   1.0405286642e+02   6.1707379991e+01    0.2033104    0.1567363 -25.81 0.0003385933    1.226    0.184
       143  -9.4396    208.5940     64.6201   4.7989987558e+01   2.5143281733e+01    0.2494816    0.1548129 -41.17 0.0004324422    1.495    0.331
       144  -8.6507     66.8801     64.8178   8.2750243769e+01   5.6278709956e+01    0.1744951    0.1592299 -53.47 0.0004664972    1.281    0.220
       145 -10.2903    134.9967     59.7865   6.0213585311e+01   4.3464366409e+01    0.5845081    0.2719026 -52.85  0.002030169    3.105    0.678
       146  -9.2013     81.7629     61.9880   7.6422541007e+01   5.4339191448e+01     0.268411    0.1801329  21.20  0.001294177    1.659    0.397
       147 -10.8640     39.5126     60.3117   9.2148067842e+01   6.0794912881e+01    0.3069131    0.2452631  42.41 0.0006044735    1.592    0.372
       148 -10.5178     34.8626     59.6969   9.3919855439e+01   6.1410213741e+01     0.250247    0.1944339 -27.98 0.0005292565    1.110    0.099
       149  -8.9339    184.5295     60.8889   5.0702597787e+01   3.1350364376e+01    0.4554487    0.1374771  46.50  0.001350747    4.247    0.765
       150 -10.2988     25.4176     59.4519   9.7903565367e+01   6.2340552250e+01    0.3553976    0.2956247  65.81   0.00220399    1.768    0.434
       151  -8.6212    174.0205     59.2299   5.2036441660e+01   3.4138936175e+01    0.1912502    0.1168007  60.11 0.0005758091    1.608    0.378
       152  -9.1561    173.0669     66.9235   5.4363789372e+01   3.3151299858e+01    0.2175466    0.2084266 -76.02 0.0003671043    1.008    0.008
       153 -10.1579     63.5050     56.1912   8.1047313677e+01   5.8450979882e+01    0.3795807    0.3015035 -87.18 0.0009804693    2.253    0.556
       154  -9.6747    192.4547     56.0154   4.8157739994e+01   3.0198069155e+01    0.2905124    0.2007043 -62.55 0.0007453212    1.531    0.347
       155  -8.3328     89.6514     57.2581   7.2098943979e+01   5.3726774728e+01    0.1325738     0.114478  78.85 0.0001999299    1.600    0.375
       156  -9.7246     20.0166     57.0172   9.9561913371e+01   6.3282815476e+01     0.195688    0.1540744 -40.58 0.0006706814    1.038    0.037
       157  -8.8657    175.6349     55.7543   5.0784579379e+01   3.4275446309e+01    0.2078362    0.1229886 -45.51  0.000465893    1.689    0.408
       158  -9.8875    112.7462     54.9750   6.4320104546e+01   4.9327992460e+01    0.3408371    0.3006705  46.10  0.001317971    1.121    0.108
       159 -10.0346    208.1563     54.9945   4.5669833344e+01   2.6684926202e+01    0.2684413    0.2241851  85.43 0.0009041928    1.175    0.149
       160  -9.7233    205.0202     51.6992   4.5270673101e+01   2.7882263180e+01    0.2602789    0.1930396 -39.64 0.0003473423    1.312    0.238
       161  -9.9711    207.4484     48.1305   4.4068611839e+01   2.7826305408e+01    0.2348797    0.2131739 -81.40 0.0002966987    1.045    0.043
       162  -8.9482     28.5223     54.4183   9.5017483093e+01   6.3096379234e+01    0.2406112   0.08358329 -44.03  0.001023886    2.333    0.571
       163  -8.9896    142.8428     53.9005   5.6561599561e+01   4.2522134934e+01    0.2132482    0.1876491  25.28 0.0003334411    1.214    0.176
       164  -9.7349    125.0018     54.0620   6.0783619914e+01   4.6707782665e+01    0.2169589    0.2038777  31.02 0.0003263761    1.021    0.020
       165  -9.0421    153.1483     53.1384   5.4176356091e+01   4.0143616284e+01    0.2003237    0.1668051 -65.74  0.000682052    1.308    0.236
       166  -9.8077      9.6217     52.4262   1.0293868379e+02   6.4943065906e+01    0.2208476    0.2074857  30.15 0.0007366457    1.396    0.284
       167  -9.2739    185.3175     51.9727   4.8174479122e+01   3.2494057679e+01    0.2830151    0.1981136  57.88  0.001446664    1.413    0.292
       168 -10.0686    120.2449     50.5359   6.0800527294e+01   4.8343799550e+01    0.2439123    0.2326372   2.16 0.0002788612    1.054    0.052
       169  -9.4836     84.5541     51.0116   7.1532923515e+01   5.5764137397e+01    0.2591493    0.1902668  53.56  0.001132649    1.608    0.378
       170  -9.3363     80.0884     49.8088   7.2616524183e+01   5.6792917215e+01    0.2948366    0.1869975  27.50  0.001444137    1.641    0.391
       171 -10.1593     72.8987     49.9177   7.5220969512e+01   5.8047399221e+01     0.374326    0.2440419  -9.25  0.001805505    1.866    0.464
       172  -7.9949      5.2803     51.2954   1.0461880393e+02   6.5423140181e+01    0.1250283   0.06679814 -37.16  0.000201154    1.535    0.349
       173 -10.4080    192.7955     48.9917   4.6270540650e+01   3.1133400057e+01     0.312162    0.2192993  72.81 0.0008338272    1.414    0.293
       174  -9.3570    213.8671     47.2309   4.3050928441e+01   2.6487094973e+01     0.365449    0.1940367 -72.59  0.001545104    2.545    0.607
       175  -9.1788     54.8536     46.1877   8.0797354869e+01   6.1542495776e+01     0.324772   0.08033403 -41.53  0.001082053    3.760    0.734
       176  -9.6629     41.4298     46.7670   8.6705436072e+01   6.3207382781e+01    0.2589012    0.1867058  52.26  0.001346108    2.165    0.538
       177  -8.9094     20.2432     47.3862   9.6531399434e+01   6.5210393271e+01    0.1509148    0.1093331  26.02 0.0004208163    1.603    0.376
       178  -9.7968    239.2467    220.9972   7.6804150021e+01  -6.8386975080e+00    0.2918431    0.2636448  80.01  0.001875342    2.182    0.542
       179  -9.0324    164.1247     45.9380   4.9973264244e+01   3.8501286228e+01    0.2458143    0.1451343 -58.11  0.001072066    2.043    0.511
       180 -10.6759     31.8381     43.9103   8.9966427073e+01   6.4806585070e+01    0.5729769    0.2264138  28.50  0.002174026    2.657    0.624
       181 -10.0924    155.0680     43.1182   5.0766217716e+01   4.1105781888e+01    0.4995365    0.2716421 -65.74 0.0007784246    2.991    0.666
       182  -9.0162    189.4622     43.4875   4.5300824456e+01   3.2689248439e+01    0.1376844    0.1251032 -79.89 0.0002061477    1.007    0.006
       183  -8.9697    139.1551     43.6686   5.4093778821e+01   4.4896143892e+01    0.2019479    0.1185759  49.88 0.0002686075    1.597    0.374
       184  -9.9254     96.7959     43.1006   6.4670493315e+01   5.4583248967e+01    0.2513737    0.1888769  27.63 0.0007121759    1.305    0.234
       185 -10.2637    213.0740     31.3946   3.9363646401e+01   2.8748955274e+01    0.4393916    0.2493815  69.35  0.001712631    1.699    0.411
       186 -10.5303    215.4675     37.7511   4.0605571627e+01   2.7398715907e+01     0.361901    0.1964359 -47.23 0.0009982805    1.677    0.404
       187 -10.2396    212.0558     37.5019   4.0929457648e+01   2.8203465011e+01    0.2891114    0.1959889  85.82 0.0008000487    1.474    0.322
       188  -8.6603    163.3049     42.3030   4.9052238268e+01   3.9199481985e+01    0.1407867     0.105428  31.65 0.0002491036    1.597    0.374
       189  -9.2183    134.3844     43.1603   5.4958903116e+01   4.6109404364e+01    0.4117356    0.1838555 -55.68  0.001284741    4.319    0.768
       190  -9.0615     67.8607     41.8664   7.3994321792e+01   6.0236938998e+01    0.1657471    0.1629274 -18.43 0.0004081341    1.309    0.236
       191  -9.3324    223.3243     40.6704   4.0427838566e+01   2.5264969339e+01    0.2455259    0.1799051 -66.15  0.001182018    1.252    0.201
       192  -8.4933    106.5956     39.7733   6.0617875802e+01   5.2968032713e+01    0.1760686    0.1299181 -40.04 0.0002858917    1.483    0.326
       193  -9.2523      3.6049     43.1994   1.0316655977e+02   6.7149464487e+01    0.1712855   0.07876112 -47.84 0.0002301519    1.599    0.374
       194  -8.9729     19.9838     40.4588   9.4327383965e+01   6.6561799070e+01    0.1653421    0.1113206  14.78 0.0006105807    1.556    0.357
       195  -9.1734    185.7072     37.5470   4.4251951996e+01   3.4375878092e+01    0.3632607    0.0877191 -37.27  0.001214831    3.567    0.720
       196  -9.4030    119.7689     38.9253   5.6906859522e+01   5.0118231410e+01    0.2266284    0.1856718  53.77 0.0004160342    1.162    0.140
       197  -9.8719     61.2795     38.1142   7.5030081498e+01   6.1912116595e+01    0.2810262    0.2221432 -43.17  0.001170479    1.477    0.323
       198  -9.3900      1.4586     39.5457   1.0314757345e+02   6.7980192478e+01    0.1199488   0.08686548 -37.35 -5.101458e-05    1.043    0.041
       199  -9.6383     99.4997     37.4416   6.1748178689e+01   5.4823128707e+01    0.2453611    0.1185354 -42.66  0.001032598    2.405    0.584
       200 -10.6674    124.4122     35.3169   5.4555985463e+01   4.9511645557e+01    0.4149768    0.2499574 -34.95  0.002005697    1.758    0.431
       201  -8.6680    192.7852     36.4089   4.3001378687e+01   3.2830481538e+01    0.1919228    0.1141076  56.39 0.0009430723    1.677    0.404
       202  -9.4337    113.4481     36.0150   5.7444957691e+01   5.1948326865e+01    0.2781941     0.173042  37.75  0.001037486    1.594    0.373
       203  -9.0539     20.3245     36.3546   9.2686422979e+01   6.7290906345e+01    0.3072634    0.1070357 -33.22  0.001260191    3.015    0.668
       204  -9.4298     20.4979     31.9649   9.0936683080e+01   6.8059697629e+01    0.1747565    0.1505733  -1.11 0.0003161371    1.229    0.186
       205  -9.5707     24.0000     31.0430   8.8817238139e+01   6.7891843494e+01    0.3383175    0.1126471 -37.30  0.001159288    2.683    0.627
       206 -10.9859    226.9504     32.6134   3.8225397460e+01   2.5513336343e+01      0.47112    0.1784739 -37.83  0.002103552    2.322    0.569
       207  -8.6396    165.6310     35.2078   4.6597828222e+01   3.9553307002e+01    0.1854508    0.1588006 -88.35 0.0003757549    1.147    0.128
       208  -9.5769     92.7513     35.4968   6.3003133596e+01   5.6502331172e+01    0.3328063    0.1210873  47.95  0.001290968    2.525    0.604
       209  -8.3189     12.6654     35.7083   9.6277271600e+01   6.8020732090e+01    0.1265236     0.069744 -26.13 0.0004872268    1.637    0.389
       210  -9.8584      4.8270     33.5865   9.9554385000e+01   6.8934462121e+01    0.2532565    0.1730611 -62.19  0.001611797    1.656    0.396
       211  -8.8723     33.3012     33.9500   8.5472338321e+01   6.6418720520e+01    0.1829385    0.1355431 -28.65  0.001153202    1.148    0.129
       212 -10.0680    134.1898     32.3792   5.1437176547e+01   4.7560050463e+01    0.2316756    0.2276635  53.59  0.000302011    1.066    0.062
       213 -10.1159     68.5326     30.6811   6.9176839172e+01   6.1801530650e+01    0.4324455    0.3108089 -57.74  0.002243208    2.297    0.565
       214  -9.8553     51.8169     37.5893   7.8676057779e+01   6.3433542117e+01    0.2555366    0.1960372 -29.07 0.0005978371    1.214    0.176
       215  -9.1553     39.7500     32.8052   8.2003416594e+01   6.5840200258e+01    0.1910458    0.1441751 -12.90  0.001194831    1.132    0.117
       216 -10.3103     13.5303     30.4415   9.3914132207e+01   6.8912651544e+01    0.3404875    0.1826314  19.72  0.001499118    1.959    0.490
       217  -8.8506    167.1334     28.8323   4.4527516778e+01   3.9962783737e+01    0.2095793    0.1687299 -74.49 0.0006257047    1.270    0.212
       218  -9.0976     84.7708     28.9295   6.2876497993e+01   5.8988165316e+01    0.2083931    0.1626627  18.03 0.0007030987    1.211    0.174
       219  -8.6913    202.3289     27.1366   3.9511233116e+01   3.1735423326e+01    0.2344509    0.1260762 -20.43  0.001067695    2.505    0.601
       220  -9.3915    130.1526     26.4632   5.0283366570e+01   4.9222899760e+01    0.4962801    0.1470068 -46.64  0.001371634    5.895    0.830
       221 -10.2192      8.4346     26.2922   9.5024798829e+01   7.0023393246e+01    0.2479866    0.2197393  28.05  0.001092514    1.566    0.361
       222  -8.5982    229.5192    222.5349   7.8822354100e+01  -5.7152545771e+00    0.1248902    0.1003563   1.21 6.993859e-05    1.016    0.016
       223  -9.1267    193.4258    220.2107   8.5315997306e+01   2.5814281178e-02     0.167678    0.1250712 -49.15 0.0009486908    1.671    0.402
       224 -10.3748    218.8240     25.9760   3.7514486739e+01   2.8120038641e+01    0.2437319    0.1787177  69.86 0.0003672504    1.350    0.260
       225  -8.9317    123.8342     26.3391   5.1571346141e+01   5.0732444804e+01     0.215516    0.1784263 -39.82 0.0003992306    1.336    0.252
       226  -9.5725     52.5155     26.7518   7.3789315712e+01   6.4989659803e+01    0.3153755     0.147874 -44.63  0.001346813    2.651    0.623
       227  -9.7122    193.0036     25.0932   4.0069012520e+01   3.4163625826e+01    0.2557114    0.1840832  -1.70  0.001346249    2.058    0.514
       228  -8.4699    174.3188     25.9456   4.2678873973e+01   3.8549052389e+01    0.2333149   0.06360711 -47.56 0.0007032046    4.512    0.778
       229  -9.9889    136.9281     25.6888   4.8685573300e+01   4.7686672793e+01    0.2238346    0.1927432 -36.63  0.000418274    1.265    0.209
       230  -9.7541     63.0945     25.6355   6.9055880642e+01   6.3433867814e+01    0.2224873    0.1879885  17.25 0.0005523348    1.076    0.071
       231  -8.9875     38.0176     25.9567   7.9867483231e+01   6.7140639697e+01     0.196832    0.1242359  -8.71 0.0004937291    1.608    0.378
       232  -9.7384    142.3445     23.3874   4.6939840680e+01   4.6632280713e+01    0.3402184    0.2352918 -28.85   0.00181998    1.582    0.368
       233  -9.5195     78.3459     24.3233   6.3052999357e+01   6.0826138398e+01    0.3472202    0.1937124 -27.64  0.001761509    1.839    0.456
       234 -10.4938    157.5069     22.9116   4.4268873466e+01   4.2989927871e+01    0.3569414     0.192344  61.01  0.001708015    1.645    0.392
       235  -9.8194    103.2518     20.8557   5.4396093832e+01   5.6044249069e+01    0.2970919    0.1758272 -29.41 0.0008353308    1.815    0.449
       236  -9.5836     17.0721     22.0452   8.8650852275e+01   7.0046534611e+01     0.153345    0.1486625  54.86 0.0009640859    1.713    0.416
       237  -9.2549    233.0697     20.3049   3.4972130500e+01   2.5691024774e+01    0.2269367    0.2066541  59.38  0.001576855    1.387    0.279
       238  -8.8153    199.3637     20.8185   3.8282346185e+01   3.3161198764e+01    0.2100549    0.1441769 -54.40  0.001187813    1.377    0.274
       239  -8.9632    195.9548     17.4492   3.7814478479e+01   3.4332515751e+01    0.2919151    0.1613187 -68.86  0.001415939    1.984    0.496
       240  -9.5483     70.8390     20.3334   6.3890277502e+01   6.2728292099e+01    0.2297065     0.190929 -53.99 0.0008047101    1.748    0.428
       241  -8.4178    129.0709     19.0000   4.7967162643e+01   5.0287955102e+01    0.4262167     0.137032  67.84  0.001216702    3.661    0.727
       242  -9.7789    133.5008     19.0146   4.7127669796e+01   4.9228537712e+01    0.3052533    0.2227628 -11.96 0.0009701416    1.607    0.378
       243 -10.0264    136.4590     16.4832   4.5753572414e+01   4.8774096055e+01     0.388214     0.231451  80.95  0.001856591    1.919    0.479
       244  -9.9544    247.8666    217.6325   7.4699620598e+01  -7.5250466439e+00    0.3330241    0.2368035 -41.54  0.002066372    1.749    0.428
       245  -8.8197    212.2711    219.3927   8.1489684140e+01  -2.7436908317e+00    0.1670867    0.1112232  38.07 0.0004209772    1.539    0.350
       246  -9.4721    218.4973    215.4965   7.9617528236e+01  -3.0767281203e+00    0.1292485    0.1069038   1.92 0.0008106687    1.008    0.008
       247 -10.1837     50.5832     18.2618   7.0746054608e+01   6.6441802167e+01     0.343791    0.1904783  39.46  0.001237171    1.758    0.431
       248  -9.4728     45.0970     17.3092   7.2667165781e+01   6.7395694480e+01    0.3216844    0.1784413  19.13   0.00142661    1.899    0.473
       249  -9.6287    170.1762     17.7953   4.0974733610e+01   4.0453523539e+01    0.4800301    0.1445443  53.78  0.001477535    3.021    0.669
       250  -9.9913    214.0478    214.5409   8.0290170880e+01  -2.2597062579e+00     0.232353      0.18346 -48.48  0.001381496    1.666    0.400
       251 -10.1456     24.7281     17.8942   8.2751352002e+01   6.9930222014e+01    0.2711066    0.1599946  22.63 0.0005866934    1.643    0.391
       252 -10.0863     20.3189     17.7009   8.4981154859e+01   7.0421970499e+01    0.1700549    0.1405055  -6.38 0.0004142837    1.166    0.142
       253  -9.0092    232.9160    213.5762   7.6610383931e+01  -4.8911373751e+00    0.2350733    0.1580718 -46.85  0.001317906    1.960    0.490
       254  -8.3849     64.7026    202.6630   1.1103614727e+02   2.3843719689e+01    0.1238922   0.09940585 -37.52 0.0003554031    1.654    0.396
       255  -8.5837     73.3651     16.7667   6.1454755909e+01   6.2666470859e+01    0.1726374    0.1117429 -10.16 0.0009432073    1.622    0.384
       256  -8.5693    208.8223     16.1504   3.6201753173e+01   3.1504797166e+01    0.1575537    0.1381716  65.43 0.0003865546    1.262    0.208
       257  -8.7177    249.9930    201.5112   7.1392494431e+01  -5.5175259725e+00    0.1670974    0.1137581  30.77 0.0005902317    1.528    0.346
       258  -8.8751    156.3553     16.1683   4.2437214886e+01   4.3981945617e+01    0.1861081    0.1124241 -41.11 0.0008996969    1.752    0.429
       259  -8.6527    223.4555    201.5116   7.6121654178e+01  -1.6409399105e+00    0.1317394    0.1101965  -4.17  0.000261453    1.006    0.006
       260  -9.2199    242.3141    200.6399   7.2553282251e+01  -4.3075720824e+00    0.1129334    0.1007456 -57.78 0.0007042689    1.752    0.429
       261  -8.7437     40.2693     15.3362   7.3902025079e+01   6.8347933142e+01    0.1957609     0.139647  -5.10 0.0005987218    1.218    0.179
       262  -9.9444    247.7041    193.9206   7.0351595304e+01  -4.0671776191e+00    0.2866071    0.2122642 -43.70  0.001602389    1.607    0.378
       263  -9.1608    231.8878    194.3744   7.3216869494e+01  -1.7975603463e+00    0.2609494    0.1535662  46.06  0.001319388    2.122    0.529
       264  -9.8305     33.2741     12.6426   7.5904668031e+01   6.9647784888e+01    0.2053188    0.1254602  26.44 0.0006159119    1.518    0.341
       265  -9.0494    237.8312    192.1382   7.1724329716e+01  -2.3445345001e+00    0.2041211    0.1681843 -12.35 0.0007177977    1.026    0.025
       266  -9.4907    237.4956    188.0026   7.0982296843e+01  -1.6407392874e+00    0.2815737    0.2083354 -34.35  0.001419588    1.296    0.228
       267  -9.6630    210.6359    188.5034   7.6061443902e+01   2.5788375957e+00    0.2365271    0.1216475 -38.76  0.001081262    1.875    0.467
       268  -8.8953    250.3943    185.7760   6.8331361895e+01  -3.2146426910e+00    0.1834782    0.1017298 -26.12 0.0009461006    1.632    0.387
       269  -9.3420    224.5948    184.7363   7.2670217710e+01   9.2073096152e-01     0.183235    0.1185088 -43.65 0.0005932542    1.632    0.387
       270 -10.2165    242.4570    180.2487   6.8594826786e+01  -1.1629497962e+00    0.4394827    0.2219284 -45.44  0.002060836    2.179    0.541
       271  -8.9402    235.8401    182.1665   7.0127779787e+01  -4.4675617769e-01    0.1874805    0.1382009  -6.38 0.0008344219    1.316    0.240
       272 -10.0266    227.0539    179.2261   7.1118654261e+01   1.4460056596e+00     0.225031    0.1955232  51.63  0.001342482    1.513    0.339
       273  -9.2939    219.2211    178.4249   7.2407688909e+01   2.8834287226e+00    0.1806534      0.12978  48.90 0.0009462871    1.706    0.414
       274  -9.1782    233.4733    174.7072   6.9052609186e+01   1.1587324688e+00    0.2558325    0.2123702 -41.07  0.001000348    1.313    0.238
       275  -9.4738    225.9046    173.2060   7.0107433492e+01   2.6600029710e+00    0.3136353    0.1763939 -32.93  0.001514785    1.633    0.387
       276  -9.3865    237.6844    170.0043   6.7359975953e+01   1.2602886749e+00    0.2113898     0.194048 -84.95 0.0009211374    1.607    0.378
       277  -9.1614    242.5666    169.2410   6.6369236499e+01   6.0324353750e-01    0.1887374     0.110053 -26.77 0.0009441547    1.591    0.372
       278  -9.1262    234.2888    164.4468   6.6807229467e+01   2.7530651934e+00    0.2246445    0.1530971 -50.93  0.001156062    1.737    0.424
       279  -8.5439    192.4792     13.4692   3.7190761047e+01   3.5573933065e+01    0.1296356    0.1092286 -82.06 6.563539e-05    1.034    0.033
       280  -9.6353    213.2320    163.8902   7.0529048392e+01   6.5114410326e+00    0.2830234    0.1873328 -20.81  0.001368404    1.612    0.379
       281 -11.1481    246.1123    159.2346   6.3731818851e+01   1.6817603773e+00    0.4942895    0.2355806 -38.51  0.002312803    1.821    0.451
       282  -8.6978    250.6617    158.5109   6.2846748677e+01   1.0710891528e+00    0.2287005    0.1055203 -36.74  0.001053866    1.846    0.458
