#   1 NUMBER                 Running object number                                     
#   2 MAG_AUTO               Kron-like elliptical aperture magnitude                    [mag]
#   3 X_IMAGE                Object position along x                                    [pixel]
#   4 Y_IMAGE                Object position along y                                    [pixel]
#   5 X_WORLD                Barycenter position along world x axis                     [deg]
#   6 Y_WORLD                Barycenter position along world y axis                     [deg]
#   7 A_WORLD                Profile RMS along major axis (world units)                 [deg]
#   8 B_WORLD                Profile RMS along minor axis (world units)                 [deg]
#   9 THETA_WORLD            Position angle (CCW/world-x)                               [deg]
#  10 FWHM_WORLD             FWHM assuming a gaussian core                              [deg]
#  11 ELONGATION             A_IMAGE/B_IMAGE                                           
#  12 ELLIPTICITY            1 - B_IMAGE/A_IMAGE                                       
         1 -14.4543    210.5741      6.2804   4.4561007085e+01   3.0402858177e+01     2.321224     1.023887  53.95  0.009684565    2.399    0.583
         2 -15.1512    189.8366     34.3233   5.5352439973e+01   3.2763931811e+01      3.03324     1.568142  27.42   0.01076414    3.068    0.674
         3 -11.0778     57.5128      3.9784   7.4921065952e+01   7.0090563058e+01    0.2137058    0.1243456 -30.38  0.001043935    1.624    0.384
         4 -11.6025     98.5013    198.5490   1.1199697648e+02   2.2998219790e+01    0.3663757    0.2140828 -63.85  0.001681274    2.074    0.518
         5 -16.6518     71.1840    145.9696   1.1239762507e+02   3.6960910218e+01     10.44164     4.418689  67.96   0.02658401    4.642    0.785
         6 -18.6734     35.3002    243.4309   1.2702606262e+02   2.3377971551e+01     6.232826      2.01866  33.19   0.03524926    2.522    0.603
         7  -9.7748      7.0969    192.2742   1.3059424460e+02   3.4466872488e+01    0.1386921   0.06393387  42.07 0.0005828937    1.623    0.384
         8 -12.3828    149.6659    188.8931   1.0028258930e+02   1.6769038212e+01    0.3904044    0.2941306 -79.08  0.001858929    2.085    0.520
         9 -19.2048     16.2976    102.1778   1.2359704147e+02   5.2899293886e+01       16.683    0.8003256 -77.24   0.02709294   17.719    0.944
        10 -11.9014    130.7605    213.5240   1.0714606981e+02   1.6025961319e+01    0.2158715    0.1846203  69.14  0.000598753    1.372    0.271
        11 -10.9329    149.1027    180.0839   9.9096382984e+01   1.8220859481e+01    0.1956096    0.1623954  41.37 0.0008073861    1.069    0.064
        12 -11.4855     99.4283    180.9047   1.0986756648e+02   2.5953786009e+01    0.2300676    0.2026814  59.34 0.0006253382    1.091    0.084
        13  -9.5900      1.6873    211.1221   1.3208795915e+02   3.1606626293e+01    0.1889499   0.04138453  58.12 0.0009534216    2.847    0.649
        14 -10.3317     87.2382    202.7556   1.1472898159e+02   2.3826720114e+01    0.2937281    0.2113536 -75.74  0.002002786    1.631    0.387
        15 -12.1825    141.3903    174.9359   9.9920383655e+01   2.0342245204e+01    0.4304444    0.1522625  39.48  0.001774799    2.395    0.582
        16 -10.5829    164.1379    170.3787   9.4469539507e+01   1.7168942302e+01     0.201251    0.1867584 -52.71 0.0004412109    1.346    0.257
        17 -10.2160    201.3006    168.6848   8.7059053723e+01   1.0970981930e+01    0.1900098    0.1670209  28.05  0.001179518    1.183    0.155
        18 -10.1110    204.8852    167.1635   8.6140464655e+01   1.0558815306e+01    0.2952584     0.161075  26.74  0.001151203    1.809    0.447
        19 -11.0347    192.9229    165.2114   8.7960754188e+01   1.2882483032e+01     0.270516    0.2610759   1.50  0.001125364    1.275    0.216
        20 -10.0141    158.7549    162.9550   9.4298193709e+01   1.9291220209e+01    0.1535336    0.1135507 -38.64 0.0004121368    1.544    0.352
        21 -16.2711     57.1107    207.2156   1.2120241427e+02   2.6808080433e+01     3.161455     1.957378  53.43   0.01633484    1.220    0.180
        22 -11.8172     95.9572    155.2147   1.0736491924e+02   3.1412346182e+01    0.3902133    0.3210827  22.66 0.0008070648    1.412    0.292
        23 -11.7570     98.5067    151.4929   1.0619704097e+02   3.1768991724e+01    0.4377878    0.2587384  49.03  0.001469751    1.529    0.346
        24 -10.9487    188.9029    154.8675   8.6775481354e+01   1.5064480841e+01    0.4335068    0.2343474  45.46  0.002133431    1.743    0.426
        25 -11.6897    133.8072    145.2817   9.6624716345e+01   2.6925849137e+01     1.010298     0.294066 -55.03  0.002976704    5.285    0.811
        26 -10.3641    113.0601    151.4985   1.0263722498e+02   2.9388110742e+01    0.2318727    0.1824065 -88.21 0.0005423324    1.490    0.329
        27 -10.3446    174.7937    148.9625   8.8395352026e+01   1.8580478428e+01    0.2265568    0.1951409 -62.61 0.0007599464    1.538    0.350
        28 -11.4630    144.0463    146.8676   9.4569557978e+01   2.4736097193e+01    0.3527766    0.2422068 -63.86  0.001766008    1.938    0.484
        29  -9.8211    159.8289    147.0298   9.1130821502e+01   2.1732841150e+01    0.2066535    0.1592992 -80.12 0.0007275877    2.002    0.501
        30 -10.4507    115.5406    144.3960   1.0084614867e+02   3.0371899548e+01    0.2674301    0.1790193  79.20 0.0006282145    2.135    0.532
        31 -11.9120    108.3711    139.4189   1.0177352564e+02   3.2622519592e+01    0.4926145     0.346574 -35.03  0.002504331    1.847    0.459
        32 -11.8113     95.1769    200.2989   1.1286105262e+02   2.3165582560e+01    0.4385929    0.2622908 -58.05  0.001847157    2.052    0.513
        33 -12.5424     96.5777    139.1577   1.0476528889e+02   3.4644392142e+01    0.2651072    0.2475167  85.72 0.0004237433    1.088    0.081
        34  -9.4482    128.3139    139.6506   9.6875942611e+01   2.9016313190e+01    0.1431529    0.1063486  75.37 0.0003996426    1.724    0.420
        35 -11.1493     81.9859    195.6210   1.1517593795e+02   2.5752119388e+01    0.3316563    0.2696855  21.84  0.002207302    1.502    0.334
        36 -11.3299    105.9618    130.8006   1.0084830954e+02   3.4843773783e+01    0.3894462    0.3145019  84.43  0.001252147    1.370    0.270
        37 -11.2484    103.1618    125.7167   1.0063789110e+02   3.6420145020e+01    0.2806014    0.2434478   3.29 0.0007070396    1.455    0.313
        38 -11.2472    115.2228    129.9599   9.8276717650e+01   3.3370058790e+01    0.3164947    0.2727908 -12.55 0.0007139756    1.456    0.313
        39 -11.1829    135.9097    127.3654   9.2575767497e+01   2.9962613840e+01    0.4469525      0.19279 -49.25  0.001741856    2.545    0.607
        40 -10.3379    160.8684    127.7675   8.6911364958e+01   2.4861919156e+01     0.267689    0.1935596 -71.00  0.001245968    2.115    0.527
        41 -11.0201    119.8503    124.1609   9.5917201085e+01   3.3712428326e+01    0.3388406    0.2170806 -20.52  0.001273084    2.748    0.636
        42 -10.2332    135.0000    120.0003   9.1193061046e+01   3.1589855065e+01    0.2331025   0.08401355 -46.15 0.0008030887    2.947    0.661
        43 -10.1555    110.4861    118.9747   9.7307507688e+01   3.6556888368e+01     0.210925    0.1814735  47.63 -5.127154e-05    1.102    0.093
        44 -11.5778     65.1390    114.2054   1.0953913452e+02   4.4969867040e+01    0.2724792    0.2249843  70.22 0.0006251633    1.145    0.126
        45  -9.9014    135.0000    112.0060   8.9349993352e+01   3.3176989193e+01    0.2413024   0.08504859 -45.17 0.0008073105    2.976    0.664
        46 -11.6499    119.5867    110.6524   9.3020092336e+01   3.6584621508e+01    0.5996926    0.3302547  56.19  0.002456868    2.080    0.519
        47 -10.2494    205.6202    110.1095   7.3976927633e+01   1.8356296041e+01    0.2596608     0.192013  36.42 0.0006596045    1.316    0.240
        48  -9.8271    134.7584    106.0016   8.7952706767e+01   3.4426005758e+01    0.1989464    0.1271465 -44.46 0.0008895051    1.628    0.386
        49 -10.2616    168.0125    112.9774   8.1941445188e+01   2.5948858074e+01    0.3264967    0.2369786 -82.53  0.001315462    2.324    0.570
        50  -9.8504     41.8045     91.8335   1.1354671923e+02   5.3168773093e+01    0.1922057    0.1675186 -56.02 0.0005075123    1.196    0.164
        51  -9.2052    153.4987     80.5158   7.6469199030e+01   3.5042404221e+01    0.1526752    0.1490205  23.31 0.0001795562    1.009    0.009
        52  -9.1564    184.6644     76.6973   6.8993832661e+01   2.8134801513e+01    0.1568038     0.112501  21.20 0.0004040318    1.663    0.399
        53 -12.3323    165.4758     65.7296   6.9408705148e+01   3.4615454670e+01     0.676326    0.4482742 -45.36 0.0004266888    1.570    0.363
        54 -12.1761    193.0704    194.8775   9.2940174942e+01   8.9915306474e+00    0.7219709    0.4341743 -62.25  0.002951005    5.504    0.818
        55 -13.7014    174.7766     49.2303   6.2432884689e+01   3.4737906863e+01    0.9995267    0.7938852  -3.85 0.0008328282    1.408    0.290
        56 -10.7082    169.0649    236.1328   1.0273660966e+02   7.6735063477e+00    0.1587673    0.1450954  12.46 0.0003955948    1.334    0.250
        57  -9.3615     91.6713     14.2885   6.7561994931e+01   6.1287314108e+01    0.1433126    0.1139305 -68.27 0.0005088462    1.617    0.382
