#   1 NUMBER                 Running object number                                     
#   2 MAG_AUTO               Kron-like elliptical aperture magnitude                    [mag]
#   3 X_IMAGE                Object position along x                                    [pixel]
#   4 Y_IMAGE                Object position along y                                    [pixel]
#   5 X_WORLD                Barycenter position along world x axis                     [deg]
#   6 Y_WORLD                Barycenter position along world y axis                     [deg]
#   7 A_WORLD                Profile RMS along major axis (world units)                 [deg]
#   8 B_WORLD                Profile RMS along minor axis (world units)                 [deg]
#   9 THETA_WORLD            Position angle (CCW/world-x)                               [deg]
#  10 FWHM_WORLD             FWHM assuming a gaussian core                              [deg]
#  11 ELONGATION             A_IMAGE/B_IMAGE                                           
#  12 ELLIPTICITY            1 - B_IMAGE/A_IMAGE                                       
         1 -11.9692      2.2790     48.1910   1.3962228148e+02   6.6246340420e+01    0.7719317    0.1239326 -70.89   0.00246211    4.242    0.764
         2 -13.5096    211.2324      9.1565   6.2251596581e+01   3.0879153348e+01     1.380196    0.9469836  29.49  0.007417463    1.816    0.449
         3 -13.3040    196.3793     28.8647   6.9333743437e+01   3.2404274245e+01     1.367476     1.287022   8.70  0.006297286    1.120    0.107
         4 -12.5402      4.0075     18.8368   1.3131133680e+02   7.3002737888e+01     1.138364    0.1690934 -59.10  0.004064784    3.498    0.714
         5 -11.5734      3.2579      3.2050   1.2540786704e+02   7.6370934918e+01    0.4946386     0.346444 -39.56  0.003186442    1.107    0.097
         6 -12.8281     33.6645    234.0933   1.4599981844e+02   2.3180945863e+01    0.2314321    0.2204069  83.87  0.000733198    1.366    0.268
         7 -10.7219    136.8227    243.3964   1.2725879040e+02   1.0091456545e+01    0.1960253    0.1148719  23.07  0.001241814    1.535    0.349
         8 -11.5329    138.8863    249.7138   1.2753326255e+02   9.0164293865e+00    0.4228122    0.1089576  37.15  0.001935886    2.771    0.639
         9 -11.1268    125.0571    249.9483   1.3008478621e+02   1.0689313938e+01    0.4169917    0.1039208  34.21  0.001849073    2.949    0.661
        10 -10.6244     98.2309    249.2573   1.3496176503e+02   1.3991853844e+01     0.221192     0.148781  32.26  0.001615793    1.184    0.155
        11 -11.2519     50.6845    245.5181   1.4343231210e+02   1.9725611006e+01    0.2668986    0.1989466  16.30  0.002049845    1.668    0.401
        12 -13.3656     12.1448    243.8550   1.5018501346e+02   2.3526949603e+01     1.396729    0.9498229  22.93   0.01112799    1.695    0.410
        13 -14.2875    103.1877    229.3266   1.3229167025e+02   1.6330944201e+01     4.975148          nan  38.31       0.0102   12.841    0.922
        14 -12.4786     32.8017    247.1981   1.4670121791e+02   2.1191864581e+01    0.7281641    0.5826198 -36.86  0.005970806    2.005    0.501
        15 -15.2622     12.1879    152.5585   1.4653258566e+02   4.0727205645e+01       9.9617      3.02903  79.82   0.03565025    4.392    0.772
        16 -10.0160     54.4264    229.3673   1.4183523874e+02   2.1907921970e+01    0.2106696    0.1365699  50.75 0.0007552363    1.213    0.176
        17 -10.4558     56.2397    223.6642   1.4112795529e+02   2.2669183254e+01    0.3500926    0.2400479  -1.22   0.00203308    2.417    0.586
        18 -11.7134      6.0300    227.7126   1.5082317184e+02   2.6628901251e+01    0.3568736    0.2575093  26.36   0.00287253    1.535    0.349
        19 -10.5121    173.8602    222.8813   1.1784176787e+02   7.8991385865e+00    0.3380319    0.2104144  42.51  0.002092959    1.652    0.395
        20 -12.9297      9.0632    207.5806   1.4965012312e+02   2.9888243090e+01    0.7256937    0.6453921  17.17  0.005028389    1.476    0.322
        21  -8.6328     92.5894    214.8182   1.3305055636e+02   1.9985233565e+01    0.1357795    0.1049776  81.49 0.0002194823    1.527    0.345
        22  -8.8420    152.5137    213.0514   1.2060806518e+02   1.2205754950e+01    0.1443346    0.1174919 -34.82 0.0003225373    1.455    0.313
        23 -11.6975     60.4948    199.6981   1.3852619565e+02   2.6477579846e+01     0.233857    0.2254018 -30.71 0.0005946782    1.321    0.243
        24  -9.7090    192.4707    193.9551   1.0993884690e+02   9.0825117273e+00    0.5291987    0.3047472 -60.30  0.001751447    7.482    0.866
        25 -10.8163     16.3874    197.9108   1.4780963204e+02   3.1085769141e+01    0.2555072    0.1452124  46.61  0.001697729    1.398    0.285
        26 -13.8962     38.7627    227.1157   1.4471647626e+02   2.3849732766e+01    0.6534055    0.4840634  51.82  0.002371141    1.020    0.020
        27 -11.9491     66.8552    191.2477   1.3639090489e+02   2.7365681094e+01    0.2337333    0.2241002 -54.56 0.0004239645    1.256    0.204
        28 -10.1901     47.0071    249.3189   1.4428054705e+02   1.9513709825e+01    0.1596593    0.1250953  65.05 0.0005742628    1.203    0.169
        29 -11.2721      2.5478    183.3681   1.5016307747e+02   3.4970469983e+01    0.2530227     0.168474 -86.29  0.001784158    1.383    0.277
        30 -13.2489     63.7619    176.4923   1.3569309985e+02   3.0668362495e+01    0.4499147    0.2622865 -43.93  0.001631209    2.226    0.551
        31 -10.8344     77.1816    178.2765   1.3267483700e+02   2.8681635701e+01    0.2166857    0.1956962  45.45 0.0003358586    1.052    0.050
        32 -10.0135     98.2734    175.2201   1.2726168987e+02   2.6481981968e+01    0.2336987    0.1839838  54.86 0.0005811406    1.256    0.204
        33 -11.8487     85.1379    168.8822   1.2961111178e+02   2.9567642871e+01    0.6859732    0.5338831  14.23  0.004030598    1.477    0.323
        34 -10.8051    129.1365    244.8580   1.2883661015e+02   1.0861555963e+01    0.1596228    0.1363797 -74.89  0.001254681    1.676    0.403
        35 -10.1412     97.4104    152.9763   1.2420431927e+02   3.1175190010e+01    0.2961018    0.2567885 -40.57 0.0008559727    1.251    0.200
        36  -9.3030    100.2547    148.7502   1.2276775897e+02   3.1648220769e+01    0.2071151    0.1787842 -18.63 0.0004414934    1.324    0.244
        37 -12.0752     86.0035    152.0750   1.2704746732e+02   3.3018162814e+01    0.2809072    0.2409737 -35.40 0.0005712083    1.318    0.241
        38  -8.9513    134.0000    147.4768   1.1399462965e+02   2.6357616553e+01    0.2891226   0.08023248 -47.95  0.000919937    3.816    0.738
        39 -12.2595     67.3597    143.6637   1.3087298236e+02   3.7370299284e+01    0.6998161    0.4135384  56.82  0.003131688    1.849    0.459
        40  -8.3435    192.2834    144.2827   1.0052685563e+02   1.6425526094e+01    0.1370378   0.09573042   5.25 0.0002185504    1.518    0.341
        41  -9.8938    109.1675    137.8077   1.1843148039e+02   3.2579993239e+01    0.3992309    0.2621287 -14.26  0.001467151    2.398    0.583
        42 -10.4629     96.4362    135.0039   1.2136309945e+02   3.5242281781e+01     0.243259    0.2203662   1.62 0.0004702728    1.201    0.168
        43 -10.8334     57.7150    134.1867   1.3229285119e+02   4.0728494110e+01    0.5071618    0.2062557 -81.97  0.001699545    4.027    0.752
        44 -11.0445     32.2833    132.0674   1.3945548111e+02   4.3824353218e+01    0.4036272    0.1801165  47.03  0.001549244    2.205    0.546
        45  -8.3984    115.3092    130.3191   1.1528094105e+02   3.3144050295e+01    0.1465944    0.1118636  -9.64 0.0002893046    1.640    0.390
        46  -8.9305    106.5132    124.0955   1.1637414312e+02   3.6016638253e+01     0.194928     0.141599 -50.38 0.0002780612    1.393    0.282
        47  -9.4375    167.8678    113.1143   9.8329209238e+01   2.6374277159e+01    0.2703522    0.2201529 -76.94  0.001300567    1.831    0.454
        48  -9.5454    203.1310    111.4998   9.0952893866e+01   1.9486150277e+01    0.2368727    0.1785886  -1.76 0.0006625302    1.337    0.252
        49  -9.9119    243.0091     94.5000   8.0669262360e+01   1.4260472005e+01    0.1632434     0.116551 -82.08 0.0008106276    2.618    0.618
        50  -9.7089    157.9199     76.5119   9.0392788271e+01   3.5007706112e+01     0.227842    0.1499419  50.22 0.0007389543    1.554    0.356
        51  -9.4926     38.9818     65.5686   1.2608548013e+02   5.9503514798e+01    0.2663129    0.1842111  47.84 0.0009464039    1.722    0.419
        52 -11.7335     12.1507     54.5489   1.3593514446e+02   6.4266978321e+01    0.5540938    0.2276798  24.69  0.002107868    2.697    0.629
        53 -10.6011    249.2453    248.6145   1.0867524167e+02  -4.1092140505e+00    0.2219599    0.1059267 -23.66   0.00151899    2.076    0.518
        54 -10.8050    238.1958    248.9661   1.1042934791e+02  -2.9267591046e+00    0.1881152    0.1104276  22.27 0.0009641742    1.227    0.185
        55 -11.5385    171.7731    248.5359   1.2148855314e+02   5.0519207377e+00    0.3413468    0.1872177  39.87  0.002206049    1.637    0.389
        56 -10.0760     80.7039    248.2610   1.3811464414e+02   1.6132748637e+01    0.2587562       0.1261  68.10  0.001425907    2.995    0.666
