#   1 NUMBER                 Running object number                                     
#   2 MAG_AUTO               Kron-like elliptical aperture magnitude                    [mag]
#   3 X_IMAGE                Object position along x                                    [pixel]
#   4 Y_IMAGE                Object position along y                                    [pixel]
#   5 X_WORLD                Barycenter position along world x axis                     [deg]
#   6 Y_WORLD                Barycenter position along world y axis                     [deg]
#   7 A_WORLD                Profile RMS along major axis (world units)                 [deg]
#   8 B_WORLD                Profile RMS along minor axis (world units)                 [deg]
#   9 THETA_WORLD            Position angle (CCW/world-x)                               [deg]
#  10 FWHM_WORLD             FWHM assuming a gaussian core                              [deg]
#  11 ELONGATION             A_IMAGE/B_IMAGE                                           
#  12 ELLIPTICITY            1 - B_IMAGE/A_IMAGE                                       
         1 -13.2243    185.7007     33.0263   6.3198097787e+01   3.4257112427e+01     1.083094     1.000314  13.42  0.003202774    1.062    0.059
         2 -13.5565    192.4559     23.2153   5.9049820857e+01   3.3545784665e+01     1.069589    0.8190224   1.93  0.001374915    1.397    0.284
         3 -11.6080     58.7344      4.3604   8.2539142289e+01   6.6708191221e+01    0.4981815    0.2293596 -31.62  0.002435808    1.913    0.477
         4 -10.8939    208.4695      4.1902   5.1234688323e+01   3.1101532772e+01    0.4302718    0.1443416 -15.62  0.001468561    3.261    0.693
         5 -10.6799    177.7257    237.4087   1.0969843488e+02   7.3660927920e+00     0.151659    0.1332024 -68.65 0.0006403131    1.690    0.408
         6 -19.5156     22.1583    143.4032   1.2836573830e+02   4.3376977932e+01      15.8998     3.518407 -75.77   0.06189199    4.403    0.773
         7 -10.3775     59.2560    188.8258   1.2491565719e+02   3.1168193361e+01    0.2924459    0.1774738 -60.98      0.00131    1.852    0.460
         8 -11.0348    209.3305    182.2739   9.6375995801e+01   8.3928007339e+00    0.5343431    0.2944616  17.96  0.002580554    2.390    0.582
         9  -9.4468     99.5810    180.8157   1.1649771497e+02   2.7253970926e+01    0.1806084    0.1415459  43.79 0.0006288954    1.238    0.192
        10 -11.2960     81.8349    179.1864   1.1973771387e+02   3.0013840906e+01    0.3151936    0.2122969 -44.33  0.001973491    2.106    0.525
        11 -11.5617     85.4785    173.8562   1.1842522743e+02   3.0461874350e+01    0.2674936    0.2554595   8.05 0.0007476704    1.450    0.310
        12 -10.9981    197.6903    174.9440   9.7105264421e+01   1.1418259885e+01    0.4321231    0.2904162 -38.71  0.002508596    1.777    0.437
        13 -11.3099    218.6088    223.2348   1.0136872988e+02   2.4485450883e+00    0.3550195    0.2104854  39.01  0.001392122    1.263    0.208
        14 -11.2999    105.4334    171.9131   1.1421858213e+02   2.7920971755e+01    0.6505646    0.2013596  41.33  0.002726183    2.910    0.656
        15 -10.7197    136.9446    170.8121   1.0780849455e+02   2.3002013451e+01    0.2385872    0.1527531  47.67  0.001163371    1.359    0.264
        16  -9.9898    141.4508    176.4917   1.0780770214e+02   2.1315917458e+01     0.123386    0.1059675  47.60 0.0002066926    1.015    0.015
        17 -11.2253     97.5809    157.2090   1.1379765953e+02   3.1753541916e+01      0.48775    0.3555236 -26.64  0.002759714    2.227    0.551
        18 -10.5296    157.6922    219.0048   1.1072407749e+02   1.2610484053e+01    0.1553465    0.1276282  45.50  0.000689393    1.079    0.073
        19  -8.6817    141.6006    158.4823   1.0485627120e+02   2.4232275890e+01    0.1268106    0.1142641  54.87 0.0001574833    1.043    0.042
        20 -10.9588    184.3101    215.8838   1.0586652898e+02   8.7193536162e+00    0.2087619    0.1282485  48.71 0.0009131185    1.412    0.292
        21 -10.7070    134.3767    147.8843   1.0447788478e+02   2.7362139644e+01    0.8494194    0.2261005 -53.70  0.002527377    5.601    0.821
        22 -10.5876    116.1112    211.9134   1.1700732806e+02   1.9917901412e+01    0.2780285    0.1770204  73.81 0.0008352027    1.868    0.465
        23 -10.9689    144.0431    145.3679   1.0197707152e+02   2.6024554737e+01    0.3219868    0.2567989  76.75  0.001820273    1.505    0.336
        24 -10.7271    108.6760    140.9994   1.0883928231e+02   3.3063568725e+01    0.4371334     0.287557 -32.62  0.002241795    2.162    0.537
        25 -11.5200     96.8141    141.7596   1.1161798266e+02   3.4797568239e+01    0.2217169    0.2148913  60.71 0.0004339733    1.149    0.130
        26  -9.8164     78.1153    134.5511   1.1475282323e+02   3.8935334243e+01    0.1764133    0.1141171  42.57 0.0007749324    1.552    0.355
        27 -10.2083    115.4168    131.4580   1.0558588482e+02   3.3752038715e+01    0.2521677    0.2275172   0.51 0.0006380514    1.355    0.262
        28 -10.9105    104.3945    129.0086   1.0767140717e+02   3.6084681889e+01    0.5146349    0.3310468  87.60  0.000946948    2.360    0.576
        29 -10.2712    161.4990    128.6207   9.4877920990e+01   2.5464351460e+01    0.3753114    0.2481313  86.25   0.00149078    3.130    0.681
        30 -11.2848    135.7736    124.9253   9.9643524269e+01   3.1257772797e+01    0.6949555    0.2931834 -45.42  0.002828533    2.485    0.598
        31  -9.7130    120.3631    124.8222   1.0313519874e+02   3.4150880504e+01    0.1882926    0.1230107 -39.42 0.0005790555    1.708    0.415
        32  -9.4810    110.7550    119.8868   1.0438273571e+02   3.6807137982e+01    0.1863911    0.1784332 -25.55 0.0004736806    1.161    0.138
        33 -10.1718     67.3213    115.9442   1.1437889752e+02   4.4174860735e+01    0.1819842    0.1406211 -66.43  0.000996059    1.180    0.152
        34  -9.7745    167.8148    112.6047   8.9838467074e+01   2.6824607476e+01    0.3354371    0.2452555 -82.19  0.001394781    2.229    0.551
        35 -10.4355    107.5045    209.9615   1.1829604023e+02   2.1446335953e+01    0.1803574    0.1189238  48.49 0.0006637086    1.206    0.171
        36  -9.3066    205.4291    110.2595   8.1946226998e+01   1.8822972468e+01    0.2622016    0.1583001  39.90  0.000572369    1.580    0.367
        37  -9.5320    134.6783    103.4090   9.4922015711e+01   3.5478194970e+01    0.3767104    0.1236144 -47.85  0.001237714    3.376    0.704
        38 -10.5262    106.1992    202.0122   1.1768836335e+02   2.2843920516e+01    0.3701687    0.1386945  42.18  0.001726637    2.227    0.551
        39 -11.9434    194.4264    194.0484   1.0090764553e+02   9.6054964479e+00    0.6314774    0.5271537  66.16  0.004192708    1.577    0.366
        40 -11.0759    209.6165    226.0189   1.0317743776e+02   3.5903324304e+00    0.3010712     0.199255  38.20  0.001129642    1.129    0.114
        41 -11.5154    172.1451     71.2801   7.7680839530e+01   3.2540545255e+01    0.4987928    0.3548804 -81.67 0.0009765753    2.212    0.548
        42  -8.9909    106.7114     61.9916   9.0359069150e+01   4.8839289716e+01    0.1934291    0.1758704 -34.21 0.0003734626    1.056    0.053
        43 -13.0496    174.7252     42.8242   6.8231359889e+01   3.5934248452e+01    0.8311418    0.6570392   5.73 0.0009438801    1.345    0.256
        44 -11.3185    168.4899    248.2429   1.1237516415e+02   7.6005694106e+00    0.2529104    0.1477201  46.66 0.0007449605    1.270    0.213
        45 -10.3194    178.4005    247.8127   1.1080194561e+02   6.1829376898e+00    0.1215116   0.09440934  -6.53 0.0009542487    1.749    0.428
        46  -9.7246    216.5329     18.5054   5.4607272296e+01   2.7705430860e+01    0.1388587    0.1369527  14.68 8.309414e-05    1.008    0.008
        47 -10.5532    170.0413    239.9975   1.1121370012e+02   8.2507875886e+00    0.1636268    0.1072421  24.67  0.000386628    1.672    0.402
