#   1 NUMBER                 Running object number                                     
#   2 MAG_AUTO               Kron-like elliptical aperture magnitude                    [mag]
#   3 X_IMAGE                Object position along x                                    [pixel]
#   4 Y_IMAGE                Object position along y                                    [pixel]
#   5 X_WORLD                Barycenter position along world x axis                     [deg]
#   6 Y_WORLD                Barycenter position along world y axis                     [deg]
#   7 A_WORLD                Profile RMS along major axis (world units)                 [deg]
#   8 B_WORLD                Profile RMS along minor axis (world units)                 [deg]
#   9 THETA_WORLD            Position angle (CCW/world-x)                               [deg]
#  10 FWHM_WORLD             FWHM assuming a gaussian core                              [deg]
#  11 ELONGATION             A_IMAGE/B_IMAGE                                           
#  12 ELLIPTICITY            1 - B_IMAGE/A_IMAGE                                       
         1 -11.5914    129.4930     24.7329   6.6134265167e+01   5.0431963486e+01    0.5394427    0.3045782 -36.73  0.002360622    1.797    0.444
         2 -11.7924     61.0612     23.3634   8.7036651438e+01   6.4649661344e+01    0.5896581      0.41295 -73.29  0.002766512    2.926    0.658
         3 -10.7573     63.2632     14.9303   8.2199629787e+01   6.5666676033e+01    0.5121794    0.2816719   1.97   0.00198394    3.557    0.719
         4 -10.9173     10.0788     15.4724   1.0810754386e+02   7.1603805789e+01    0.2295049    0.1452517 -36.45  0.000660167    1.330    0.248
         5 -11.4371      4.2267     18.0156   1.1211683923e+02   7.1440543767e+01    0.3422965     0.240498 -16.36   0.00161697    1.544    0.352
         6 -11.7809     20.7851     18.4952   1.0361238872e+02   7.0250428620e+01    0.4970569    0.3974711  84.99  0.002229217    1.935    0.483
         7 -10.0981     34.8214     16.0573   9.5503428682e+01   6.9362883239e+01    0.3926182    0.1824761 -34.32  0.001949533    2.023    0.506
         8 -10.7143    167.0507     16.4891   5.5826621594e+01   4.1628231096e+01    0.4094395    0.2393946 -82.30  0.001622829    2.370    0.578
         9 -10.1455     91.0516      7.2026   6.8602068719e+01   6.1481201280e+01     0.354931    0.1964138  53.71  0.001697277    1.830    0.454
        10 -12.1414     81.4450      6.6678   7.1376510873e+01   6.3515648403e+01     0.559364    0.3462524  24.29  0.002812754    1.751    0.429
        11 -11.3513     74.1889      7.0581   7.4077528032e+01   6.4865235436e+01    0.3430664    0.2057221 -19.78 0.0003297456    1.617    0.381
        12 -11.2293     75.8304     15.1764   7.7523702390e+01   6.3452017854e+01     0.509092    0.2940983 -15.39  0.001834576    1.976    0.494
        13 -11.7777     70.3977     14.6031   7.9253869191e+01   6.4510128238e+01    0.4005018    0.2241425 -25.89  0.001216592    1.722    0.419
        14 -10.6603     54.9750     13.2933   8.4849391506e+01   6.7214402146e+01    0.2254699    0.1968864 -12.61 0.0003497121    1.065    0.061
        15 -10.4219    100.3623     12.9980   6.8611865011e+01   5.8767834417e+01    0.3116034    0.2109527   0.43  0.001436154    1.643    0.392
        16 -10.7176     26.3622     13.8693   9.8797500550e+01   7.0620584791e+01    0.2011588    0.1433901 -24.78 0.0001864551    1.268    0.211
        17 -10.8251    118.1194     11.9090   6.3517400018e+01   5.4788336048e+01    0.3742224    0.2419438 -32.09  0.001125872    1.575    0.365
        18 -11.8341    115.9799      3.1124   6.0172824049e+01   5.6239179980e+01      0.52145    0.2317823 -22.87 0.0004052765    2.255    0.557
        19  -9.5407      5.0897     11.6655   1.0945822627e+02   7.2633831475e+01    0.1547561    0.1164836 -35.97  0.001126771    1.130    0.115
        20 -10.3787     59.6844     10.3599   8.1379697867e+01   6.6931591596e+01    0.2174439     0.190108  39.43 0.0006421308    1.359    0.264
        21  -9.6839     50.9768     11.0237   8.5467453152e+01   6.8156281325e+01    0.1996889    0.1331266  -5.65 0.0007246088    1.673    0.402
        22 -13.0395     31.9700      2.0620   8.9992294436e+01   7.2032952232e+01    0.2675908    0.2028654  14.70 0.0006000502    1.367    0.269
        23 -10.8892     27.2117      3.5557   9.3358055339e+01   7.2320138455e+01    0.2620684    0.1815011  -2.25  0.001167057    1.510    0.338
        24 -10.0266    108.0834      9.2673   6.4829855053e+01   5.7462769641e+01    0.2449934    0.1823272  -2.12  0.001286582    1.379    0.275
        25 -10.3166     11.0842      9.8804   1.0537583463e+02   7.2600655048e+01     0.270063    0.1494325 -64.39  0.001073823    1.988    0.497
        26 -12.1461     12.0096      2.2762   1.0144216529e+02   7.3914273717e+01    0.4571155    0.3758852  37.91  0.002588531    1.700    0.412
        27 -11.2635     16.9711      1.6552   9.8184390159e+01   7.3620137190e+01    0.1972743    0.1541768 -33.42  0.001423296    1.063    0.059
        28 -10.1085    128.1166      8.8360   5.9988990110e+01   5.2659636995e+01    0.2173973    0.1940012 -67.05 0.0006411998    1.295    0.228
        29 -10.5859    123.3746      7.4689   6.0427289046e+01   5.3986123060e+01     0.320468    0.1610066  34.38  0.001299201    2.222    0.550
        30  -9.6931      6.7324      8.1849   1.0717592662e+02   7.3198498623e+01    0.1532855     0.109147  73.22 0.0007601555    2.578    0.612
        31 -10.3690    228.8322      5.6163   4.5234425385e+01   2.6452925413e+01    0.2530717    0.1884045 -55.49 0.0003885205    1.271    0.213
        32  -9.5934    176.4183      4.8087   5.0497512632e+01   4.0287398634e+01    0.2093892    0.1377062   3.52 0.0009566151    1.855    0.461
        33 -11.6816     23.1679      7.9742   9.7787171379e+01   7.1971262260e+01    0.3931364    0.3116191 -50.19  0.001463783    1.335    0.251
        34  -9.5749    146.3441      4.2748   5.4735406068e+01   4.8405992205e+01    0.1553145   0.09708273  38.67 0.0002071249    1.622    0.384
        35  -9.0920     90.2866     13.2343   7.1726908728e+01   6.0892389014e+01    0.1324619   0.09463457  21.16 0.0002232878    1.451    0.311
        36 -10.1312    247.3508    250.0661   9.5872794654e+01  -6.4316657562e+00    0.1897037   0.09963581  30.06  0.001216262    1.356    0.262
        37  -9.9789     72.6230    250.0741   1.2382294963e+02   1.8215106522e+01    0.1513033     0.124259  35.88  0.001261848    1.616    0.381
        38 -12.4706     16.3398    238.2778   1.3200386513e+02   2.6186558953e+01    0.8930452    0.3125241  35.10  0.005317602    2.934    0.659
        39 -11.9354     27.7970    247.3071   1.3060778549e+02   2.3676639051e+01    0.3292778    0.1954238  83.70   0.00271889    1.463    0.317
        40 -10.3535      5.7530    235.3684   1.3350970796e+02   2.7631936835e+01    0.1715793    0.1286708  62.59 0.0007522767    1.245    0.197
        41 -12.9372     20.1613    248.4887   1.3178856452e+02   2.4269051664e+01    0.9979163     0.107093  45.87   0.00512592    3.289    0.696
        42 -12.2285      5.8427    244.8920   1.3377500574e+02   2.6170874341e+01    0.4843562    0.2189496  66.14  0.002959024    1.515    0.340
        43 -10.8383      1.4553    244.9964   1.3441390162e+02   2.6554176976e+01     0.168681   0.06929848 -84.07 0.0004919533    2.223    0.550
        44 -10.6634    120.0730    226.4987   1.1396881055e+02   1.5236410757e+01    0.1714272   0.08710248  43.76 0.0004987737    1.516    0.340
        45  -9.9094    181.0000    224.9799   1.0313277752e+02   5.9551645580e+00    0.1517243   0.06723148 -41.95 0.0008003353    2.928    0.658
        46  -9.9216    115.6725    225.3564   1.1463086522e+02   1.6054973793e+01    0.1188875   0.06961634  64.78 5.331143e-05    1.779    0.438
        47  -9.3504    156.3056    224.3532   1.0734436868e+02   9.9682249945e+00    0.1112474   0.08123004  17.83 0.0007041512    1.712    0.416
        48 -10.7725    123.6977    221.3346   1.1279025738e+02   1.5462472667e+01    0.4432135    0.1716535  48.48  0.002243751    2.054    0.513
        49 -10.2107    142.1351    220.6400   1.0941162872e+02   1.2720005031e+01    0.2167208     0.121219  38.77  0.001274419    1.500    0.333
        50  -9.2487     41.6820    220.7086   1.2715443457e+02   2.6385790438e+01   0.08138062   0.07834404  75.81 0.0007008787    1.600    0.375
        51  -9.4165    250.4697    219.4521   9.0922562828e+01  -4.2188487777e+00    0.1135053    0.0807693  20.46 0.0008077189    1.033    0.032
        52  -9.5523    174.0141    220.0000   1.0368236404e+02   7.7041187509e+00    0.2008038   0.05307523  42.84 0.0008008919    2.932    0.659
        53 -11.3471     73.9871    232.9707   1.2247635666e+02   2.0591787640e+01    0.2218045    0.1243032  55.44 0.0009291707    1.316    0.240
        54 -11.0225      9.6933    217.0197   1.3228467997e+02   3.0223190204e+01    0.2482592    0.1150904  59.63  0.001059705    1.510    0.338
        55 -10.7749    235.3227    216.6873   9.2873661194e+01  -1.6876570524e+00    0.1779931    0.1174398  32.39  0.001192953    1.175    0.149
        56 -11.1666    236.3012    213.6812   9.2245351978e+01  -1.5333513004e+00    0.2622636    0.1172893  43.00  0.001270624    1.921    0.480
        57 -10.4187     31.1375    215.7791   1.2867698119e+02   2.8337454015e+01    0.1959318    0.1194588  45.00  0.001415395    1.454    0.312
        58  -9.5467    201.5457    215.5397   9.8290154578e+01   3.7792121202e+00    0.1201437   0.09030907  28.52 0.0005638595    1.082    0.076
        59  -9.7970    194.5351    215.5116   9.9488647526e+01   4.9242337697e+00    0.1192829    0.0926045  33.74 9.185249e-05    1.006    0.006
        60  -9.3281    136.9515    216.0000   1.0980069853e+02   1.4212534711e+01    0.1958677   0.05377724  42.21  0.000791852    2.870    0.652
        61 -10.5124    241.4675    211.8396   9.1127271646e+01  -2.1397495544e+00    0.2389362    0.2128149 -69.92  0.001673935    2.188    0.543
        62  -9.6879    170.2963    213.3285   1.0343915458e+02   9.1922536474e+00    0.1158464   0.08302635  18.02 0.0003675528    1.633    0.388
        63 -11.0685     21.2562    212.3050   1.3018052481e+02   2.9922914239e+01    0.2954056    0.1115592  56.50  0.001821334    1.929    0.482
        64 -10.1753    208.9832    212.0753   9.6505351712e+01   2.9752340753e+00    0.1801373    0.1384965  29.07 0.0004493525    1.012    0.012
        65  -9.6456      2.2892    212.3423   1.3332302222e+02   3.1668143200e+01    0.1292919    0.0819722  42.76 0.0005223406    1.553    0.356
        66 -11.6267      4.4209    207.2392   1.3279656528e+02   3.2349801879e+01    0.4828507    0.1740922  77.36  0.002832528    2.386    0.581
        67 -10.0724     10.8497    208.1754   1.3175694230e+02   3.1614253837e+01    0.1235665    0.1009346 -89.64 0.0006557702    1.386    0.279
        68 -11.3733     18.6389    202.8789   1.3019648469e+02   3.1809501600e+01    0.2971812    0.1991204 -75.31 0.0008980872    1.566    0.361
        69 -10.2095    175.2897    202.6879   1.0102304042e+02   9.8129893401e+00    0.2005367    0.1603702  52.13 0.0005391628    1.236    0.191
        70  -9.3964    223.5683    201.7647   9.2411162290e+01   1.7760521000e+00    0.1382353    0.1119002 -38.11 0.0007071181    1.642    0.391
        71  -9.7186     34.4981    201.0507   1.2728973762e+02   3.0545129185e+01    0.1530646    0.1094898  59.82 0.0004931149    1.118    0.105
        72  -9.4728    227.1305    196.8657   9.0998807174e+01   1.7492044765e+00    0.1721749    0.1165869  18.71 0.0006816217    1.348    0.258
        73 -10.0768    215.4030    194.7490   9.2630599580e+01   3.9688615514e+00    0.1526899    0.1083258  -9.71 0.0004049285    1.557    0.358
        74  -9.6278    203.8557    195.5112   9.4768674812e+01   5.8536555528e+00    0.3441232   0.08845638  38.01  0.001185686    3.809    0.737
        75  -9.9374    187.0000    190.9622   9.7055618277e+01   9.4130239677e+00    0.1799221   0.07281508 -40.16 0.0008004613    2.929    0.659
        76  -9.2005      1.5165    188.4426   1.3259383806e+02   3.5922151089e+01    0.1015155   0.07067352  72.55 0.0001911021    1.011    0.011
        77  -9.4811     61.6434    184.8531   1.2095070914e+02   3.0434203356e+01    0.1622893   0.09186081 -88.90 0.0009474467    1.771    0.435
        78  -9.9867    166.8273    183.5914   9.9657677170e+01   1.4115940414e+01    0.1870404    0.1066412  50.76 0.0009469447    1.636    0.389
        79 -11.3667     16.0783    182.5699   1.2965650603e+02   3.5748484540e+01    0.3373742    0.1556664  74.10  0.001916394    1.837    0.456
        80  -9.9295      1.9813    180.3074   1.3217967773e+02   3.7384067313e+01    0.1430149     0.100136  67.24  0.000590886    1.087    0.080
        81 -10.2332    244.4165    178.2651   8.4849158343e+01   9.9901452285e-01     0.214472    0.1102632 -21.48  0.001113081    2.052    0.513
        82 -10.8072    224.2308    178.3595   8.8228563999e+01   4.4676581993e+00    0.2177535    0.1958248  23.45 0.0004488843    1.176    0.149
        83  -9.7591     70.1705    177.7293   1.1854251916e+02   3.0717244179e+01    0.1397614    0.1316193  53.10 0.0005316883    1.338    0.252
        84  -9.1042     36.4401    178.4697   1.2546110528e+02   3.4541858527e+01    0.1106679   0.08465387  74.79 0.0002474679    1.023    0.022
        85 -10.0825    200.1650    176.8001   9.2208228682e+01   9.0213813271e+00    0.1811853    0.1363731  17.36 0.0005615943    1.335    0.251
        86  -9.8125     46.1998    177.3667   1.2342009470e+02   3.3697503029e+01    0.1609187   0.08181246  49.02 0.0009474567    1.662    0.398
        87 -10.9460     18.1906    172.8779   1.2871197959e+02   3.7409808146e+01    0.3311275   0.09842103  56.31  0.001603398    2.883    0.653
        88  -9.4056     75.0017    171.0023   1.1681407530e+02   3.1394581153e+01    0.1704366    0.1477577 -30.50  0.001119313    1.739    0.425
        89  -9.3467    210.0089    166.2246   8.8448175980e+01   8.6708591181e+00    0.1761644   0.09708045  43.27 0.0005360905    1.624    0.384
        90 -11.2015     36.6657    166.1316   1.2448551204e+02   3.6951282691e+01    0.3511955    0.1789499  71.39   0.00200276    1.846    0.458
        91 -11.6013     36.9055    158.4444   1.2380238310e+02   3.8488701457e+01    0.3528771    0.1481484 -74.92 0.0005793009    2.115    0.527
        92  -9.7317     67.1767    165.1677   1.1785795379e+02   3.3598046385e+01     0.174638    0.1181302  70.06 0.0008383648    1.342    0.255
        93 -10.6882     51.6242    163.5216   1.2106709356e+02   3.5838160255e+01    0.3709956    0.1915963 -73.58  0.001937861    1.793    0.442
        94 -10.7310     44.5694    162.7075   1.2251537208e+02   3.6800428061e+01    0.2672319    0.1271584 -80.23  0.001442212    1.972    0.493
        95 -10.1899     47.9960    159.7910   1.2150124842e+02   3.7016458858e+01    0.2178618    0.2100793  35.80  0.001127188    1.426    0.299
        96  -9.5478    200.5549    162.7557   8.9508978179e+01   1.0968654783e+01    0.1614515    0.1286481 -45.79 0.0005057277    1.514    0.340
        97 -11.4526     22.3751    156.5495   1.2679247869e+02   4.0283383814e+01    0.3596503    0.2796829  64.81   0.00193498    1.149    0.129
        98  -9.0221    147.6615    156.3375   9.8874667177e+01   2.2293620167e+01     0.141335     0.103754  76.95 0.0007051121    1.757    0.431
        99 -10.3073     12.0413    153.2106   1.2877790080e+02   4.1854997737e+01    0.2275173    0.1479947  16.52  0.001490982    2.336    0.572
       100 -10.3280    178.2285    151.5612   9.1613587379e+01   1.7127893319e+01    0.2287123    0.1965376 -36.48 0.0005451025    1.271    0.214
       101 -10.7796     12.8409    146.8444   1.2818822708e+02   4.3096320738e+01    0.2157201    0.1015053  73.30 0.0005002198    1.934    0.483
       102  -9.9952    207.0411    146.0728   8.4924379916e+01   1.2175521668e+01    0.2145064    0.1886023  25.01 0.0007272162    1.022    0.021
       103 -10.0362     41.2203    146.2159   1.2170546366e+02   4.0596232228e+01    0.1620882    0.1347563  86.56 0.0003600342    1.067    0.063
       104  -9.4662     30.3284    145.3187   1.2413349628e+02   4.1878463061e+01    0.1078473   0.08060517 -50.87 0.0007046972    1.683    0.406
       105  -9.9707     49.5964    141.7241   1.1925368921e+02   4.0645089387e+01    0.2105355    0.1618586 -45.02 0.0008749394    1.688    0.408
       106  -9.3801    239.9907    140.9767   7.8111796722e+01   6.4027895971e+00    0.1617167    0.1377956  18.98 0.0004936249    1.059    0.056
       107 -10.5074     19.6080    140.2217   1.2617246834e+02   4.3922035394e+01    0.2189151   0.09007055 -82.12  0.001128766    2.098    0.523
       108 -10.2232     16.2527    139.7687   1.2691055579e+02   4.4297224643e+01    0.1808308    0.1081741   0.66 0.0009697065    3.407    0.706
       109  -9.6736     57.6703    138.7404   1.1694521659e+02   4.0348682073e+01    0.1819874    0.1422835 -83.73 0.0005176778    1.120    0.107
       110  -9.6102     55.6202    136.3114   1.1714038847e+02   4.1123315207e+01    0.1292179    0.1093464  89.67 0.0008481411    1.033    0.032
       111  -9.6436    236.7512    138.5682   7.8122590602e+01   7.3463845242e+00    0.1661641    0.1270867  51.58 0.0004254243    1.465    0.317
       112  -9.3504     87.9492    137.9952   1.0941656798e+02   3.6385096994e+01     0.155084    0.1374017  73.18 0.0003997358    1.032    0.031
       113  -9.1073    143.6839    137.3349   9.6080368537e+01   2.6646086130e+01    0.1451674    0.1101604  82.96 0.0007047556    1.693    0.409
       114 -10.6691      9.2847    136.6839   1.2828842040e+02   4.5493905301e+01    0.1897457    0.1585299 -73.59 0.0002475272    1.286    0.223
       115 -10.6762      2.7891    136.2752   1.2974821064e+02   4.6049903070e+01    0.2264013    0.1115223 -73.58  0.001084859    1.651    0.394
       116 -10.3422     21.1774    135.8139   1.2544110543e+02   4.4726392268e+01    0.1990712    0.1506232  83.38 0.0007358062    1.045    0.043
       117  -9.1726    250.3198    134.3045   7.5027729371e+01   5.3127633216e+00    0.1375039   0.09054008  13.71 0.0006278733    1.632    0.387
       118 -10.0754    106.9889    133.2261   1.0392251718e+02   3.4323003309e+01    0.2288929    0.1998402 -68.63 0.0008839568    1.140    0.122
       119 -10.5044     33.1274    133.7237   1.2236966270e+02   4.4096786164e+01    0.2645091    0.1432308 -81.17  0.001499425    1.605    0.377
       120 -10.8192     37.1249    130.5040   1.2104075349e+02   4.4409597548e+01    0.2835371    0.2292889 -85.59 0.0008128046    1.050    0.047
       121 -11.5639     33.3309    126.0342   1.2150263386e+02   4.5759650380e+01    0.2919419    0.1821707  56.70 0.0003620943    1.560    0.359
       122  -9.7882     53.1425    133.1245   1.1734983580e+02   4.2111970595e+01    0.1839714    0.1498745 -63.29 0.0009711831    1.268    0.212
       123 -10.4418     73.9824    129.5571   1.1156761622e+02   4.0252481469e+01    0.2524569    0.1808656 -69.47 0.0008444587    1.300    0.231
       124  -8.8860      6.6298    126.2793   1.2816241205e+02   4.7893002743e+01    0.1168876   0.06342188  64.47 0.0007011159    1.691    0.409
       125 -11.0518      2.4140    123.6640   1.2899472506e+02   4.8736140876e+01    0.4821072    0.1213693 -69.95  0.002205935    2.859    0.650
       126 -10.0606     81.7997    125.4183   1.0887409947e+02   4.0049450036e+01    0.2091362    0.1672722  33.82 0.0007673357    1.421    0.296
       127  -9.5796    226.0301    124.0000   7.6657887844e+01   1.1536200758e+01    0.2213507   0.07681102  50.61 0.0007174527    2.880    0.653
       128 -11.1528     10.5061    122.4673   1.2691119823e+02   4.8437388873e+01    0.2371119    0.1790742  88.55  0.001130476    1.020    0.020
       129  -9.0276     64.7045    120.2569   1.1251481690e+02   4.3560955076e+01    0.1266977   0.08855823  71.85 0.0002893569    1.497    0.332
       130  -9.8916     33.5020    118.8498   1.2063470676e+02   4.7334879129e+01     0.175349   0.09917469 -72.14 0.0003814267    1.481    0.325
       131 -12.0963      3.1568    100.3406   1.2691222076e+02   5.3743254017e+01    0.3549418    0.2074686  45.87 0.0004697793    1.833    0.454
       132 -10.6466      1.7486     94.2851   1.2673858166e+02   5.5153621510e+01    0.3340617   0.09597952 -67.82  0.001154938    2.438    0.590
       133 -12.0706     17.1810    115.7702   1.2459877518e+02   4.9403231455e+01    0.3829306    0.2379147 -68.45  0.001682986    1.362    0.266
       134 -12.2383     15.7856    109.3979   1.2432731849e+02   5.0914208896e+01    0.5009131      0.33713  46.11 0.0006735835    1.584    0.369
       135 -11.0466      2.5101    105.4333   1.2754479217e+02   5.2666657013e+01    0.2293921    0.1562722  89.25 0.0001675909    1.163    0.140
       136 -11.4975     22.8665    106.8466   1.2209779602e+02   5.0939072385e+01    0.3728048    0.2399704  73.52  0.001722709    1.525    0.344
       137 -10.9185     21.7956    103.1842   1.2196168428e+02   5.1843493651e+01    0.1886959     0.165998 -29.77 0.0009500133    1.477    0.323
       138  -9.9167    249.7951    118.5921   7.1605617859e+01   7.4578519829e+00    0.1714954    0.1314025  60.90 0.0009443612    1.627    0.385
       139  -9.4884    220.3819    117.1485   7.6021804754e+01   1.3738367341e+01    0.1980927    0.1248702 -41.20 0.0005295508    1.685    0.407
       140 -10.3498     51.1170    115.3101   1.1542087175e+02   4.6314139961e+01    0.3435864    0.1493974 -64.07  0.001629242    1.983    0.496
       141  -9.1739    214.2745    115.3861   7.6668267752e+01   1.5330605482e+01    0.1512547    0.1062959   8.18 0.0006997102    1.718    0.418
       142  -9.0668    166.3086    115.6804   8.6187940009e+01   2.5990955307e+01    0.1483639    0.1189067 -84.81 0.0002967625    1.640    0.390
       143 -10.0254     35.1728    114.1856   1.1961246963e+02   4.8219866676e+01    0.1961396     0.153478 -85.88 0.0007110983    1.064    0.060
       144 -11.8740     35.4170    108.4024   1.1878374835e+02   4.9497570958e+01    0.4093174    0.2303967  81.61 0.0008721792    1.963    0.491
       145 -10.4168      6.6002    106.9464   1.2657501997e+02   5.2083728052e+01    0.2630546    0.1587905  85.01  0.001668857    1.414    0.293
       146 -10.7362    249.0423    111.9978   7.0200308414e+01   8.4816100559e+00    0.2106952    0.1854382  -9.27 0.0006255482    1.030    0.029
       147 -10.5355     55.9407    108.5297   1.1300779499e+02   4.7291323351e+01    0.4034835    0.2037112 -55.15  0.001998825    1.823    0.452
       148 -10.9457    243.6781    104.4355   6.9221416923e+01   1.0601387966e+01    0.2365356    0.1578196  -2.96  0.001154373    1.699    0.411
       149 -10.0934    223.2497    103.9981   7.2346527105e+01   1.5067389182e+01    0.2307171    0.2038283  39.19 0.0004132055    1.139    0.122
       150 -10.8990    247.6826    102.1679   6.8086022923e+01   1.0075844982e+01     0.220976    0.1962264  66.48 0.0008180553    1.363    0.266
       151  -9.8050    119.7648    101.4078   9.3778232929e+01   3.8734663683e+01    0.2043253    0.1386284  33.25 0.0009404708    1.674    0.402
       152  -9.5566     43.6066    101.1755   1.1536015416e+02   5.0329029879e+01    0.1721646   0.09780996 -59.06 0.0002841518    1.534    0.348
       153 -10.8937     61.9144     98.7953   1.0951947532e+02   4.8773397766e+01     0.266535    0.2332582 -61.15 0.0006176711    1.096    0.088
       154 -11.1005     66.3483     98.3074   1.0810681632e+02   4.8310478427e+01    0.5249422     0.186436 -52.14   0.00209551    2.554    0.608
       155  -9.6773     50.2555     99.7353   1.1315535908e+02   4.9944613554e+01    0.2084107    0.1279615 -36.83  0.001057567    2.130    0.531
       156 -10.2329     30.1242     98.0882   1.1887142959e+02   5.2306623097e+01     0.176286    0.1430344 -78.62 0.0003245545    1.007    0.007
       157 -10.5274     92.5758     96.7243   1.0009013450e+02   4.4731471581e+01    0.2762729    0.1253999 -48.99  0.001131636    2.109    0.526
       158 -10.6757     20.0989     96.2131   1.2158611688e+02   5.3537146145e+01    0.2682096    0.1426779 -79.05  0.001498811    1.592    0.372
       159 -10.0511    141.8054     96.6156   8.6961156523e+01   3.5090438501e+01    0.2136706    0.1417753  58.57 0.0007677913    1.639    0.390
       160  -9.6822     57.4509     96.5026   1.1041201455e+02   4.9846552110e+01    0.1302024     0.113007 -72.68 -1.289817e-05    1.006    0.005
       161 -10.4169     35.3556    101.2984   1.1779758995e+02   5.1109869726e+01    0.2731443    0.1854304  51.31  0.001661941    1.570    0.363
       162  -9.1238     77.2399     94.9911   1.0416595101e+02   4.7535572858e+01    0.1793114    0.1063377 -57.98 0.0003686858    1.553    0.356
       163 -10.5234     31.2235     92.0815   1.1764390316e+02   5.3572037020e+01    0.3411136    0.1839847 -80.48  0.001797584    1.766    0.434
       164 -11.1281     25.6820     91.6776   1.1928454097e+02   5.4126762373e+01    0.2297165    0.2005084 -70.21 0.0008526945    1.115    0.103
       165  -9.0488     98.7359     93.3502   9.7506900215e+01   4.4411129192e+01     0.143332    0.1088952 -85.67 0.0006981392    1.614    0.381
       166  -9.6415    178.1550     91.8631   7.7516272083e+01   2.7536035366e+01    0.2038812    0.1738634  14.49  0.001020172    1.280    0.219
       167  -9.6272    162.6169     92.1715   8.0912600189e+01   3.1178884866e+01    0.2095216    0.1458791 -23.75  0.000352214    1.638    0.390
       168 -10.0497    104.3667     91.8499   9.5529522393e+01   4.3718954606e+01    0.2003105    0.1282553 -40.00            0    1.640    0.390
       169 -10.3561    158.2417     90.1990   8.1344779438e+01   3.2571677004e+01    0.2794229    0.1930081 -33.81  0.001268289    1.493    0.330
       170 -10.5689     96.2008     90.4737   9.7508741305e+01   4.5483004565e+01    0.3880353    0.2461467   1.31  0.001383637    3.813    0.738
       171 -10.8749     48.9910     86.8186   1.1114090024e+02   5.3025141814e+01    0.7199374     0.225594 -62.73  0.002814176    2.755    0.637
       172 -11.4171     42.7165     82.4899   1.1230910021e+02   5.4670036360e+01     0.726728     0.324957  54.37  0.003085546    3.198    0.687
       173  -9.2176     21.2897     91.3357   1.2058016663e+02   5.4545006504e+01    0.1209853   0.07376111 -49.94 0.0003881783    1.635    0.388
       174 -10.2054    171.3193     90.6537   7.8608000418e+01   2.9386176210e+01    0.1585794     0.121283 -73.60 0.0007049116    1.729    0.422
       175 -11.7191     11.2107     91.0041   1.2359503554e+02   5.5318589287e+01    0.3488245    0.2038565  30.51  0.002169219    2.029    0.507
       176 -10.5759     22.9617     86.6835   1.1939390797e+02   5.5467225892e+01    0.2450426    0.1617401 -53.38 0.0009747263    1.412    0.292
       177 -12.0096     12.4069     78.4522   1.2158838824e+02   5.8046058967e+01    0.4146938    0.2189109 -57.96  0.001979341    1.556    0.357
       178 -10.7722      4.3971     86.0718   1.2509364682e+02   5.6820335214e+01    0.3730257    0.1732517 -70.23  0.002121597    1.618    0.382
       179 -10.8448      3.2554     79.0042   1.2462929052e+02   5.8446000190e+01    0.3027986     0.198526  67.11  0.001628358    1.613    0.380
       180 -11.4676      7.2946     73.8477   1.2263778441e+02   5.9371844042e+01    0.3288053    0.2326166 -30.41  0.001478584    1.725    0.420
       181 -10.7973     66.6559     85.2337   1.0518799109e+02   5.1225107968e+01    0.3290906    0.2212694 -28.66 0.0008588671    1.979    0.495
       182  -9.9084    167.1633     84.3341   7.7719497229e+01   3.1508810063e+01    0.3323147    0.2034722  81.43   0.00116136    3.011    0.668
       183  -9.6949     14.6733     84.0014   1.2163101968e+02   5.6659421651e+01    0.1622769    0.1274832 -78.23 0.0005449613    1.029    0.028
       184  -8.8823    173.6787     83.3009   7.6048844255e+01   3.0105743626e+01    0.1550246    0.1219072 -75.22 0.0007025911    1.627    0.385
       185 -10.1921    117.9483     82.8339   8.9294108667e+01   4.2967973651e+01    0.2740726    0.2077164 -40.95 0.0008133862    1.307    0.235
       186 -10.1747     29.4923     81.7566   1.1650403754e+02   5.6058539086e+01     0.189807    0.1717851  37.13  0.001014201    1.328    0.247
       187  -9.8373     74.6855     81.3323   1.0170381323e+02   5.0963747177e+01    0.1383488    0.1036701  84.99  0.000704583    1.683    0.406
       188 -10.9009     23.2901     80.2936   1.1829406106e+02   5.6882997495e+01    0.2839317    0.2222289 -34.24 0.0008954688    1.494    0.331
       189 -11.9092     21.4956     76.9738   1.1834647734e+02   5.7763363382e+01    0.3656103    0.2556399 -44.35  0.002023603    1.471    0.320
       190 -10.6042     91.5100     77.5742   9.5452331427e+01   4.9087446037e+01    0.3769989    0.2994927 -57.66  0.002033033    1.226    0.184
       191  -9.8624     71.0043     79.4645   1.0240645631e+02   5.1911372069e+01     0.186536    0.1349797  36.93 0.0005045115    1.530    0.346
       192 -10.4985    151.2751     77.6880   7.9330282325e+01   3.6529708880e+01    0.4082694     0.260637  48.91  0.001790909    1.552    0.356
       193 -12.0372     57.9237     74.2099   1.0540781141e+02   5.4823672334e+01    0.5025162    0.3238409  64.22 0.0004513464    2.127    0.530
       194 -11.9044     62.4571     71.5868   1.0320644750e+02   5.4825258348e+01    0.3261166    0.3000078 -87.87  0.001173721    1.160    0.138
       195  -9.8596    122.0527     76.4777   8.6310502550e+01   4.3392491904e+01    0.2263546     0.147618  48.36  0.001022886    1.565    0.361
       196 -10.9565    102.8507     73.5413   9.0861724625e+01   4.7872379081e+01     0.402496    0.2868097 -69.47  0.001596364    1.782    0.439
       197 -12.3843     44.7476     75.3063   1.1013873342e+02   5.6083530107e+01    0.2957465    0.2289454  80.09  0.000314241    1.468    0.319
       198 -11.2054     36.7683     69.7762   1.1170318817e+02   5.8113549987e+01    0.5547169     0.384336  69.22  0.003191463    1.808    0.447
       199 -10.8851    138.7346     74.8986   8.1502482522e+01   3.9991025512e+01    0.2774988    0.2422124  87.31 0.0003584854    1.322    0.244
       200 -10.5525    109.2264     74.5912   8.9317920272e+01   4.6415571047e+01    0.2893154    0.2731965 -40.38  0.001156973    1.026    0.025
       201  -9.8633     33.8597     75.3040   1.1385562921e+02   5.7138001074e+01     0.165887    0.1384944 -58.56 0.0005936425    1.081    0.075
       202 -10.2178     83.9757     72.3243   9.6311483845e+01   5.1481385536e+01    0.1794809    0.1767412  28.96 0.0002938437    1.097    0.089
       203 -11.2450     76.5062     70.9116   9.8325998291e+01   5.2970816276e+01    0.4827812    0.3272454  64.25  0.002355449    2.013    0.503
       204 -10.3316    112.1399     85.7193   9.1709170255e+01   4.3538166447e+01    0.3231302    0.2307005  66.80   0.00151447    1.733    0.423
       205  -9.2818    128.5835     71.5457   8.3057627995e+01   4.2930848200e+01    0.1492965    0.1439562 -60.84 2.286672e-05    1.067    0.062
       206  -9.3287    212.3947     70.1747   6.5255971781e+01   2.2627358828e+01    0.2160599    0.1263635 -41.67 0.0009278957    1.705    0.414
       207  -9.0618    167.9852     70.2097   7.3382013064e+01   3.3754551804e+01    0.1996647    0.1236317  55.24 0.0003445119    1.613    0.380
       208  -9.5948    161.0906     69.8207   7.4732052001e+01   3.5538880156e+01    0.2084025    0.1785416  15.82 0.0003290953    1.286    0.222
       209 -10.0538    144.7287     69.8347   7.8472221069e+01   3.9521135139e+01    0.2431873    0.1944684  -3.93  0.001086242    1.492    0.330
       210  -9.6173     68.6742     69.9651   1.0066747528e+02   5.4331306463e+01    0.1865819    0.1538548 -56.51 0.0002760006    1.104    0.094
       211  -9.4613     68.6872     66.7329   9.9756380021e+01   5.5029921967e+01    0.2201765    0.1099749 -45.74 0.0002943751    1.837    0.456
       212 -11.6368     50.1793     68.5697   1.0668356506e+02   5.6996603738e+01     0.409574     0.274934 -23.67  0.001914496    1.958    0.489
       213 -10.3073     50.9923     63.0588   1.0497323548e+02   5.8116148084e+01    0.2789671     0.162871 -50.11  0.001230401    1.471    0.320
       214 -10.4999    123.1072     68.5742   8.3577853290e+01   4.4709441030e+01    0.2614997    0.1920001 -47.69 0.0006572816    1.375    0.273
       215 -11.3985     94.7065     67.8365   9.1589029088e+01   5.0566515382e+01    0.4322946    0.2977823 -32.11  0.001594168    1.553    0.356
       216 -12.2121     17.8261     67.0490   1.1791100446e+02   6.0240605126e+01     0.535114    0.3283042 -15.51   0.00117071    2.316    0.568
       217 -11.1114     20.1795     61.8043   1.1606292236e+02   6.1242976452e+01    0.4900711    0.2199829  53.30  0.002242709    3.326    0.699
       218 -11.1547     31.0451     66.0734   1.1295382231e+02   5.9451264308e+01    0.3932014    0.2373339 -50.21  0.001539791    1.439    0.305
       219 -12.0535      3.9373     65.0103   1.2253363387e+02   6.1501770878e+01    0.4202874    0.2524598  72.03  0.001248669    1.906    0.475
       220 -12.2214     61.1384     61.1042   1.0077026621e+02   5.7279316177e+01    0.7967814    0.5331084   1.36  0.003944684    2.261    0.558
       221 -10.4973     99.8960     64.3232   8.8881563568e+01   5.0312022253e+01    0.2725375    0.1989821 -34.96 0.0006543505    1.360    0.265
       222 -10.4706     77.2177     63.8652   9.6015973439e+01   5.4362129190e+01    0.3838389    0.2292627 -51.17 0.0009938525    1.547    0.354
       223  -9.7120    216.2208     64.5658   6.3110129707e+01   2.2493955562e+01    0.2727518    0.1495883  66.27  0.001128866    2.047    0.511
       224  -9.8325     41.8001     64.2443   1.0862053062e+02   5.8853829209e+01    0.1731218    0.1515671 -74.41 0.0005054706    1.137    0.120
       225 -10.4460     11.0913     62.6673   1.1957872882e+02   6.1633785205e+01    0.1983161    0.1382407 -77.70 0.0004106679    1.228    0.186
       226 -10.8718      6.4169     58.5546   1.2060897475e+02   6.2794889927e+01    0.4222438    0.2300233  86.30  0.002332859    2.082    0.520
       227 -11.6979      5.0064     51.7700   1.1995967008e+02   6.4346048361e+01     0.371531    0.2186094 -53.00 0.0007191133    1.379    0.275
       228 -11.0413     10.9290     44.7838   1.1612898112e+02   6.5540953903e+01    0.4127978    0.1818711 -49.97  0.001620127    1.786    0.440
       229 -10.6653      4.6067     47.1653   1.1925184165e+02   6.5361374995e+01    0.2783482    0.1275904 -50.49  0.001577656    1.739    0.425
       230 -10.6207      6.9881     41.4070   1.1705225671e+02   6.6476590698e+01    0.3465064    0.1274196 -66.51 0.0009575675    2.098    0.523
       231  -9.9782    201.2857     61.9501   6.4724734055e+01   2.6604155914e+01    0.2061945     0.187303 -23.69 0.0003213172    1.088    0.081
       232 -11.1267     84.3621     61.7142   9.2967311630e+01   5.3643216073e+01    0.4304825    0.3564791 -13.95  0.002383931    1.363    0.266
       233 -11.2349     87.2137     56.0379   9.0160814612e+01   5.4297145967e+01    0.3372859    0.2500708 -36.43 0.0008548458    1.282    0.220
       234 -11.2992     87.4462     52.5104   8.8869253868e+01   5.4949053152e+01    0.3131296    0.2309165 -56.05 0.0009097388    1.468    0.319
       235 -10.6922     45.1949     50.9359   1.0373904097e+02   6.1379897601e+01    0.3975769    0.1893508 -44.12  0.001919158    1.879    0.468
       236 -11.4764     29.8066     60.8808   1.1226716040e+02   6.0707036088e+01    0.5449277      0.25933  11.75  0.002540709    3.213    0.689
       237 -12.6652     37.7397     51.1002   1.0672969078e+02   6.2118184995e+01    0.7153029    0.5326708 -33.24  0.003535196    1.348    0.258
       238  -9.8769     43.8492     57.1637   1.0603186902e+02   6.0190810643e+01    0.1957847    0.1620395 -48.48 0.0002814914    1.051    0.048
       239 -10.8759    128.5782     57.2403   7.8387971184e+01   4.5577296157e+01    0.3903344    0.2714851  -4.30 0.0009126427    1.985    0.496
       240 -10.2214    139.2124     65.7989   7.8530601504e+01   4.1559572466e+01    0.2093008    0.1780441  15.77  0.000448029    1.309    0.236
       241 -10.3545     47.6277     58.5215   1.0498086393e+02   5.9485720997e+01    0.3021056    0.2106088 -75.27  0.001599382    1.626    0.385
       242 -10.5249    123.0178     56.4672   7.9594068499e+01   4.6982661390e+01    0.2808456    0.2166699 -63.15 0.0009720604    1.574    0.365
       243 -10.9654    119.0495     53.1413   7.9516107229e+01   4.8465404308e+01    0.5026113    0.2192256  51.59  0.001497677    2.373    0.579
       244  -9.9664    114.7160     57.3539   8.2190557923e+01   4.8646898565e+01    0.1992208    0.1352041  38.47 0.0003088374    1.554    0.356
       245 -11.1078    101.1708     55.7765   8.5636062158e+01   5.1737147609e+01    0.6123817    0.2040348  49.44  0.002039167    3.364    0.703
       246 -10.2391     75.1316     56.0256   9.4247179408e+01   5.6316464793e+01     0.200154    0.1803618 -44.93  0.000347068    1.041    0.039
       247  -9.4925    128.4803     66.5724   8.1507114222e+01   4.3895737236e+01    0.1485212    0.1458659   2.13 0.0008058297    1.013    0.013
       248 -10.7415     12.6076     51.8694   1.1696515789e+02   6.3912787072e+01    0.2964408    0.1636054 -70.69  0.001724624    1.514    0.340
       249 -11.8471    128.5689     50.2959   7.5977281643e+01   4.6785292026e+01     0.551955    0.3614109 -10.52  0.001480603    2.035    0.509
       250 -10.8164     69.9115     50.3486   9.4196602269e+01   5.8273162162e+01    0.3503141     0.283249 -88.65  0.001765314    1.715    0.417
       251 -10.5533     81.7474     50.0186   8.9910417841e+01   5.6430134966e+01      0.19205    0.1743432 -35.56 0.0004185216    1.027    0.026
       252 -10.1556    220.9267     48.9382   5.8087651904e+01   2.3459837273e+01    0.2100675    0.1999674 -36.66 0.0002943646    1.010    0.010
       253 -11.4212    153.0280     47.9471   6.9392708426e+01   4.1159214730e+01    0.5299885    0.3137445  53.73  0.001679071    1.645    0.392
       254  -9.9615    113.7743     48.2777   7.9245687394e+01   5.0486208264e+01    0.2253321    0.1893974  75.41 0.0006859757    1.449    0.310
       255  -9.2543     78.5190     47.4541   9.0111363235e+01   5.7473334391e+01    0.1376195    0.1244202 -27.78  0.000118114    1.017    0.016
       256  -9.9842     62.4480     47.4787   9.5971290547e+01   5.9939651666e+01    0.3378926    0.1773635  30.68  0.001596849    2.232    0.552
       257 -10.4543     59.7789     45.2159   9.6206164223e+01   6.0764420589e+01    0.2793455    0.1977295 -15.13  0.001355421    1.718    0.418
       258 -10.4427    142.4392     45.4848   7.0894339984e+01   4.4212122676e+01    0.3870758    0.2674266 -66.22 0.0009985141    1.985    0.496
       259  -9.3862    233.4173     45.5026   5.5554827204e+01   2.0836163103e+01    0.1400743    0.1314971 -30.16 8.503845e-05    1.029    0.028
       260 -10.7053    104.0896     47.1913   8.1677200824e+01   5.2735819621e+01    0.4983194    0.2284693 -43.21  0.001984447    2.155    0.536
       261 -10.0702     51.2598     44.9726   9.9456880010e+01   6.1917552793e+01     0.196621    0.1509583 -31.27 0.0003818469    1.248    0.199
       262 -11.0352     52.0998     41.0403   9.7769075881e+01   6.2607719517e+01    0.3075721    0.2533505  48.79  0.000630616    1.503    0.335
       263 -10.4279    121.8483     42.8474   7.5026928480e+01   4.9588261000e+01    0.3490131    0.2984809 -77.01  0.001772331    1.443    0.307
       264 -11.3673     97.9287     31.8737   7.7577386660e+01   5.6602784804e+01    0.3339103    0.2575256  18.37 0.0003997341    1.402    0.286
       265 -10.6036    101.0340     28.3267   7.5151510983e+01   5.6503857727e+01    0.2698253    0.2317936 -48.50 0.0003049411    1.309    0.236
       266 -10.9148     97.3301     40.9766   8.1407924013e+01   5.5205529558e+01    0.3724374    0.2623584  42.13 0.0007944069    1.466    0.318
       267 -11.7931    101.8275     36.8302   7.8390030096e+01   5.4988449129e+01     0.602666    0.3401263  30.84  0.002028875    2.180    0.541
       268 -11.8060     97.0802     36.9280   7.9894656668e+01   5.5948171487e+01    0.2702829    0.2620298  -6.33 0.0003515347    1.080    0.074
       269 -11.0925     67.0748     40.6948   9.1783672535e+01   6.0598370382e+01    0.5472868    0.2760026 -20.44  0.001823987    4.381    0.772
       270 -10.2423     23.6618     41.3087   1.0981690143e+02   6.5428125796e+01    0.2339853    0.1941381  75.33 0.0009549078    1.532    0.347
       271 -11.6746     20.5184     37.8611   1.1022064374e+02   6.6387213741e+01    0.2647021     0.183234 -50.20 0.0005523301    1.142    0.124
       272 -12.6970     25.6742     36.2125   1.0743311548e+02   6.6330233115e+01    0.4358078    0.3894111  63.90  0.003086092    1.442    0.306
       273  -9.5336    220.4391     41.5154   5.6072166423e+01   2.4536051510e+01    0.1423318    0.1373901 -35.51 7.771814e-05    1.022    0.021
       274 -10.2294    183.9999     41.3236   6.1332562072e+01   3.4020520704e+01    0.2100714    0.1971249  66.50 0.0004540767    1.061    0.058
       275  -9.6019    110.4904     41.5386   7.7667838453e+01   5.2355908889e+01    0.2450098    0.1443065  63.98 0.0005413005    2.254    0.556
       276  -9.1928     72.0148     41.0484   9.0075908146e+01   5.9761423149e+01     0.162068    0.1376155 -33.94 0.0003914492    1.057    0.054
       277 -10.3327     42.9935     38.8869   1.0077640709e+02   6.4116314879e+01    0.5268885    0.3125044 -65.50   0.00218334    2.006    0.501
       278  -9.9936    226.0622     40.0321   5.4956345198e+01   2.3317774207e+01    0.2331173    0.1562201 -57.14 0.0006670008    1.612    0.380
       279 -10.9689     89.3299     39.3245   8.3347358963e+01   5.7051983399e+01    0.3219096    0.2151946 -44.61 0.0008112489    1.491    0.329
       280  -9.9986     85.0158     34.9907   8.3067300965e+01   5.8614246959e+01    0.2695545    0.1818926  59.90 0.0004613012    1.976    0.494
       281  -9.7149     82.7690     30.1602   8.1835315384e+01   5.9846936944e+01    0.2833781    0.1927466  75.98  0.001232742    2.868    0.651
       282  -9.6218     80.3426     26.1901   8.0973275173e+01   6.0942435040e+01     0.279032    0.1825557 -56.68 0.0007761776    2.158    0.537
       283 -12.1489     81.3604     37.9686   8.5526660651e+01   5.8752763957e+01     0.622329    0.4104791 -60.51  0.001647056    2.108    0.526
       284 -10.5580     77.8133     32.9676   8.4760950009e+01   6.0259236181e+01    0.4552516    0.2047511 -23.05  0.001487399    4.047    0.753
       285  -9.4082    249.7093     38.3465   5.1861955250e+01   1.7862914983e+01    0.1465385   0.09066788 -53.32 0.0007026878    1.661    0.398
       286  -9.3966     61.9513     37.9255   9.2704037547e+01   6.1886064751e+01    0.1587342    0.1301008 -36.05 0.0003176144    1.069    0.065
       287 -10.9310     18.4166     32.0047   1.0945180376e+02   6.7750649824e+01    0.3609667    0.2692926 -38.20  0.002463698    1.188    0.158
       288 -11.2415     10.6098     34.6212   1.1380031660e+02   6.7710964028e+01    0.5785668     0.247345  -5.38  0.002600694    4.043    0.753
       289 -10.4025      2.7215     23.7001   1.1460661801e+02   7.0373932395e+01    0.2844168    0.1818331 -35.90  0.001920621    1.429    0.300
       290 -11.6577      6.3771     30.5359   1.1469079542e+02   6.8791753257e+01    0.5677248     0.206897 -46.14  0.001488503    2.134    0.531
       291  -9.3876      2.2960     28.6465   1.1614378089e+02   6.9380944790e+01     0.202571    0.1295492  87.77 0.0006837667    1.982    0.496
       292  -9.8475    129.9636     33.4504   6.9415011443e+01   4.9108675755e+01    0.4205634    0.1497746 -45.26  0.001304645    3.570    0.720
       293  -9.5224    206.1520     33.8229   5.5721150191e+01   2.9155574133e+01    0.1958721     0.165348  32.65            0    1.290    0.225
       294  -9.2672     34.4406     34.4475   1.0294838540e+02   6.5902409241e+01    0.1249096    0.0989329 -39.82 0.0008046356    1.058    0.054
       295  -9.0646     60.2936     33.6695   9.1700287897e+01   6.2926962790e+01    0.1227334    0.1023334 -73.63 0.0003598855    1.632    0.387
       296 -11.0715    177.5692     31.2748   5.9144105234e+01   3.7051724491e+01    0.4142477    0.2325441 -56.61  0.001631212    2.242    0.554
       297 -10.0498    145.0504     32.0742   6.5480565811e+01   4.5522308588e+01    0.2173559    0.2128345  32.00 0.0003401995    1.021    0.020
       298  -9.6750    125.0152     33.0000   7.0459238660e+01   5.0370209368e+01    0.2469524   0.08298282  56.05 0.0008065461    2.971    0.663
       299 -10.2387     49.6571     31.3198   9.5156923020e+01   6.4808099415e+01    0.2254709    0.1712014  53.55  0.000833553    1.809    0.447
       300 -10.8532     50.6890     28.0034   9.3378877145e+01   6.5295037235e+01    0.2627717    0.1823458 -20.00 0.0002423522    1.508    0.337
       301 -10.0231     42.7991     31.8092   9.8307426472e+01   6.5539263285e+01    0.1836305    0.1477381 -27.27 0.0007256307    1.139    0.122
       302  -9.9053     56.2934     30.7676   9.2155374937e+01   6.4030498999e+01     0.246495    0.1431028 -35.10  0.001270264    1.578    0.366
       303  -9.8258    139.8720     29.4295   6.5611463394e+01   4.7203845028e+01    0.3048377    0.1935702  -3.77  0.001264311    2.003    0.501
       304  -9.7116    153.6072     28.7690   6.2541113811e+01   4.3741628894e+01    0.2081995    0.1348824 -38.19 0.0003782988    1.576    0.365
       305 -11.1004    214.6284     27.3936   5.2769647632e+01   2.7729200656e+01    0.2716327    0.2407778 -61.74 0.0001874021    1.110    0.099
       306 -10.3131    210.9124     24.5064   5.2375057298e+01   2.9022581762e+01    0.2899335    0.1778678  81.15 0.0009610745    1.777    0.437
       307 -11.2299     70.6912     25.8570   8.4358295792e+01   6.2689271758e+01    0.5289665    0.3317651  29.26  0.002725712    1.764    0.433
       308  -8.8381     21.2579     28.3340   1.0694002098e+02   6.8285003395e+01     0.123325   0.06909992 -38.53 0.0002973386    1.570    0.363
       309  -9.1977    192.2929     28.3255   5.5956956088e+01   3.3480363695e+01    0.1531658    0.1100268  29.28 0.0002381907    1.619    0.382
       310 -12.3155    232.9002    246.5763   9.7589486706e+01  -4.1456608632e+00    0.3557936    0.2975569   6.47  0.003002064    1.323    0.244
       311  -9.6717     24.8244     26.8755   1.0473330734e+02   6.8287787453e+01    0.1492568    0.1291756 -65.13 0.0004790828    1.290    0.225
       312  -9.5374    165.4124     26.1787   5.9462984926e+01   4.0940080632e+01    0.2070993    0.1342876 -38.73 0.0003599991    1.570    0.363
       313  -9.1099    146.2971     26.2624   6.3074404362e+01   4.5971574724e+01    0.1511437    0.1078669  31.37 0.0001636815    1.508    0.337
       314 -10.6225     87.7639     24.9888   7.7905220576e+01   5.9725887882e+01     0.401918    0.2944983  85.24  0.001749414    2.430    0.588
       315 -10.9494     84.0655     20.8134   7.7279679329e+01   6.1076580355e+01    0.5576099    0.3337425  33.35  0.002718878    1.782    0.439
       316 -11.8543    224.8033    247.0948   9.8909595093e+01  -3.0436223083e+00    0.3817011    0.1870218 -18.72   0.00228654    2.830    0.647
       317 -10.6065    250.4413    245.8192   9.4825568936e+01  -6.5061727030e+00    0.2877031    0.1152979 -26.73  0.001721112    2.929    0.659
       318  -9.4411     16.5193     26.5675   1.0864115229e+02   6.8988196879e+01    0.1178814    0.0908594 -45.48 5.370253e-05    1.026    0.025
       319 -10.6021     10.1177     25.2263   1.1136294290e+02   6.9671123061e+01    0.2391475    0.1624069 -28.85 0.0006972115    1.452    0.311
       320  -9.7241    156.6420    245.7228   1.0973104959e+02   7.1906868097e+00    0.1073403   0.06991506  26.79 0.0003956009    1.658    0.397
       321 -10.5251      8.0069     20.9893   1.1109735351e+02   7.0644332725e+01    0.2588025    0.1199029 -55.61  0.001052578    1.592    0.372
       322 -10.4054    147.6149    245.2762   1.1117946325e+02   8.5870358171e+00    0.1202451    0.1034243 -27.59 0.0009514063    1.666    0.400
       323 -10.2185    173.7471     24.1402   5.7384969693e+01   3.8951997281e+01    0.2430352    0.1971229  81.31 0.0002855211    1.281    0.219
       324  -9.6913     93.6311     23.8542   7.5508156996e+01   5.8721845477e+01    0.1993271    0.1198954 -40.41 0.0009394402    1.704    0.413
       325  -9.4660    115.4263    244.7315   1.1647509474e+02   1.3316496304e+01    0.1123068    0.1023787 -55.60 0.0007294205    1.569    0.363
       326 -10.7580    129.4422     19.0416   6.3874169529e+01   5.1167205777e+01    0.3289436    0.2393504 -61.45  0.001239856    1.752    0.429
       327  -9.5568    120.4826     21.4946   6.6981619847e+01   5.3050425393e+01     0.145501    0.1352294  19.20  0.000810379    1.013    0.013
       328  -9.8851    113.9684     20.9449   6.8404077795e+01   5.4662819281e+01    0.2299996     0.177198 -67.73  0.001137739    1.756    0.430
       329  -9.9832     66.4650     21.3303   8.3955058323e+01   6.4134142931e+01    0.2206032    0.1200848  41.45  0.001085444    1.978    0.494
       330 -10.5457     46.1368     20.8586   9.2324281268e+01   6.7171715379e+01    0.2293277    0.1822837  24.52 0.0006665406    1.385    0.278
       331 -10.9012    162.2847     19.6057   5.7696010658e+01   4.2557948430e+01      0.27773    0.1910717 -14.11  0.000724895    1.585    0.369
       332  -9.9312    227.7336     19.4095   4.9087826426e+01   2.5301607704e+01    0.2607221    0.1355287  79.19     0.001125    2.103    0.525
       333 -12.0547     74.1803    238.3853   1.2281625636e+02   1.9740560095e+01    0.4507625    0.2790264  61.92   0.00334082    1.240    0.194
       334  -9.1783    151.2601     18.7099   5.9312396466e+01   4.5592946629e+01    0.1439497     0.110654 -59.39  0.000216344    1.492    0.330
       335 -11.3970     36.2269    241.7455   1.2908748329e+02   2.3633378757e+01    0.3473994    0.1817462  56.56  0.002624789    1.302    0.232
       336 -10.3368    108.2995     17.1965   6.8295614830e+01   5.6457364247e+01    0.2508188    0.2000118  60.55 0.0006659303    1.356    0.263
       337 -10.7119    156.5001    241.0984   1.0925137945e+02   7.7771980474e+00     0.130157    0.1121189 -53.69  0.001029691    1.582    0.368
       338 -10.3670     88.8900    241.2108   1.2058790999e+02   1.7430408000e+01    0.1600823    0.1338638 -34.10  0.001229466    2.134    0.531
       339  -9.3636     50.3255    240.3068   1.2680002961e+02   2.2300559753e+01   0.08023565   0.07484677  46.03 0.0005434916    1.649    0.394
       340 -10.4815    195.8310    238.3114   1.0238595335e+02   2.1084869177e+00    0.2402712    0.1461284  31.49  0.001594697    1.321    0.243
       341 -10.6521     31.2811    237.2080   1.2965743954e+02   2.4851870682e+01    0.2042643    0.1172567  70.63 0.0009593482    1.311    0.237
       342 -10.1402    216.9434     16.6021   4.9415223946e+01   2.8338152987e+01    0.4132794   0.08568961  62.00  0.001269795    3.812    0.738
       343  -9.3486    146.8363     15.5756   5.8958529859e+01   4.7113152399e+01    0.1910034    0.1410723  79.22 0.0004180602    1.486    0.327
       344  -9.3191    205.9870    246.2419   1.0175921274e+02  -2.3212181463e-01    0.1427541   0.06769964  40.20 0.0005136145    1.533    0.348
       345 -10.2561    159.9233    235.8665   1.0808405675e+02   7.9077202440e+00    0.1739308     0.124647  32.33 0.0007343289    1.273    0.214
       346  -9.4496    231.3273    235.3108   9.6276104741e+01  -2.8999621689e+00    0.1137565   0.06437306  19.87 0.0003648899    1.662    0.398
       347  -9.6574     26.6967     18.6294   1.0065972282e+02   6.9712129517e+01    0.1968427    0.1102444 -29.40  0.001091079    1.772    0.436
       348  -9.5994    139.8710     13.6080   5.9530933205e+01   4.9146442418e+01    0.1978958    0.1382747  80.77 0.0005573814    1.656    0.396
       349 -10.1279    177.5709    234.9682   1.0499476443e+02   5.2924739436e+00    0.2170795    0.1241719  32.34 0.0009237914    1.522    0.343
       350 -11.3210    153.4759    234.1876   1.0899041583e+02   9.1119485844e+00    0.2016189    0.1744418   4.70 0.0009502093    1.504    0.335
       351  -9.6821     30.6403     12.9712   9.6187848809e+01   7.0356074330e+01    0.1741776    0.1211728 -39.16 0.0005197834    1.173    0.148
       352  -9.9655    109.3439    242.8267   1.1732151637e+02   1.4429880964e+01    0.1898278    0.1062331  51.76 0.0008502537    1.326    0.246
       353 -10.0630    166.9967    233.6955   1.0662703307e+02   7.0861033556e+00    0.1638986    0.1183381  41.54  0.001088289    1.035    0.034
       354 -10.0223     85.9438    232.7952   1.2044341387e+02   1.9075103916e+01    0.1839031   0.08370775  57.91 0.0005955186    1.879    0.468
       355  -9.7701    142.3285    232.2857   1.1069441389e+02   1.1068987782e+01    0.1066537   0.07671458  25.58 0.0002513095    1.611    0.379
       356 -10.4381     29.1836    232.8824   1.2979905337e+02   2.5746175769e+01     0.230953     0.104862  66.49  0.001252071    1.707    0.414
       357  -9.7913     24.0616    232.3197   1.3058376686e+02   2.6356172968e+01    0.1358098   0.08975431  61.62 0.0005696152    1.048    0.046
       358  -9.9076     79.9154    231.4844   1.2136804642e+02   2.0064168526e+01    0.1594848   0.07922284  45.57 0.0004434348    1.526    0.345
       359 -10.3313    181.2163    248.2174   1.0598400941e+02   3.2359910127e+00     0.192303   0.08470643 -32.91  0.001048966    3.546    0.718
       360  -9.2821     58.3136    230.2968   1.2492420853e+02   2.2929126900e+01   0.08342465   0.07813149  43.10 0.0003346443    1.602    0.376
       361  -9.0522    249.3299    227.2832   9.2302673520e+01  -4.7686709955e+00    0.1135702   0.06276952  19.57 0.0003749695    1.609    0.378
       362  -9.9712    190.5195    226.4558   1.0170719484e+02   4.2652586906e+00    0.1789259    0.1141353 -34.88 0.0006685854    2.004    0.501
       363  -9.1961    140.4622    227.4746   1.1048861675e+02   1.2014910528e+01    0.1155987   0.08719116  48.93 0.0003022641    1.034    0.032
       364 -10.0737    129.7825    226.8392   1.1229484106e+02   1.3733952908e+01    0.2406704    0.1119433  57.21  0.001248846    2.252    0.556
       365  -9.9218     87.4919    227.5014   1.1976003466e+02   1.9685863283e+01    0.1098456   0.08093359  57.82 -0.0001368381    1.008    0.008
       366 -10.3692     66.7266    226.6923   1.2327099648e+02   2.2485644768e+01    0.2906114   0.09404597  50.84  0.001227946    2.276    0.561
       367 -10.8929      4.9974    226.1693   1.3334102638e+02   2.9153503043e+01    0.2722093   0.05725054  53.07  0.001509602    2.705    0.630
