#   1 NUMBER                 Running object number                                     
#   2 MAG_AUTO               Kron-like elliptical aperture magnitude                    [mag]
#   3 X_IMAGE                Object position along x                                    [pixel]
#   4 Y_IMAGE                Object position along y                                    [pixel]
#   5 X_WORLD                Barycenter position along world x axis                     [deg]
#   6 Y_WORLD                Barycenter position along world y axis                     [deg]
#   7 A_WORLD                Profile RMS along major axis (world units)                 [deg]
#   8 B_WORLD                Profile RMS along minor axis (world units)                 [deg]
#   9 THETA_WORLD            Position angle (CCW/world-x)                               [deg]
#  10 FWHM_WORLD             FWHM assuming a gaussian core                              [deg]
#  11 ELONGATION             A_IMAGE/B_IMAGE                                           
#  12 ELLIPTICITY            1 - B_IMAGE/A_IMAGE                                       
         1 -15.2640     10.0928    153.2609   1.3802557759e+02   4.1121495759e+01     4.249135     1.424052 -88.66   0.01938416    2.909    0.656
         2 -13.2463    195.9637     32.0578   6.1856894147e+01   3.2015228998e+01     1.303538     1.105487  31.02  0.006341719    1.241    0.194
         3 -14.0120    208.7429     16.8680   5.5813659538e+01   3.0423072735e+01     1.841236     1.203271  26.71  0.008865166    1.910    0.477
         4 -10.7470      2.0343     14.2593   1.2126532379e+02   7.2501960819e+01    0.3075269    0.1363291 -66.22   0.00151986    2.115    0.527
         5 -10.7588      1.9828      5.4749   1.1803357143e+02   7.4251028532e+01    0.6101118   0.07682353 -55.20  0.002295043    3.693    0.729
         6 -10.8264    189.7537     15.5371   5.7640052751e+01   3.5420436181e+01    0.2624165    0.1976405 -22.97 0.0008090253    1.369    0.269
         7 -11.9502    139.4166    248.4334   1.2000464364e+02   8.8354842017e+00    0.3295827    0.2755786 -85.48  0.002557465    1.692    0.409
         8 -11.9596    126.0472    247.0840   1.2225829624e+02   1.0858622281e+01    0.3432374    0.2682385 -48.47  0.002627829    1.731    0.422
         9 -12.7325     92.7198    249.4262   1.2835791751e+02   1.4904181647e+01    0.8005418    0.3827651  28.46 0.0006779389    2.392    0.582
        10 -12.2612     15.9205    241.1888   1.4084490177e+02   2.4490717672e+01    0.7786775    0.1443887  47.69  0.003195553    2.801    0.643
        11 -12.5455     30.5196    247.8644   1.3874691993e+02   2.2092072536e+01    0.8381681    0.5557735  27.51  0.006512132    1.866    0.464
        12 -10.6484     41.1435    247.6002   1.3700800278e+02   2.1069006419e+01    0.2703485    0.1520921  80.28   0.00154182    1.715    0.417
        13  -9.7948     38.2116    243.4067   1.3729853327e+02   2.2009791114e+01    0.1971781    0.1085443  61.04 0.0007699829    1.398    0.284
        14 -10.2773     16.8603    249.9703   1.4098533052e+02   2.3062841811e+01    0.5062421    0.1034731  38.40  0.002769113    2.951    0.661
        15 -11.1690      3.5078    250.1021   1.4303754500e+02   2.4219752179e+01    0.5347952    0.1227052  34.15  0.002706906    3.406    0.706
        16 -11.5419      2.7274    246.0009   1.4305227817e+02   2.4903511014e+01    0.6562517     0.196282 -83.79  0.003190375    3.218    0.689
        17 -11.2643     89.2575    244.6168   1.2859976264e+02   1.6036492530e+01    0.4121192    0.1841481  68.22  0.001657595    3.628    0.724
        18  -9.0163     69.6461    246.3254   1.3214142257e+02   1.8144796875e+01    0.1129334   0.05501998  57.85 0.0007046813    1.766    0.434
        19  -9.3074     29.2100    240.8707   1.3867518035e+02   2.3296165451e+01    0.1502405   0.09089043  60.13  0.000463592    1.201    0.167
        20 -10.6781     54.9245    238.6751   1.3421991819e+02   2.0982809405e+01    0.2973709    0.1564692  42.98  0.001610476    1.440    0.306
        21 -14.1523      9.5566    206.7765   1.4069205366e+02   3.0774142013e+01     2.056731     0.778633 -87.14  0.007246756    2.428    0.588
        22 -11.0197    185.2493    249.5681   1.1203609824e+02   2.2334993168e+00    0.2914349   0.08083308  36.84  0.001312396    2.666    0.625
        23 -11.2488    151.3463    229.0520   1.1563508145e+02   9.7142866694e+00    0.3455644    0.1404363  36.58  0.001737114    1.934    0.483
        24 -11.2981     25.8485    223.9787   1.3852267408e+02   2.6352408707e+01    0.2894966    0.1780011 -78.73  0.002103375    1.659    0.397
        25  -9.8642     51.8631    233.8658   1.3447676571e+02   2.2080548527e+01    0.1432657    0.1232033  58.77 0.0006907975    1.222    0.182
        26 -12.7357     35.7768    225.4488   1.3685321178e+02   2.5139871011e+01    0.2887174    0.2253853  48.78 0.0007846897    1.209    0.173
        27 -10.2727     24.4630    213.2468   1.3828110023e+02   2.8318433802e+01    0.1843116    0.1151155  43.48 0.0005738419    1.370    0.270
        28 -10.9821    227.4514    203.5141   9.7750996663e+01   1.2301233334e+00    0.2953134    0.2320234 -47.16 0.0009371545    2.147    0.534
        29 -11.3113     21.4610    235.8865   1.3975452984e+02   2.4818159553e+01    0.2725264    0.1529325  40.32  0.002050536    1.502    0.334
        30  -9.8394    193.4749    195.7016   1.0266874359e+02   7.6726785650e+00    0.5173577    0.2782909 -60.05  0.001543763    8.258    0.879
        31 -11.6050     62.3139    192.9463   1.2957366630e+02   2.8068276489e+01    0.2981407    0.2327905 -43.62  0.001216674    1.748    0.428
        32  -8.5001    181.5210    192.4582   1.0445619638e+02   1.0142129311e+01    0.1313071    0.1071259  25.47 0.0001368521    1.012    0.011
        33 -11.7280     68.0569    185.7382   1.2769271285e+02   2.8768673499e+01    0.2489947    0.2165947 -54.55 0.0004870962    1.399    0.285
        34 -11.0461     77.8644    173.8963   1.2425171782e+02   2.9882740676e+01    0.2180479    0.2060174  86.74 0.0003761075    1.137    0.120
        35 -13.2544     64.9159    171.2882   1.2693239899e+02   3.2044731757e+01    0.4482935    0.2569324 -45.66  0.001939593    2.288    0.563
        36 -12.0739     85.4535    165.3480   1.2142193329e+02   3.0610445975e+01    0.8212126    0.4724938  52.31  0.004251863    1.695    0.410
        37 -13.0856     65.6598    141.8047   1.2319597056e+02   3.8293736056e+01     2.034296    0.9579078  82.74  0.005676515    4.640    0.784
        38  -9.3409    101.1847    145.8398   1.1458807939e+02   3.2402517633e+01    0.2442399    0.1676465 -30.65 0.0009181554    1.935    0.483
        39 -12.1119     86.8089    148.6846   1.1872222735e+02   3.3955144786e+01     0.260791    0.2327533 -43.95 0.0004998693    1.252    0.201
        40 -14.9680     50.5768    206.8616   1.3301502308e+02   2.6818999183e+01     8.239019          nan  44.03   0.02408072    7.157    0.860
        41 -11.6665     18.9705    229.1960   1.3991415496e+02   2.6127605282e+01    0.3047559    0.2323678  21.79  0.001652247    1.838    0.456
        42  -9.5147    109.7430    135.4207   1.1046441105e+02   3.3243212755e+01    0.2988478    0.1941305 -21.30  0.001000847    2.425    0.588
        43 -10.4923     97.0731    132.5194   1.1328551337e+02   3.5958172588e+01    0.2580887     0.220971 -26.20 0.0006435917    1.349    0.259
        44  -9.0157    106.8641    122.8373   1.0867922823e+02   3.6480499507e+01    0.1950732     0.184863  -4.91 0.0002984854    1.118    0.106
        45 -10.5391    167.9902    112.9632   9.0745134100e+01   2.6248664023e+01    0.3435972    0.2933509 -80.96  0.000931012    1.598    0.374
        46  -9.2528    204.0168    111.0946   8.2734902944e+01   1.8637663745e+01    0.3349147    0.1719252  26.06  0.001217197    2.741    0.635
        47  -9.8647     98.3469    149.7040   1.1595520923e+02   3.2018528834e+01    0.2586072    0.2345581 -18.77  0.000830085    1.299    0.230
        48 -10.7519    243.1331     93.7097   7.1805850854e+01   1.2898150584e+01    0.2062912     0.186406 -80.92  0.001215304    1.462    0.316
        49 -13.8749     42.9686    216.4685   1.3506731587e+02   2.5932078827e+01    0.8787827     0.560951  57.37  0.003900328    1.214    0.176
        50 -10.2377     53.0622    228.3747   1.3393963387e+02   2.2841693738e+01    0.2304949    0.1294395  85.33 0.0003408483    1.862    0.463
        51  -9.3435    158.4692     77.5313   8.3024610703e+01   3.4874948268e+01    0.1574988    0.1477984  11.16 7.939646e-05    1.015    0.015
        52 -10.6664    162.2537    248.6620   1.1596745454e+02   5.5949751790e+00    0.2275508    0.1539907 -19.96  0.001370355    2.071    0.517
        53 -11.8130    199.5377    246.5566   1.0917440560e+02   5.4618951971e-01    0.3426651    0.2001186  27.73   0.00225797    1.276    0.216
        54 -11.8876    107.9625    245.3708   1.2533549624e+02   1.3525707663e+01    0.3357095    0.2361786  68.12  0.001508137    1.554    0.356
        55 -10.4470    249.4288    247.0148   1.0094181085e+02  -6.2166589150e+00    0.2154344    0.1103991  -2.40  0.001327128    2.082    0.520
