#   1 NUMBER                 Running object number                                     
#   2 MAG_AUTO               Kron-like elliptical aperture magnitude                    [mag]
#   3 X_IMAGE                Object position along x                                    [pixel]
#   4 Y_IMAGE                Object position along y                                    [pixel]
#   5 X_WORLD                Barycenter position along world x axis                     [deg]
#   6 Y_WORLD                Barycenter position along world y axis                     [deg]
#   7 A_WORLD                Profile RMS along major axis (world units)                 [deg]
#   8 B_WORLD                Profile RMS along minor axis (world units)                 [deg]
#   9 THETA_WORLD            Position angle (CCW/world-x)                               [deg]
#  10 FWHM_WORLD             FWHM assuming a gaussian core                              [deg]
#  11 ELONGATION             A_IMAGE/B_IMAGE                                           
#  12 ELLIPTICITY            1 - B_IMAGE/A_IMAGE                                       
         1 -16.0953    133.1055     21.3510   2.9045800368e+02   6.7247525047e+00    0.5697314    0.3187682  89.30   0.04535239    3.073    0.675
         2 -14.5443    208.7455     65.7743   2.8983670359e+02   5.7519673344e+00    0.1514915   0.05742774  54.06  0.008550301    5.621    0.822
         3 -18.1346    238.2615     38.3368   2.8932091643e+02   5.8846141458e+00    0.4430228     0.147173 -58.67   0.02980896    2.874    0.652
         4 -10.5475     92.0913     22.1827   2.9094796386e+02   6.9662489561e+00   0.01811399  0.009838501 -63.79 0.0007868857    1.919    0.479
         5 -11.6815    202.2880     13.7041   2.8959429226e+02   6.3876855191e+00   0.01263334  0.008020726 -51.42  0.001078987    1.577    0.366
         6  -9.8945     79.5839     11.7941   2.9103245227e+02   7.1616550212e+00    0.0161645   0.00965353 -61.37  0.001359245    1.704    0.413
         7 -10.8408    164.1152      9.9011   2.9002162046e+02   6.6656633374e+00   0.01203923  0.009011456 -54.39 0.0004344165    1.343    0.256
         8 -10.7622    241.4892      4.6341   2.8907648043e+02   6.2502593503e+00   0.01001565  0.005086469  -8.01 0.0005877109    5.093    0.804
         9 -13.4557     30.0149    174.9554   2.9261146106e+02   5.5928110877e+00   0.04781827   0.04419548  32.78   0.00397216    1.060    0.057
        10 -10.2231    248.7980    249.3986   2.9048496099e+02   3.4020552883e+00    0.0140697   0.01015444 -16.04  0.001446675    1.686    0.407
        11  -9.2084    213.9877    186.0344   2.9050887596e+02   4.3416418790e+00  0.008015069  0.007661406  24.29 0.0003802904    1.024    0.024
        12  -9.0430    209.0149    186.2603   2.9056881959e+02   4.3695275235e+00  0.009393533  0.008475141  33.72 0.0004100942    1.085    0.078
        13 -10.2265    210.9791    178.8399   2.9050047891e+02   4.4425636092e+00   0.02133911   0.00823487  40.70  0.001675069    2.557    0.609
        14 -10.3056    220.8626    176.2084   2.9036804067e+02   4.4121416739e+00   0.01689664   0.01022978 -71.53  0.001553023    1.879    0.468
        15 -11.2565    216.4035    169.5590   2.9038002925e+02   4.5157075254e+00   0.03970571   0.01296197  40.91  0.002873396    3.039    0.671
        16 -10.2179    229.3106    172.9223   2.9024853217e+02   4.3980053174e+00    0.0266703  0.009581779  35.25  0.001892083    2.541    0.606
        17 -11.2144    190.3928    170.7389   2.9069366120e+02   4.6616033413e+00    0.0398159   0.01110015  44.26  0.002445026    4.322    0.769
        18 -10.7137    180.5374    165.3937   2.9077725452e+02   4.7832721797e+00   0.03068397   0.01258027  48.10   0.00229725    2.996    0.666
        19  -8.3647    236.2916    172.2780   2.9016241295e+02   4.3625721363e+00  0.006684297  0.005042451 -23.31 0.0002782992    1.525    0.344
        20  -9.2353    195.9702    167.9414   2.9061089375e+02   4.6595045799e+00   0.01077221  0.007632502  58.51 0.0006630656    1.627    0.385
        21 -10.2300    202.5711    166.3209   2.9052324152e+02   4.6376286056e+00   0.01819424   0.00824107  48.66  0.001159702    2.633    0.620
        22 -12.1049     55.0182    159.9373   2.9222509935e+02   5.6129257679e+00   0.02014526    0.0175698 -21.50 0.0008974102    1.217    0.178
        23 -14.2584     65.7842    151.5755   2.9204717782e+02   5.6432589930e+00   0.09878787   0.06692818 -24.72  0.007602922    1.812    0.448
        24  -9.1600    237.2926    249.6629   2.9062189383e+02   3.4694873053e+00  0.006952172  0.005044105  64.32 0.0005072289    1.644    0.392
        25 -10.5717    176.6159    146.4142   2.9070783950e+02   5.0249360078e+00   0.02659803   0.01187297  54.29  0.001916858    3.397    0.706
        26 -14.4543    232.2085     62.3640   2.8953926714e+02   5.6468320526e+00   0.05288015    0.0289647  37.33  0.004363596    1.755    0.430
        27 -11.3015    160.6887    128.8065   2.9078835335e+02   5.3244043723e+00   0.01983405   0.01650681 -54.70  0.001734099    1.214    0.176
        28 -11.0960    134.4588    123.5127   2.9106560106e+02   5.5456922132e+00   0.09569075   0.03858859 -78.15  0.005274964    6.129    0.837
        29 -10.8491    127.3289    112.1798   2.9108070100e+02   5.7192812512e+00   0.04212377   0.01685587 -72.66    0.0023679    3.785    0.736
        30 -10.7302    123.4808    102.5045   2.9106716093e+02   5.8537685762e+00   0.02025906   0.01410011  70.64  0.001410939    1.842    0.457
        31  -8.7478     99.4371    131.5368   2.9152792376e+02   5.6677816490e+00  0.006598232  0.006439418  -5.53 0.0001258052    1.025    0.024
        32 -10.5110      7.1477    247.8835   2.9332259559e+02   4.8946239471e+00   0.01075822  0.009103081  59.24 0.0009387366    1.265    0.210
        33 -10.6566    148.8120    116.1518   2.9085133413e+02   5.5422414289e+00   0.03133202   0.01740527  75.56  0.002377065    3.388    0.705
        34 -11.6368    116.5676     93.8985   2.9109633648e+02   5.9947341924e+00   0.07152487   0.03863706 -53.36   0.00674102    1.827    0.453
        35 -13.4857    248.9032     89.4151   2.8950800809e+02   5.2344705632e+00   0.02435592   0.01512162  36.61  0.002146673    1.554    0.357
        36  -9.2620    121.3220    118.6707   2.9119117529e+02   5.6815877836e+00   0.01175514   0.00821773 -79.96  0.001143681    1.689    0.408
        37  -9.6059     90.1162    114.6936   2.9153547699e+02   5.9179258514e+00    0.0251965   0.01435101  81.10  0.001986365    3.129    0.680
        38 -10.9541    134.7812    109.0240   2.9097348549e+02   5.7098653237e+00   0.05457796   0.01046048 -63.34  0.002858868    6.044    0.835
        39  -9.9953    132.0208     98.0108   2.9093892209e+02   5.8530348204e+00   0.01315077   0.01007949  49.68 0.0004519755    1.363    0.266
        40 -11.3648    137.3255     93.0467   2.9084601118e+02   5.8774727855e+00   0.02820311   0.01583565  31.45 0.0009706145    1.703    0.413
        41 -10.7317    156.5219    112.2681   2.9073666980e+02   5.5395501337e+00   0.02125179   0.01266431  76.75  0.001250105    2.714    0.632
        42 -10.8047    117.7067    109.1835   2.9117605387e+02   5.8124993186e+00   0.01510883  0.009594177  53.26  0.001470819    1.795    0.443
        43  -8.8296     68.8722    244.4864   2.9257426021e+02   4.5580346295e+00   0.00939372  0.006529655  24.40 0.0003699002    1.430    0.301
        44  -9.0053     93.2721    103.4153   2.9142951231e+02   6.0280053426e+00   0.01125296  0.008014817  85.23 0.0006719726    1.793    0.442
        45 -11.8778    153.7721     98.4442   2.9068479244e+02   5.7148735795e+00   0.02974627   0.02211834  82.66  0.002845624    1.664    0.399
        46  -9.9824    144.5054    102.5657   2.9081931235e+02   5.7243829985e+00   0.01321587   0.01095241 -22.27 0.0005760082    1.316    0.240
        47  -9.7974    139.3878    105.4831   2.9089751534e+02   5.7222673481e+00   0.01302164   0.01155776  62.27 0.0009185196    1.197    0.165
        48 -10.0866    203.3524    160.8363   2.9048060859e+02   4.6957197120e+00    0.0115218  0.008844085  41.88 0.0006932311    1.296    0.228
        49 -10.8729    198.7294    152.8280   2.9048626585e+02   4.8158716275e+00   0.01282208  0.009624881 -30.18 0.0007416175    1.484    0.326
        50  -9.9511    126.1770     90.8537   2.9096427917e+02   5.9708522089e+00   0.01053663   0.00898672  60.19 0.0009008067    1.258    0.205
        51 -11.6351    150.0135     88.2471   2.9066693343e+02   5.8547843551e+00   0.01395927   0.01176702 -65.48 0.0004229638    1.226    0.184
        52 -10.5831    172.0063     85.1568   2.9038850259e+02   5.7554049183e+00   0.01073825   0.00996106  24.57 0.0003360116    1.056    0.053
        53 -10.8898    219.8688    154.8190   2.9024934285e+02   4.6634188460e+00   0.01621033   0.01122496  21.13  0.001130366    1.473    0.321
        54  -9.0808    206.5796     82.7442   2.8996596567e+02   5.5709015051e+00  0.008556284  0.006509511 -83.76 0.0004168348    1.525    0.344
        55 -11.8167    119.1162    102.2589   2.9111720554e+02   5.8832844981e+00   0.02191222   0.01953662  39.90  0.001344761    1.110    0.099
        56  -8.9914    202.3411     79.7642   2.8999773392e+02   5.6310611082e+00   0.01932036  0.009537835  62.38  0.001352557    3.769    0.735
        57 -12.2741    194.4735     72.1378   2.9004391599e+02   5.7667209511e+00   0.03750593   0.03131109  68.37  0.002624713    1.336    0.252
        58 -10.0168    146.9920    150.2185   2.9108039509e+02   5.1627045170e+00     0.034752    0.0154659  62.74  0.001821803    6.849    0.854
        59  -9.6789     79.5452     74.8367   2.9141759132e+02   6.4395478448e+00   0.01328742  0.008605503 -81.52  0.001277702    1.939    0.484
        60 -11.2521    184.3026     66.3489   2.9012852353e+02   5.8954583714e+00   0.02603904   0.01469362 -83.77  0.001939442    2.631    0.620
        61  -9.3489    196.1879     62.2735   2.8996340030e+02   5.8691796575e+00  0.008411895  0.007818556  41.94 0.0002737744    1.071    0.066
        62  99.0000    217.5034     61.4877   2.8970723387e+02   5.7472470587e+00   0.01121718  0.008473942  44.74  0.001221629    1.339    0.253
        63 -10.1155    216.3167     57.1062   2.8969442901e+02   5.8047066965e+00   0.01189267  0.009233202  77.00 0.0007452301    1.539    0.350
        64  -9.8273    180.5752    152.2634   2.9069680794e+02   4.9336071967e+00   0.01390354  0.009786996  57.93 0.0006924872    1.634    0.388
        65 -11.2407    191.4335    151.4676   2.9056395998e+02   4.8761912253e+00   0.03156752   0.01560388 -86.04  0.002125058    4.232    0.764
        66  -8.7592     70.9753     43.0486   2.9132508266e+02   6.8562203805e+00  0.007801725  0.007699609 -52.25 0.0003958508    1.035    0.034
        67 -11.5124    182.2373     40.7638   2.8999647875e+02   6.2011433714e+00   0.01322346   0.01040295 -66.71 0.0005831163    1.326    0.246
        68  -7.8967    195.6130     40.4595   2.8983678510e+02   6.1224915461e+00   0.00663082  0.006275605 -26.74 -1.236936e-05    1.076    0.071
        69  -9.4841     57.7697     36.2304   2.9143970285e+02   7.0149359275e+00   0.01163602  0.007962881 -66.46 0.0006939133    1.539    0.350
        70  -9.8508    133.8632    147.7409   2.9122020393e+02   5.2714499953e+00   0.02305751  0.009936239 -72.48  0.001702663    3.219    0.689
        71  -9.0627    170.8589     32.1283   2.9007797446e+02   6.3698539334e+00   0.01920814  0.004989939 -63.89  0.001173395    4.368    0.771
        72  -9.0423    203.9492     34.9692   2.8970485368e+02   6.1341254133e+00  0.007507192  0.006060659 -60.86 0.0003885832    1.263    0.208
        73 -12.2044    206.6080     26.0295   2.8961878115e+02   6.2201000768e+00   0.01634133   0.00925252 -57.34  0.000978066    1.755    0.430
        74 -11.4341    200.2494     24.4586   2.8968417826e+02   6.2771567731e+00   0.01008925  0.009019637  10.79 0.0002293399    1.135    0.119
        75  -9.5322    177.5011     25.6485   2.8995992170e+02   6.4032634212e+00  0.006614821  0.006194502  17.56 0.0007909947    1.054    0.051
        76  -8.7246    171.0949     25.4284   2.9003420524e+02   6.4451071962e+00  0.008421445  0.007709692  23.88 0.0004424966    1.071    0.067
        77  -8.0833     46.3517    223.3052   2.9271159902e+02   4.9383401775e+00  0.007105256  0.005022005 -22.41 0.0007041511    1.707    0.414
        78  -8.6172     53.8396     24.6050   2.9141527992e+02   7.1720930955e+00   0.00920926  0.005891469  38.76 0.0003811736    1.527    0.345
        79 -10.8006    203.6153     19.0733   2.8961150500e+02   6.3180942905e+00  0.009108519  0.007377726 -55.46 0.0004074168    1.247    0.198
        80  -8.6941    201.2959    222.3015   2.9087911048e+02   4.0035640607e+00  0.006844092  0.005025451 -25.43 0.0002191259    1.576    0.366
        81 -10.5151    190.4391    191.7395   2.9082100517e+02   4.4205014720e+00   0.03730353   0.01964338  74.43  0.002539573    4.231    0.764
        82  -9.4891    132.9378    138.9141   2.9117737499e+02   5.3783576183e+00   0.03004014  0.009912686 -65.98  0.001896061    3.597    0.722
        83 -13.6163     15.4643    177.5940   2.9279926273e+02   5.6510333788e+00    0.1162369   0.08382784  79.93   0.01199184    1.759    0.431
