#   1 NUMBER                 Running object number                                     
#   2 MAG_AUTO               Kron-like elliptical aperture magnitude                    [mag]
#   3 X_IMAGE                Object position along x                                    [pixel]
#   4 Y_IMAGE                Object position along y                                    [pixel]
#   5 X_WORLD                Barycenter position along world x axis                     [deg]
#   6 Y_WORLD                Barycenter position along world y axis                     [deg]
#   7 A_WORLD                Profile RMS along major axis (world units)                 [deg]
#   8 B_WORLD                Profile RMS along minor axis (world units)                 [deg]
#   9 THETA_WORLD            Position angle (CCW/world-x)                               [deg]
#  10 FWHM_WORLD             FWHM assuming a gaussian core                              [deg]
#  11 ELONGATION             A_IMAGE/B_IMAGE                                           
#  12 ELLIPTICITY            1 - B_IMAGE/A_IMAGE                                       
         1 -12.4563     47.3859     31.8401   4.2833635869e+01   6.6904474596e+01     1.407899    0.9793125  42.26  0.006069693    1.503    0.335
         2 -10.9831     35.1290     21.0287   4.4110613335e+01   7.0654543942e+01      2.29704    0.9242251  27.21  0.009155001    2.946    0.661
         3 -12.3294     53.4748     21.4502   3.4625078863e+01   6.7481047688e+01    0.9492134    0.6944173  85.42  0.003936655    2.869    0.651
         4 -13.1293      4.0404     54.3401   7.5320046289e+01   6.6744584915e+01     1.065625    0.6469301 -66.56  0.005882567    1.466    0.318
         5 -11.5370     25.7834     40.7249   5.8695869800e+01   6.8143385357e+01     2.144044     0.641237 -57.27  0.007636951    3.515    0.716
         6 -12.9184      4.1308     33.2526   6.9674737222e+01   7.1471233672e+01     1.118009    0.5215247 -71.36  0.005233198    2.477    0.596
         7 -12.5078     13.5611     34.3859   6.3851463528e+01   7.0598002048e+01    0.6678267    0.6045428   5.68  0.002853812    1.193    0.162
         8 -13.2941     57.5626     65.8039   5.1611560645e+01   5.8513687389e+01     1.876508     1.008596 -32.20    0.0075892    2.284    0.562
         9 -14.0908     66.4389     30.5036   3.3408311319e+01   6.3586552876e+01     3.475947     1.278417 -31.25   0.01264167    3.148    0.682
        10 -12.9638     81.0970     23.8802   2.4845754896e+01   6.1329055010e+01     1.013445    0.8045881 -45.77  0.005560075    1.468    0.319
        11 -13.1460     39.2699     56.3697   5.7012044613e+01   6.3221400059e+01     1.505397    0.8174558 -48.74  0.006188265    1.710    0.415
        12 -11.7544     76.9627      5.0687   1.7032294707e+01   6.4369597640e+01    0.3256223    0.2291071  52.89 0.0003758913    1.218    0.179
        13 -14.3607     10.6561     69.8406   7.5080141619e+01   6.2691626204e+01     3.024358     1.406384   1.53   0.01342367    2.644    0.622
        14 -13.2945     14.6334     45.6840   6.6990773024e+01   6.8078781928e+01     1.023315    0.8408259  65.68  0.006209901    1.612    0.380
        15 -12.2659     78.6405      9.8139   1.8898202186e+01   6.3519095649e+01    0.3586141    0.2371494  58.23 0.0003737728    1.366    0.268
        16 -12.3384    210.8317     21.3890   1.9205390753e+00   2.9130975993e+01    0.4746156    0.4137274  50.08  0.001962378    1.444    0.308
        17 -11.6928    203.4783     16.9972   1.4590705883e+00   3.1295841860e+01    0.5432704    0.2464857 -83.98  0.002038797    2.525    0.604
        18 -11.7918    216.6823     28.0039   3.0025527356e+00   2.7065411323e+01    0.5845863    0.4231398 -75.89  0.001942365    1.266    0.210
        19 -11.6129     20.3282     22.6924   5.4360720158e+01   7.2275271727e+01    0.6906653    0.3384963 -54.24  0.003327047    2.272    0.560
        20 -12.6182    226.2001     22.4483   9.7311754907e-01   2.5646546051e+01     0.438922    0.2790328  88.26  0.001551676    1.540    0.351
        21 -10.5638    117.8997     20.7385   1.3843411651e+01   5.2588057142e+01    0.5770303    0.2983695 -65.61  0.002124683    3.140    0.682
        22 -11.7492    141.1644     14.1044   7.4420797064e+00   4.7189033011e+01    0.3758123    0.2579082   8.06 0.0004523507    2.045    0.511
        23 -11.1787     94.2765     15.8909   1.7316573444e+01   5.9118563436e+01    0.3258778    0.1917719  45.89 0.0006541196    1.548    0.354
        24 -10.9748    231.9897      3.2197   3.5639019525e+02   2.6482140057e+01    0.7127067    0.2943103 -51.51  0.003715666    1.909    0.476
        25 -12.7522    221.5610      8.3470   3.5811832859e+02   2.8166647986e+01    0.7067086    0.1964406 -49.93  0.002219894    2.884    0.653
        26 -12.0034    228.3530     10.2538   3.5812029714e+02   2.6520170453e+01    0.5071396    0.2158219 -49.48 0.0009527351    1.881    0.468
        27 -14.0531    244.3983      7.9208   3.5671669416e+02   2.3496296646e+01     0.967697    0.3643447 -70.64  0.003519221    2.910    0.656
        28 -11.7431    234.4155     10.8980   3.5789536608e+02   2.5192092583e+01    0.4152813    0.1783332  59.62  0.001358648    2.704    0.630
        29  -9.5531    187.1974     14.4100   2.2154227446e+00   3.5433316361e+01    0.2418211    0.1062081 -23.72  0.001035364    2.642    0.621
        30 -11.0975    160.1149     14.3638   5.0350160692e+00   4.2229634482e+01    0.2300071    0.1921279 -35.62 0.0005191971    1.302    0.232
        31  -9.9986    124.2422     14.4935   1.0288494399e+01   5.1591624027e+01    0.4053155    0.1915769 -58.28  0.001534947    2.951    0.661
        32 -10.0800    125.2962      9.4272   8.2431658536e+00   5.1802866136e+01    0.2888233    0.2561092 -11.63 0.0007339498    1.325    0.245
        33 -10.8892    149.5405     12.9603   5.9156652632e+00   4.5111904688e+01    0.3677914    0.2013688  84.57  0.001673348    1.814    0.449
        34 -10.9382    111.8517      4.2340   8.5596616913e+00   5.5760713618e+01    0.6337952    0.3146568 -86.93  0.002484426    2.784    0.641
        35 -11.0702    108.7698      9.0581   1.1088126139e+01   5.6133155492e+01    0.5228742    0.3085437 -21.60  0.002549515    1.940    0.485
        36 -11.0811    116.4425      9.5313   9.8112744743e+00   5.4104640419e+01    0.2752456    0.2468575  10.34 0.0007647601    1.287    0.223
        37  -9.9254    133.5822     12.2355   7.9348433659e+00   4.9363616560e+01     0.264692    0.1613729  87.98  0.001245714    1.694    0.410
        38 -10.5748     88.6251     11.4028   1.6791417054e+01   6.0970517044e+01    0.2494092    0.2065533  -3.46  0.001437152    1.343    0.255
        39 -10.3255    100.8595      6.9967   1.1870548102e+01   5.8339962295e+01    0.4377909    0.2274451 -35.57  0.001315745    2.119    0.528
        40 -10.7278     26.3578      9.6028   4.3052788037e+01   7.3721395211e+01     0.273681    0.1762256   6.16  0.001208737    1.649    0.393
        41 -11.5686    193.7075      7.8152   3.5995080541e+02   3.4544410694e+01     0.275517    0.2275856  59.34 0.0009795501    1.383    0.277
        42 -12.7247    173.2658      5.6755   1.1220742222e+00   3.9741215316e+01    0.5070695    0.3205964 -12.37  0.002609483    2.097    0.523
        43 -10.6873    130.7954      8.3242   6.9813990718e+00   5.0462403864e+01    0.2775798    0.2057586  51.02 0.0008989592    1.321    0.243
        44 -11.0243      3.0820      5.9946   5.8805139398e+01   7.6894914843e+01     0.292594    0.2070552   1.98  0.001749314    1.284    0.221
        45  -9.3481    104.6509      6.0307   1.0668264354e+01   5.7459679291e+01    0.1822289    0.1643676  56.59 0.0004236558    1.052    0.049
        46 -10.7327     92.8373      4.4568   1.2552051818e+01   6.0576677109e+01    0.3629223    0.1909967  23.49   0.00115899    2.545    0.607
        47 -11.7712     57.3374      3.9512   2.3213546594e+01   6.8864881952e+01    0.4680359    0.3197698  61.44  0.001632897    1.576    0.365
        48 -10.5405     47.5735      1.5493   2.5971722892e+01   7.1104554236e+01    0.3997212    0.1218997  44.79  0.001586259    2.726    0.633
        49 -10.5092     47.5417      7.7376   2.9778227840e+01   7.0420941072e+01    0.4133023    0.2854934   2.29  0.001719001    1.551    0.355
        50 -10.3980    184.0316      3.4528   3.5959005450e+02   3.7293985843e+01    0.2755775    0.2029062  63.79  0.001626988    1.397    0.284
        51 -12.1128     85.8431      1.4936   1.2856867443e+01   6.2548084722e+01    0.4763315    0.1330212  60.57  0.001347723    2.738    0.635
        52 -10.1824    217.7052      1.6629   3.5684527578e+02   2.9675724656e+01    0.3117265    0.1500628  73.18  0.001543006    1.987    0.497
        53  -9.4660    213.3332      2.2619   3.5724271804e+02   3.0580122246e+01    0.1709818     0.151613 -88.53 0.0004790864    1.204    0.169
        54  -9.3723    250.6402      1.2995   3.5508043561e+02   2.2959503977e+01    0.1252447   0.05871186 -59.78 0.0007035627    1.714    0.416
        55 -10.6646    170.5074     98.1487   2.7484977583e+01   2.7223355748e+01    0.3709283    0.2587872 -50.55   0.00173536    1.474    0.321
        56  -9.7972     46.6382     99.2886   6.5371935141e+01   5.1993262228e+01     0.151315    0.1062358  61.64 0.0007024822    1.692    0.409
        57 -11.8592     11.8133     97.3148   7.9045681200e+01   5.5745764887e+01    0.3250058    0.3053949  55.25  0.001589304    1.157    0.136
        58 -10.6902    199.4695     96.1778   2.1752415419e+01   2.1109188982e+01    0.3030398    0.2338417 -87.92  0.001103836    1.631    0.387
        59 -13.5982     77.4280     74.2903   4.6319059585e+01   5.3155055184e+01     2.455261     1.133861  35.96   0.00745128    2.239    0.553
        60 -14.0121     65.9204     82.8565   5.3473660193e+01   5.3257772295e+01      1.58354     1.361052   0.97  0.007831126    1.266    0.210
        61 -11.0564     36.7320    248.7638   8.4470825952e+01   1.8277011840e+01    0.1825024    0.1363611 -86.71  0.001298494    1.476    0.323
        62 -11.3383    113.4896    246.3857   6.8193939785e+01   9.0123438277e+00    0.2718312    0.2128807 -33.10   0.00132119    1.648    0.393
        63 -13.8906     37.9478     80.1269   6.4582929486e+01   5.7821724901e+01     1.871055    0.8008507 -38.52  0.006066604    2.756    0.637
        64 -12.8494     86.1571     64.0165   3.9558832269e+01   5.3549695781e+01     1.096042    0.8656279  -8.98  0.005335027    1.518    0.341
        65 -10.3910    180.9860    243.9755   5.4144037653e+01   5.2571781654e-02    0.1713655     0.135849  46.00  0.001139255    1.680    0.405
        66  -9.7002    218.5260    239.5470   4.6587778594e+01  -4.1682602586e+00    0.1141123   0.08472031   8.31 0.0001500777    1.035    0.034
        67 -10.2162     88.3539    238.7206   7.2824090131e+01   1.3767025952e+01    0.1321123   0.07449464  52.21 0.0004197162    1.653    0.395
        68 -10.0175     15.9978    238.2954   8.8196668437e+01   2.2371723294e+01    0.1599851    0.1164213  50.75 0.0004260917    1.058    0.055
        69  -9.7734    157.7032    222.6900   5.5783589772e+01   6.4787803265e+00    0.1282738   0.08907286   2.99 0.0002311726    1.595    0.373
        70  -9.8602    236.7110    145.9820   2.6908215653e+01   6.1937842817e+00    0.1763302    0.1388115 -24.88 0.0003445951    1.075    0.070
        71  -9.2996    229.4270    138.4600   2.6490458813e+01   8.5229147168e+00    0.1292378    0.1104994 -23.91 7.185595e-05    1.029    0.028
        72 -11.0666    181.0516    118.9765   3.0606863636e+01   2.1046483503e+01    0.4493181    0.2936738  27.85  0.001609362    1.901    0.474
        73 -10.8554     72.9904    118.9929   5.9943349387e+01   4.3192694111e+01    0.2196848    0.2120498  77.25            0    1.021    0.020
        74 -12.4927     54.0626     54.7853   4.9274219853e+01   6.1435310437e+01     1.139832    0.6603838  -5.81  0.004134702    3.344    0.701
        75 -12.6080     46.2891     54.2279   5.2768898122e+01   6.2735048761e+01    0.6971247    0.4152099   6.01  0.002982889    2.368    0.578
        76 -12.2053     75.9735     52.0180   3.8853970743e+01   5.7977429024e+01    0.4133516    0.3732189  29.33 0.0003384525    1.053    0.051
        77 -13.0272     78.3944     41.5563   3.3654955300e+01   5.9317769377e+01     1.128161    0.5064734  41.68  0.003656325    2.158    0.537
        78  -9.4781     49.9936    116.9955   6.7635638029e+01   4.7014266793e+01    0.1743608    0.1631417 -76.16 0.0003108426    1.020    0.020
        79 -13.1516     81.0388     58.9095   3.9565348900e+01   5.5624097072e+01    0.7056017    0.4914024 -14.53  0.001397175    1.888    0.470
        80 -12.4551     75.1102     58.6151   4.1722429896e+01   5.6880375658e+01    0.3229443    0.2903389  51.46 0.0003880007    1.183    0.155
        81  -9.8574    250.1726     93.8712   1.4316405775e+01   1.1606160297e+01    0.1915736    0.1470764 -49.70 0.0007784176    1.208    0.172
        82 -13.2459    171.9648     78.9335   2.2050641931e+01   3.0282412053e+01     2.220237    0.4871283  51.98  0.003607525    4.274    0.766
        83 -11.3909    176.3049     70.0816   1.8855044859e+01   3.0699588542e+01    0.8528704     0.462641 -60.51  0.003350146    2.415    0.586
        84 -13.3460    193.7083     67.2424   1.5367869041e+01   2.7021358041e+01     1.025734    0.7867064 -16.37  0.003791144    1.572    0.364
        85 -13.1127    185.8469     58.8228   1.4293330055e+01   3.0135404378e+01     1.678586    0.8135164  58.06  0.004774794    2.053    0.513
        86 -12.8337    200.3251     34.8231   6.2097088440e+00   2.9955187765e+01     1.641772    0.4305108  64.78 0.0009569167    3.451    0.710
        87 -13.7693    195.0429     85.6886   1.9870196114e+01   2.3806066064e+01     1.323282    0.9976686  35.41  0.005849226    1.582    0.368
        88 -13.6216    205.3863     77.8104   1.6356457299e+01   2.2772530037e+01    0.8691475    0.5238059  70.16  0.004051663    1.928    0.481
        89 -12.6899    190.9288     43.1532   9.4328812079e+00   3.1110422569e+01     1.054532    0.5628219  59.40  0.001934316    1.878    0.467
        90 -12.4368    197.6583     48.2053   9.9278683323e+00   2.8840284440e+01    0.9158846    0.5562882  34.05  0.002203037    2.584    0.613
        91 -12.1843    209.3549     46.7094   8.2069899143e+00   2.6360732331e+01     1.060777    0.5844039 -73.40  0.004851296    2.226    0.551
        92 -13.0580    215.9681     58.1640   1.0240143222e+01   2.3347930971e+01     1.072481    0.6757421 -11.83  0.001684938    2.383    0.580
        93 -12.2573    222.3667     60.7628   1.0133726037e+01   2.1623770129e+01    0.6103025    0.3437732  79.39  0.001802898    2.152    0.535
        94 -12.4468    204.4963     61.5056   1.2441409388e+01   2.5406786135e+01    0.7327951    0.3690839  77.27  0.002272237    2.535    0.605
        95 -12.0801    208.8708     58.2598   1.1095485666e+01   2.4890896316e+01    0.4146752    0.3061326 -82.40  0.001339773    1.437    0.304
        96 -11.7271     54.5913     93.6105   6.0899064401e+01   5.2376204696e+01    0.2871338    0.2602428  77.29  0.001099975    1.199    0.166
        97 -12.0492     44.9984     91.4715   6.4284240028e+01   5.4173585239e+01    0.4146511    0.2906803 -65.47  0.002059622    1.404    0.288
        98 -11.6421    216.0508     91.5282   1.8129557508e+01   1.8388574234e+01    0.2743615    0.1854971 -37.08  0.000711555    1.325    0.245
        99 -10.2007    173.0415     90.7940   2.5047955319e+01   2.7965092621e+01    0.2820712    0.2354457 -64.45 0.0005462605    1.273    0.214
       100 -11.8104    176.0134     85.4004   2.3054323806e+01   2.8214385422e+01    0.7469014    0.4021678  34.29  0.002011697    2.746    0.636
       101 -10.2258     85.9714     89.9375   4.8040107697e+01   4.7986248333e+01    0.2293875    0.2234411   2.20 0.0004308308    1.035    0.034
       102 -12.4351    223.2189     87.8669   1.6303901949e+01   1.7506390403e+01    0.4947689    0.3033634  37.63  0.002446282    2.154    0.536
       103 -13.3538    203.7356     69.5774   1.4551655479e+01   2.4389724076e+01     0.763383    0.5877197  82.41  0.002945221    1.404    0.288
       104 -10.4502    167.8562     90.0194   2.5853763968e+01   2.9319591632e+01    0.3385608    0.2419359  70.65 0.0008777215    1.606    0.377
       105 -11.4483     51.9257     86.9557   6.0305944325e+01   5.4393549152e+01    0.3282416    0.2533381 -23.68 0.0003240335    1.444    0.307
       106 -11.9037     48.0805     85.2796   6.1484096121e+01   5.5321652737e+01    0.5584489    0.2624334  22.66  0.001707597    2.446    0.591
       107 -11.6008    161.3582     84.3869   2.5618840434e+01   3.1881759822e+01    0.7508554     0.453188  41.42  0.003195703    1.839    0.456
       108 -10.5152    113.4551     72.7799   3.3769489326e+01   4.5683258370e+01    0.4353411    0.2797484 -22.54  0.001771952    2.060    0.515
       109 -10.9792    104.8612     85.7798   4.0498939068e+01   4.4985971252e+01    0.3336911    0.3173749 -61.92  0.001017318    1.093    0.085
       110 -12.3518    114.4721     81.0931   3.6138715303e+01   4.3791050334e+01    0.6984633     0.555352 -30.55   0.00230296    1.365    0.267
       111 -12.0897    235.9876     85.8478   1.4247377056e+01   1.5326083890e+01    0.6095684    0.3218461  77.58  0.002693606    3.091    0.676
       112 -10.9118    147.4392     79.2379   2.7119873601e+01   3.6203957610e+01     0.304263     0.273311 -77.26 0.0006749261    1.165    0.141
       113 -12.4332     11.9532     24.5356   6.1006199665e+01   7.2726745570e+01     0.327156    0.2999246 -14.50 0.0004521608    1.167    0.143
       114 -10.4173    247.8132     83.9285   1.2483158617e+01   1.3421561282e+01    0.2754198    0.2053064  17.26  0.001610161    1.951    0.487
       115 -11.6217    147.9241     84.5767   2.8568703975e+01   3.5098924639e+01    0.5306828    0.4393091 -60.52  0.001900724    1.282    0.220
       116 -10.3199    203.1344    115.7883   2.5799604262e+01   1.7047999017e+01    0.4184148    0.2352169  74.18  0.001491929    3.874    0.742
       117 -11.5595    238.0482     80.9550   1.2931478126e+01   1.5640849681e+01    0.2078683    0.1892366  17.85  0.001371178    1.351    0.260
       118 -12.3256     97.3890     68.8580   3.7405660592e+01   5.0148556555e+01    0.5294561     0.497454 -25.26  0.001071524    1.099    0.090
       119 -11.6638     99.8577     78.9402   3.9947604811e+01   4.7539566010e+01    0.6573657    0.3527873 -45.35   0.00261904    1.914    0.478
       120 -11.2516     96.3086     75.9206   4.0132785873e+01   4.8946247521e+01    0.4460225    0.3353483 -73.49  0.001227357    1.776    0.437
       121 -11.8818    220.7367     79.5479   1.4706331740e+01   1.9257669716e+01    0.2785051    0.2339211 -19.77 0.0005618591    1.297    0.229
       122 -12.3964    217.8680     75.2178   1.4058512774e+01   2.0494586452e+01    0.3614443    0.2910596  54.89  0.001614145    1.392    0.281
       123 -12.3079    220.4969     69.6216   1.2419399913e+01   2.0762544441e+01     0.441134     0.292733 -46.65  0.001287021    1.329    0.247
       124 -10.3034     93.4871    115.9972   5.2445676094e+01   4.0343687719e+01    0.2298776    0.1540249 -52.14 0.0003959104    1.510    0.338
       125 -12.7441    232.4733     73.1314   1.1829906737e+01   1.7830435875e+01     1.558121    0.6774714 -32.23  0.007037851    2.121    0.529
       126 -12.8329    221.1291     39.3654   5.2682232453e+00   2.4715555089e+01    0.9422812    0.6041923  86.58 0.0005568276    1.626    0.385
       127 -11.5578    233.1141     56.9592   8.1362552280e+00   1.9931444422e+01     0.622476    0.4346573 -65.22  0.003666224    1.405    0.288
       128 -11.3503    241.3196     68.9228   9.9470731144e+00   1.6702954485e+01    0.4901733    0.3130109  -8.79  0.002438959    2.473    0.596
       129 -13.3672    242.2856     60.8006   8.0871343188e+00   1.7615258616e+01    0.5373502    0.3938832  89.41 0.0009021558    1.522    0.343
       130 -11.3943    225.8958     49.6349   7.1888601902e+00   2.2384719298e+01    0.4560429    0.3071682 -53.04 0.0008022136    1.294    0.227
       131 -11.9816    238.0128     51.1298   6.3774229085e+00   1.9719432256e+01    0.4368888    0.2953758 -55.70  0.002181289    1.293    0.226
       132 -11.3101    229.9635     47.4965   6.3114856192e+00   2.1817283134e+01    0.2878102    0.2088839 -47.46 0.0009951517    1.159    0.137
       133 -11.9771    234.4651     46.0934   5.5858547076e+00   2.1077106565e+01    0.4623649    0.2395296  84.37   0.00107448    2.332    0.571
       134 -10.0690    156.1979     76.8952   2.4551374339e+01   3.4469394794e+01    0.3402371    0.2104079  66.26  0.001446898    1.778    0.438
       135 -10.2233    103.9798     75.5117   3.7521833893e+01   4.7331351803e+01    0.2286332    0.2130947 -39.13 0.0004451619    1.105    0.095
       136 -11.2307    250.1750     73.6504   1.0061177709e+01   1.4413531912e+01     0.324704    0.2000816 -36.11   0.00101213    1.354    0.261
       137 -10.5150    248.4692     69.4487   9.3412820557e+00   1.5293492955e+01    0.2747396    0.2050274 -18.17  0.000886319    1.550    0.355
       138 -11.2510    226.0412     74.5280   1.2892330960e+01   1.8914416114e+01    0.2356202     0.176226 -18.68   0.00064074    1.531    0.347
       139 -12.1309    145.7999     66.8677   2.3755224443e+01   3.8794106181e+01    0.8329989    0.6102471  33.65   0.00237507    1.610    0.379
       140 -11.6322    136.7706     72.3005   2.7482692256e+01   4.0100072472e+01    0.9129987    0.3444763  54.16  0.002694345    2.578    0.612
       141 -11.4401    126.7607     69.7070   2.9136257999e+01   4.3047340496e+01     1.066539    0.4206356  49.38  0.003690558    2.419    0.587
       142 -10.3475    155.0545     65.0834   2.1307099850e+01   3.6762499484e+01     1.268922    0.2756747 -36.21  0.003467181    4.362    0.771
       143 -10.5902    152.0857     59.3064   2.0142793312e+01   3.8446076086e+01    0.3876022    0.2819274  -9.06  0.001201373    1.865    0.464
       144 -13.6843    116.6500     62.1309   2.9297076978e+01   4.6897193371e+01     1.055121    0.8046991  41.30  0.001754996    1.313    0.238
       145 -12.1778    104.0133     66.0500   3.4327191070e+01   4.9189442605e+01    0.3853554    0.3095004  19.57 0.0003099408    1.440    0.306
       146  -9.7890    162.8034     70.8265   2.1490205650e+01   3.3879391323e+01     0.210524    0.1714637 -76.17 0.0007133839    1.329    0.247
       147 -10.0033    183.4603     68.9861   1.7382850111e+01   2.9158039941e+01    0.2173974    0.1370305 -35.70 0.0003859714    1.550    0.355
       148 -11.7594    167.3903     65.0045   1.8978542994e+01   3.3693586603e+01    0.5178958    0.4444681 -81.85  0.001582948    1.183    0.154
       149 -10.0356    161.4678     66.6515   2.0535240071e+01   3.4899883551e+01    0.2937751    0.1446267 -36.16 0.0007069833    2.031    0.508
       150 -11.5114     49.7725     95.1123   6.3186704400e+01   5.2652310987e+01    0.2627751    0.2152199  15.33 0.0002831395    1.321    0.243
       151 -10.2852    137.0184     62.3255   2.4273152855e+01   4.1779807905e+01    0.2997347     0.286833 -29.58 0.0005629187    1.117    0.105
       152 -10.3715    141.1789     61.6377   2.3125712287e+01   4.0840490703e+01    0.3589632    0.1533636  59.05  0.001039762    2.312    0.567
       153 -10.9055    127.8764     58.5172   2.5174610286e+01   4.4729211821e+01    0.6178865     0.304326  46.19   0.00239117    2.036    0.509
       154  -6.4804    108.3897     55.1159   2.9146111093e+01   5.0134268944e+01    0.5201274    0.3154561 -62.01  0.002036374    2.433    0.589
       155 -11.4130     98.4284     54.8741   3.2064782169e+01   5.2541630861e+01    0.6395125    0.4265166 -59.36  0.002173343    1.955    0.488
       156 -10.4929    102.1590     53.5730   3.0424166230e+01   5.1892832088e+01    0.3845756    0.3370989   2.30  0.001033347    1.269    0.212
       157 -11.1911    162.0963     57.6336   1.7775885289e+01   3.6170696482e+01    0.4578056    0.4053857  56.83 0.0007910742    1.147    0.128
       158 -10.7660    167.7451     51.7738   1.5102936367e+01   3.5622821607e+01    0.3450839    0.2710913  30.18  0.001023175    1.601    0.376
       159  -9.8929    145.6486     59.2682   2.1427258625e+01   4.0090849383e+01    0.2006131    0.1456321 -24.60 0.0006149844    1.577    0.366
       160 -11.9152    173.6139     56.5052   1.5517118109e+01   3.3460938103e+01    0.4426441    0.2887816  67.48 0.0007839887    1.528    0.345
       161 -10.6332    248.6220     55.5216   6.3748354945e+00   1.7104474906e+01    0.3565712    0.1924045  54.82   0.00134919    2.250    0.556
       162 -13.0405     58.4142     45.6208   4.3645337223e+01   6.2522396182e+01     4.204683    0.6797861  43.81  0.009663173    7.128    0.860
       163 -11.4119    145.7510     52.3891   1.9233716625e+01   4.1142636542e+01    0.6539184    0.3776914  25.15  0.001218975    3.174    0.685
       164  99.0000    134.4458     41.3266   1.7873783447e+01   4.5688027816e+01     1.063538    0.5898389 -81.60  0.003626568    3.207    0.688
       165  99.0000    155.7090     42.4146   1.4281305641e+01   4.0017176715e+01    0.9000899    0.5021341 -23.47   0.00385191    2.153    0.536
       166 -11.7011    149.8940     42.1393   1.5197018482e+01   4.1559313886e+01     0.373219    0.2956091 -56.11 0.0003850974    1.285    0.222
       167 -11.2513    146.6610     39.0181   1.4771570670e+01   4.2824396581e+01    0.4233808    0.3400499  29.01  0.002188786    1.503    0.335
       168 -11.7113    161.5152     40.0784   1.2630279048e+01   3.8839306068e+01    0.4575552    0.2991665  44.70 0.0009334692    1.724    0.420
       169 -11.6552    160.9795     35.9724   1.1472002839e+01   3.9514606301e+01    0.3660209    0.2578241  44.65    0.0011937    1.593    0.372
       170 -11.9047    144.8818     44.1192   1.6747960210e+01   4.2583000540e+01    0.2817856     0.240771  32.03 0.0004007958    1.340    0.254
       171 -10.7835    136.0455     52.8798   2.1413810914e+01   4.3561514736e+01    0.5990207    0.2116219  61.54   0.00194796    2.917    0.657
       172 -10.6534    245.2869     50.3043   5.5553704140e+00   1.8406584624e+01    0.2364727    0.1577966 -38.22 0.0001873213    1.282    0.220
       173  99.0000    246.9896     46.7758   4.6618723856e+00   1.8526402834e+01    0.2411035    0.1611995  62.34  0.001482654    1.741    0.425
       174  -9.8808    250.3934     48.7518   4.7996219235e+00   1.7634088614e+01    0.2403875     0.165796 -32.42  0.001497728    1.367    0.269
       175 -10.2477    250.4770     44.4803   3.8995139179e+00   1.8150340058e+01    0.2179018    0.1340673 -33.00 0.0005930525    1.483    0.326
       176 -11.0530    246.9244     42.0013   3.6571200744e+00   1.9131449133e+01    0.3268592    0.1738178 -60.23  0.001006238    1.798    0.444
       177 -10.2404     90.2914     51.3146   3.3377514172e+01   5.5031143696e+01    0.2093139    0.2017681 -33.76 0.0004047807    1.100    0.091
       178 -10.4033    161.4966     48.7939   1.5251473883e+01   3.7636534632e+01    0.3769525    0.2535262  -5.62  0.001656433    2.229    0.551
       179 -10.3852     99.3239     47.5095   2.8995603798e+01   5.3586222695e+01     0.270145    0.2640188  -6.08 0.0009784108    1.073    0.068
       180  -9.9944    167.6149     42.2172   1.2334725837e+01   3.6996231319e+01    0.2223763    0.1856143 -72.67 0.0005001582    1.153    0.133
       181 -11.9427    173.5249     43.9597   1.1970079881e+01   3.5270497820e+01     0.600404    0.3436616  48.90  0.001987901    1.918    0.479
       182 -11.8330    177.3243     39.0223   1.0047005241e+01   3.4978469047e+01    0.6240903    0.4091409  23.09  0.002197684    2.491    0.599
       183 -10.0817    122.3049     44.0916   2.1517967768e+01   4.8422716791e+01    0.3199952    0.2357846   1.55  0.001363431    1.833    0.454
       184  -9.4221    104.7657     43.3504   2.5789869963e+01   5.2933971012e+01    0.2195514    0.1260281  47.67 0.0009432554    1.627    0.385
       185  -9.5158     93.7219     42.0238   2.8576417033e+01   5.5790390901e+01    0.2037755    0.1923316  11.43 0.0007319996    1.081    0.075
       186 -11.5948    137.3627    112.3869   3.8810383576e+01   3.1978538155e+01    0.5206708    0.2726367  39.79  0.001996023    1.976    0.494
       187 -10.2787    240.9790     39.6884   3.6339256720e+00   2.0573983297e+01    0.2053235    0.1393386 -43.67 0.0005267217    1.218    0.179
       188 -11.2162    234.3639     36.8053   3.5386155034e+00   2.2255490522e+01    0.4679059    0.2569952 -72.84   0.00206841    1.980    0.495
       189 -10.8554    122.6037     32.4498   1.7233435712e+01   4.9960539003e+01    0.5598863    0.3227712 -28.12  0.001356981    1.917    0.478
       190 -11.8628     92.4218     33.9100   2.5640376728e+01   5.7315499091e+01    0.5701174    0.3642875  51.75  0.002722515    1.431    0.301
       191  -9.1831    249.2259     35.3106   2.0810190806e+00   1.9500101425e+01     0.100962   0.08713656 -16.49 0.0002118493    1.483    0.325
       192 -10.7185    131.9456     33.8631   1.5803655360e+01   4.7346401384e+01    0.2733074     0.202429 -44.20  0.000590373    1.421    0.296
       193 -10.7670     74.3955     33.4405   3.1613919495e+01   6.1471753206e+01     0.439343    0.2602552  50.42  0.002053472    1.625    0.385
       194 -10.4229    112.1939     32.8627   1.9782723109e+01   5.2580710864e+01    0.3146347    0.1883027  53.90 0.0008005768    1.505    0.336
       195 -10.2554    169.3086     32.6309   9.2931190015e+00   3.7807065035e+01    0.2619782    0.1284626  75.20 0.0006797596    2.064    0.515
       196  -9.6753    241.9276     30.1078   1.5086617634e+00   2.1534463224e+01    0.2723747    0.1594583 -62.47  0.001182852    1.536    0.349
       197 -10.0867    237.2839     30.6234   1.9583188686e+00   2.2403223331e+01    0.3016427    0.1637214 -88.30  0.001240148    2.012    0.503
       198  -9.9808    224.4920     31.5214   3.1633683617e+00   2.4954481243e+01    0.2305107    0.1163014  73.07 0.0005619821    2.034    0.508
       199 -10.5301    227.6476     30.7279   2.7259867951e+00   2.4379943732e+01    0.3037724     0.209774  30.17  0.001637658    2.406    0.584
       200 -10.1576    190.4950     30.9835   6.2663091792e+00   3.2758457701e+01     0.235231     0.134518 -24.63  0.000766872    1.994    0.498
       201 -10.3877    189.2028     26.8964   5.3239119653e+00   3.3557955764e+01     0.351106    0.1379092 -57.70  0.001293308    2.987    0.665
       202  -9.0514    184.9659     24.3388   5.0888979385e+00   3.4886312965e+01    0.2827626    0.2143572  26.66  0.001521405    1.859    0.462
       203 -10.5920     95.8492    112.5544   5.0840331701e+01   4.0723086152e+01    0.2563062     0.190076 -60.36 0.0004714898    1.427    0.299
       204 -11.5790    202.3400     20.8797   2.5157753819e+00   3.1131148715e+01     0.340849     0.245198 -73.99  0.001055417    1.249    0.199
       205  -9.9379    211.3936    111.9669   2.3559075398e+01   1.6045030412e+01    0.2162258    0.1812747  65.85 0.0006260409    1.399    0.285
       206 -11.4323    142.2676     46.6914   1.8088477146e+01   4.2891096488e+01     0.222571    0.1861981 -70.97 0.0001801896    1.246    0.197
       207 -10.4231    152.3678     29.5956   1.0810263780e+01   4.2540706014e+01     0.234914     0.199547  78.63 0.0002146962    1.072    0.067
       208  -9.7035    191.4309    112.0076   2.6966581206e+01   2.0108316066e+01    0.2275109    0.1345679 -35.51 0.0001005246    1.621    0.383
       209 -11.4334    196.8299     25.9826   4.3120370636e+00   3.1839801290e+01    0.4029816    0.2747753 -58.47  0.001639861    1.328    0.247
       210  99.0000    111.2860     25.6229   1.7180012467e+01   5.3729078276e+01    0.4614318    0.2547538 -65.23  0.001753377    2.936    0.659
       211 -10.6771    113.2166     23.3764   1.5861068722e+01   5.3499473697e+01    0.3233874    0.2565192  87.95  0.001429316    1.347    0.258
       212 -10.4632    104.2465     27.4224   1.9617621061e+01   5.5291839890e+01    0.3577414    0.2696978 -80.87   0.00135374    1.657    0.397
       213 -10.2162    102.5161     23.1809   1.8316926163e+01   5.6243834327e+01    0.2005442    0.1752388  53.81 0.0005433037    1.027    0.027
       214  -9.9994    166.9061     26.3744   7.7777608495e+00   3.9171762941e+01    0.3784398    0.1834923  78.97 0.0007150345    2.127    0.530
       215  -9.8715    158.9714     26.5652   8.8990052897e+00   4.1187935086e+01    0.2146594    0.1918461  -8.21  0.001234152    1.359    0.264
       216 -10.6263    134.6911     26.5468   1.2739156125e+01   4.7533621485e+01    0.2611677    0.2254177  35.71 0.0007572293    1.282    0.220
       217 -10.9299    165.0895    110.9626   3.1917595455e+01   2.6038837674e+01    0.2253864    0.2214774  -1.55 0.0004417202    1.020    0.020
       218 -10.6721    233.8610     24.6805   9.1359638629e-01   2.3791242604e+01    0.3149077    0.2066158 -20.02  0.001808282    1.893    0.472
       219  -8.7782    223.2232     26.3747   2.0899048952e+00   2.5832441824e+01    0.2284594    0.1175034 -59.00 0.0006679021    1.796    0.443
       220 -10.0224    233.4797    109.0272   1.9639780096e+01   1.2340407739e+01     0.172595    0.1660938 -20.81 -5.521937e-05    1.124    0.110
       221 -12.4162    176.2610     23.4523   5.8031970942e+00   3.7143179407e+01     0.282024    0.2551098 -33.67 0.0002417905    1.245    0.197
       222  -9.1795    153.5066     25.4958   9.3463347690e+00   4.2729930482e+01    0.1446777    0.1251089 -82.66  0.000809519    1.075    0.070
       223 -10.0894    148.1305     24.4843   9.8243982358e+00   4.4249068936e+01    0.2668277    0.1930032   7.47  0.001310315    1.932    0.482
       224  -7.6417    244.5502     18.8452   3.5896355359e+02   2.2296928325e+01    0.3349967    0.1708048 -56.26  0.001245786    1.623    0.384
       225 -11.3787    246.9375     22.7828   3.5963274026e+02   2.1391849093e+01    0.2693536    0.1781886  86.58   0.00172952    1.531    0.347
       226 -12.1423    242.3445     22.6183   3.5989292528e+02   2.2311943755e+01    0.3664527    0.1975094  81.84 0.0008453069    1.924    0.480
       227 -10.0410    123.5082     24.0266   1.3947785791e+01   5.0756057970e+01    0.3897193    0.1841946  71.29  0.001552984    2.147    0.534
       228  -9.1572    124.2372     20.6902   1.2576237551e+01   5.0941815088e+01    0.1979347    0.1698351  65.78  0.000161526    1.043    0.042
       229  -9.6851     97.6411     22.0626   1.9108759725e+01   5.7591614216e+01    0.3803306    0.2028662 -18.51  0.001638684    2.301    0.565
       230 -11.1774    196.0117    107.9308   2.5174891478e+01   1.9854340384e+01    0.4992864     0.287542 -60.66   0.00194454    2.528    0.604
       231 -10.5756    167.9692     19.9923   5.7754424003e+00   3.9622594802e+01    0.4323864    0.2615383  56.94  0.001971452    1.643    0.391
       232  -9.5958    151.3826     20.7007   8.1343459812e+00   4.3823492807e+01    0.2925237    0.1809915 -79.76  0.001231538    1.777    0.437
       233 -10.3751    191.4742     19.5506   3.1661011305e+00   3.3846244009e+01    0.2277217    0.1727505  78.65 0.0005241492    1.238    0.193
       234 -10.3193    194.2339     17.9959   2.5085374474e+00   3.3356675319e+01    0.2313071    0.1547046 -80.22 -0.000430966    1.394    0.283
       235 -10.9978    130.4541     19.1742   1.0897390875e+01   4.9477210206e+01    0.2845473    0.1969578  72.95  0.000235605    1.319    0.242
       236  -9.5700    135.9974     19.4513   1.0058984837e+01   4.7991233709e+01    0.2067066    0.1240472  64.79 0.0004458879    1.471    0.320
       237 -12.0688    161.3633    107.0455   3.1721069922e+01   2.7636064728e+01    0.4145479     0.263871 -44.04  0.001697013    1.564    0.360
       238 -10.3349    209.1201    104.1116   2.2103576192e+01   1.7786951109e+01    0.5318458    0.2658287 -56.52  0.002059273    2.866    0.651
       239 -10.3970     15.9799    105.9082   7.8565128967e+01   5.3261549137e+01    0.2560739    0.1776515 -30.16  0.001359753    1.638    0.390
       240 -12.7286    144.3456    103.8119   3.4791349792e+01   3.2179376961e+01    0.7989746    0.3722203  52.55  0.002667205    2.238    0.553
       241 -10.6310    145.7108    100.3428   3.3520606822e+01   3.2564184274e+01    0.3106359    0.2445559 -69.87 0.0006531099    1.515    0.340
       242 -11.0802    109.6810    104.1828   4.4334027930e+01   3.9864384750e+01    0.2890654    0.2167815 -28.88  0.001294667    1.547    0.354
       243 -11.2092    141.1287     95.9001   3.3403105205e+01   3.4527689353e+01    0.5162288    0.3986812 -81.85  0.002334388    1.675    0.403
       244 -13.1302    122.3022     99.6157   3.9393580928e+01   3.8104403695e+01    0.7607445    0.5462302 -17.25   0.00260496    1.898    0.473
       245 -12.5623    131.6727     87.2281   3.3287402472e+01   3.8501868458e+01     1.102539    0.7465305 -86.17  0.004255328    2.424    0.587
       246 -13.2176    131.2232     94.8767   3.5629222851e+01   3.7056830358e+01     1.048865    0.6440158  43.47  0.004400142    1.625    0.385
       247 -10.6851    123.9690     92.9680   3.7031007683e+01   3.9136848653e+01    0.2597834    0.2285162  47.55 0.0003273501    1.112    0.101
       248  -9.9345    167.6039     14.1032   4.1004641923e+00   4.0340047106e+01    0.2542901    0.1697613  88.97  0.001333213    1.389    0.280
       249 -11.4378    127.0385     89.7200   3.5244986642e+01   3.9094396873e+01    0.4921682    0.3200692  48.15  0.001073744    1.503    0.334
       250 -11.3335    132.0777     83.0198   3.1926309126e+01   3.9234266018e+01    0.4313316    0.3244386  69.27 0.0003589743    1.493    0.330
       251 -12.1521    136.7064     81.0194   3.0165541724e+01   3.8498576720e+01    0.8995767    0.6064559  78.95  0.001732312    2.053    0.513
       252 -11.0504    114.8531     12.8493   1.1402165864e+01   5.4202039453e+01    0.2462021    0.1854523  74.08            0    1.225    0.183
       253 -12.3288    121.5825     87.2190   3.5993116361e+01   4.0883294646e+01    0.6043823    0.4712933 -40.80  0.002393325    1.319    0.242
       254 -11.0474    125.5648     84.6036   3.4113415004e+01   4.0477876319e+01    0.4303388    0.3655104  85.10  0.001606243    1.348    0.258
       255 -11.7832    224.6822     99.5739   1.8764125721e+01   1.5429288340e+01     0.527824    0.3894225 -52.96  0.002993728    1.362    0.266
       256  -9.4655    228.5062     97.4563   1.7768663101e+01   1.5021233669e+01    0.1688734    0.1290259  73.47 -6.530318e-06    1.610    0.379
       257 -10.1442    182.8189    102.1558   2.6132430451e+01   2.3716366464e+01    0.2009099    0.1740333   4.71 0.0005763898    1.328    0.247
       258  -9.9496    165.7634    101.4128   2.9311992596e+01   2.7706995455e+01    0.2112855    0.1413911  41.08 0.0006708454    1.584    0.369
       259 -10.5890    159.6809     99.1657   3.0013627865e+01   2.9538867146e+01    0.3345205    0.2271112 -61.85 0.0006508785    1.809    0.447
       260 -12.3264    150.1008     95.2022   3.1076135666e+01   3.2549346158e+01     1.064211    0.5586826 -65.40  0.002752957    4.092    0.756
       261 -10.0462    154.3481     96.2836   3.0409908032e+01   3.1338842015e+01    0.2916958    0.2255716 -35.56 0.0006808349    1.322    0.243
       262 -10.0555    157.4982     95.5463   2.9512698242e+01   3.0738588050e+01    0.3184193    0.2080896  42.82 0.0006540847    1.594    0.372
       263 -12.9880    113.9037     94.8055   4.0437366852e+01   4.1029761884e+01    0.7279602    0.4254581  60.09   0.00278272    2.125    0.529
       264 -12.2352     95.5453     90.2299   4.4850886221e+01   4.5998179557e+01    0.6497254    0.4982843  58.43 0.0008475179    1.428    0.300
       265 -12.1971    102.4003     96.3699   4.4410229897e+01   4.3179954511e+01     0.391366    0.3414322   8.73 0.0005302347    1.298    0.229
       266 -12.4723    106.8319     95.8709   4.2880457479e+01   4.2346440132e+01    0.5856854    0.3262748 -38.52 0.0003922322    1.967    0.492
       267 -12.8768     85.5856     98.6952   5.0645018362e+01   4.6005920321e+01    0.7888327    0.4056611  32.41  0.003010264    2.105    0.525
       268 -12.6376     73.3144     96.7021   5.4497308452e+01   4.8694872996e+01    0.6551467    0.4380912  54.32  0.002902841    1.714    0.417
       269 -11.9295     57.6237     99.6996   6.1173303338e+01   5.0420544897e+01    0.3372162    0.2153208  24.37  0.001526576    1.699    0.412
       270  -9.9921    244.5381     98.7477   1.6007255726e+01   1.1892501159e+01    0.2556123    0.1107123 -29.11  0.001131327    2.277    0.561
