#   1 NUMBER                 Running object number                                     
#   2 MAG_AUTO               Kron-like elliptical aperture magnitude                    [mag]
#   3 X_IMAGE                Object position along x                                    [pixel]
#   4 Y_IMAGE                Object position along y                                    [pixel]
#   5 X_WORLD                Barycenter position along world x axis                     [deg]
#   6 Y_WORLD                Barycenter position along world y axis                     [deg]
#   7 A_WORLD                Profile RMS along major axis (world units)                 [deg]
#   8 B_WORLD                Profile RMS along minor axis (world units)                 [deg]
#   9 THETA_WORLD            Position angle (CCW/world-x)                               [deg]
#  10 FWHM_WORLD             FWHM assuming a gaussian core                              [deg]
#  11 ELONGATION             A_IMAGE/B_IMAGE                                           
#  12 ELLIPTICITY            1 - B_IMAGE/A_IMAGE                                       
         1 -19.9945     73.6118    138.5999   1.1302421982e+02   3.8324987969e+01     16.66259     3.802021 -65.16   0.05163732    4.872    0.795
         2 -16.3083      5.7015    144.3637   1.2959983263e+02   4.4162597277e+01     1.801392    0.5532843 -82.43  0.008601701    2.729    0.634
         3 -17.5194    246.7280     84.3035   6.3872819573e+01   1.2682614182e+01     6.714169    0.7930754 -29.89   0.01559833    6.720    0.851
         4 -16.9569    241.3130     23.4932   4.8853472365e+01   2.1532867715e+01     3.124848     1.214821 -35.24   0.01291315    2.188    0.543
         5 -17.4825     85.7331    161.9447   1.1338899646e+02   3.1705683855e+01     2.516506     1.087479 -70.69   0.01120253    2.669    0.625
         6 -15.5215    115.1218     85.0758   9.0704488438e+01   4.3079477861e+01    0.9057634    0.5322754  47.87  0.003893143    1.751    0.429
         7 -19.1204    116.1539    137.7420   1.0254929721e+02   3.1771563097e+01     5.659033     4.526764  79.30   0.03145643    1.336    0.252
         8 -12.4216      2.6506    206.8587   1.3307742026e+02   3.2569046686e+01    0.3031686    0.1209734 -67.61  0.001900577    2.686    0.628
         9 -13.0631      3.8069    199.0066   1.3259824707e+02   3.3835811452e+01    0.4033494     0.137251 -70.97  0.002356448    2.759    0.638
        10 -11.6821     24.8552    202.3628   1.2908167068e+02   3.1296347846e+01    0.1634938    0.1233033   9.74 0.0005889185    2.544    0.607
        11 -12.1259     28.5294    200.5198   1.2833162671e+02   3.1255949880e+01    0.1048806   0.07620241  69.96 0.0008094912    1.025    0.024
        12 -12.4803     34.5151    200.9599   1.2728136472e+02   3.0559569606e+01    0.1750729    0.1640038 -22.91  0.001436309    1.842    0.457
        13 -12.1777     35.9511    190.8432   1.2639522834e+02   3.2249900305e+01    0.1492137    0.1292837  73.94 0.0009204299    1.265    0.209
        14 -15.9626    200.7198    180.7839   9.2818297967e+01   8.3658460258e+00    0.7430691    0.3608097  33.83  0.003505453    1.984    0.496
        15 -12.7781     11.7077    177.1036   1.3020277598e+02   3.7172043747e+01    0.7638158    0.2480458  74.71  0.003536195    3.315    0.698
        16 -17.6481     28.0441    152.4906   1.2525139221e+02   4.0593506371e+01     2.114108      1.23203  60.84    0.0106535    1.507    0.336
        17 -15.0349      3.5005    164.3735   1.3116245757e+02   4.0309778047e+01    0.7525662    0.3437272 -86.71  0.004673735    1.755    0.430
        18 -12.8622     19.4679    167.0862   1.2810532941e+02   3.8429222801e+01    0.1544154    0.1518337  88.80 0.0007241718    1.497    0.332
        19 -18.4245    153.8241    187.5894   1.0280776665e+02   1.5798936725e+01     5.513005     2.164824  51.26   0.02308494    2.555    0.609
        20 -12.3666     42.1912    176.0882   1.2412999270e+02   3.4390002356e+01    0.2187443    0.1211396  76.67  0.001220881    1.647    0.393
        21 -17.5257    132.1395    195.9168   1.0820619367e+02   1.8132731853e+01      3.86042     1.526902  57.77   0.01450494    3.729    0.732
        22 -14.1550    162.0221    242.7306   1.0851078570e+02   6.7446124109e+00    0.4497507    0.4247397 -68.33  0.003803344    1.450    0.310
        23 -16.9638    152.6828    119.9260   9.0227802865e+01   2.8160262035e+01      1.83293      1.49484  79.15  0.008225699    1.463    0.317
        24 -16.3171    149.1010     99.9078   8.6090148923e+01   3.2824526538e+01     1.843551     1.174879 -88.01  0.006463974    3.319    0.699
        25 -15.2423     24.9774    124.7142   1.2348203528e+02   4.6804811006e+01      0.62563    0.3019989  69.48  0.003229687    2.231    0.552
        26 -14.2969     32.5335    124.5009   1.2153631484e+02   4.6172759678e+01    0.3785035    0.2388348  18.72  0.002214877    2.224    0.550
        27 -14.9986     19.7509    106.8379   1.2296295581e+02   5.1185274865e+01    0.4871974    0.4126366  85.69  0.002795473    1.100    0.091
        28 -16.1877    224.8823    167.0253   8.5979807652e+01   5.8020117560e+00     1.248275    0.9642411  61.38  0.007215234    1.760    0.432
        29 -13.1665     14.4601    226.3139   1.3186376973e+02   2.8254282684e+01    0.3129655    0.2413822  49.79  0.002775912    1.412    0.292
        30 -15.2119      4.3082    108.1167   1.2729427973e+02   5.1971769369e+01    0.6926044    0.3850994 -73.55   0.00372786    1.402    0.287
        31 -13.6420      1.6985    190.7666   1.3265172401e+02   3.5485526593e+01      0.69609     0.105939 -78.82  0.002792107    5.160    0.806
        32 -15.6610     44.4898     50.6569   1.0393282798e+02   6.1516071583e+01    0.4307092    0.4150251 -30.23  0.002592717    1.148    0.129
        33 -14.9178    155.8058    225.5841   1.0758108083e+02   9.8819685791e+00    0.4488592    0.2562312 -45.77  0.002759452    2.296    0.565
        34 -12.7811      1.9850     40.5395   1.1902284598e+02   6.6901034207e+01    0.2451709    0.1067713 -56.31  0.001383719    1.651    0.394
