#   1 NUMBER                 Running object number                                     
#   2 MAG_AUTO               Kron-like elliptical aperture magnitude                    [mag]
#   3 X_IMAGE                Object position along x                                    [pixel]
#   4 Y_IMAGE                Object position along y                                    [pixel]
#   5 X_WORLD                Barycenter position along world x axis                     [deg]
#   6 Y_WORLD                Barycenter position along world y axis                     [deg]
#   7 A_WORLD                Profile RMS along major axis (world units)                 [deg]
#   8 B_WORLD                Profile RMS along minor axis (world units)                 [deg]
#   9 THETA_WORLD            Position angle (CCW/world-x)                               [deg]
#  10 FWHM_WORLD             FWHM assuming a gaussian core                              [deg]
#  11 ELONGATION             A_IMAGE/B_IMAGE                                           
#  12 ELLIPTICITY            1 - B_IMAGE/A_IMAGE                                       
         1 -15.0512    234.9661     28.8044   5.3319644082e+01   2.2487087085e+01     3.317051      1.02845 -21.00   0.01069072    3.389    0.705
         2 -13.7884    248.7283     16.5146   4.8682141796e+01   2.0547769767e+01     2.393112    0.6572061 -25.92  0.008397346    3.019    0.669
         3 -13.4632    247.2462     43.0197   5.5950367858e+01   1.7871111916e+01     1.496173    0.7094666 -23.65  0.006335489    1.941    0.485
         4 -14.9945    240.1537     78.6058   6.6399729301e+01   1.4855840965e+01     2.687798    0.9944693 -40.68  0.009776839    2.626    0.619
         5 -13.0401    249.4769     59.0312   5.9994518919e+01   1.5357624051e+01     1.783549     0.476142 -23.53  0.005286154    3.930    0.746
         6 -13.1035    222.2726     18.5631   5.1673665653e+01   2.6796872104e+01    0.5729687     0.377622 -26.36  0.002809811    1.420    0.296
         7 -10.5135    155.8362     16.0872   5.9489279484e+01   4.4627548713e+01    0.3173598    0.1865897 -26.59  0.001390932    1.645    0.392
         8 -10.5260    140.4098     16.7820   6.2516697483e+01   4.8565282667e+01    0.2120623      0.13942  -5.67 0.0009503232    1.656    0.396
         9 -10.7407      1.4591      7.5068   1.0909895010e+02   7.3771869570e+01    0.2363784   0.08370323 -56.58  0.001189511    2.105    0.525
        10  -9.7770     50.7308      3.6690   8.1845912454e+01   6.9145526029e+01    0.1283489    0.0838694  -5.50 0.0002721822    1.584    0.369
        11 -10.2769    224.8567    243.1261   1.0192778121e+02  -2.5941335825e+00    0.1522823    0.1214977  37.80  0.001206335    1.296    0.229
        12 -11.3959    193.4462    248.2157   1.0731895082e+02   1.4477950424e+00    0.2524743    0.2221586 -22.13  0.002178778    1.486    0.327
        13 -10.3465    202.1037    242.4511   1.0528551215e+02   7.6271860328e-01    0.1675487    0.1418668 -65.02  0.001309401    1.959    0.489
        14  -9.8797    248.4916    240.0137   9.8015102438e+01  -5.6352754883e+00    0.1321668   0.09188837 -15.54  0.001024543    1.580    0.367
        15  -9.9842    219.6315    239.8269   1.0227162952e+02  -1.5412041594e+00    0.1193274   0.09756321 -35.69  0.000944868    1.723    0.420
        16  -9.9377    148.4890    240.4989   1.1345894782e+02   8.9155694280e+00    0.1078661   0.08043745  48.24 -3.903144e-06    1.026    0.025
        17 -10.4359    163.6054    246.8503   1.1176114018e+02   5.9455694257e+00    0.1217387   0.09806267 -76.73 0.0009506615    1.791    0.442
        18 -11.1395    230.2283    236.4948   1.0021751959e+02  -2.7649111755e+00    0.2334575      0.19847 -53.73  0.001445984    2.094    0.522
        19 -11.4287    191.1322    235.8928   1.0615786770e+02   3.0778156714e+00    0.4025696    0.2885731 -89.56  0.002384892    3.202    0.688
        20 -10.7648    206.3071    236.4014   1.0385469007e+02   7.5020018067e-01    0.1991324    0.1903516  80.13  0.001630382    1.573    0.364
        21 -10.0244    242.8187    236.6005   9.8359255358e+01  -4.5636280173e+00    0.1414562   0.08078557  44.17 0.0006637461    1.661    0.398
        22 -11.3940    216.2811    233.4271   1.0191300838e+02  -4.3586220635e-01    0.2786631     0.257049  14.21  0.002229304    1.337    0.252
        23  -9.9269    170.4911    234.4970   1.0926628220e+02   6.3603300689e+00    0.1100148   0.08370408  41.25 -0.000113412    1.006    0.006
        24 -10.3791    240.3466    231.4977   9.7989632161e+01  -3.7692738791e+00    0.1464528    0.1247423 -38.10  0.001150758    1.841    0.457
        25 -10.2649    225.4819    231.5359   1.0023827446e+02  -1.6134562137e+00    0.1471351   0.09964645 -41.18 0.0007448392    2.144    0.534
        26 -10.2722    201.6294    231.8025   1.0397224627e+02   1.9292026999e+00    0.1237473    0.1033753 -43.91 0.0009480666    1.670    0.401
        27 -11.1719    235.1452    228.9492   9.8398295324e+01  -2.7873388038e+00    0.2772153    0.1525891 -27.51  0.001761694    2.106    0.525
        28 -10.2713    158.0000    230.9866   1.1087191448e+02   8.6881523773e+00    0.1443103   0.06395574 -47.97 0.0008007422    2.931    0.659
        29 -10.6624    229.5985    228.2674   9.9140929661e+01  -1.9097358657e+00    0.2025815    0.1197186 -41.30  0.001118946    2.474    0.596
        30 -10.3084    211.7708    227.1315   1.0173715442e+02   8.7799701627e-01    0.1993223    0.1264895 -34.55  0.001348996    1.965    0.491
        31 -11.5244    246.6918    225.9344   9.6218457786e+01  -4.1851854829e+00    0.2758081    0.2128245  44.69  0.001614767    1.583    0.368
        32 -11.6629    239.9177    220.8194   9.6457863426e+01  -2.7313511522e+00    0.4276009    0.2532738 -31.28  0.002835504    2.014    0.504
        33 -10.1254    223.1177    226.6526   9.9901844018e+01  -7.8880196328e-01    0.1593376    0.1448309  -6.45  0.000946513    1.379    0.275
        34 -10.8642    198.9437    226.5213   1.0368237535e+02   2.9106382942e+00    0.1767082    0.1581448 -62.56  0.001364464    1.663    0.399
        35 -10.4048    190.6001    225.9857   1.0494841135e+02   4.2635232115e+00    0.2000096    0.1088133 -38.22  0.001228811    2.320    0.569
        36 -10.4992    205.9415    225.4841   1.0242517198e+02   1.9443459499e+00    0.1785364    0.1534103 -51.76  0.001351677    1.718    0.418
        37 -11.3389    217.0064    222.7246   1.0028340158e+02   5.3520746140e-01    0.2997735    0.2313057 -46.71  0.001605373    1.935    0.483
        38 -10.7409    228.1040    221.6315   9.8391441434e+01  -1.0431806087e+00    0.2258365    0.1728079  54.16  0.001582081    1.741    0.426
        39 -10.1144    201.6449    221.2250   1.0251084372e+02   3.0785723241e+00    0.1379483    0.1005048 -14.91 0.0009160066    1.637    0.389
        40 -12.1934    247.7851    216.5067   9.4597412377e+01  -3.4895738339e+00    0.4921305    0.2535378 -26.42  0.002619788    2.115    0.527
        41 -10.9139    246.9979    206.5325   9.3103213566e+01  -2.4226128248e+00      0.30234    0.1596569 -39.83  0.001703975    2.683    0.627
        42 -10.5656    243.2483    200.8776   9.2732990063e+01  -1.2800174082e+00     0.338738    0.2191784 -27.27  0.002028123    1.689    0.408
        43 -10.6581    193.3430    218.9431   1.0353492339e+02   4.6490871916e+00    0.2135968    0.1396761 -51.65  0.001342672    2.232    0.552
        44  -9.8047    205.4751    217.5132   1.0135858063e+02   2.8918228476e+00    0.1147425   0.08918085  30.58 0.0001655353    1.008    0.008
        45 -10.2248    210.6803    218.5068   1.0066812569e+02   1.9634634119e+00     0.170363    0.1022332 -31.62  0.001078892    1.988    0.497
        46 -11.0631    232.9577    212.6105   9.6250185199e+01  -8.7983243625e-01    0.2755687    0.1773003 -24.39  0.001805418    1.717    0.418
        47 -11.4389    219.4831    216.6049   9.8983695732e+01   7.9322242434e-01    0.3671238    0.1839722 -37.11  0.002046131    2.456    0.593
        48 -10.2630    192.6212    209.8062   1.0233564078e+02   5.8639822347e+00    0.1417494    0.1104522 -50.10 0.0009518818    1.722    0.419
        49 -10.6807    229.2715    206.7556   9.5892829062e+01   3.0182788597e-01       0.2667     0.138622 -32.59   0.00142227    2.193    0.544
        50  -9.9819    224.6359    207.8171   9.6798985251e+01   9.2190152734e-01    0.1428721     0.103781 -37.08 0.0009495817    1.758    0.431
        51 -11.3747    240.5403    208.2843   9.4381138773e+01  -1.6099040729e+00      0.35103    0.2411547 -48.67  0.002147592    2.568    0.611
        52 -10.1880    217.4663    204.9587   9.7493894210e+01   2.3870386370e+00    0.1565935    0.1108904 -25.65  0.001028452    1.584    0.369
        53 -11.0748    235.0810    203.3524   9.4420366758e+01  -2.5554197504e-01    0.2407604    0.2047261 -37.88   0.00112061    1.647    0.393
        54 -10.9371    231.0000    194.0030   9.3486996813e+01   1.4141015936e+00    0.2800268     0.155763 -24.42  0.001601526    1.933    0.483
        55  -9.9421    197.4520    203.9974   1.0064726731e+02   5.7869579874e+00    0.1593882    0.1156443 -31.66  0.001035638    1.613    0.380
        56 -10.0743    187.4745    203.9558   1.0232973774e+02   7.4526033336e+00    0.1453469    0.1039912 -72.15 0.0008095859    2.538    0.606
        57  -9.8538    172.8046    203.9480   1.0485354299e+02   9.8998069433e+00    0.1379292   0.09444673 -40.90  0.000757454    1.762    0.432
        58 -11.2521    250.0885    200.5451   9.1626445138e+01  -2.3046635146e+00    0.2943436    0.1553674 -26.66  0.001553518    1.983    0.496
        59  -9.9281    223.5809    201.2646   9.5904974064e+01   1.8111491130e+00    0.1499368    0.1029275  -9.63 0.0009457941    1.570    0.363
        60 -10.6360    231.4719    198.5274   9.4183894878e+01   8.3699772818e-01    0.3228647    0.1863516 -39.64  0.001471885    2.224    0.550
        61  -9.8078    215.4094    198.1824   9.6727332095e+01   3.5067464772e+00    0.1487125    0.1106747 -41.60 0.0009511271    1.732    0.423
        62 -11.8986    224.8327    193.4454   9.4386657617e+01   2.4945516921e+00    0.4711487    0.2380565 -47.90  0.002212736    3.419    0.708
        63  -9.8026    176.3090    197.6568   1.0330741591e+02   1.0180834098e+01    0.1161483   0.09069008  73.27  0.000550735    1.696    0.410
        64 -11.7585    246.4246    193.2456   9.0925505395e+01  -9.9011748008e-01    0.3251535    0.2655457 -35.21   0.00163343    1.647    0.393
        65 -11.1793    243.7021    188.1518   9.0444585463e+01  -1.1915703072e-02    0.2017186    0.1663309   8.46  0.001001485    1.089    0.082
        66 -11.3366    237.0199    187.1957   9.1327509819e+01   1.1868803203e+00    0.3163775    0.1665016 -27.44  0.001218398    1.984    0.496
        67 -10.6954    235.5228    180.8830   9.0418975160e+01   2.1582126770e+00    0.2359109    0.1897784 -29.53  0.001121132    1.437    0.304
        68 -10.6332    230.0199    187.3758   9.2483483825e+01   2.3312239354e+00    0.2045017    0.1669122 -39.84  0.001002486    1.610    0.379
        69 -10.1999    202.0009    197.2107   9.8805275819e+01   5.8729114002e+00    0.1535224    0.1354154 -63.15 0.0007445173    1.620    0.383
        70  -9.9893    215.3613    187.1683   9.4861104603e+01   4.8473060331e+00    0.1566914    0.1106203 -41.76 0.0006504798    1.764    0.433
        71 -10.8172    249.7609    184.5364   8.8847819250e+01  -6.0197337847e-01    0.3803462    0.1374933 -32.68  0.001776579    2.874    0.652
        72 -11.8905    247.5571    178.2169   8.8017655164e+01   4.4753214797e-01    0.4663782     0.232788 -37.15  0.002235706    2.342    0.573
        73 -10.5303    223.9072    183.9231   9.2864510425e+01   3.7766051629e+00    0.2490739    0.1662931 -42.58  0.001169258    1.924    0.480
        74 -11.1870    183.5393    182.8154   9.9637447592e+01   1.1032796600e+01    0.2670607    0.1236082 -43.31   0.00127117    2.495    0.599
        75 -11.6412    241.3109    180.5087   8.9426573071e+01   1.2285177816e+00     0.398337    0.2080369 -37.71  0.002109162    2.261    0.558
        76 -10.1704    210.4650    183.0097   9.4954446730e+01   6.2248132145e+00    0.1759197    0.1193252 -28.38  0.000678932    1.601    0.375
        77 -10.1347    203.3789    183.2292   9.6209195194e+01   7.4446457630e+00    0.1609616    0.1161382 -43.77 0.0009521411    1.693    0.409
        78 -10.5822    231.4718    178.5527   9.0642535202e+01   3.1236872655e+00     0.186787    0.1147666 -27.09  0.001025019    1.683    0.406
        79 -10.4562    218.9982    177.8293   9.2571857764e+01   5.3862880893e+00    0.2192713     0.170435 -20.99  0.001380365    1.336    0.251
        80 -10.1719    205.0000    177.0030   9.4814720377e+01   7.9923333866e+00    0.1902142   0.07132949 -35.88 0.0007997399    2.924    0.658
        81  -9.9158    197.6111    176.7787   9.6070417033e+01   9.3593702691e+00     0.162968    0.1194733 -46.03 0.0009437807    1.655    0.396
        82 -10.7323    182.2371    176.4547   9.8777266721e+01   1.2204842347e+01    0.2250394    0.1834801 -34.24   0.00100943    1.366    0.268
        83 -10.0495    210.5034    176.0271   9.3683897186e+01   7.1332337719e+00    0.1781282    0.1218522 -31.56  0.001025634    1.578    0.366
        84 -10.2754    232.5117    174.5130   8.9714766273e+01   3.4300958746e+00    0.2311547    0.1162335 -28.39 0.0009659102    2.050    0.512
        85 -10.4210    223.4379    173.2673   9.0974880417e+01   5.1793140993e+00    0.2134001    0.1483651 -36.07  0.001245869    1.622    0.383
        86 -10.2712    227.7345    171.3615   8.9897495672e+01   4.6569099223e+00    0.2143391    0.1459372 -38.77  0.001133082    1.722    0.419
        87 -10.4817    240.0327    164.0160   8.6457220162e+01   3.3879931518e+00    0.2173589    0.1665436 -28.81   0.00126896    1.393    0.282
        88 -10.8098    237.8222    158.8687   8.5774812206e+01   4.4188339614e+00    0.3150989    0.2079538 -38.65  0.001239227    1.744    0.426
        89 -11.5716    237.2777    169.0581   8.7893868197e+01   3.2596008588e+00    0.3746178    0.2203891 -39.11     0.001785    2.005    0.501
        90 -10.8534    233.6707    163.8526   8.7453303980e+01   4.5401912274e+00    0.2346683    0.1604166 -42.40  0.001240299    1.826    0.452
        91 -10.2436    205.2886    169.2680   9.3326084349e+01   9.0053627233e+00    0.2443558    0.1519299 -55.57   0.00117008    2.566    0.610
        92 -10.6907    218.5945    168.2079   9.0822219721e+01   6.7063620733e+00    0.2930524    0.2077125 -38.75  0.001318718    1.616    0.381
        93 -10.0961    229.2709    166.0114   8.8603599233e+01   5.0577602533e+00    0.1808687    0.1524482  -7.84  0.001153564    1.139    0.122
        94 -10.3188    199.4186    164.7650   9.3506419931e+01   1.0744348651e+01    0.2357392    0.1241797 -40.35  0.001131701    2.085    0.520
        95 -10.0751    191.4922    165.0108   9.4989625838e+01   1.2205133866e+01    0.1931584    0.1293343 -35.60 0.0009825551    1.612    0.380
        96 -10.8614    212.9602    162.8060   9.0732932368e+01   8.4778147175e+00    0.3539487    0.1877448 -32.36  0.001741385    1.971    0.493
        97 -12.0674    242.3954    107.5848   7.3486502978e+01   1.0358177134e+01    0.4780531    0.2060024 -42.96  0.001857611    2.631    0.620
        98 -10.9567    250.3461    151.3260   8.2234092609e+01   3.1025462684e+00    0.6256905    0.1235955 -34.87  0.002001509    4.727    0.788
        99 -10.5264    247.4631    144.0305   8.1127484751e+01   4.5278831020e+00    0.2812057    0.1921429 -36.69  0.001474062    1.595    0.373
       100 -12.7817    240.4597    124.7456   7.7893765814e+01   8.3983398590e+00     0.956266    0.3162615 -36.82  0.003550329    2.908    0.656
       101 -10.6137    246.7405    162.4240   8.5075559701e+01   2.4034026179e+00    0.2693451    0.1656426 -29.08  0.001131945    1.620    0.383
       102 -10.9559    245.6474    157.4955   8.4246995663e+01   3.1881977706e+00    0.3222822    0.2022672 -24.70  0.001431216    1.526    0.345
       103 -11.3450    243.4957    140.0998   8.0891705671e+01   5.7688741822e+00     0.443139    0.2075082 -30.29  0.001604886    2.013    0.503
       104 -11.1245    242.1738    134.0164   7.9747097972e+01   6.8179220451e+00    0.3968717    0.1895464 -30.51  0.001291253    1.959    0.490
       105 -10.8062    241.9245    153.4763   8.4005240221e+01   4.3527358687e+00    0.2921946    0.2224024 -34.51  0.001123574    1.463    0.316
       106 -11.2375    243.9218    149.1193   8.2772105777e+01   4.5364706912e+00    0.4031198    0.2342934 -29.73  0.001646487    1.664    0.399
       107 -10.9820    205.1437    161.1571   9.1778485161e+01   1.0184200628e+01    0.3438937    0.1919684 -39.67  0.001701451    1.953    0.488
       108 -10.0871    221.5019    161.9192   8.9091655159e+01   7.0087744140e+00     0.186812    0.1225457 -29.36  0.000961934    1.561    0.359
       109 -11.1345    245.8265    169.1797   8.6557219757e+01   1.7666141882e+00    0.2876532    0.1636523 -32.58    0.0015757    1.839    0.456
       110 -10.1502    176.6090    159.2157   9.6663046332e+01   1.5957606280e+01    0.1844136     0.126678 -27.21  0.000956208    1.692    0.409
       111 -10.5071    226.5191    156.8251   8.7214551167e+01   6.7561651818e+00    0.2879149     0.120355 -33.85  0.001102745    2.414    0.586
       112 -10.2994    222.2878    156.8113   8.7924529798e+01   7.5498330124e+00    0.2421379    0.1047847 -39.16 0.0008811721    2.518    0.603
       113 -10.0201    216.0075    156.3024   8.8895633199e+01   8.8074731924e+00    0.1854759    0.1654465  17.52 0.0008663378    1.041    0.040
       114 -10.7375    233.3907    154.0658   8.5506359880e+01   5.8424453152e+00    0.2772883    0.1994708 -48.51  0.001355526    1.893    0.472
       115  -9.8287    187.6166    155.2123   9.3791379212e+01   1.4464943274e+01    0.1863457    0.1261287 -23.86 0.0009494586    1.688    0.408
       116 -10.5432    205.5265    154.0678   9.0279129931e+01   1.1144177562e+01     0.195811    0.1293211 -30.86 0.0009733973    1.566    0.362
       117 -10.5327    228.5051    151.0980   8.5691978634e+01   7.1488825091e+00    0.3826205    0.1279458 -28.32  0.001415612    3.244    0.692
       118 -10.3481    197.0000    157.0271   9.2420319291e+01   1.2356870437e+01    0.2121749   0.07560995 -36.98 0.0008066138    2.971    0.663
       119 -10.3132    157.3847    153.2062   9.9286581034e+01   2.0686986680e+01    0.1892056    0.1272755 -57.40 0.0009520996    1.727    0.421
       120 -11.8228    235.2493    147.2363   8.3761052717e+01   6.3898321373e+00    0.4153914    0.2986154 -38.72  0.001486094    1.565    0.361
       121 -10.2463    215.0126    148.9756   8.7541183995e+01   1.0037136908e+01    0.1997997     0.170043 -71.02 0.0008309023    1.710    0.415
       122 -10.5570    223.5297    146.6749   8.5586781594e+01   8.7058561559e+00    0.2520986    0.2226854 -36.91  0.001291128    1.309    0.236
       123 -10.5018    207.5568    145.0289   8.8012500206e+01   1.2088927120e+01    0.2062915    0.1306045 -31.60  0.001030446    1.603    0.376
       124 -10.0093    214.3510    143.0881   8.6390317898e+01   1.1021455376e+01    0.1940406    0.1183825 -42.15 0.0008659025    1.820    0.451
       125 -10.6990    230.0910    141.1992   8.3297414238e+01   8.1892150591e+00     0.298426    0.1754515 -33.20  0.001291845    1.683    0.406
       126  -9.9195    182.0002    142.2189   9.2167468207e+01   1.7708887023e+01    0.1997523    0.1528215 -59.25 0.0008984325    1.619    0.382
       127 -11.0805    247.5215    112.5868   7.3934800127e+01   8.6277289588e+00    0.3461502    0.1841668 -39.15  0.001036191    1.904    0.475
       128 -10.3470    250.4925    140.0850   7.9801767451e+01   4.4662535313e+00     0.287953    0.1076219 -34.06  0.001197367    2.542    0.607
       129 -10.5963    248.5892    135.3477   7.9047605075e+01   5.4225958951e+00    0.2683712    0.1785755 -33.05  0.001082397    1.497    0.332
       130 -11.5178    248.4032    129.9688   7.7865821939e+01   6.1528383934e+00    0.3994744     0.320323 -37.67  0.001589545    1.397    0.284
       131 -11.1267    249.2961    124.0076   7.6363280317e+01   6.7593005413e+00    0.3158551    0.2219104 -24.90 0.0009118828    1.293    0.227
       132 -11.5697    247.8896    118.6643   7.5326690141e+01   7.7411453865e+00    0.4752646    0.2279234 -34.20  0.001446324    1.939    0.484
       133 -10.4637    233.5746    129.2869   8.0043961726e+01   9.1480354106e+00     0.289249    0.1434959 -40.37  0.001263228    2.163    0.538
       134 -10.4478    238.4364    140.2805   8.1735367447e+01   6.7048412012e+00    0.2246736    0.1790155 -37.47 0.0008732222    1.413    0.292
       135 -11.6303    234.8463    135.7810   8.1314362946e+01   8.0030383503e+00        0.548    0.2572895 -38.36  0.001641516    2.211    0.548
       136 -10.7682    224.1441    140.0768   8.4044469755e+01   9.5112269989e+00      0.30801    0.1865994 -28.76  0.001024115    1.615    0.381
       137 -11.2595    218.9595    138.0061   8.4468673479e+01   1.0841127157e+01    0.3135869    0.2256924 -25.80  0.001684236    1.358    0.264
       138 -10.4873    208.3279    137.8187   8.6292176107e+01   1.3023624616e+01     0.272906     0.114362 -41.54  0.001070947    2.571    0.611
       139  -9.8190    192.6291    136.7652   8.8940156909e+01   1.6425314068e+01     0.194793    0.1289222 -44.08 0.0009451507    1.628    0.386
       140  -9.9560    198.6232    136.2106   8.7696563865e+01   1.5271673865e+01    0.1969759    0.1301567 -22.63 0.0009484964    1.638    0.390
       141  -9.8292    187.6455    135.8207   8.9677005709e+01   1.7617301555e+01    0.1994207    0.1279589 -45.84 0.0009436831    1.698    0.411
       142 -10.1908    163.3711    135.8011   9.4506631500e+01   2.2647589873e+01    0.1993232    0.1332485 -31.57 0.0009496211    1.676    0.403
       143 -10.5860    225.2509    133.7288   8.2434658417e+01   1.0192451562e+01    0.2765679    0.1793811 -17.76 0.0009579619    1.571    0.363
       144 -11.1692    221.2020    129.7475   8.2206597162e+01   1.1591322451e+01    0.4242663    0.1670127 -43.63  0.001548164    3.068    0.674
       145  -9.8991    198.3345    132.1146   8.6820795096e+01   1.5987828197e+01    0.2018483     0.123982 -43.85 0.0009329446    1.758    0.431
       146  -9.9589    179.3168    132.6430   9.0584070369e+01   1.9900749863e+01    0.1443197    0.1142385 -79.48 0.0004554804    1.751    0.429
       147 -10.6774    143.0000    131.0276   9.7810231793e+01   2.7668291954e+01    0.2351127   0.08015586 -46.19 0.0008074712    2.977    0.664
       148  -9.8216    186.3779    129.1969   8.8413981192e+01   1.8999582130e+01     0.203335    0.1306163 -46.52 0.0009438319    1.691    0.409
       149 -10.5374    200.0900    126.2609   8.5134291171e+01   1.6559365774e+01    0.2686776    0.1798327 -57.67 0.0009712407    2.070    0.517
       150 -10.4848    227.7022    125.2980   8.0077830429e+01   1.0901850137e+01    0.2599389    0.1538869 -37.35  0.001235549    1.697    0.411
       151 -10.5111    179.5056    124.5388   8.8671877119e+01   2.1276295318e+01    0.3009795    0.1413327 -38.79  0.001202645    2.141    0.533
       152 -10.3617    146.4995    125.4823   9.5817643819e+01   2.8056297113e+01    0.1429134    0.1373422  84.99 0.0001380932    1.040    0.039
       153 -10.8099    235.0245    123.4725   7.8456981005e+01   9.6657911728e+00    0.2602678    0.1765479 -40.17 0.0008479581    1.575    0.365
       154 -10.2158    220.9095    121.8893   8.0407633361e+01   1.2812391406e+01    0.3842115    0.1502945 -48.63  0.001162132    4.492    0.777
       155  -9.7664    194.0000    121.0088   8.5015018347e+01   1.8735585139e+01    0.2370388   0.08116996 -35.62 0.0007964413    2.901    0.655
       156 -10.0075    140.2950    118.6596   9.5639257403e+01   3.0678887954e+01     0.148329    0.1136269 -84.05  0.000443111    1.657    0.396
       157 -11.4840    230.5501    115.5117   7.7273470600e+01   1.1717482225e+01    0.4775484    0.1328923 -37.22  0.001567754    3.363    0.703
       158  -9.9068    186.0000    115.0035   8.5072762214e+01   2.1517493323e+01    0.2459963   0.08266576 -36.43 0.0008032226    2.948    0.661
       159 -10.8209    242.0901    118.0191   7.6056501458e+01   8.9882384486e+00    0.5071607    0.1429023 -35.83  0.001740719    3.232    0.691
       160 -10.5129    242.0470     93.1524   6.9919170498e+01   1.2428609690e+01    0.2855025    0.1863542 -32.37 0.0008133545    1.391    0.281
       161 -12.0854    247.9747    106.7472   7.2453123228e+01   9.3220007210e+00    0.4880165    0.2139687 -44.15  0.001902366    2.731    0.634
       162 -10.0118    183.0000    108.9430   8.4124004160e+01   2.3246125078e+01    0.2479299   0.08355531 -36.35  0.000799314    2.921    0.658
       163 -10.2025    160.5690    108.3075   8.8590161494e+01   2.8396120681e+01    0.2910299    0.1402205 -44.47  0.001128702    2.075    0.518
       164  -9.7943    133.6633    109.3307   9.4936322793e+01   3.3935195932e+01    0.1531886    0.1153071 -87.07 0.0007052077    1.734    0.423
       165  -9.5493    189.5230    108.5233   8.2747527983e+01   2.1841035369e+01    0.1473877    0.1428788 -19.15 0.0008093249    1.047    0.045
       166 -11.8318    229.6738    103.2325   7.4364538899e+01   1.3682755789e+01    0.3292329    0.2357539 -19.36  0.001666386    1.321    0.243
       167 -10.1927    222.4144    104.7809   7.5929779905e+01   1.5045542295e+01    0.2839372    0.1272373 -34.42  0.001128723    2.069    0.517
       168  -9.8844    205.6375    105.2177   7.8913586239e+01   1.8732218580e+01    0.2089306    0.1356653 -22.26 0.0007388474    1.581    0.368
       169 -12.1770    240.3964    111.0261   7.4632325102e+01   1.0297018069e+01     0.463929    0.1700062 -36.27  0.001767816    2.532    0.605
       170 -10.3398    167.0870    100.6276   8.5176661313e+01   2.8372144808e+01    0.2857663    0.1969576 -45.56   0.00131116    1.460    0.315
       171 -10.1405    224.4342    248.4406   1.0269042352e+02  -3.0050014340e+00    0.1385832   0.09484679 -41.64 0.0009808574    2.242    0.554
       172 -10.7423    210.3221    248.2779   1.0477284222e+02  -9.9070647173e-01    0.1596744    0.1283221 -68.92  0.001178357    2.440    0.590
       173 -13.6737    241.3866     52.5818   5.9214304422e+01   1.8042707851e+01     1.352068    0.4612339 -36.37  0.004956806    2.451    0.592
       174 -10.1179    242.3077    248.0005   1.0001735390e+02  -5.4378154515e+00    0.1387389    0.1034623  18.24 0.0007908156    1.121    0.108
       175 -11.9451    211.7436     94.1005   7.4920590753e+01   1.9091602879e+01    0.8347911    0.2596366 -44.62  0.002401943    4.062    0.754
       176 -10.5573    236.5098     90.0590   6.9930444625e+01   1.4071066299e+01    0.4007859    0.1754642 -21.04  0.001494115    2.463    0.594
       177 -12.2173    235.0347     95.0486   7.1442645415e+01   1.3688666358e+01    0.4163514    0.2522449 -47.65  0.001475202    1.900    0.474
       178 -12.1482    231.2116     90.5845   7.0860725791e+01   1.5175765849e+01    0.3838257    0.2795847 -36.41  0.001002705    1.310    0.237
       179  -9.9516    194.8355     97.5847   7.8857867056e+01   2.2467069170e+01    0.2018469     0.149022  68.09   0.00079847    1.638    0.390
       180 -10.0515    215.4081     94.2493   7.4345009283e+01   1.8222967591e+01    0.2160752    0.1283139 -39.47 0.0009453272    1.644    0.392
       181 -10.8629    188.9346     93.0252   7.8717622045e+01   2.4622341567e+01     0.369093    0.2082185 -41.74  0.001203201    1.758    0.431
       182 -10.5311    232.7337    247.2670   1.0131373589e+02  -4.0621800681e+00    0.1833234    0.1295706 -42.55  0.001295944    2.304    0.566
       183 -11.1259    175.7053     87.9419   7.9867783030e+01   2.8653824464e+01    0.3447158    0.2498432 -47.52 0.0008306845    1.425    0.298
       184 -11.7412    225.9948     87.5625   7.0859707171e+01   1.6796146167e+01    0.5464299    0.3390936   5.17  0.002270123    2.223    0.550
       185 -12.4449    225.1523     81.7128   6.9412322876e+01   1.7845234268e+01     0.555065    0.3813346  71.23  0.002600574    1.839    0.456
       186 -10.0261    151.0000     88.0013   8.5163919987e+01   3.4445764198e+01    0.2602983   0.08528703 -38.87 0.0008030736    2.947    0.661
       187  -9.7674    197.5879     86.8162   7.5389057413e+01   2.3591069526e+01    0.2246865     0.133067 -41.74 0.0009460839    1.675    0.403
       188  -9.7980    202.7484     98.0143   7.7533838821e+01   2.0555001941e+01     0.201443    0.1234509 -31.65 0.0008819292    1.559    0.358
       189  -9.2926    200.6350     83.3086   7.3860217570e+01   2.3423662456e+01    0.1582076    0.1177167 -66.68 0.0007038267    1.750    0.429
       190 -10.7404    159.0053     81.3846   8.1434627361e+01   3.3822039585e+01    0.3744652    0.2218143 -36.25  0.001339588    1.627    0.385
       191  -9.9681    150.4993     79.4955   8.2750939556e+01   3.6178182490e+01    0.1546375    0.1482083 -39.31 0.0008106161    1.018    0.017
       192 -10.1455    206.5119     78.0774   7.1370048250e+01   2.2823619039e+01    0.3569389    0.1426111 -30.52  0.001002679    2.344    0.573
       193 -10.4797    203.4616     66.4979   6.8507327002e+01   2.5342288592e+01    0.3835194    0.1722156 -34.88  0.001385126    2.028    0.507
       194 -10.3089    206.1454     74.1419   7.0302567030e+01   2.3518243419e+01    0.2529761    0.2010818 -47.82  0.000743283    1.305    0.234
       195 -10.2064    203.5650     70.7896   6.9754244902e+01   2.4665845167e+01    0.3529881    0.1300598 -35.25 0.0008516743    2.435    0.589
       196 -10.1900    200.9851     77.9811   7.2278136774e+01   2.4184002409e+01    0.2530574    0.1767251 -56.54  0.001113809    1.708    0.415
       197  -9.9773    174.4996     77.9665   7.7180840633e+01   3.0689360580e+01    0.2448987    0.1488399 -33.97 0.0009246847    1.577    0.366
       198 -10.2265    166.5937     77.7704   7.8730380214e+01   3.2652071560e+01    0.2303527    0.1388285 -43.66 0.0009539662    1.647    0.393
       199 -10.8564    130.3761     78.1920   8.7145116230e+01   4.0990080753e+01     0.228139    0.1344799 -49.31 0.0009522841    1.706    0.414
       200 -10.4334    211.3031     76.4685   7.0126848392e+01   2.1909376436e+01    0.2735761    0.1302824 -29.56  0.001031899    1.962    0.490
       201 -10.2261    188.5300     87.2915   7.7187126836e+01   2.5688370156e+01    0.2963887    0.1394063 -37.74  0.001120988    2.016    0.504
       202 -10.6726    157.4935     75.5482   7.9984733541e+01   3.5249042027e+01    0.3306231    0.1494019 -35.53   0.00120046    2.128    0.530
       203 -10.5676    163.1978     71.2964   7.7440027765e+01   3.4621711514e+01    0.3688373    0.2008438 -35.25  0.001475484    1.750    0.429
       204 -10.4975    221.9931     71.0065   6.6929747388e+01   2.0142038056e+01    0.2374078    0.1658918 -52.19 0.0006861624    1.592    0.372
       205  -9.6901    170.5089     70.4841   7.5687621867e+01   3.2957466850e+01    0.1562013    0.1494837 -31.65 0.0008103175    1.022    0.021
       206 -10.0077    187.3941     68.7381   7.1934518998e+01   2.9022488091e+01    0.2199505    0.1465814 -19.11 0.0007745923    1.592    0.372
       207  -9.8961    182.3698     68.2381   7.2701239344e+01   3.0365525891e+01    0.2316401    0.1335601 -40.57 0.0009430647    1.682    0.405
       208 -10.2008    163.5353     65.0121   7.5368106272e+01   3.5622144766e+01    0.2456301    0.1498498 -32.04  0.001026209    1.578    0.366
       209  -9.9879    171.0000     63.9811   7.3535115275e+01   3.3925159520e+01    0.2625927   0.08652668 -31.87 0.0007980393    2.912    0.657
       210 -12.6156    192.1906     56.6083   6.7355651288e+01   2.9677932090e+01    0.7036296    0.2901325 -30.08  0.002508375    2.262    0.558
       211 -10.7964    153.1296     59.6429   7.5796836885e+01   3.9115379925e+01    0.2913224    0.1981063 -41.03 0.0009885263    1.427    0.299
       212 -10.9917    157.8932     61.6522   7.5447654992e+01   3.7595114088e+01    0.4056223    0.2045989 -35.69  0.001568686    1.870    0.465
       213 -13.8176    226.1124     53.0485   6.1256125393e+01   2.1636890921e+01    0.8853656    0.5390562 -27.87  0.004047323    1.495    0.331
       214 -11.2293    153.0728     52.6402   7.3416430059e+01   4.0296430915e+01    0.2883497    0.2015885 -39.69 0.0009871963    1.387    0.279
       215 -10.2544      9.8317     55.8313   1.1950069778e+02   6.3155486686e+01    0.1520457    0.1168305 -86.51 0.0002576702    1.290    0.225
       216 -10.4042    169.0117     44.2502   6.7363315553e+01   3.7514454753e+01    0.2977156    0.1795446 -40.95  0.001128401    1.633    0.388
       217 -10.0988    218.3968    248.1769   1.0355236942e+02  -2.1306894877e+00     0.114278   0.09695356 -38.18 0.0009461484    1.755    0.430
       218 -10.1002    173.3800     39.8267   6.5067691156e+01   3.7002401773e+01    0.2245975    0.1457779 -11.76  0.000946869    1.728    0.421
       219 -12.8791    223.5926     35.3405   5.6444990222e+01   2.4527057644e+01    0.4350425    0.2678929 -27.28  0.002013027    1.492    0.330
       220 -10.7124    168.5057     36.9584   6.4926800804e+01   3.8680511787e+01    0.2414613    0.1465531 -28.51  0.001026358    1.579    0.367
       221 -11.1849    169.5098     31.4063   6.2802448258e+01   3.9157628513e+01    0.5119753    0.1676307 -13.63   0.00103028    7.886    0.873
       222  -9.5965    125.6714     30.3286   7.1188468737e+01   5.0469363541e+01    0.1538204    0.1134633 -60.31 0.0007051116    1.708    0.415
       223 -10.0482    166.4601     27.9469   6.2086076917e+01   4.0408034114e+01    0.2317692    0.1035422 -46.20 0.0008088244    2.521    0.603
       224 -11.5197    176.0804    245.7921   1.0970578750e+02   4.2383150982e+00     0.303084    0.1918048 -35.69  0.002168445    2.153    0.536
       225 -10.0776    250.6956    245.4637   9.8461437752e+01  -6.3701117670e+00    0.1439227   0.08374359 -19.71 0.0007070669    1.923    0.480
       226  -9.9091    237.7744    244.7651   1.0023842222e+02  -4.5505046427e+00    0.1248741   0.07710294 -38.68 0.0008655506    2.428    0.588
       227 -11.3478    241.8632    241.9502   9.9253095854e+01  -4.8815414678e+00    0.2837909    0.2041651 -49.20  0.001974811    2.788    0.641
