#   1 NUMBER                 Running object number                                     
#   2 MAG_AUTO               Kron-like elliptical aperture magnitude                    [mag]
#   3 X_IMAGE                Object position along x                                    [pixel]
#   4 Y_IMAGE                Object position along y                                    [pixel]
#   5 X_WORLD                Barycenter position along world x axis                     [deg]
#   6 Y_WORLD                Barycenter position along world y axis                     [deg]
#   7 A_WORLD                Profile RMS along major axis (world units)                 [deg]
#   8 B_WORLD                Profile RMS along minor axis (world units)                 [deg]
#   9 THETA_WORLD            Position angle (CCW/world-x)                               [deg]
#  10 FWHM_WORLD             FWHM assuming a gaussian core                              [deg]
#  11 ELONGATION             A_IMAGE/B_IMAGE                                           
#  12 ELLIPTICITY            1 - B_IMAGE/A_IMAGE                                       
         1 -14.8099    168.9196     24.5490   6.8750670654e+01   4.0020017925e+01    0.9029663    0.7659408  73.20  0.003999072    1.031    0.030
         2 -12.2749    189.9810     14.7081   6.3346215413e+01   3.6008245600e+01    0.1926572    0.1508553  79.55 0.0008253221    1.084    0.077
         3 -13.3751    190.3886    249.5600   1.1608061414e+02  -5.3754260043e+00    0.4069367    0.2228868  31.05 0.0009266788    1.701    0.412
         4 -20.1510     92.8961    212.8315   1.3055539026e+02   1.8244909829e+01     8.829608     7.163021  69.93   0.04408783    1.078    0.072
         5 -13.0885     12.0096    206.1821   1.4614598795e+02   3.0222818369e+01     0.492972    0.2656478  32.77   0.00292119    2.277    0.561
         6 -10.7051     16.3320    202.2589   1.4502932272e+02   3.0634525166e+01    0.1017661   0.08291944 -57.32 0.0003688607    1.568    0.362
         7 -11.3508     17.0094    192.3458   1.4408376304e+02   3.2734356759e+01    0.1750436    0.1265484 -74.76  0.000432652    1.220    0.180
         8 -12.3920     18.0625    183.4445   1.4308191679e+02   3.4615369736e+01    0.3513905    0.1804276 -52.59  0.001870476    2.206    0.547
         9 -14.0205    186.6109    236.2587   1.1470536419e+02  -2.6591305715e+00    0.3825251    0.2741039 -42.85  0.002200263    1.591    0.372
        10 -11.6017     44.7213    246.4211   1.4327596900e+02   1.8254827269e+01    0.2694406    0.1294167  69.89  0.001379605    1.970    0.492
        11 -19.1183     78.3460     91.3071   1.1104188034e+02   4.8745024665e+01     19.11616    0.7860432 -49.45   0.02523137   20.784    0.952
        12 -13.4129    198.3212    238.3436   1.1276523777e+02  -4.9844814323e+00    0.2635495    0.2350559  10.30 0.0003919694    1.085    0.078
        13 -11.1880     11.2334    238.1646   1.4839565459e+02   2.3764564935e+01    0.1564829    0.1221827  57.29 0.0005455902    1.355    0.262
        14 -11.8965     23.4045    155.9139   1.3901261108e+02   4.0424812371e+01    0.2522607    0.1595366 -42.38  0.001021282    1.929    0.482
        15 -12.6206    186.8403    154.4977   9.8852112740e+01   1.2799854416e+01    0.5707021    0.3614079  40.83  0.002504595    1.628    0.386
        16 -11.7909    191.7649    151.8513   9.7221588372e+01   1.2283696839e+01    0.4115933    0.2639573 -52.14 0.0009487681    1.642    0.391
        17 -13.7431    164.3278    153.0038   1.0347051819e+02   1.8006547354e+01    0.4586913    0.3834578  38.44  0.001294112    1.228    0.186
        18 -13.3042     28.2886    146.9468   1.3669077532e+02   4.2063383266e+01    0.6136855    0.2720057 -68.81  0.001782715    1.856    0.461
        19 -12.8316    174.4474    148.9227   1.0027290866e+02   1.6680765222e+01    0.3810747    0.2985286 -64.12  0.001139518    1.419    0.295
        20 -10.4791     40.4208    245.2178   1.4393090875e+02   1.9030013321e+01    0.1415095    0.0872722  84.77 0.0003539473    1.365    0.268
        21 -11.2155    119.4423    243.9055   1.2911388239e+02   7.6183090937e+00    0.2196079    0.1601682  28.71  0.001014218    1.636    0.389
        22 -11.0511     14.9340    132.8399   1.3821831707e+02   4.6499339204e+01    0.2654576    0.1304275 -41.84  0.001327567    2.337    0.572
        23 -13.3966    160.4605    128.0455   9.8484130212e+01   2.4334777440e+01    0.4694164    0.3501123 -59.39  0.001794435    1.432    0.302
        24 -10.5491     35.4718    244.5170   1.4473170435e+02   1.9775339398e+01    0.1202581   0.08110403  72.18 0.0008071831    1.116    0.104
        25 -11.9805     27.0082    224.5847   1.4476177492e+02   2.4765379562e+01    0.2481758    0.1455355 -66.88  0.001322043    1.677    0.404
        26 -13.2803     38.5923    116.0483   1.2899339224e+02   4.8286280508e+01      0.39347    0.2554649  -9.83  0.001439886    2.267    0.559
        27 -14.2426    188.2165    240.1667   1.1502181554e+02  -3.5613816757e+00    0.6442094    0.2141896  44.27  0.002530685    2.741    0.635
        28 -11.2593    231.2813    113.8602   8.1110022010e+01   1.1126935575e+01    0.2523856    0.2139616  51.92 0.0007683842    1.288    0.223
        29 -11.8040    167.5530    112.8145   9.3038370083e+01   2.5925623927e+01    0.3744547    0.2628729 -78.26  0.001254543    1.990    0.497
        30 -11.0525    205.8216    110.1697   8.4633484095e+01   1.7483530114e+01    0.2297917     0.200156 -72.64 0.0005385083    1.172    0.147
        31 -10.4353     21.0129    215.3878   1.4516301884e+02   2.7344514737e+01    0.1437812    0.1106385  77.01  0.001010983    1.075    0.070
        32 -11.5374      9.5817    214.1427   1.4715418424e+02   2.8784396978e+01    0.1541643    0.1005402 -84.09 0.0004615294    1.212    0.175
        33 -11.3092    156.9034    247.8168   1.2230128558e+02   5.5957986651e-01    0.1903026    0.1781466 -38.77 0.0005644936    1.274    0.215
        34 -13.8313    147.2130     66.4602   8.4834645272e+01   3.9492236915e+01    0.5811898    0.4696378  73.38  0.001113329    1.331    0.249
        35 -14.7547    157.5015     52.8756   7.8715141893e+01   3.9135450172e+01     1.017432    0.9366789   1.12  0.003286396    1.242    0.195
        36 -13.5039    161.7546     43.9404   7.5350735919e+01   3.9361021537e+01    0.4707908    0.4246198  62.87  0.000766309    1.033    0.032
        37 -11.7999     13.3936     59.8816   1.2499866847e+02   6.2285012051e+01    0.1644249    0.1512789 -10.92 0.0004626897    1.260    0.207
        38 -11.1058     16.4308    210.5293   1.4564560579e+02   2.8853028736e+01    0.1461461    0.1170809  77.72 9.860117e-05    1.135    0.119
