#   1 NUMBER                 Running object number                                     
#   2 MAG_AUTO               Kron-like elliptical aperture magnitude                    [mag]
#   3 X_IMAGE                Object position along x                                    [pixel]
#   4 Y_IMAGE                Object position along y                                    [pixel]
#   5 X_WORLD                Barycenter position along world x axis                     [deg]
#   6 Y_WORLD                Barycenter position along world y axis                     [deg]
#   7 A_WORLD                Profile RMS along major axis (world units)                 [deg]
#   8 B_WORLD                Profile RMS along minor axis (world units)                 [deg]
#   9 THETA_WORLD            Position angle (CCW/world-x)                               [deg]
#  10 FWHM_WORLD             FWHM assuming a gaussian core                              [deg]
#  11 ELONGATION             A_IMAGE/B_IMAGE                                           
#  12 ELLIPTICITY            1 - B_IMAGE/A_IMAGE                                       
         1 -11.9976    204.2236     16.0534   5.4308608990e+01   3.1748242163e+01    0.9985274     0.709674  19.83   0.00501555    1.851    0.460
         2 -12.1357    193.5311     30.0552   5.9682380139e+01   3.2894090644e+01     1.004522    0.7682735  35.86  0.005166869    1.457    0.314
         3  -9.6710    178.4123      6.3174   5.4602313813e+01   3.9400805086e+01    0.2617026    0.1419657 -14.06   0.00115519    2.207    0.547
         4 -10.6189     41.2046      3.8179   8.8912256743e+01   6.9631828335e+01    0.2757991    0.1740619 -40.86  0.001640181    1.763    0.433
         5 -11.1947     95.2617    225.2820   1.2312080094e+02   1.7708581759e+01    0.4371863    0.2510186  54.59  0.002661615    1.436    0.304
         6 -11.0174    133.5055    246.2689   1.1838665957e+02   8.7828486872e+00    0.2642047    0.2346929 -38.87  0.002038382    1.544    0.353
         7 -10.7234    140.3716    250.0000   1.1758830781e+02   7.2266692979e+00    0.5410866    0.1263122  37.54  0.001904129    4.432    0.774
         8 -10.5963    120.7260    249.0810   1.2089472226e+02   1.0280895394e+01    0.2676639    0.1502338  38.43 0.0009474136    1.523    0.343
         9  -9.3090    115.3140    249.6726   1.2188380896e+02   1.0982825595e+01    0.1600932    0.1021247 -63.10  0.001079008    1.977    0.494
        10  -9.8017     99.5367    250.2415   1.2462954081e+02   1.3135841941e+01    0.2811809   0.09467424  52.10  0.001372178    2.514    0.602
        11  -9.1738     73.6644    249.3107   1.2889480803e+02   1.6731652470e+01    0.2074426    0.1372849 -82.55  0.000978223    1.617    0.381
        12 -17.0425      9.8086    144.5035   1.3329018621e+02   4.3558881104e+01     16.98368     2.529594 -75.46   0.05423062    5.565    0.820
        13 -10.8801     84.1913    223.4084   1.2497813582e+02   1.9579289915e+01    0.3758151    0.1390044  50.69  0.001606095    2.232    0.552
        14  -9.5724     54.1433    222.8272   1.3034983555e+02   2.3547365322e+01    0.2161881    0.1621586  32.27  0.001378912    1.695    0.410
        15 -10.1308     55.4677    240.1163   1.3129330188e+02   2.0454320331e+01    0.2532848    0.1514822  59.27   0.00084229    1.247    0.198
        16  -9.5758     74.0677    213.8493   1.2599351571e+02   2.2635000235e+01    0.1792184    0.1206819  64.34 0.0004374072    1.245    0.197
        17  -8.6829     37.7502    210.1459   1.3240723720e+02   2.7711911174e+01     0.196153     0.107996  54.07  0.001281038    1.451    0.311
        18  -9.6172    193.7400    237.8457   1.0674342179e+02   4.9751822659e-01    0.2212702    0.1608024 -47.73  0.001472264    1.920    0.479
        19 -13.3051     55.5330    206.8349   1.2888280559e+02   2.6279437653e+01     1.532013     1.245966  62.46   0.01142846    1.125    0.111
        20  -8.7324    199.6679    199.6637   9.9756675473e+01   4.5557424811e+00    0.1346102    0.0896512  13.03 0.0007052122    1.737    0.424
        21  -9.0387    101.9601    233.7347   1.2271736215e+02   1.5354554722e+01    0.1652418    0.1180958  52.86 0.0005836011    1.081    0.075
        22 -10.8247     59.0451    185.0397   1.2625189387e+02   3.0082426101e+01     0.600237    0.2994763  45.93   0.00257904    1.774    0.436
        23 -10.3831     73.6386    183.7842   1.2307416508e+02   2.8447108662e+01    0.3532396    0.2179046 -52.15  0.001404006    1.931    0.482
        24 -10.3401     77.9839    177.9111   1.2146718840e+02   2.9046010401e+01    0.3257636    0.2322511 -44.42 0.0008173171    1.852    0.460
        25 -10.9260     94.4804    169.1018   1.1666138077e+02   2.8450039348e+01    0.7932917    0.5801122   4.04  0.004013176    2.402    0.584
        26 -11.9682     84.2406    168.6026   1.1890130914e+02   3.0088892202e+01    0.8961479    0.7323975  24.77  0.004172423    1.535    0.349
        27 -11.9399     73.9479    164.1357   1.2064708681e+02   3.2489014112e+01    0.4915728    0.4480679 -44.27  0.001172994    1.383    0.277
        28 -11.2893     58.6280    169.3161   1.2470841486e+02   3.3377223255e+01    0.5686936    0.4099441 -85.05  0.003519574    1.254    0.203
        29 -10.3239     52.5673    170.8299   1.2619692658e+02   3.3788237575e+01    0.2967548    0.2425065  60.94  0.002005002    1.140    0.123
        30 -10.3901     90.9399    161.3548   1.1634417277e+02   3.0624917782e+01    0.3443543    0.2315433 -48.57   0.00148617    1.683    0.406
        31  -9.7876     73.5404    155.0487   1.1952206440e+02   3.4507372902e+01    0.3393029    0.1190919 -64.04  0.001367205    2.768    0.639
        32  -8.5958     87.5546    241.0286   1.2590811710e+02   1.6202895672e+01    0.1401889   0.09884645 -84.78 0.0005011536    1.532    0.347
        33  -9.0148    103.7716    144.7120   1.1054662674e+02   3.2160266620e+01    0.2584324    0.2214911  -4.37  0.001371726    1.557    0.358
        34 -10.4499     92.5420    144.0471   1.1320086979e+02   3.4133078823e+01    0.2590685    0.2285007 -49.16 0.0004620372    1.242    0.195
        35  -9.8502     83.9813    138.8890   1.1446826495e+02   3.6590316071e+01    0.3583585     0.251396 -50.68  0.001928693    1.472    0.320
        36  -9.0406    113.6744    132.0163   1.0562400191e+02   3.3196819011e+01    0.2838385     0.188619  11.00   0.00116607    2.651    0.623
        37  -9.6412    100.5849    129.1724   1.0839952630e+02   3.6119163576e+01    0.3104672    0.2389735 -33.69 0.0009535672    1.551    0.355
        38  -8.4606    109.2131    120.7856   1.0437723206e+02   3.6465833722e+01    0.2756091    0.1787675 -47.81 0.0005309267    1.536    0.349
        39 -11.3797    110.2805    109.8605   1.0157696870e+02   3.8667177011e+01    0.9320619    0.6484761 -56.05  0.004528382    1.449    0.310
        40 -11.2991    117.4810    105.5232   9.8570162552e+01   3.8231909202e+01    0.6270724    0.4990602 -48.35   0.00321687    1.239    0.193
        41 -11.6189     97.4209    111.9919   1.0559281576e+02   4.0487631071e+01    0.8724949    0.7231496 -62.26  0.004789826    1.178    0.151
        42  -8.6293    167.7894    112.7417   8.8093010667e+01   2.5953066400e+01    0.2097401    0.1828904 -80.81 0.0006438742    1.368    0.269
        43  -9.3590    126.9096     94.2090   9.3070752977e+01   3.8693714573e+01    0.2932968    0.2181644  25.34  0.001373519    1.571    0.363
        44 -11.3584    126.0501    230.1191   1.1796175841e+02   1.2328050715e+01    0.3501399    0.2673243  74.64   0.00236345    1.427    0.299
        45 -10.0388    114.7332     80.3883   9.2431880506e+01   4.4028634214e+01    0.4098171    0.1241422 -38.53  0.001208615    3.686    0.729
        46 -10.7129    119.8165    229.1596   1.1900109629e+02   1.3436926160e+01    0.2994303    0.2036058  36.06  0.001899126    1.413    0.292
        47 -11.3314    114.8986    229.1548   1.1990437924e+02   1.4183859855e+01    0.4655343    0.2842661 -78.23   0.00274089    2.169    0.539
        48  -8.9437     82.5412    230.0308   1.2586163749e+02   1.8678284538e+01    0.1455678    0.1019868 -79.89 0.0007198303    1.520    0.342
        49 -11.2681    108.4793    228.7673   1.2104154397e+02   1.5206156269e+01    0.3602609    0.1958471  44.46   0.00211997    1.470    0.320
        50  -9.3805     52.4723    227.6275   1.3097647794e+02   2.2910763104e+01     0.285568    0.1195595  57.59 0.0007381752    1.987    0.497
        51 -11.2320    178.7388     43.7628   6.6121887612e+01   3.4951591237e+01    0.6033397    0.3644305  75.00  0.002562312    1.919    0.479
        52 -10.9011    178.3399     37.4719   6.4253054849e+01   3.5901339488e+01    0.5889408     0.212079 -33.02  0.002097806    2.666    0.625
        53  -9.4582    112.6766    250.3221   1.2239676870e+02   1.1268132316e+01    0.1938096   0.08489139  45.08 0.0008278004    1.694    0.410
        54 -11.1742    184.5990     36.5593   6.2955961800e+01   3.4394356718e+01    0.5020618    0.3780451  32.48  0.001532857    1.493    0.330
        55 -10.1843     69.8461    249.7190   1.2955295001e+02   1.7152674386e+01    0.2329097    0.2108807  32.51 0.0006601956    1.619    0.382
        56 -10.4910    163.4026     13.6368   5.9064036569e+01   4.2591792487e+01    0.2705982    0.1827516  67.51  0.001337324    1.389    0.280
        57  -9.6094    154.9645    246.0000   1.1459626725e+02   5.5367300844e+00    0.2021828    0.0510347  41.62 0.0001537689    3.004    0.667
