#   1 NUMBER                 Running object number                                     
#   2 MAG_AUTO               Kron-like elliptical aperture magnitude                    [mag]
#   3 X_IMAGE                Object position along x                                    [pixel]
#   4 Y_IMAGE                Object position along y                                    [pixel]
#   5 X_WORLD                Barycenter position along world x axis                     [deg]
#   6 Y_WORLD                Barycenter position along world y axis                     [deg]
#   7 A_WORLD                Profile RMS along major axis (world units)                 [deg]
#   8 B_WORLD                Profile RMS along minor axis (world units)                 [deg]
#   9 THETA_WORLD            Position angle (CCW/world-x)                               [deg]
#  10 FWHM_WORLD             FWHM assuming a gaussian core                              [deg]
#  11 ELONGATION             A_IMAGE/B_IMAGE                                           
#  12 ELLIPTICITY            1 - B_IMAGE/A_IMAGE                                       
         1 -14.3908    100.6812     49.3058   4.9071128144e+01   5.0770893760e+01     1.278039    0.8627785  17.68  0.005583018    1.754    0.430
         2 -13.3827     65.1369     52.3650   5.9426682862e+01   5.6282630589e+01     1.205972    0.6413106 -24.24  0.006264921    1.949    0.487
         3 -15.0392      6.3584     70.9077   8.4002105652e+01   5.9787175237e+01      1.30566    0.6379587 -47.36  0.006972886    1.528    0.346
         4 -13.3033      6.7225     43.1046   7.5595891478e+01   6.4399372114e+01     1.290724    0.6360629   1.56  0.007095392    2.674    0.626
         5 -13.0827      7.8077      2.7134   5.9886374026e+01   6.9241139007e+01    0.4689052    0.3448587  34.85   0.00380981    1.815    0.449
         6 -13.5482      2.7811     10.2596   6.4956460953e+01   6.8977276034e+01    0.6176507    0.3529674 -29.74  0.004011572    1.532    0.347
         7 -15.9696     12.4102     21.9825   6.5936209646e+01   6.6728477450e+01     1.654014    0.8792341 -12.64  0.007912001    1.845    0.458
         8 -14.1559    188.7223     25.4661   2.7663996588e+01   3.5744379425e+01     2.601263     1.035716 -66.72  0.008091279    6.320    0.842
         9 -14.1996    187.8698     12.4003   2.4894580727e+01   3.7303468217e+01       1.2106    0.5862254 -54.21  0.006572111    2.161    0.537
        10 -12.7920    121.0090     25.5622   3.7641871089e+01   4.9622928044e+01    0.6198887    0.5275617  45.12  0.003169187    1.071    0.066
        11 -14.6355    166.3459     28.4258   3.1178600431e+01   4.0071480472e+01    0.9833165    0.7874383  77.44  0.004102288    1.162    0.139
        12 -14.1568    120.7357     36.7856   4.0954570976e+01   4.8479017936e+01      1.27678    0.5024025  51.05  0.005343069    2.299    0.565
        13 -14.6146    147.0869     29.4619   3.4272929288e+01   4.3958603922e+01     1.305659    0.7660744  59.01  0.007394976    1.557    0.358
        14 -12.8734     44.0743     32.6302   5.9033413888e+01   6.1815712441e+01    0.6349378    0.4910784  20.38  0.004625037    1.221    0.181
        15 -11.4159    232.6781      1.7922   1.8858917674e+01   2.9551677752e+01    0.3367963    0.1179718  67.45  0.001511364    2.527    0.604
        16 -14.6836    218.0284     11.8881   2.1898156851e+01   3.1311551537e+01     1.138113    0.9940254 -39.39  0.006021016    1.419    0.295
        17 -13.1176     55.5702     26.9352   5.3478803640e+01   6.0872927203e+01    0.6129851    0.3765615  31.05  0.003920358    1.498    0.333
        18 -11.8984     46.4409     20.2931   5.3776378140e+01   6.2864769841e+01     0.363071    0.2436282  21.76  0.002196759    1.306    0.235
        19 -12.9717     86.3576     14.6393   4.1297754216e+01   5.7084444399e+01    0.5347387    0.3764234 -55.24  0.003110582    2.173    0.540
        20 -15.1250     98.9969     11.1752   3.7532199927e+01   5.5103766615e+01      1.33738    0.6767313  58.34  0.007666321    1.848    0.459
        21 -12.3018     70.2881     15.8294   4.5519575509e+01   5.9694448760e+01    0.3086911    0.2873565  41.15  0.001826005    1.318    0.242
        22 -11.9752     58.9628     15.9716   4.8558733336e+01   6.1462264782e+01    0.3228737    0.2542992  27.86  0.002425783    1.135    0.119
        23 -12.8752    152.9490      8.7048   2.8138763114e+01   4.4770837107e+01    0.3349216    0.2305151  76.01   0.00154334    1.353    0.261
        24 -12.2698    167.8362     10.4363   2.6700418998e+01   4.1583289675e+01     0.285529    0.1723181 -19.60  0.001692818    2.148    0.534
        25 -14.0679     40.5049      4.3523   4.9495484983e+01   6.5138660795e+01    0.6711369    0.4041476  33.00  0.004586803    1.410    0.291
        26 -10.9009    123.4699     11.0577   3.3077526070e+01   5.0463496171e+01    0.1638174    0.1367822  55.14 0.0004853526    1.058    0.055
        27 -11.0682     74.9219      8.3974   4.1817645742e+01   5.9552741345e+01    0.3289213    0.1422081 -14.55  0.001200074    2.698    0.629
        28 -11.7610     46.8684     12.8517   5.0858458258e+01   6.3520605499e+01    0.2387886    0.2012934  27.78  0.001290959    1.284    0.221
        29 -10.8692     59.4998      7.2419   4.5242231993e+01   6.2126872004e+01    0.1992764    0.1221857  39.63  0.001004266    1.402    0.286
        30 -10.5108     66.9990      3.7624   4.2095578284e+01   6.1207104831e+01    0.1477783     0.113531  34.94 0.0004411436    1.108    0.098
        31 -10.5929    192.9669      2.5016   2.2293750318e+01   3.7226195922e+01    0.1597912    0.1356437 -64.22  0.000622636    1.165    0.142
        32 -12.1496    119.7446      3.0863   3.1442406092e+01   5.1811985438e+01    0.4583638    0.2482838  84.36   0.00237349    2.728    0.633
        33 -11.8293    169.4393      1.7153   2.4514544160e+01   4.2029828508e+01    0.3160785    0.1121352  63.72  0.001584422    2.300    0.565
        34 -11.2288     81.1076      1.3820   3.8060735644e+01   5.9020336010e+01    0.3842428   0.05553861  53.35  0.001474562    4.277    0.766
        35 -11.2448     60.9938      1.4583   4.2756184412e+01   6.2331199394e+01    0.3173645   0.08707049  52.04  0.001481441    3.239    0.691
        36 -13.8508     24.8541     13.4625   5.8146690785e+01   6.6315531125e+01    0.6398226    0.2284162  36.74   0.00352867    2.689    0.628
        37 -12.3909    246.2422    134.7519   4.3713079687e+01   6.5891312412e+00    0.3667028     0.237353  87.63  0.001689078    2.568    0.611
        38 -12.7199     57.6722    246.4352   1.0082601131e+02   1.4600088477e+01    0.5132383    0.2239278  35.84  0.002420431    2.716    0.632
        39 -13.0026     28.3420    245.9779   1.0590661445e+02   1.8353113211e+01    0.5084748    0.3189181 -86.18  0.003187437    1.292    0.226
        40 -12.5406      2.9776    249.2213   1.1032002162e+02   2.0455753963e+01    0.4887639    0.2763093 -84.07  0.002627051    1.341    0.254
        41 -13.5117      9.4377    245.2415   1.0898914076e+02   2.0608590162e+01    0.7591745    0.4097151  77.90   0.00330767    1.632    0.387
        42 -12.0401     45.1732    132.7117   8.6824533771e+01   4.3145132104e+01    0.5147822    0.3496008 -75.03  0.002700229    1.593    0.372
        43 -11.8169    135.9840    132.3145   6.3747069385e+01   2.8773470913e+01    0.4764979     0.144159  44.51  0.001468531    3.661    0.727
        44 -14.3319    106.3021    105.0955   6.3917017427e+01   4.0280607459e+01     2.145923     1.162721 -33.37  0.009084128    2.000    0.500
        45 -13.6488    108.2980    122.6261   6.7966694696e+01   3.6159854622e+01    0.9320052    0.8272946 -52.84  0.005131607    1.055    0.052
        46 -13.1888    111.4786    116.6451   6.5656295938e+01   3.6900424094e+01     0.481476     0.351386  41.66  0.001733299    1.520    0.342
        47 -12.3665     78.2692    110.0517   7.2597251771e+01   4.3900895842e+01    0.4977808    0.4251578  65.78  0.002826605    1.490    0.329
        48 -11.2637    135.0791    125.6863   6.2320060201e+01   3.0428177301e+01     0.208932    0.2069064 -30.40  0.001166714    1.103    0.093
        49 -12.8158     28.5057    121.8994   8.9127573721e+01   4.7398394954e+01    0.4162311     0.286657 -49.79  0.002447619    1.158    0.136
        50 -12.7330     84.7823    114.8433   7.2066800018e+01   4.1852455695e+01    0.8848453    0.4797944  23.89  0.003658289    2.678    0.627
        51 -11.0077    181.2182    120.6046   5.1398685147e+01   2.2069161912e+01    0.1976081    0.1441987  40.12 0.0009511411    1.626    0.385
        52 -12.0266      4.2149    119.5299   9.5285627539e+01   4.9953525649e+01    0.4831157    0.2927666   5.79  0.002578574    2.345    0.574
        53 -12.4170     49.6552     98.6010   7.7737436440e+01   5.0211509745e+01    0.7989625    0.4367518  20.77  0.003893802    2.376    0.579
        54 -12.2849     49.2053     93.2339   7.6465176319e+01   5.1358744732e+01    0.4870337    0.3993325  -9.06  0.002465003    1.279    0.218
        55 -11.6798     35.0314     86.3668   7.8930430686e+01   5.4313289596e+01    0.2852997    0.2355749  13.85   0.00113752    1.379    0.275
        56 -12.5021     42.4216     90.5254   7.7778986277e+01   5.2690940857e+01    0.3778327    0.2398065 -51.40 0.0005028521    1.407    0.289
        57 -12.2051     19.1479     86.1102   8.3807161187e+01   5.5877880906e+01    0.3787273    0.2353603 -24.87 0.0003682721    1.635    0.388
        58 -14.8275     15.7777    107.7174   8.9783742499e+01   5.1678162192e+01     1.343065     1.029072 -83.54  0.007001943    1.604    0.377
        59 -13.3519      2.4098     97.1250   9.1467823684e+01   5.4921670203e+01    0.7655539    0.2465936 -60.69  0.003211469    2.510    0.602
        60 -14.5625     24.8315     93.4656   8.3874325298e+01   5.3897622674e+01     1.172175    0.9488501 -13.23  0.007625854    1.315    0.240
        61 -11.5373    121.6369    112.2961   6.2055092476e+01   3.5930211172e+01    0.2803982    0.2577964 -42.12 0.0006866221    1.014    0.013
        62 -12.0594     62.7523    109.0020   7.6623217883e+01   4.6346027527e+01    0.6068496    0.4198252 -59.69  0.003216034    1.459    0.315
        63 -10.6097     46.0198    110.2775   8.1673242100e+01   4.8154775185e+01    0.2965069    0.1219582 -37.65  0.001178386    2.654    0.623
        64 -11.4690     42.2741    106.8183   8.1926352501e+01   4.9328852101e+01    0.2762339    0.2033839   1.18  0.001593442    1.678    0.404
        65 -12.1068     36.7995     92.8508   8.0087075555e+01   5.2839759530e+01    0.3550931    0.2433345   5.47   0.00130001    1.781    0.438
        66 -12.1039    135.9514    102.8118   5.6243076949e+01   3.5053882058e+01    0.5761781    0.2723248  48.23  0.001648797    2.282    0.562
        67 -13.1453    119.6600    102.1458   5.9838936496e+01   3.8393493038e+01    0.5357364    0.3407936  31.66  0.002458916    1.913    0.477
        68 -12.1647     60.7269     97.3821   7.4195552241e+01   4.9056879421e+01    0.3868232    0.3284591 -82.97  0.002117088    1.595    0.373
        69 -11.4642     89.5786     96.9696   6.6046976493e+01   4.4817102557e+01    0.4012726     0.291403 -79.05   0.00190714    2.218    0.549
        70 -10.9979    163.0880     97.0577   4.9072430644e+01   3.0533439160e+01    0.2366034    0.1728099 -76.10  0.001134623    1.699    0.411
        71 -12.5151    136.1884     95.0631   5.4127816261e+01   3.6506619208e+01    0.4897912    0.3615053  50.02  0.002515911    1.445    0.308
        72 -11.0211     81.5602     93.3225   6.7206158435e+01   4.6831661624e+01    0.3000595    0.1909454  -4.04    0.0013177    2.504    0.601
        73 -10.9351    125.3309     91.7082   5.5666455745e+01   3.9308808379e+01    0.2275688    0.1701796 -74.93  0.001106688    1.814    0.449
        74 -13.3169     94.6614    110.1104   6.8237607846e+01   4.1262584398e+01     0.881321    0.7799652  63.75  0.004277717    1.353    0.261
        75 -12.4000    188.3153     84.1376   4.1376205048e+01   2.7491165452e+01      0.61383    0.2671494  44.49  0.002340659    2.968    0.663
        76 -12.6119    237.6918     80.4873   3.3593776825e+01   1.7995946903e+01    0.3761749    0.2380828  83.70  0.002000693    1.850    0.459
        77 -12.1885    158.5468     66.8774   4.2146091554e+01   3.6667037220e+01    0.7921193     0.289232 -39.99  0.003129223    2.606    0.616
        78 -13.0939    163.8604     71.5603   4.2409357314e+01   3.4803272113e+01     1.243411    0.4975889  48.32  0.004969024    2.662    0.624
        79 -13.9476    169.5452     76.9755   4.2784518449e+01   3.2709772284e+01     1.240028    0.4870466  52.89  0.004940463    2.597    0.615
        80 -11.5383    158.4509     83.4932   4.6483102415e+01   3.3969357740e+01    0.2500179    0.2419673 -12.30 0.0006041782    1.133    0.117
        81 -12.9105    161.7820     79.6905   4.4874221587e+01   3.3912320405e+01    0.6759149    0.4053611  34.60  0.002426705    2.295    0.564
        82 -12.5803    109.7812    248.8806   9.1461440516e+01   6.5635210585e+00    0.3806329    0.2589969  85.71  0.002039168    1.759    0.432
        83 -12.9791     27.8944     60.5013   7.3780132718e+01   5.9714136265e+01     1.274133    0.8180395  57.95  0.006203556    3.943    0.746
        84 -13.3050    171.7172    242.5986   7.8593414924e+01  -2.0580287043e+00    0.5830099    0.4851567  18.48  0.003532118    1.261    0.207
        85 -13.6514     54.3026     67.6734   6.7563515248e+01   5.5432003798e+01     1.079665    0.6828934  30.30  0.006259183    1.705    0.414
        86 -13.0078     54.6005     81.7027   7.1658312192e+01   5.2915931801e+01    0.5795717    0.3851934 -51.01  0.003253025    1.511    0.338
        87 -12.4008     77.1846     73.0983   6.2532269989e+01   5.1211847597e+01    0.4932775    0.2961379 -21.54  0.001851697    1.900    0.474
        88 -14.0120     61.3941     75.6280   6.7847364901e+01   5.3107485445e+01    0.6567791    0.4545116 -15.23  0.001332741    1.537    0.349
        89 -13.2411     70.9370     75.0735   6.4897947668e+01   5.1830461671e+01    0.6802016    0.4330848   3.80  0.002007306    2.182    0.542
        90 -11.8737    216.3959     80.8368   3.6420898149e+01   2.2182973635e+01    0.4797903    0.3682755 -39.97  0.002483971    1.309    0.236
        91 -12.3916    210.9985     77.6225   3.6454951837e+01   2.3827168886e+01    0.5929949    0.3484913 -65.67  0.002844213    1.905    0.475
        92 -11.6758     42.5028     79.4738   7.4715035434e+01   5.4805488405e+01    0.3772866    0.2686438 -53.06  0.002260486    1.463    0.316
        93 -11.2663     41.6143     76.1982   7.4051379584e+01   5.5508734149e+01    0.2949715    0.1879264 -44.45   0.00100256    1.359    0.264
        94 -12.4036    135.4463     79.6713   5.0108214268e+01   3.9425269021e+01    0.5820984     0.347455  50.45  0.002236182    1.735    0.424
        95 -11.7085    114.1096     79.7257   5.4938197429e+01   4.3635043622e+01    0.3605902    0.2968582 -47.51  0.001371893    1.229    0.186
        96 -13.5429     98.0155    238.2622   9.2288228555e+01   1.0581603398e+01    0.6919875    0.4372795  38.59  0.003673841    1.698    0.411
        97 -13.8375      4.5213     63.6045   8.2628525597e+01   6.1230439051e+01    0.4754622    0.4237844   9.19  0.003747057    1.414    0.293
        98 -10.5350     97.4697     78.5330   5.8711728809e+01   4.6897305166e+01    0.1341949    0.1222049 -18.48 6.032786e-05    1.009    0.009
        99 -11.4788     27.0179     75.4012   7.8460991976e+01   5.7199449002e+01    0.4089293    0.2434811 -60.63  0.002212555    2.088    0.521
       100 -12.3285    218.1905     73.9931   3.4685518929e+01   2.2943874077e+01    0.3225307     0.220748 -79.70  0.001335585    1.576    0.365
       101 -11.7817    214.7629     71.4009   3.4571496138e+01   2.4061664748e+01    0.2667664    0.2302139  65.90  0.001259884    1.283    0.221
       102 -13.3665    199.3661     69.6710   3.6296652004e+01   2.7539805469e+01    0.7074193    0.4573217  48.17   0.00291316    1.815    0.449
       103 -11.4912    117.7453     72.3861   5.1979074284e+01   4.4163215421e+01    0.2333762    0.2138306  -4.04 0.0004387354    1.096    0.087
       104 -12.5177    134.7290     66.2276   4.6537872192e+01   4.1743253079e+01    0.5546919    0.4314976  30.12  0.001945425    1.439    0.305
       105 -10.3513    130.2432     61.9760   4.6270448275e+01   4.3293078942e+01    0.2564518    0.1327473 -33.33   0.00119376    1.965    0.491
       106 -11.5994    100.0182     65.0628   5.4053066192e+01   4.8644464590e+01    0.3076055    0.2683729 -36.49  0.001803332    1.159    0.137
       107 -11.8139    200.0143     61.5799   3.4360725689e+01   2.8648466806e+01    0.2787637    0.2581495  79.31  0.001153619    1.158    0.136
       108 -10.8671     85.6185     49.1715   5.2757027524e+01   5.3452276897e+01     0.198494    0.1669483  13.37 0.0004736985    1.107    0.096
       109 -12.6107     79.1499     60.6192   5.8127409697e+01   5.2898476680e+01     0.427427     0.375657   3.34  0.002015427    1.056    0.053
       110 -12.9647     82.3245     54.3001   5.5263442724e+01   5.3302133316e+01    0.6023398    0.4244147  26.42  0.002419877    1.437    0.304
       111 -13.4282    177.8961     57.0194   3.6469708145e+01   3.4005144042e+01    0.8041527    0.5156587 -51.51  0.003390529    1.532    0.347
       112 -11.5796     39.1913     59.9951   6.9908782126e+01   5.8564872595e+01     0.254558    0.2348592 -89.64  0.001771015    1.771    0.435
       113 -14.5577    119.7778     54.3015   4.6271753490e+01   4.6471160015e+01    0.9300064    0.5548645  43.78  0.004881158    1.661    0.398
       114 -11.5254     17.5275     55.7276   7.5813433489e+01   6.1495349066e+01    0.3092195    0.1533159 -42.56  0.001799868    1.631    0.387
       115 -13.4918     87.3849     65.1088   5.7307855333e+01   5.0848137798e+01    0.9733694    0.5943483   7.68  0.004192327    2.536    0.606
       116 -12.2328    247.8904     51.9392   2.6815264620e+01   2.0457322223e+01    0.5616843    0.2698752 -42.81  0.002989769    1.830    0.454
       117 -11.7880     36.1897     53.6711   6.8851149877e+01   5.9903927486e+01    0.3513402    0.1597248  22.98  0.001759172    2.649    0.623
       118 -11.2162     38.1890     50.5742   6.7172329512e+01   6.0138495877e+01    0.3006636    0.1633639  22.52  0.001621081    2.006    0.501
       119 -11.9127    135.8863     49.7967   4.1730547403e+01   4.3839800416e+01    0.4230653    0.2462492  38.12  0.001848712    1.939    0.484
       120 -10.6765     23.6565     49.9804   7.1859109450e+01   6.1813916697e+01    0.1606174    0.1118296 -29.09 0.0004567768    1.139    0.122
       121 -12.3360    154.6698     47.1638   3.7678310616e+01   4.0278996814e+01    0.3400868    0.2772348  84.98  0.002089652    1.289    0.224
       122 -12.9481    158.9741     43.1691   3.5948739829e+01   3.9882616635e+01    0.6888216    0.4406156  46.83  0.003816091    1.627    0.386
       123 -11.2271     27.7983    235.2701   1.0503242012e+02   2.0718589159e+01    0.1973829    0.1243406  69.76  0.001190394    1.448    0.309
       124 -13.6316     91.1999    231.1584   9.2656035564e+01   1.3161446569e+01    0.5693484    0.3446294 -86.49  0.002725613    2.002    0.501
       125 -12.6024     25.0927    216.7687   1.0371458142e+02   2.5167997189e+01    0.7042505    0.3485879  65.09  0.003500903    2.240    0.554
       126 -11.7239     13.6804    222.6232   1.0637032150e+02   2.5065899738e+01    0.3931627     0.183792  83.92  0.001310353    2.310    0.567
       127 -13.7733     26.6142    226.0229   1.0436114712e+02   2.2900820416e+01    0.8623981    0.3820365 -51.95  0.004087052    2.672    0.626
       128 -13.7717     20.4456    224.3356   1.0531517681e+02   2.3962703335e+01    0.6659669    0.4088716 -70.88  0.002301302    1.323    0.244
       129 -13.7515    219.4267     41.5198   2.7666262963e+01   2.7478524591e+01    0.8686243    0.4897907  83.32  0.003484288    1.880    0.468
       130 -11.0196     25.6859     44.3510   6.9275826665e+01   6.2440713129e+01     0.196996    0.1515191 -20.58  0.001309228    1.056    0.053
       131 -13.5674     64.9598    223.3489   9.6799121674e+01   1.8710231419e+01    0.8067653    0.7012352  88.14  0.005166078    1.081    0.075
       132 -13.6863     64.2578    214.3489   9.5780005175e+01   2.0890193160e+01    0.6336437    0.4009361  69.89  0.003157071    1.719    0.418
       133 -11.6360     94.3143    217.8806   9.0134768380e+01   1.5680294002e+01    0.2408457    0.1801556  59.58  0.001250236    1.360    0.265
       134 -12.5778      4.5213    211.3541   1.0699434670e+02   2.8521032601e+01     0.536945    0.2122886 -69.15  0.002712415    1.885    0.469
       135 -12.3415    109.8179     41.8992   4.4731792359e+01   4.9995686566e+01    0.4764755    0.1682128  52.08   0.00114878    2.674    0.626
       136 -12.2649     75.9659     37.0167   5.1299928368e+01   5.6585319567e+01    0.3503136    0.2097807  41.36  0.001130182    1.600    0.375
       137 -11.5120     70.6773     36.0152   5.2383152276e+01   5.7553763974e+01    0.2587095    0.2012708 -23.06 0.0006839315    1.248    0.199
       138 -13.0292    242.7718     35.0754   2.4113184384e+01   2.3745183356e+01    0.5668359    0.4603837  76.79  0.003185803    1.315    0.240
       139 -13.0977    132.3454     32.5812   3.7583607160e+01   4.6631158126e+01    0.4726316    0.3901927  55.36  0.001690834    1.130    0.115
       140 -10.7256    136.6789    211.3106   8.0234954174e+01   1.0217324278e+01    0.1450654    0.1095154  83.63 0.0004685632    1.648    0.393
       141 -12.5000     59.2033    212.8160   9.6601352121e+01   2.1932475882e+01    0.3401332    0.1846393 -53.06 0.0009552519    1.833    0.454
       142 -13.4543    216.4762     28.0156   2.5222833986e+01   2.9783548064e+01    0.5592096      0.32945 -72.07  0.002776264    1.699    0.411
       143 -12.0407     57.6952    203.4779   9.5669155125e+01   2.4349469589e+01    0.5535274    0.2638671 -81.00  0.002225156    2.614    0.617
       144 -13.1801     16.9588    195.7422   1.0304244688e+02   3.0923721546e+01      1.09111    0.1169602 -58.45  0.003312842    4.942    0.798
       145 -11.8776     63.4756     24.9675   5.0532264994e+01   5.9895784030e+01    0.4237964    0.2312599  22.47  0.002082731    1.991    0.498
       146 -10.8675     35.0297     34.7175   6.2723517282e+01   6.2694643800e+01    0.2046593    0.1610762   5.93 0.0007520017    1.125    0.111
       147 -10.7394     98.2581     27.0463   4.2662449432e+01   5.3798157999e+01     0.198539    0.1479896  68.06 0.0008575189    1.629    0.386
       148 -11.0936     88.7447     25.9493   4.4455397208e+01   5.5616292904e+01    0.2606248    0.1490261 -22.11  0.001517074    1.817    0.450
       149 -11.8181     30.7131     25.4166   6.0755247861e+01   6.4334888410e+01    0.3389717     0.182712  21.37  0.001636493    1.849    0.459
       150 -11.5558     36.5122     23.6917   5.8180771801e+01   6.3818654705e+01    0.3205496    0.1656895 -28.78  0.001992692    1.760    0.432
       151 -11.1181     51.5080     20.4994   5.2334996602e+01   6.2130199089e+01    0.1983426    0.1347003  35.29 0.0008353097    1.383    0.277
       152 -13.2962     30.1445    169.1663   9.6836582040e+01   3.5972987360e+01     0.940336    0.5275761 -37.15  0.004128979    2.416    0.586
       153 -13.8423     22.1932    181.2329   1.0023434668e+02   3.3862053453e+01     1.001868    0.3535854 -54.97  0.004330661    2.370    0.578
       154 -15.1486      8.2300    183.1921   1.0340174166e+02   3.4724644118e+01     1.450706    0.9358754 -67.24  0.008845357    1.197    0.164
       155 -15.1534     16.0726    174.6836   1.0071846863e+02   3.6032892092e+01     2.059436      1.07785  67.92  0.009812502    2.521    0.603
       156 -13.1480     40.7352    195.5778   9.8158076618e+01   2.8370931780e+01    0.6565776    0.2823767 -75.37  0.002755343    2.326    0.570
       157 -12.1592    200.8406    191.6042   6.3427521576e+01   3.1655050957e+00    0.3291677    0.2679166 -33.56   0.00137175    1.132    0.116
       158 -12.1844    198.6155    181.3888   6.1739931008e+01   5.6914149539e+00    0.3050441    0.2749705 -60.20  0.001663211    1.157    0.136
       159 -11.1791     49.1202    181.6228   9.4398816533e+01   3.0760379048e+01    0.2949057    0.1673536 -58.95  0.001471772    1.459    0.315
       160 -12.3015    124.2913    166.5974   7.4284534276e+01   2.2921084140e+01    0.5866253    0.3654641 -70.26  0.002433436    1.963    0.491
       161 -12.3529     22.5373    166.0263   9.8117209342e+01   3.7502793532e+01    0.3217463    0.1766834 -66.87  0.000557568    1.399    0.285
       162 -10.9801     27.5405    157.2953   9.5656966687e+01   3.9124457631e+01    0.2997135    0.1028726 -63.16  0.001221964    2.224    0.550
       163 -11.9832     76.9597    156.6858   8.3522716141e+01   3.3188608787e+01    0.4233281    0.3382877  36.20  0.001403617    1.481    0.325
       164 -12.9253    223.5184     20.5464   2.3082489763e+01   2.9267855198e+01    0.3423742    0.2622676  60.67  0.001612332    1.497    0.332
       165 -12.9212     73.7905    153.3979   8.3651210608e+01   3.4457485843e+01    0.6614161    0.5404072  20.30  0.002844643    1.556    0.357
       166 -13.0706    139.9411     21.4394   3.3272676141e+01   4.6243075551e+01    0.6948587    0.2329618  56.93   0.00119733    2.508    0.601
       167 -11.1490    103.2935    149.9065   7.5641367145e+01   3.0664920825e+01    0.3903036    0.2197208 -37.19  0.001451407    2.007    0.502
       168 -11.8373     60.6173    147.2304   8.5728129057e+01   3.7774443384e+01    0.3563379    0.2932903  -5.33  0.001805245    1.599    0.375
       169 -11.3571    244.4040    147.2052   4.6574472131e+01   4.5121786540e+00    0.2119827    0.1085086 -50.45 0.0009563001    1.711    0.415
       170 -13.2569    213.0685     42.9521   2.8662722651e+01   2.8577674327e+01    0.6488534    0.2962384  68.81  0.003050708    2.190    0.543
       171 -12.1277      6.2001    145.3886   9.8960838576e+01   4.3863154144e+01    0.2336161    0.2225069  24.57  0.001704299    1.419    0.295
       172 -11.9674     40.8668    137.5762   8.8915991905e+01   4.2476273237e+01    0.3511625    0.2310714  85.61  0.001714731    2.140    0.533
