#   1 NUMBER                 Running object number                                     
#   2 MAG_AUTO               Kron-like elliptical aperture magnitude                    [mag]
#   3 X_IMAGE                Object position along x                                    [pixel]
#   4 Y_IMAGE                Object position along y                                    [pixel]
#   5 X_WORLD                Barycenter position along world x axis                     [deg]
#   6 Y_WORLD                Barycenter position along world y axis                     [deg]
#   7 A_WORLD                Profile RMS along major axis (world units)                 [deg]
#   8 B_WORLD                Profile RMS along minor axis (world units)                 [deg]
#   9 THETA_WORLD            Position angle (CCW/world-x)                               [deg]
#  10 FWHM_WORLD             FWHM assuming a gaussian core                              [deg]
#  11 ELONGATION             A_IMAGE/B_IMAGE                                           
#  12 ELLIPTICITY            1 - B_IMAGE/A_IMAGE                                       
         1 -10.3982     63.0076     48.7642   5.6130226382e+01   5.9320314300e+01    0.4321176    0.1446456 -36.86  0.001603507    2.969    0.663
         2 -11.0047     40.8570     14.0003   5.0976336751e+01   6.7832228015e+01    0.1977713    0.1436869   8.13 0.0003188778    1.177    0.151
         3 -10.9508     84.9825    227.1690   8.5500706063e+01   1.6708945554e+01    0.2223323    0.1095609  59.82  0.001089025    2.049    0.512
         4 -10.5524    161.9877    225.0739   6.9623055406e+01   4.5380494118e+00    0.3505436     0.225493  14.55  0.001718825    2.107    0.525
         5 -10.1161     99.1246    224.9864   8.2443377782e+01   1.5006132004e+01    0.1947282    0.1614529  60.12   0.00062786    1.012    0.012
         6 -10.8993    126.2219    220.4624   7.6320519759e+01   1.1486172774e+01    0.2374682    0.1929686  74.83 0.0007064206    1.325    0.245
         7 -10.0694     74.6650    219.3214   8.6752367538e+01   1.9709759561e+01    0.1336983    0.0772867  66.06  0.000705009    1.706    0.414
         8 -10.0859    143.8048    216.8392   7.2131101264e+01   9.1347193483e+00    0.1856396    0.1501936  64.25  0.001076656    1.329    0.247
         9  -9.9692     24.0095    215.5171   9.6188379480e+01   2.6667907118e+01    0.1574874   0.09526544  44.22 0.0009256918    1.562    0.360
        10 -10.0804     76.8043    212.1682   8.5576415860e+01   2.0845683348e+01    0.2680175   0.09765044 -72.70  0.001041487    3.491    0.714
        11 -10.0759    116.4899    209.9972   7.6939337877e+01   1.5119757466e+01     0.183115    0.1121615  88.61 0.0007845112    2.530    0.605
        12  -9.7488     99.1748    205.7814   8.0099273777e+01   1.8791435135e+01    0.2340437    0.1220778  69.13 0.0009493752    2.831    0.647
        13 -10.6878    186.3914    204.3023   6.1154276052e+01   3.6811627380e+00    0.2359235    0.1618361  54.27  0.001189012    1.721    0.419
        14 -11.7721    165.1665    202.1788   6.5228846789e+01   7.9525854839e+00    0.4674196    0.3381478 -72.75  0.002310126    2.086    0.521
        15 -12.3565    163.2892    194.0386   6.4190939943e+01   9.8103069078e+00    0.5241632    0.3587771  73.21  0.002326428    2.372    0.578
        16 -12.6810    178.1713    196.7903   6.1500633673e+01   6.5023816578e+00    0.4342183    0.3314108   7.52  0.001946137    1.480    0.324
        17 -10.2812    112.6370    197.3271   7.5975066222e+01   1.8335108002e+01    0.2809996    0.1696034  74.98  0.001217952    2.415    0.586
        18 -10.9824    125.1911    197.1843   7.3150997389e+01   1.6196345742e+01    0.3556148    0.2375629  47.40  0.001790799    1.356    0.263
        19 -10.5005    139.0021    189.1193   6.8716496214e+01   1.5342368628e+01    0.2876984    0.2096621 -69.74  0.001251977    1.680    0.405
        20 -10.0479    129.6270    188.2989   7.0709940126e+01   1.7234892084e+01    0.2300188    0.1648987  73.95 0.0009050168    1.752    0.429
        21 -10.4003    165.8191    186.6853   6.2279695013e+01   1.0725638615e+01    0.2666997    0.1981252 -82.59  0.001239943    2.117    0.528
        22 -10.1626    149.3277    187.6438   6.6125275471e+01   1.3700613593e+01    0.1487609    0.1114664  75.45 0.0007045105    1.778    0.438
        23 -10.3957    149.1375    198.2778   6.8026727551e+01   1.1647707734e+01    0.2609542     0.186866 -87.92  0.001231282    2.147    0.534
        24 -10.3826    109.3407    185.4621   7.4925431864e+01   2.1418499977e+01    0.3151908    0.1919757  79.13  0.001319434    2.496    0.599
        25 -10.8050    120.4006    184.1194   7.2138930049e+01   1.9780746592e+01    0.3264594     0.139582 -64.38  0.001142412    3.304    0.697
        26 -11.0031     94.5737    183.0107   7.7991256666e+01   2.4394528952e+01    0.3789752    0.2627329 -76.86  0.001968893    1.535    0.349
        27 -10.6206    174.4600    183.6633   5.9811096243e+01   9.6236698239e+00    0.2479655    0.2191561 -77.17 0.0008892303    1.439    0.305
        28 -10.1347     74.3739    183.2404   8.2704581335e+01   2.7389452955e+01    0.1904447    0.1164754 -80.20 0.0007756859    1.715    0.417
        29 -11.3483      1.6304    182.0112   9.8302076791e+01   3.5660439249e+01    0.2935829    0.1370114 -83.13  0.001686348    1.714    0.417
        30  -9.8279    197.5080    182.4870   5.4695321542e+01   5.3743120339e+00    0.1427711    0.1299488  16.97 0.0001297424    1.039    0.038
        31 -11.2988    147.7878    179.7119   6.5016646555e+01   1.5604649673e+01     0.286233    0.2113878 -64.48  0.001242544    1.619    0.382
        32 -10.3998    138.0048    179.0014   6.7145457719e+01   1.7627752104e+01    0.2370605    0.1776424  77.82 0.0009978891    1.724    0.420
        33 -10.1794    192.9779    178.3235   5.4791620724e+01   6.9935407502e+00    0.2346586    0.1140042  59.52 0.0007050096    4.386    0.772
        34 -11.3215     77.5257    175.1642   8.0882322148e+01   2.8765783067e+01    0.3871249    0.2199079  76.91  0.001678159    2.391    0.582
        35  -9.8774    105.8337    174.9936   7.4071934119e+01   2.4329217319e+01    0.2405165    0.1589917  85.18  0.001079027    2.033    0.508
        36 -10.2702    183.9854    175.4993   5.6119765075e+01   9.2864289696e+00    0.2036633    0.1264938  63.04 0.0008098757    2.493    0.599
        37 -11.1000    177.3099    170.4401   5.6524386794e+01   1.1592983383e+01    0.3372751    0.2678647 -62.21  0.001536661    1.572    0.364
        38 -10.6230    134.6501    170.9275   6.6430144619e+01   1.9993411586e+01    0.2909476    0.1952848 -70.41  0.001295825    1.917    0.478
        39 -11.4865    121.7825    167.9431   6.8972069231e+01   2.3075126141e+01    0.6066063    0.3159529 -61.69    0.0024476    2.244    0.554
        40  -9.9401    206.5178    169.4980   5.0167423507e+01   5.9277681201e+00    0.1438672    0.1331491   7.08 0.0008099772    1.047    0.045
        41 -10.2696    168.4418    168.8006   5.8154554326e+01   1.3717036600e+01    0.2884917    0.2198229 -72.16  0.001227059    1.811    0.448
        42 -10.6493    149.8625    169.1217   6.2483998344e+01   1.7400530677e+01    0.2370195    0.2046864  75.86  0.001041109    1.332    0.249
        43  -9.8390     55.0000    168.9899   8.5426785403e+01   3.3212241379e+01    0.2149013   0.06692416 -66.73 0.0008021399    2.940    0.660
        44 -12.0127    139.3742    163.7164   6.3888594134e+01   2.0640587308e+01    0.6632296    0.3385938 -62.64  0.002410276    2.772    0.639
        45 -10.7209     79.7772    163.2886   7.8583122311e+01   3.1186091219e+01    0.5110977    0.2657258  87.23  0.001784135    3.631    0.725
        46 -10.2852    214.2524    163.9753   4.7443969213e+01   5.3888714593e+00    0.1904979    0.1187766 -35.98 0.0008360276    1.579    0.367
        47 -12.0060    145.1368    160.5830   6.1863679322e+01   2.0169818111e+01    0.6112506    0.4013199  88.71  0.001834096    2.918    0.657
        48 -10.6895     15.2701    163.6016   9.4054255463e+01   3.8561774972e+01    0.1923766    0.1035024  37.04  0.000700957    1.991    0.498
        49 -10.8824    205.9959    162.0231   4.8663358925e+01   7.3695804229e+00     0.223884    0.1891155 -82.42  0.001137654    1.721    0.419
        50 -11.2522    177.7871    159.7425   5.4137626475e+01   1.3596741731e+01    0.4417992    0.2603777 -54.55  0.001818337    2.104    0.525
        51 -10.7024     93.0339    159.5134   7.4624203437e+01   3.0016635405e+01    0.4240368    0.2578579 -74.11  0.001901074    1.900    0.474
        52 -10.7764     95.4378    153.9859   7.3029759859e+01   3.0922437610e+01    0.2531382    0.2091076  40.04 0.0003609139    1.245    0.197
        53 -10.0345    128.2899    158.4199   6.5532966711e+01   2.3978993743e+01    0.2618292    0.1887098 -77.47  0.001015624    1.780    0.438
        54 -11.3555    197.0247    157.2136   4.9444366284e+01   1.0081408017e+01    0.2711877    0.2184054 -33.27 0.0009453536    1.240    0.193
        55 -11.4213    188.7530    156.7986   5.1099362064e+01   1.1880091642e+01    0.3760007    0.2689755 -47.75  0.001517039    1.516    0.340
        56 -11.4432    167.7460    156.4641   5.5678174754e+01   1.6364644008e+01    0.4214042    0.2785986 -47.97  0.001894537    1.603    0.376
        57 -10.3943    105.4796    157.5013   7.1096616517e+01   2.8392139132e+01    0.3327557    0.2107893  76.08  0.001363987    2.343    0.573
        58 -10.2946    157.8419    155.7750   5.7822562464e+01   1.8586062322e+01    0.2876839    0.2083045 -76.91  0.001235042    2.031    0.508
        59 -10.6259    119.2214    154.5938   6.7040648073e+01   2.6574237847e+01    0.3968746    0.2318085 -84.26  0.001304466    3.645    0.726
        60 -11.6582    204.8234    154.4556   4.7228029054e+01   8.9871923854e+00    0.2859434    0.2087553 -35.39  0.001236155    1.353    0.261
        61 -10.0984     49.4976    154.5228   8.4913626887e+01   3.7251719117e+01    0.3057023    0.1557637  81.02  0.001253792    2.814    0.645
        62 -11.3649    133.2642    152.4380   6.3062272990e+01   2.4346337762e+01     0.423266     0.284739 -78.21  0.001738972    2.204    0.546
        63 -10.4597     81.4705    153.8392   7.6624526384e+01   3.3163480622e+01    0.2897106    0.1919274 -89.65  0.001298131    1.828    0.453
        64 -12.9685    189.3970    148.7362   4.9141466411e+01   1.3305830415e+01    0.6477776      0.38172 -50.10  0.002712687    1.926    0.481
        65 -10.4008    182.4823    150.4857   5.1038071180e+01   1.4441176851e+01    0.2766612    0.1426439 -51.82  0.001035552    2.351    0.575
        66 -10.3086    162.6172    149.9078   5.5403503495e+01   1.8813074592e+01    0.3035088    0.1991081 -58.97  0.001283071    1.872    0.466
        67  -9.8771     98.4159    150.1948   7.1551144200e+01   3.1318725337e+01     0.211424    0.1371534 -70.86  0.000950933    1.721    0.419
        68 -11.8263    200.2222    148.0580   4.6717184784e+01   1.1135333227e+01    0.3171281    0.2505772 -51.34  0.001298734    1.422    0.297
        69 -10.4891     39.0132    146.6657   8.6541340199e+01   4.0255209606e+01    0.3391783    0.1781377  80.53  0.001517479    2.455    0.593
        70 -10.6193    175.8538    145.7518   5.1420983575e+01   1.6819802787e+01     0.299272    0.2084696 -68.80  0.001241095    2.126    0.530
        71 -12.4984    149.1555    142.7634   5.6992561157e+01   2.3214099136e+01    0.9034647    0.4435562 -53.36  0.003318846    2.324    0.570
        72 -11.3170    107.1155    144.1023   6.8055879559e+01   3.1237382101e+01     0.684159    0.4251295 -77.92   0.00275732    2.318    0.569
        73 -10.8088     67.8327    152.9040   8.0004138194e+01   3.5335984516e+01    0.4033825     0.255895  84.06  0.001672857    1.911    0.477
        74 -10.8807     55.4140    143.6846   8.1838492401e+01   3.9131761444e+01    0.5932611    0.2657545 -74.89  0.002401585    2.515    0.602
        75 -10.1399     13.3006    145.6622   9.2846704181e+01   4.2798939081e+01    0.1252616   0.07548007  73.11 0.0004992409    1.663    0.399
        76 -11.5580    165.9304    142.9709   5.3040121656e+01   1.9552234133e+01    0.4485328    0.2179828 -49.53  0.001656552    2.253    0.556
        77 -11.5161    124.8141    141.3340   6.2814188201e+01   2.8541573806e+01    0.7323905    0.3537338 -62.20  0.002507266    2.865    0.651
        78 -10.6153     87.8895    143.1001   7.3006432554e+01   3.4732690056e+01    0.3553202    0.2032364 -70.16  0.001515213    1.990    0.497
        79 -10.9475    182.4015    141.2562   4.8917066572e+01   1.6296064770e+01    0.3665087    0.2545152 -69.16  0.001478429    2.188    0.543
        80 -12.5526    193.3034    135.2486   4.5149913473e+01   1.5077366531e+01    0.5187812    0.3456303  12.64  0.001978521    2.177    0.541
        81 -10.9381      2.1787    139.5429   9.4962313385e+01   4.4986829197e+01    0.4041826   0.08455031 -80.32  0.001151741    6.157    0.838
        82 -11.4354    172.4349    137.2541   5.0191533122e+01   1.9307388423e+01    0.4726569    0.2798271 -52.07  0.001911493    1.914    0.477
        83 -10.3219     68.4419    137.6816   7.7322056545e+01   3.8903930721e+01    0.4055236    0.1384466 -67.35  0.001304141    3.583    0.721
        84 -11.1278     22.7846    136.9875   8.9520574606e+01   4.4048460163e+01    0.4844458    0.2195644  80.16  0.001975272    3.221    0.690
        85 -11.9024    197.7286    137.4822   4.4764011359e+01   1.3676826399e+01    0.3521667    0.2480434 -54.26  0.001561009    1.662    0.398
        86 -10.2130    138.4993    137.5050   5.8429229166e+01   2.6625249763e+01     0.155192    0.1514434  71.45 0.0001896735    1.044    0.043
        87 -10.9874    162.6731    135.0437   5.1921072040e+01   2.1933665299e+01    0.4152651    0.1866196 -49.93  0.001440929    2.480    0.597
        88 -10.4677     38.8187    135.0210   8.5009652907e+01   4.3039317150e+01    0.2214163    0.1313419  82.24  0.001079334    2.007    0.502
        89 -11.5081    179.5849    132.6995   4.7486050154e+01   1.8638314835e+01    0.3940752    0.2603869 -46.01  0.001656301    1.558    0.358
        90 -11.4886    131.9178    129.3145   5.8184375917e+01   2.9838935848e+01    0.7577009    0.3307341 -52.11  0.002641305    2.466    0.594
        91 -10.5328    112.6849    132.1833   6.3989773787e+01   3.3005413924e+01    0.3866414    0.2407191 -64.38  0.001621694    1.876    0.467
        92 -11.2395    143.2462    130.2700   5.5505167118e+01   2.7223546664e+01    0.5772101    0.2778582 -49.69  0.002120308    2.176    0.540
        93 -11.5865     83.2201    128.8640   7.1489021996e+01   3.8878022585e+01    0.9363693    0.2887857 -59.39  0.002949949    3.417    0.707
        94 -12.2610    192.7215    129.2778   4.3826448042e+01   1.6363700784e+01    0.3952304    0.2825314 -33.32  0.001737166    1.397    0.284
        95 -11.9292    168.9158    128.5393   4.8872114555e+01   2.1894944102e+01    0.5357327    0.3098365 -53.63  0.002093142    2.030    0.507
        96 -11.5050    153.0504    127.7163   5.2438614982e+01   2.5632570071e+01    0.6891121     0.300959 -49.62  0.002354542    2.493    0.599
        97 -12.0354     99.2084    124.6919   6.6030413224e+01   3.7225873251e+01    0.9798237    0.3973233 -53.83  0.003538009    2.417    0.586
        98 -10.5641     72.7560    127.6373   7.4236709566e+01   4.0725209541e+01    0.4612645    0.1895942 -65.70  0.001669554    2.760    0.638
        99 -11.0695     12.1212    127.8110   9.1241134561e+01   4.7006407480e+01    0.4010944    0.1676966 -89.44  0.001704209    2.886    0.654
       100 -11.8292    117.1160    122.6466   6.0537898040e+01   3.4360595335e+01     0.763275     0.486172 -67.74  0.003104875    2.071    0.517
       101 -12.1725    180.4664    122.7476   4.4825030545e+01   2.0434661981e+01    0.6734143    0.2910686 -34.80  0.002309865    2.515    0.602
       102 -11.2253     58.7586    121.8452   7.7190474643e+01   4.3974087820e+01    0.8274395    0.3353621 -73.32  0.002703439    3.825    0.739
       103 -11.6653     43.0139    120.3933   8.1552029486e+01   4.6104055354e+01    0.9056619    0.3878536 -81.97  0.003014651    4.156    0.759
       104 -11.9490    188.9441    122.7198   4.2997383882e+01   1.8494616407e+01    0.4710661    0.2331009 -42.14  0.001766452    2.003    0.501
       105 -11.1179     29.0434    121.5638   8.5771524627e+01   4.7148577433e+01    0.6016399    0.2156255 -76.79  0.002214366    3.332    0.700
       106 -11.8499    202.9882    121.3313   3.9792516386e+01   1.5569314403e+01    0.2872593    0.2166815 -59.61  0.001341213    1.579    0.367
       107 -11.2444    194.9909    121.2010   4.1363424111e+01   1.7406412618e+01     0.378164    0.2000686 -53.24  0.001395178    2.384    0.581
       108 -11.9616    158.8291    119.7080   4.9010828492e+01   2.6033905040e+01    0.5352035    0.2935974 -44.49  0.002100205    1.841    0.457
       109 -11.6175    172.5917    120.2453   4.5942116494e+01   2.2755090960e+01    0.4136589    0.2392859 -46.76  0.001662131    1.791    0.442
       110 -12.2387    141.7717    116.6404   5.2448550665e+01   3.0532998538e+01    0.9508038    0.3671522 -46.97  0.003123132    2.658    0.624
       111 -11.5940    130.6973    117.0017   5.5439775757e+01   3.2855878618e+01     0.615778    0.3029874 -53.95  0.002223976    2.313    0.568
       112 -10.6590     70.7613    118.2849   7.2921650946e+01   4.3249113927e+01    0.3591366    0.1662674 -63.92  0.001424361    2.265    0.559
       113 -11.1338      2.5660    114.8025   9.2330658050e+01   5.0606199650e+01    0.6780818    0.2090929 -80.08  0.002625331    3.385    0.705
       114 -12.2119    185.9385    115.1517   4.1714854983e+01   2.0663775506e+01     0.561712    0.2348865 -40.43  0.001832834    2.351    0.575
       115 -12.3443    219.4202    114.7163   3.5091755105e+01   1.3116410237e+01    0.3743214    0.1752675 -41.77  0.001473018    2.037    0.509
       116 -11.6044    108.8767    111.5755   6.0088768110e+01   3.8498356088e+01    0.8801153    0.3371166 -52.37  0.002946369    2.737    0.635
       117 -12.0409    193.0863    113.8393   3.9896050911e+01   1.9251070710e+01    0.5000775    0.2309228 -40.82  0.001858561    2.116    0.527
       118 -12.9153    189.4032    106.7779   3.8827527308e+01   2.1457675009e+01    0.6765562    0.2852065 -49.38  0.002228433    2.838    0.648
       119 -11.2288     78.4727    110.5830   6.8887260001e+01   4.3955220066e+01     0.731463    0.3405093 -67.83  0.002519227    3.200    0.687
       120 -11.5894     92.3887    109.2297   6.4341959985e+01   4.2028987409e+01    0.9551605    0.2937132 -52.05  0.003039321    3.130    0.681
       121 -11.6663    200.2437    111.4782   3.7868358693e+01   1.8035723355e+01    0.3462127    0.1713346 -48.91  0.001286459    2.250    0.556
       122 -11.8205    175.0444    109.9346   4.2713359320e+01   2.4250213147e+01    0.5548819     0.241678 -39.11  0.001952612    2.293    0.564
       123 -11.7728    159.3446    110.5397   4.6482373868e+01   2.7823049583e+01    0.5332438    0.2707556 -42.98  0.002010964    1.977    0.494
       124 -11.5641    122.3632    110.1140   5.5904284806e+01   3.6136612996e+01    0.5994781    0.2779559 -43.13  0.002205797    2.151    0.535
       125 -11.2607     14.1919    108.9338   8.8252894063e+01   5.1241174560e+01     0.498365    0.2269346 -72.63  0.002485129    1.856    0.461
       126 -11.0480     66.0948    108.3405   7.2197575364e+01   4.6248978722e+01    0.5505186    0.2214232 -60.00  0.002111004    2.425    0.588
       127 -11.7152    183.0630    108.2325   4.0528434655e+01   2.2682509053e+01    0.3630413    0.2224719 -42.84   0.00152353    1.626    0.385
       128 -10.8141    133.1187    108.4020   5.2526738697e+01   3.4223583517e+01    0.3290596    0.2347394 -52.08  0.001468379    1.470    0.320
       129 -12.0146    196.9346    106.6985   3.7296729192e+01   1.9696063304e+01    0.3208758    0.2246908 -44.46  0.001358821    1.421    0.296
       130 -12.6423    222.6677    106.3275   3.2483328506e+01   1.3874507538e+01    0.3632567    0.2372989  74.68  0.001571337    2.185    0.542
       131 -11.9409    139.8286    102.7271   4.9207895952e+01   3.3944391643e+01    0.6141452     0.317654 -42.97  0.002354831    1.935    0.483
       132 -12.5433     22.1118     99.6269   8.4384236226e+01   5.2836965694e+01     1.000417    0.4439619 -81.73  0.004100108    3.044    0.671
       133 -11.9602    211.0081    103.9987   3.3955699584e+01   1.6916373413e+01    0.2458198    0.1868867   9.15  0.001040006    1.702    0.413
       134 -12.3972    166.9525    101.9174   4.2376865654e+01   2.7763155152e+01    0.6211132    0.2683295 -34.70  0.002110553    2.507    0.601
       135 -11.7750     44.8510    101.1820   7.7399796624e+01   5.0457922699e+01    0.6729174    0.3737296  79.78  0.002500485    3.907    0.744
       136 -10.7279     43.3545     93.1221   7.6177639407e+01   5.2477707665e+01    0.3920886    0.1360936 -49.56  0.001590428    2.359    0.576
       137 -12.2836    201.3244    102.3383   3.5326986825e+01   1.9466850178e+01    0.3520251    0.1817047 -43.27  0.001393427    1.907    0.476
       138 -11.7933    128.6469     99.9511   5.1403651921e+01   3.7013728779e+01    0.5887688    0.3321912 -40.19  0.002377014    1.781    0.439
       139 -10.5958      6.5004    102.0628   8.9584613343e+01   5.3293771216e+01    0.1936183   0.09532282 -70.54  0.001036373    1.603    0.376
       140 -11.3874    159.9627     99.4087   4.3303171896e+01   2.9931475034e+01    0.4556689    0.2289276 -38.56  0.001707839    2.010    0.503
       141 -14.0498    242.8383     96.4732   2.6927190071e+01   1.1170730213e+01    0.6816653    0.4816945 -26.51   0.00351706    1.419    0.295
       142 -14.8462    224.3175     92.1360   2.8730705863e+01   1.5933763515e+01     1.239634    0.7846823   4.98  0.004734128    3.021    0.669
       143 -12.2639    108.3953     95.8845   5.6004258146e+01   4.2091146311e+01    0.9339423    0.4730564 -52.41  0.003607797    2.134    0.531
       144 -11.4358     81.8976     97.9817   6.4715344370e+01   4.6341255112e+01    0.6153257    0.1976343 -52.32  0.002053208    2.965    0.663
       145 -12.5043    193.8312     96.7109   3.5300531971e+01   2.2273895606e+01     0.438434     0.195967 -40.62   0.00161226    2.173    0.540
       146 -11.0742     95.0293     94.0309   5.9528700416e+01   4.5007328926e+01    0.7405214    0.2870892 -39.96  0.002540211    2.753    0.637
       147 -11.9596     63.2631     93.2563   6.9557313862e+01   5.0123835607e+01    0.8881322    0.3369967 -59.54   0.00324305    2.819    0.645
       148 -12.3068    183.8855     95.4486   3.6950700828e+01   2.4909987851e+01    0.3721884    0.2215555 -40.79  0.001552241    1.660    0.398
       149 -12.0825    175.9054    100.3958   3.9973258969e+01   2.5907079462e+01    0.4352061    0.2696483 -31.94  0.001808191    1.700    0.412
       150 -12.1789    150.1208    100.2549   4.5911905577e+01   3.2087736455e+01    0.9117376    0.2944987 -43.86  0.002744962    3.142    0.682
       151 -11.6767    165.0132     92.5069   4.0206233840e+01   3.0061391883e+01    0.4110813    0.2456054 -33.00  0.001674478    1.758    0.431
       152 -12.2666    177.0371     91.8254   3.7386550560e+01   2.7253977130e+01    0.4069376    0.2357716 -39.53  0.001668371    1.715    0.417
       153 -11.5351    138.7944     90.0865   4.5867408112e+01   3.6774802974e+01    0.5527896    0.2839105 -39.51  0.002125999    1.962    0.490
       154 -10.0599     57.9874     91.9852   7.1002853772e+01   5.1086911576e+01    0.2008597    0.1844707 -50.87   0.00122267    1.069    0.064
       155 -11.2439    158.0461     90.6042   4.1269821419e+01   3.2115820264e+01    0.3239054     0.237332 -29.61  0.001389193    1.440    0.305
       156 -11.9622    124.9511     87.5592   4.8829548860e+01   4.0398907832e+01    0.8177248    0.3918257 -33.01  0.002946139    2.394    0.582
       157 -11.2296     34.6971     86.5953   7.7689430505e+01   5.4793312795e+01    0.7944288    0.2205544 -58.60  0.003020428    2.823    0.646
       158 -11.5935      4.7069     89.7233   8.8341412760e+01   5.6182423216e+01    0.4469294     0.160554 -66.97  0.002126241    2.092    0.522
       159 -11.3364    151.0482     87.8795   4.2149173442e+01   3.4325205346e+01    0.3632304    0.2303167 -32.65  0.001527567    1.657    0.397
       160 -13.2526    215.4948     87.2892   2.8960022280e+01   1.8779495312e+01    0.3856073    0.3400624  -1.50  0.002069533    1.292    0.226
       161 -11.2823     86.7848     80.8024   5.8322428242e+01   4.9300666331e+01    0.5243575    0.2894018  18.58  0.002012383    2.748    0.636
       162 -12.8158    199.4070     83.7975   3.0834874119e+01   2.3214643278e+01    0.5857607    0.3411238  14.59  0.001787435    4.312    0.768
       163 -10.7738    163.9716     86.0086   3.8592660784e+01   3.1542980299e+01     0.256712    0.1958433  11.20  0.001125682    1.684    0.406
       164 -12.3333     48.2821     81.1734   7.1642569731e+01   5.4648247356e+01    0.8300667    0.3034047 -53.91  0.003404529    2.305    0.566
       165 -11.4367    158.7298     81.5073   3.8473612328e+01   3.3662244493e+01    0.4435993    0.2140062 -31.33  0.001605656    2.307    0.567
       166 -11.4973    141.0204     81.3534   4.2695085886e+01   3.7959639115e+01     0.447657    0.2346174 -34.72    0.0017331    1.992    0.498
       167 -10.9799    170.6989     81.8805   3.5937854679e+01   3.0638362321e+01    0.2534812    0.2024236 -10.87  0.001188447    1.471    0.320
       168 -13.6620    235.1056     79.0176   2.3914212820e+01   1.5650591196e+01    0.4814909    0.3681063  69.87  0.002585618    1.422    0.297
       169 -11.9259     25.3040     73.2688   7.8036188407e+01   5.8529726388e+01    0.8184761    0.2910594 -28.57  0.002556131    5.722    0.825
       170 -10.7048    194.3259     80.3299   3.0830275718e+01   2.5052231155e+01    0.1568152    0.1192539  18.30 0.0007050675    1.705    0.413
       171 -11.0657    150.1725     79.0194   3.9737180167e+01   3.6207786532e+01    0.3909025    0.2284378 -37.01  0.001611772    1.739    0.425
       172 -10.8726    119.2956     78.6695   4.7704486748e+01   4.3400666156e+01     0.429227    0.2106842 -39.27  0.001664674    2.038    0.509
       173 -10.3450     74.3378     79.0138   6.1946311703e+01   5.1694107051e+01    0.4445316    0.1313985 -53.32   0.00135466    3.894    0.743
       174 -11.3042     85.9106     85.5978   6.0021368368e+01   4.8428788605e+01    0.4008197    0.2920842 -70.05  0.001898199    1.841    0.457
       175 -11.7405    179.5527     84.7219   3.4893958992e+01   2.7932926620e+01    0.3865616    0.1457393 -38.87  0.001294258    2.597    0.615
       176 -11.6753    174.8772     76.9298   3.3650737474e+01   3.0473725470e+01    0.3278592    0.2105291 -30.90  0.001418564    1.638    0.390
       177 -10.7035    157.5635     74.7729   3.6743939970e+01   3.5165075495e+01    0.2978773    0.1559507 -30.70  0.001136814    2.087    0.521
       178 -11.0113    140.7232     73.3793   4.0325801505e+01   3.9510295289e+01    0.4841547    0.2121098 -29.88  0.001648448    2.726    0.633
       179 -11.4772    128.0621     72.3823   4.3297201726e+01   4.2646410180e+01    0.6388816    0.3098689 -32.30  0.002406546    2.242    0.554
       180 -10.6674     10.0179     74.4861   8.3877399258e+01   5.9274500763e+01    0.1831539    0.1298738 -57.57 0.0003125655    1.099    0.090
       181 -11.5760     62.3922     69.9803   6.3436562418e+01   5.5309852797e+01    0.8732636    0.1273853 -46.41  0.002291314    5.433    0.816
       182 -10.9676     24.1150     79.7737   7.9919168300e+01   5.7190805407e+01    0.3717891    0.2074143 -77.72  0.001791543    2.197    0.545
       183 -11.0897     81.8843     71.5789   5.7103241754e+01   5.2027426041e+01    0.3954494    0.2628815 -60.31  0.001835827    1.953    0.488
       184 -11.5409     82.2670     66.3483   5.5280995582e+01   5.2997851718e+01    0.5187942    0.2771977 -18.59  0.001876341    3.170    0.685
       185 -11.3001    195.3838     71.7885   2.8329439162e+01   2.6220556930e+01      0.21438     0.145274 -22.41 0.0009551814    1.703    0.413
       186 -10.2387    151.4942     71.9846   3.7295171334e+01   3.7152229158e+01     0.239874    0.1541137 -34.37  0.001035977    1.601    0.375
       187 -10.3921    115.6284     71.0710   4.6340233809e+01   4.5644933083e+01    0.3514339    0.1421357 -39.08  0.001252757    2.476    0.596
       188 -11.6127    104.5770     80.4593   5.2595636007e+01   4.6089756172e+01    0.7819313     0.305032 -42.01  0.002781508    2.510    0.602
       189 -11.3090    206.6094     73.2243   2.6806784812e+01   2.3229221593e+01    0.2086498    0.1421843 -23.19 0.0009514027    1.667    0.400
       190 -12.2139    211.8678     75.4439   2.6528978390e+01   2.1600662459e+01    0.3021777    0.2025987 -14.80  0.001338058    1.958    0.489
       191 -10.9882    105.7593     69.3875   4.8712431555e+01   4.8024897178e+01     0.489004    0.1924765 -34.30  0.001683614    2.811    0.644
       192 -11.0865     94.8033     68.4599   5.1829962252e+01   5.0345455116e+01    0.6577567     0.191698 -45.20  0.002054865    3.543    0.718
       193 -12.0154    239.0056     69.6310   2.1151383022e+01   1.6239677297e+01    0.3195344    0.1158447 -43.48  0.001213963    2.484    0.597
       194 -10.9480    163.1249     70.1120   3.4125655598e+01   3.4590865232e+01    0.2494659    0.2117429  19.58  0.001236566    1.315    0.240
       195 -11.3175     51.0320     67.3727   6.6836858893e+01   5.7293078949e+01    0.6430845    0.2080411 -56.64  0.002217132    3.589    0.721
       196 -10.9802     18.0355     62.4741   7.8221850195e+01   6.1360040256e+01    0.3295145   0.09634661 -47.43  0.001427483    2.454    0.593
       197 -10.8408    167.5786     76.2289   3.4972918358e+01   3.2419679628e+01    0.2183825    0.1522484 -21.60 0.0009516772    1.658    0.397
       198 -12.4838    189.6139     75.3032   3.0328403127e+01   2.7071212354e+01    0.7175731    0.2404336 -26.10   0.00178401    5.436    0.816
       199 -10.9577    147.3750     65.8552   3.6366025017e+01   3.9221344106e+01    0.5247746    0.2694359 -22.67  0.001900767    2.592    0.614
       200 -12.1327    203.7622     65.3125   2.5186870040e+01   2.5185438776e+01    0.3031013    0.2113272 -22.17  0.001426252    1.649    0.393
       201 -10.8785    138.5365     64.2249   3.7981891322e+01   4.1640928118e+01    0.3703756    0.1540659 -32.54  0.001299657    2.583    0.613
       202 -11.2497    213.2618     62.4734   2.2980256559e+01   2.3306615794e+01    0.3351151    0.1900298   6.48 0.0009057852    6.178    0.838
       203 -10.7380    110.2549     60.9581   4.4549083797e+01   4.8626617862e+01    0.5486671    0.2669568 -28.96  0.002121208    2.333    0.571
       204 -10.5507    170.4304     69.8046   3.2502179798e+01   3.2808412442e+01    0.2181524    0.1511353 -18.34  0.000951211    1.735    0.424
       205 -10.4832    100.0569     57.3755   4.6400947420e+01   5.1356311291e+01    0.6142528    0.1960177 -37.65  0.002061995    3.134    0.681
       206 -10.7606     72.9192     58.3272   5.5847478835e+01   5.6062503699e+01     0.470269    0.1915734 -48.52  0.001831524    2.648    0.622
       207 -10.0785     25.1489     56.9760   7.3942321323e+01   6.1979496717e+01    0.3387179   0.07460665 -46.69  0.001275716    3.149    0.682
       208 -11.6123      7.7898     53.2527   8.0063876437e+01   6.3886092083e+01    0.7576061          nan -54.08  0.002567221    4.271    0.766
       209 -10.4749    202.3181     56.3389   2.3033257056e+01   2.6910801161e+01    0.1478564    0.1123436  25.42 0.0007049172    1.708    0.414
       210 -10.3214    130.7356     55.5331   3.7096345435e+01   4.4933318275e+01    0.3178757    0.1878302 -17.53  0.001294561    2.164    0.538
       211 -11.0963     37.2537     61.3180   7.0346464982e+01   6.0025104653e+01    0.4926139    0.1563907 -44.59   0.00200951    2.558    0.609
       212 -11.9611     45.1744     49.6890   6.3496040950e+01   6.1478813522e+01    0.4868553    0.1945933 -39.17 0.0006796906    2.219    0.549
       213 -10.0160     17.0326    244.6639   9.9049393335e+01   2.1898707490e+01    0.1485255   0.09975094  61.96 0.0006104249    1.114    0.103
       214 -10.0727    105.5691     50.6671   4.2345884910e+01   5.1350525341e+01    0.2836014    0.1392531 -29.41  0.001151183    2.174    0.540
       215 -10.2231     30.8428     51.0099   6.9838948905e+01   6.2692432343e+01    0.1872985    0.1419417 -78.79  0.001081352    2.026    0.506
       216 -10.9762     92.0000     44.9774   4.4474406063e+01   5.5005623067e+01    0.3336096    0.1728971 -20.56  0.001359159    2.423    0.587
       217 -10.2261    113.5090     42.3206   3.7059984611e+01   5.0910435822e+01    0.3903461    0.2305631   2.33  0.001541687    2.659    0.624
       218 -10.5144     16.8398     42.1676   7.3107369694e+01   6.5525407741e+01    0.4901623   0.05615164 -48.80  0.001703422    4.046    0.753
       219 -10.7187    121.7517     63.3374   4.2077196460e+01   4.5697468222e+01    0.4826297    0.2068322 -29.28  0.001677175    2.790    0.642
       220 -11.4915      4.8822     39.2790   7.7597193539e+01   6.6809166456e+01    0.5522158    0.1313453 -60.35  0.002129251    3.786    0.736
       221  -9.9337    123.4196     40.7910   3.3892663156e+01   4.8867023601e+01    0.2010025    0.1374675 -10.37 0.0009448504    1.707    0.414
       222 -10.7559     53.6050     50.3347   6.0341318174e+01   6.0328939506e+01    0.5148641     0.116824 -47.51  0.001644795    4.199    0.762
       223 -10.3659     83.9708     40.4875   4.5423923669e+01   5.7227396990e+01    0.2716641    0.1672306   4.32  0.001216697    2.176    0.540
       224 -10.3617    105.6808     38.4894   3.7856076932e+01   5.3174293007e+01    0.2474632      0.12777 -30.01  0.001081095    1.998    0.499
       225 -10.8574     27.6060     29.4972   6.3773658707e+01   6.6939512560e+01    0.3645161    0.0890649 -37.67  0.001320578    3.840    0.740
       226  -9.9096     50.6564     28.0107   5.2943503488e+01   6.4506476933e+01    0.2152745   0.08411738 -22.95   0.00070505    4.465    0.776
       227  -9.0866     44.3152     25.3500   5.4523421709e+01   6.5751425759e+01    0.1323945   0.08048803  -8.93 0.0007047028    1.728    0.421
       228 -10.0682     12.8105     20.8675   6.7559985061e+01   6.9643512268e+01    0.1402811    0.1234244 -26.88 0.0005312579    1.320    0.243
       229 -10.1641     50.4866     15.9929   4.7710685004e+01   6.6241568570e+01    0.1783738    0.0906718 -11.13 0.0008097819    2.520    0.603
