#   1 NUMBER                 Running object number                                     
#   2 MAG_AUTO               Kron-like elliptical aperture magnitude                    [mag]
#   3 X_IMAGE                Object position along x                                    [pixel]
#   4 Y_IMAGE                Object position along y                                    [pixel]
#   5 X_WORLD                Barycenter position along world x axis                     [deg]
#   6 Y_WORLD                Barycenter position along world y axis                     [deg]
#   7 A_WORLD                Profile RMS along major axis (world units)                 [deg]
#   8 B_WORLD                Profile RMS along minor axis (world units)                 [deg]
#   9 THETA_WORLD            Position angle (CCW/world-x)                               [deg]
#  10 FWHM_WORLD             FWHM assuming a gaussian core                              [deg]
#  11 ELONGATION             A_IMAGE/B_IMAGE                                           
#  12 ELLIPTICITY            1 - B_IMAGE/A_IMAGE                                       
         1 -12.5029     52.7252    142.9411   5.8837781576e+01   3.9709706340e+01     1.581252     0.713663 -46.06  0.005897327    2.525    0.604
         2 -10.3009      2.1150     20.6224   5.5469417535e+01   7.5746344468e+01    0.5386398   0.06816805 -58.37  0.001665351    4.922    0.797
         3 -10.0167      2.1127      4.5643   4.6452508203e+01   7.8880095952e+01     0.486048    0.1544323 -53.88  0.001987529    3.339    0.700
         4  -8.2735     71.3325      7.6910   6.6071932284e+00   6.5432414541e+01    0.1353366    0.1003134 -72.37 0.0005252944    1.670    0.401
         5  -9.4017     47.0402    228.9999   6.9239319298e+01   1.9977286755e+01     0.288605    0.1389567  34.18  0.000899411    1.618    0.382
         6 -14.6441     25.9080    175.2499   7.0926506371e+01   3.4274702213e+01      7.27867     2.901349  76.09   0.02615698    3.317    0.699
         7 -13.9874     11.3362    242.2241   7.8058185145e+01   2.0802148451e+01     2.211074      1.62512  51.25    0.0149936    1.070    0.065
         8  -8.4187    176.2234    230.7557   4.0673897180e+01   4.0817466331e+00    0.1800418   0.07776637 -32.61 0.0008918839    2.446    0.591
         9 -13.2303      9.9403    206.7888   7.7072365864e+01   2.8240923773e+01     1.362956    0.7969954  33.76  0.007712799    1.448    0.310
        10 -13.2587      4.3304    213.3313   7.8696039844e+01   2.7267530410e+01     2.079721     0.764608  22.80  0.005561301    2.485    0.598
        11  -9.0219     43.7671    231.0097   7.0146357727e+01   1.9917865860e+01    0.1975919    0.1383886  50.36 0.0005586877    1.224    0.183
        12 -10.0052     84.0960    196.0916   5.6782582723e+01   2.2511395620e+01    0.3962234    0.2378723  78.94  0.001713668    2.608    0.617
        13  -8.2851    210.9404    198.9669   2.9392956955e+01   4.5336643086e+00    0.1432769    0.1116128  -5.96 0.0009854215    1.025    0.025
        14  -8.8072     43.2358    227.6185   7.0052636480e+01   2.0654502739e+01     0.197412    0.1457483  50.78 0.0006069016    1.165    0.142
        15  -9.3925     83.3196    186.9926   5.5818053572e+01   2.4648842373e+01    0.2795764    0.2481037 -83.03 0.0009805636    1.248    0.199
        16  -8.4243    101.4863    185.5166   5.0766609658e+01   2.2388384361e+01    0.1420321    0.1281609  35.94 0.0008097424    1.052    0.050
        17  -9.0553     79.0970    183.9442   5.6568482895e+01   2.5927375915e+01    0.4463194    0.1749787 -48.07  0.001672666    2.900    0.655
        18 -10.8755     61.4988    224.3260   6.5415352463e+01   1.9333554430e+01    0.4508828    0.2575878 -59.97  0.002429533    2.016    0.504
        19  -7.5443     57.2717    179.3677   6.2167049027e+01   2.9851823747e+01    0.1411669    0.1036165 -34.26 0.0006999882    1.668    0.400
        20  -8.1245     77.7624    177.5186   5.6075414839e+01   2.7615197344e+01    0.1945364    0.1230256  41.10 0.0002491816    1.456    0.313
        21 -10.1193     58.4695    172.7099   6.1036794481e+01   3.1334015725e+01    0.5709226    0.2993804  84.55  0.002210369    2.763    0.638
        22  -8.3890     74.1731    173.9408   5.6607378776e+01   2.8965590762e+01    0.2210457    0.1807511  67.23 0.0007288911    1.294    0.227
        23 -11.3818     17.9106    248.7050   7.6859208714e+01   1.9002181243e+01    0.4003786    0.3635802 -40.25 0.0009762599    1.507    0.336
        24  -9.3930     87.8638    166.6966   5.1589394468e+01   2.8729407213e+01    0.3733751    0.2924804  42.33  0.001927733    1.214    0.176
        25  -9.3222     71.1526    164.0495   5.6093031547e+01   3.1804540560e+01     0.327388    0.2915365 -67.79 0.0003732518    1.172    0.146
        26  -8.3633     72.7363    230.6611   6.3273859327e+01   1.6788353572e+01    0.1861511    0.1591984 -11.56 0.0005947135    1.379    0.275
        27 -10.2126     53.8206    157.0939   6.0478608488e+01   3.5866145702e+01     0.334954    0.2882889 -15.00 0.0008050309    1.356    0.262
        28  -8.6223    167.4065    156.7751   2.9843898372e+01   1.7695935749e+01    0.1949701    0.1204763 -31.63 0.0006243563    1.614    0.380
        29  -9.0806     73.1649    227.1605   6.2856756547e+01   1.7419007164e+01    0.4212313    0.1978924  48.72  0.001853429    2.088    0.521
        30 -10.5266     28.4328    156.0416   6.8504212957e+01   3.8947754205e+01    0.3065344    0.2277531  23.62 0.0005161288    1.379    0.275
        31 -11.1305     24.3376    148.6109   6.9134032906e+01   4.1289194778e+01    0.5365424    0.3862062 -82.16  0.001514807    1.336    0.252
        32  -8.8266     34.6183    146.2552   6.5424248251e+01   4.0919240437e+01    0.3034402    0.2078718 -40.66 0.0003917508    1.675    0.403
        33  -8.1873     36.5086    142.5469   6.4332275559e+01   4.1712282991e+01    0.2085297    0.1355298  89.41  0.000959025    1.627    0.385
        34  -9.3046    108.8330    145.0682   4.1661688447e+01   3.0429922530e+01    0.3768401    0.2498796 -61.98   0.00168522    1.696    0.410
        35  -9.2537     47.2341    138.8166   6.0107734645e+01   4.1491155617e+01    0.2265473    0.1873868  60.02  0.001173617    1.202    0.168
        36  -9.7945     93.0735    134.1093   4.4024801012e+01   3.5834674246e+01    0.5186177    0.3398938  -5.32  0.001986769    2.541    0.606
        37 -10.5591     78.6401    131.9503   4.8184876713e+01   3.8816082665e+01    0.4566015    0.3927877  -1.20 0.0004113974    1.327    0.246
        38  -9.6442     42.6403    131.4926   6.0646038982e+01   4.4007803744e+01    0.2862885    0.2671195 -85.79 0.0008104991    1.038    0.036
        39  -9.0646     33.1173    131.2827   6.4087956500e+01   4.5107793124e+01    0.3712296     0.195429 -66.45 0.0009281343    1.787    0.440
        40 -13.1605     11.9817    181.4781   7.5328216977e+01   3.3959308414e+01     1.432796     1.298046 -11.28  0.006121867    1.346    0.257
        41  -9.4625    105.5328    130.5769   3.9505026496e+01   3.4441807370e+01    0.3004436    0.2757782  67.17 0.0009944268    1.158    0.136
        42 -10.7019     72.9496    156.6934   5.4430133312e+01   3.3389409409e+01    0.5560141    0.4944241  13.59  0.001792474    1.187    0.158
        43  -9.3026     48.9867    123.0248   5.6921944136e+01   4.5518342423e+01    0.2235142    0.2183669  84.75 0.0003468603    1.014    0.014
        44  -8.5711     92.3957    121.3175   4.1397506087e+01   3.9102888785e+01     0.348776    0.2199388 -15.65  0.001244597    2.838    0.648
        45 -10.6226     62.9901    116.2365   5.0380988096e+01   4.5365497615e+01    0.8860742    0.4725004  80.34  0.002552359    4.448    0.775
        46  -9.6607     59.5200    111.9891   5.0768245094e+01   4.7004477434e+01    0.5269287    0.3063087  81.97  0.001847465    2.951    0.661
        47 -10.6979     28.5184    219.3649   7.3099784684e+01   2.3839762489e+01    0.4539978    0.2027434 -56.68  0.002169987    2.679    0.627
        48 -10.8969     53.4749    219.0352   6.6947558288e+01   2.1321376138e+01     0.442416    0.2897987  83.06  0.002464114    1.769    0.435
        49 -10.3119     47.5204    161.0248   6.2964087090e+01   3.5614616057e+01    0.4818782      0.31776 -15.81  0.001691283    2.137    0.532
        50 -10.1004     49.2928    103.8790   5.3035267321e+01   5.0606834946e+01    0.5855125    0.3104432  85.05  0.001851833    3.708    0.730
        51 -10.1703     24.6721    104.9058   6.3592880681e+01   5.3122462807e+01    0.3822732    0.3351277 -47.43  0.001430361    1.136    0.120
        52  -7.8381     84.5285    105.4652   4.0100785741e+01   4.4449034541e+01    0.1565494    0.1501384  73.14 0.0008081875    1.062    0.058
        53 -10.1369      1.8303     91.1670   7.1930805247e+01   5.8421445899e+01    0.4286641    0.1805984 -80.89  0.001712668    2.249    0.555
        54 -11.0620      2.2444     79.1510   7.0209181298e+01   6.1600161970e+01    0.8187917    0.1811534 -73.66   0.00255648    3.792    0.736
        55  -9.8985      1.6628     99.4862   7.2903394249e+01   5.6190770345e+01    0.5288204    0.1778545 -74.61  0.001589606    2.563    0.610
        56  -8.8315     81.2988    100.8514   4.0009713103e+01   4.6178720062e+01    0.2628064     0.206167  52.40 0.0004751595    1.326    0.246
        57 -12.9825     67.9576    148.7409   5.4724611601e+01   3.6130614422e+01      1.47275    0.9558507 -36.97  0.002720155    1.849    0.459
        58 -10.4652     15.7099     95.1376   6.6034607986e+01   5.6512493594e+01    0.5513368    0.2242068  48.30   0.00181034    2.887    0.654
        59  -8.9419     29.8538     89.1361   5.8366979404e+01   5.6866359494e+01     0.215001    0.1896147  70.31 0.0002559465    1.216    0.177
        60  -8.6739     21.7665     84.6233   6.1317274760e+01   5.8839224324e+01    0.1949695     0.127954  31.89 0.0004525129    1.574    0.365
        61  -7.7671     47.6890     82.6785   4.8518856036e+01   5.6328061680e+01    0.1568148    0.1118012 -25.43  0.000703728    1.650    0.394
        62  -7.9067     33.1895     82.0084   5.5160423144e+01   5.8372287697e+01    0.1968046    0.1089432 -63.12 0.0004679922    1.739    0.425
        63  -9.9724     16.1556     76.1231   6.2449695084e+01   6.1538122125e+01    0.4659292    0.2223139  45.46  0.001908016    2.438    0.590
        64  -8.9791     10.5269     77.5122   6.5661528971e+01   6.1573780569e+01     0.139064    0.1270169 -56.07 9.640728e-06    1.003    0.003
        65 -10.2994      4.9807    101.4879   7.1662782404e+01   5.5479202100e+01    0.3595363    0.2371489  70.62  0.001205251    1.582    0.368
        66 -10.4362      6.1040     68.9199   6.6500292126e+01   6.4076210845e+01     0.545475    0.3052508  11.16  0.001676573    1.914    0.478
        67  -8.7670    140.6969     66.3719   1.2952966077e+01   4.0188180784e+01    0.4778899    0.2160376 -61.57  0.001378302    4.519    0.779
        68 -11.9882    243.6547     43.9936   3.5465713100e+02   2.1688814319e+01    0.6696042     0.492632 -45.79  0.002845326    1.047    0.045
        69 -11.4478    215.7931     60.5551   5.7672860039e-01   2.4660428448e+01    0.5384787    0.4080008  50.43  0.003382821    1.650    0.394
        70 -11.8771    224.6396     56.2756   3.5877513907e+02   2.3561380584e+01    0.8146494    0.5510515 -54.83  0.005104878    1.274    0.215
        71 -11.2021    233.3825     50.3492   3.5674854944e+02   2.2720971406e+01    0.4992725    0.3468403  53.51  0.001613367    1.870    0.465
        72  -8.9354     13.3327     60.7164   6.0560828475e+01   6.5689183449e+01    0.3179961    0.1535922 -65.72  0.001394247    1.936    0.484
        73 -10.1624      1.8248     54.0292   6.6116781804e+01   6.8063987809e+01    0.6021081   0.08436351 -71.50  0.001545502    6.094    0.836
        74  -8.0743     95.4858    219.5074   5.6720805836e+01   1.6172777476e+01    0.1315062    0.1111883  28.57  1.46297e-05    1.003    0.003
        75 -10.2346     55.0950    236.6240   6.7880084788e+01   1.7618819672e+01    0.2422892    0.1980232 -63.01  0.001000238    1.484    0.326
        76  -8.2347     60.4963     21.5027   1.7782573193e+01   6.6353048668e+01    0.1379133    0.1260453  40.42 -0.0001444195    1.021    0.020
        77 -10.4064     39.3538    234.1162   7.1369495045e+01   1.9753898715e+01    0.3215224    0.2575823 -75.03   0.00216411    1.460    0.315
