#   1 NUMBER                 Running object number                                     
#   2 MAG_AUTO               Kron-like elliptical aperture magnitude                    [mag]
#   3 X_IMAGE                Object position along x                                    [pixel]
#   4 Y_IMAGE                Object position along y                                    [pixel]
#   5 X_WORLD                Barycenter position along world x axis                     [deg]
#   6 Y_WORLD                Barycenter position along world y axis                     [deg]
#   7 A_WORLD                Profile RMS along major axis (world units)                 [deg]
#   8 B_WORLD                Profile RMS along minor axis (world units)                 [deg]
#   9 THETA_WORLD            Position angle (CCW/world-x)                               [deg]
#  10 FWHM_WORLD             FWHM assuming a gaussian core                              [deg]
#  11 ELONGATION             A_IMAGE/B_IMAGE                                           
#  12 ELLIPTICITY            1 - B_IMAGE/A_IMAGE                                       
         1 -14.4735     11.0929     71.0810   8.7049613784e+01   6.3314924613e+01     3.117245     1.684278 -25.08   0.01415691    2.127    0.530
         2 -11.3786     77.1252      5.9005   2.7906201300e+01   6.4230167506e+01    0.5011647    0.2602748 -36.25  0.002411969    2.092    0.522
         3 -14.3229     42.9999     74.8936   7.1983596169e+01   5.9075843944e+01      2.03103     1.204204 -32.51  0.008361514    1.979    0.495
         4 -12.7866     25.5849     39.5828   6.8756284610e+01   6.9327867484e+01     1.689032     0.445336 -46.98  0.005870149    3.375    0.704
         5 -13.2188     63.0546     35.6012   4.7466219954e+01   6.3725097781e+01     1.759467    0.9454801 -41.09  0.007967964    1.952    0.488
         6 -11.9922     40.4006     21.4245   5.0727979963e+01   7.0349808959e+01     1.280453    0.6791149  34.83  0.006107597    1.866    0.464
         7 -13.6380     13.0943     35.3748   7.5250903579e+01   7.1572876603e+01     2.216408     1.393474 -35.26   0.01197976    1.479    0.324
         8 -12.7052    207.3405     20.2350   1.5657300166e+01   3.1560435127e+01    0.9077007    0.4004706  89.55  0.001377605    2.519    0.603
         9 -12.4085    199.6508     29.0359   1.8373085247e+01   3.2194148436e+01    0.8746552     0.275416 -45.18  0.003713077    2.506    0.601
        10 -11.5990    192.7298     21.0852   1.6958989102e+01   3.4595081648e+01    0.7115201    0.3732651 -21.34  0.002976378    2.297    0.565
        11 -12.6303    190.4310     32.7552   2.0135532201e+01   3.3760009914e+01     1.029594    0.6063313 -68.24  0.004556471    1.701    0.412
        12 -13.7582     91.4135     67.1412   4.9956313731e+01   5.1951873561e+01     2.102434     1.337769 -67.16  0.008507259    2.303    0.566
        13 -12.5578     53.7545     20.9472   4.3948463389e+01   6.7833214297e+01    0.9847142    0.7673895 -89.54  0.005229436    1.943    0.485
        14 -13.5325    237.1494     62.2928   2.2731757651e+01   2.0647978299e+01     1.831219    0.8696003 -52.85   0.00959173    1.920    0.479
        15  99.0000    233.5668     25.4749   1.5123457755e+01   2.5792636049e+01     1.128234    0.6538111   6.39  0.004114883    6.651    0.850
        16 -14.0745    244.6022      9.1709   1.1173889461e+01   2.5503955834e+01    0.9847751    0.4214379 -71.49  0.005449259    2.294    0.564
        17  -9.8347    223.1051     10.5102   1.2483635900e+01   2.9397881006e+01    0.8717978    0.4341303 -72.28  0.004910694    1.898    0.473
        18 -12.5544    219.0453     29.8602   1.7054148156e+01   2.8095123020e+01    0.6986162    0.4647992 -82.11  0.002609673    1.486    0.327
        19 -12.3810    225.7173     22.5451   1.4972950713e+01   2.7611947372e+01    0.5040094    0.3410483  66.30  0.001837047    1.724    0.420
        20 -12.8453     70.3781     12.6056   3.3255512865e+01   6.5180053717e+01     1.404021    0.5529904  38.13  0.005203257    3.130    0.680
        21 -13.1453     62.8569      4.8767   3.1435622182e+01   6.7675823690e+01     1.489775    0.7883584  53.07  0.007436872    1.613    0.380
        22 -13.7385     54.3986     58.0697   6.0934724987e+01   6.1155572540e+01     2.608108     1.591961  73.56  0.008694883    4.224    0.763
        23 -10.4998    138.9777     16.6559   2.1141204652e+01   4.7780900471e+01    0.3371277    0.2039485 -37.43  0.001103863    1.634    0.388
        24 -11.4954    160.0406     14.8362   1.8176982590e+01   4.2798274787e+01    0.2787386    0.1687639 -37.12 0.0005772699    1.578    0.366
        25 -11.3082    151.2201     13.4705   1.8677715522e+01   4.5075462993e+01    0.4704626    0.2769388 -82.33  0.001189491    1.706    0.414
        26 -13.3935     74.1420     23.4625   3.7514426130e+01   6.3046275980e+01     1.250429    0.6005595  52.91   0.00552714    1.873    0.466
        27 -10.3082    213.5511     12.7852   1.3524981565e+01   3.1072018210e+01    0.2244505    0.1182564 -57.07  0.000348063    1.562    0.360
        28 -11.9411    115.8854     10.0127   2.2033778200e+01   5.4234608000e+01    0.4790269    0.2959747  -9.55  0.001483254    2.069    0.517
        29 -10.4032    118.0126      3.5408   1.9275242591e+01   5.4257289416e+01    0.3359185    0.1511406 -32.98 0.0008885782    2.231    0.552
        30 -10.7215    131.2132     11.5734   2.0425533401e+01   5.0225842020e+01    0.3744819    0.2134297  89.49  0.001410427    1.783    0.439
        31 -11.0700    123.7467     10.8709   2.1191697829e+01   5.2171020373e+01    0.3743664    0.2532366  20.55  0.001233244    2.027    0.507
        32 -11.3000     93.9370     11.6393   2.6695674105e+01   5.9593194292e+01    0.2818695    0.1971642  66.37  0.000159001    1.286    0.222
        33 -11.3421    173.1229      7.1733   1.4843943749e+01   4.0457414719e+01    0.4658603    0.1956825 -24.78  0.001652693    2.545    0.607
        34  -9.7887    110.5367      9.8434   2.2821564909e+01   5.5600196316e+01    0.1803417    0.1338142 -25.07  0.000715992    1.496    0.332
        35 -11.5552    194.0660      7.7179   1.3516090260e+01   3.5690078422e+01    0.2722634    0.2267725 -76.19    0.0012332    1.093    0.085
        36 -11.2658    145.5101      7.4889   1.7402992734e+01   4.7046186789e+01    0.3750174    0.2998503 -39.92  0.002081554    1.280    0.219
        37 -10.6165    142.0837      2.0930   1.6017724159e+01   4.8361411168e+01    0.2281507    0.1869417 -63.35 0.0005751398    1.130    0.115
        38 -10.1360     84.4786      8.5744   2.7414202899e+01   6.2208629837e+01    0.3252682    0.2035598 -10.26  0.001644165    1.931    0.482
        39 -11.9986     85.9493      1.7210   2.3837243765e+01   6.2426643647e+01    0.4997467    0.1546889  60.45  0.001970379    2.494    0.599
        40 -10.7757     27.4665      9.2902   5.0738456776e+01   7.4367360439e+01    0.2290405    0.1586658  33.98  0.001337789    1.322    0.243
        41 -10.7150      2.9990      6.2119   6.8250581609e+01   7.8185645136e+01    0.2520817    0.1672032  13.33 0.0008835065    1.420    0.296
        42  -9.9037    211.3673      6.1343   1.2126754169e+01   3.2188307618e+01    0.1834494    0.1390767  78.67 0.0009870651    1.400    0.286
        43  -9.5635    100.1458      4.9406   2.2581882284e+01   5.8640191954e+01    0.5066166     0.147546  55.63  0.001559944    2.779    0.640
        44 -11.2196    183.5610      3.2476   1.3060059337e+01   3.8441192010e+01    0.3062736    0.1923691 -75.91  0.001188072    1.408    0.290
        45 -10.0166    112.0288      4.2689   2.0395576203e+01   5.5706216755e+01    0.2155008    0.1417185 -89.28 0.0009520315    1.493    0.330
        46 -10.7828    217.2564      2.0625   1.0913483334e+01   3.1391216413e+01    0.2988833    0.1840331 -86.57  0.001848801    1.513    0.339
        47 -11.1946    231.9453      1.7342   1.0191941007e+01   2.8568225016e+01    0.2956345    0.1320138 -88.21  0.001171457    2.242    0.554
        48 -11.5713     48.9399      1.5001   3.4363111707e+01   7.1083697362e+01    0.4623103    0.1161038  56.20  0.001198314    3.196    0.687
        49  -9.4503    250.4488      1.4014   9.4077080690e+00   2.5239319674e+01    0.1114868   0.07271643 -55.72 0.0001701504    1.099    0.090
        50  -9.4752      1.2430      1.1879   6.6394586924e+01   7.9209223829e+01    0.1055257    0.0730649  -5.95 0.0006407581    1.343    0.256
        51 -12.0408    124.0781     69.8981   4.1699970492e+01   4.3918621336e+01    0.4350362    0.3225603 -65.22 0.0002719734    1.531    0.347
        52 -14.0285    117.0872     61.4632   4.0631543617e+01   4.7078166747e+01     1.070256    0.7698178  34.09  0.005041845    1.648    0.393
        53 -11.3646    151.7993     59.8549   3.2828670215e+01   3.8991628329e+01    0.6813763    0.3718156  44.48   0.00291049    2.183    0.542
        54 -11.9100     12.2130     96.6986   9.1029846618e+01   5.6550104197e+01    0.4927819    0.2195435 -57.88  0.001843211    1.920    0.479
        55 -10.3731    225.1429     96.9802   3.1495230175e+01   1.7877966748e+01    0.2030109     0.142998 -51.69  0.000841046    1.334    0.250
        56 -11.3758     73.0882     96.3082   6.5656611028e+01   4.9082033603e+01    0.3234801    0.2794016  36.10 0.0008688244    1.180    0.152
        57  -9.3287    249.6672     96.7019   2.8660442354e+01   1.3886528596e+01    0.1107339   0.08450484  -6.84 0.0007030715    1.646    0.393
        58 -11.5382     97.0688     91.4889   5.6037293866e+01   4.5588327117e+01    0.7710218    0.5198145  78.81  0.003035766    2.377    0.579
        59 -12.3832     86.5027     74.2031   5.4041367953e+01   5.1560492407e+01    0.6078346    0.5719202 -75.83  0.002341705    1.119    0.106
        60 -12.7442     73.6602     73.6759   5.8514181708e+01   5.4258818685e+01     1.311146    0.5153754  37.35  0.004537413    2.710    0.631
        61 -12.7708     56.5718     94.9068   7.1651368288e+01   5.2139875342e+01     0.542734    0.3706853 -77.17 0.0006253737    1.752    0.429
        62 -13.3424     62.6905     90.5166   6.8022208223e+01   5.2274955284e+01     1.015463    0.5172252  50.78  0.003839209    2.400    0.583
        63 -11.6839     59.7556     85.6120   6.7807271669e+01   5.3955387273e+01    0.4303785    0.2844891 -29.32 0.0009181919    1.847    0.459
        64 -11.0862     70.9619     87.9700   6.4073685862e+01   5.1476136770e+01    0.3899677    0.3684093 -37.17  0.001603626    1.055    0.052
        65 -12.5374     67.0451     82.4058   6.3912599093e+01   5.3490519518e+01    0.6534919     0.551474  72.21  0.001026299    1.388    0.279
        66 -12.3864     48.8760     95.1520   7.4861484394e+01   5.3187129708e+01    0.4547797    0.3094003  38.30 0.0009484937    1.512    0.339
        67 -10.6738    232.9671     94.7189   3.0079094429e+01   1.6871231822e+01    0.2037255    0.1399375 -36.40 0.0005460514    1.183    0.154
        68 -10.6640    206.3164     93.8255   3.3241806649e+01   2.1786749711e+01    0.2766668   0.09080953 -42.95 0.0008531663    2.593    0.614
        69 -10.3622     89.4083     93.9562   5.9255088747e+01   4.6580848338e+01    0.2244217    0.2085667  39.96 7.791493e-05    1.090    0.082
        70  -9.8968    228.7707     91.9742   2.9977819269e+01   1.7989541223e+01    0.2057112    0.1571502  37.77  0.001278854    1.696    0.411
        71 -11.3275     79.7178     90.8834   6.1703748909e+01   4.9175637863e+01    0.2736632    0.2509397 -27.12 0.0003638912    1.140    0.123
        72 -10.1188    172.6223     91.1640   3.7838591328e+01   2.9046449724e+01    0.2298207     0.190304  79.04 0.0005608537    1.358    0.264
        73 -11.6852    223.5489     88.6583   2.9869107694e+01   1.9396541381e+01    0.2925138    0.2566438 -48.71  0.001965739    1.083    0.077
        74 -10.0534    167.6499     90.0244   3.8429228221e+01   3.0316940090e+01    0.2386847    0.1991824  85.08 0.0006794423    1.345    0.256
        75 -11.3797    113.4915    246.7185   8.0022164325e+01   9.0822774181e+00    0.3327337    0.1967122 -38.30   0.00185422    2.067    0.516
        76 -13.2698      5.0934     54.5751   8.6703583177e+01   6.7783926187e+01    0.9721963    0.6340904 -62.48  0.003247402    1.370    0.270
        77 -10.3083     36.0000    248.5111   9.6933182796e+01   1.7566785337e+01     0.222448   0.06425256 -76.00 0.0009425973    3.998    0.750
        78 -10.0731    180.4967    243.4902   6.6148640557e+01   1.5276910286e+00    0.1153001   0.08928201   7.13 -8.548883e-05    1.022    0.022
        79  -9.7290     15.8333    238.3988   1.0080308076e+02   2.1437003948e+01    0.1462244    0.1010913  18.24 0.0003752069    1.590    0.371
        80 -10.1069    220.1563    123.5152   3.7837752869e+01   1.4634675997e+01    0.3713135    0.1504783 -33.25   0.00160051    2.231    0.552
        81 -12.0069     51.2246     34.9272   5.2384474702e+01   6.6174404674e+01     1.228421    0.5292385  34.06   0.00474223    2.670    0.625
        82 -12.2396     45.1163     28.4590   5.2120573635e+01   6.8384751438e+01     1.592961     0.351336  41.18  0.004096786    4.529    0.779
        83 -10.1749    152.9454    124.0642   4.9997269566e+01   2.6917211423e+01    0.2127881    0.2015546 -40.30  0.001189866    1.023    0.022
        84  -9.3694    206.6286    122.5214   3.9642769406e+01   1.7077476502e+01    0.1328119    0.1098272 -37.31 -7.870497e-05    1.054    0.051
        85 -13.3311     39.1936     56.6641   6.7826049856e+01   6.3852698322e+01    0.8736229    0.8207023 -43.60   0.00303176    1.087    0.080
        86 -12.6429     51.3679     44.9262   5.6955767233e+01   6.4336087388e+01    0.8322309    0.5947052  21.05  0.002252884    1.531    0.347
        87 -13.4020     79.3996     41.4061   4.3953572388e+01   5.9258601459e+01      1.09448    0.5249627  42.78  0.004464819    2.108    0.526
        88 -13.2112     78.6648     59.3669   5.1494118149e+01   5.6218497118e+01    0.9501722     0.516965  40.35  0.003995615    1.871    0.466
        89 -13.4973     80.1290     50.3857   4.7444809449e+01   5.7575537640e+01     1.162321    0.6010224  32.93  0.004440916    2.537    0.606
        90 -13.1428    199.2032     76.0729   2.9996551155e+01   2.5939302323e+01    0.7306389    0.4183671 -74.74  0.002675855    2.678    0.627
        91 -12.0255    192.5789     75.9752   3.0864146046e+01   2.7317816002e+01    0.2710743    0.2566412 -83.74 0.0003239291    1.130    0.115
        92 -13.5991    218.2063     56.9767   2.3319433455e+01   2.4875012388e+01    0.8148433    0.7491233 -75.48  0.001869206    1.178    0.151
        93 -13.3654    196.4732     49.3839   2.3736534931e+01   3.0331166690e+01    0.9394566    0.7925661 -69.43  0.004766668    1.089    0.081
        94 -11.7107    186.9670     45.6452   2.3835385534e+01   3.2899280211e+01     0.452509    0.3598175   1.66  0.001248986    1.781    0.439
        95  -9.9568    141.0156    119.7387   5.1675705187e+01   3.0216445425e+01    0.2053171    0.1928784  42.29 0.0003264259    1.101    0.092
        96 -13.6076    201.8958     69.3856   2.8034377078e+01   2.6388871486e+01      1.22067    0.4661472  68.84  0.004768886    3.468    0.712
        97 -11.9084    209.6313     58.5341   2.4553499509e+01   2.6360385047e+01     0.356401    0.1998305 -41.65 0.0002167961    1.475    0.322
        98 -12.8754    199.4418     37.1991   2.0405815736e+01   3.1260889748e+01    0.9023966    0.4618942 -67.75  0.004325435    2.160    0.537
        99 -10.0066     57.5205    119.9992   7.7012488567e+01   4.5470124040e+01    0.2341526    0.1431107 -60.46   0.00084322    1.567    0.362
       100  -9.3092     72.9931    119.0114   7.1329638959e+01   4.3376716479e+01    0.1800645    0.1751465 -76.90 0.0009639087    1.004    0.004
       101 -11.6491    186.7212     37.5040   2.1736553262e+01   3.4001587335e+01    0.5500128    0.3253926 -61.40  0.001322753    1.637    0.389
       102 -10.1984    204.2504    116.1875   3.8618387507e+01   1.8544867475e+01    0.2840184    0.1789612  72.26  0.001269904    2.588    0.614
       103 -10.2000    181.1732    115.1720   4.2233915208e+01   2.3033403045e+01    0.1950785     0.162107 -63.12  0.001075486    1.331    0.249
       104 -12.1189    236.2020     85.7864   2.7825845969e+01   1.7604069602e+01    0.4696759    0.2852496  79.95  0.002016405    2.403    0.584
       105 -13.1928    214.7144     83.2380   2.9718033705e+01   2.1822659438e+01    0.6402318    0.3481543  47.85  0.003247334    2.272    0.560
       106 -11.6642    161.9668     84.6002   3.8025407320e+01   3.2520168362e+01     1.089068    0.4075914  47.35  0.003901697    2.977    0.664
       107 -11.9089    168.6729     80.4444   3.5708207052e+01   3.1745278422e+01     0.365757    0.3013414  67.74  0.001034532    1.290    0.225
       108 -11.3392    167.7175     76.4352   3.4790859556e+01   3.2628779103e+01    0.3676126    0.2599903  53.33 0.0009665134    1.514    0.340
       109 -10.5117    250.5936     81.5211   2.5501284618e+01   1.5815694886e+01    0.2096238      0.09231 -32.85 1.098896e-05    1.883    0.469
       110 -11.3565    247.5144     80.5155   2.5587511056e+01   1.6448943515e+01     0.460213    0.1928974 -35.58  0.002351711    1.858    0.462
       111 -12.0681    249.9784     75.4485   2.4324530746e+01   1.6726211747e+01    0.3017225    0.1694593 -31.41 0.0001337935    1.542    0.351
       112 -10.2202     83.2088     83.0893   5.8089831303e+01   5.0294089038e+01    0.2988525    0.2180993  24.97  0.001364363    1.590    0.371
       113 -10.8956     55.1900     81.9401   6.8637424430e+01   5.5575221875e+01    0.2372147    0.2124888  32.68 0.0002485094    1.145    0.127
       114 -11.7310     27.0177     81.2602   8.1287805308e+01   5.9373131539e+01     0.444661    0.2298801  26.23  0.001959684    2.006    0.501
       115 -12.5340    223.1516     79.9562   2.7989618788e+01   2.0738625289e+01    0.4910448    0.3009705  89.15  0.002327171    2.383    0.580
       116 -13.2405    220.8961     70.8140   2.6190134952e+01   2.2459942138e+01     0.604647    0.3848863 -34.49  0.002890559    1.377    0.274
       117 -11.9377    210.1609     46.6773   2.1693639150e+01   2.7829412373e+01    0.9779151    0.4106936 -65.74  0.003815635    3.470    0.712
       118 -13.0334    190.4742     56.3706   2.6192655904e+01   3.0664820475e+01    0.7248293    0.6664509  60.81   0.00461543    1.260    0.207
       119 -10.1364    232.6092     78.7380   2.6698795530e+01   1.9216856524e+01    0.2260218    0.1623695  85.76  0.001394721    1.741    0.426
       120 -11.2264    226.0349     76.3606   2.6876149715e+01   2.0726631697e+01    0.2670225    0.1441839 -43.82  0.001321955    1.497    0.332
       121 -11.6658    175.8455     86.0415   3.5965161811e+01   2.9234941543e+01    0.4427477     0.238485  43.45  0.001044203    2.239    0.553
       122 -10.8445    155.1687     76.5314   3.7062366664e+01   3.5460515078e+01    0.3090724     0.263344  89.27 0.0008805088    1.238    0.192
       123 -10.5947     88.8329    114.9736   6.5074727006e+01   4.1651447432e+01     0.403064    0.1967272  52.16  0.001424952    2.513    0.602
       124 -11.9002    154.3995     63.4080   3.3421102157e+01   3.7815142292e+01    0.5957227    0.4979734 -21.60 0.0009498789    1.361    0.265
       125 -10.3839    151.0491     73.2107   3.6895833635e+01   3.6982085711e+01    0.2481536    0.1942984 -39.13 0.0005989924    1.244    0.196
       126  -9.7573    171.3435    113.8778   4.3749718406e+01   2.5209302028e+01    0.2082146    0.1247659 -30.29 0.0005289004    1.767    0.434
       127 -11.1262    215.6405     43.3973   2.0429107669e+01   2.7141849758e+01    0.2661094    0.2190743 -30.20 0.0005946375    1.305    0.234
       128 -11.1457    134.0901    113.1828   5.1700527786e+01   3.3031323024e+01    0.2425535    0.2138811  -5.49 0.0007318298    1.290    0.225
       129  -9.2842    210.9540    112.0000   3.6686616864e+01   1.8035566153e+01    0.1936548   0.07623903  51.93 0.0008102878    2.997    0.666
       130 -11.2456     63.0135    110.0161   7.2852147792e+01   4.7278977136e+01    0.2537308    0.1831328  68.88 0.0008261095    1.696    0.410
       131 -10.6113     97.0091    109.4991   6.1081079981e+01   4.1432014184e+01    0.2347448    0.1541048  39.37 0.0004405788    1.545    0.353
       132 -11.9558    235.1995     51.2148   2.0525214989e+01   2.2425829086e+01    0.2360805    0.2142311  66.33 0.0003352894    1.396    0.284
       133 -12.7805    234.5140     46.2857   1.9519971997e+01   2.3167089988e+01    0.3915657    0.2412862 -66.41  0.001498513    1.589    0.371
       134 -11.9351    223.9774     41.9639   1.9404785925e+01   2.5683592337e+01    0.5890924    0.3229743  49.00  0.002622879    2.558    0.609
       135 -12.9354    220.6087     37.9484   1.8769297880e+01   2.6829423802e+01    0.3531145    0.3260994 -88.77  0.000377168    1.258    0.205
       136 -11.9612    176.6169     70.2972   3.1714738365e+01   3.1635339974e+01    0.6000808    0.2958716 -56.06 7.574931e-05    2.346    0.574
       137 -13.7936    203.2934     61.6240   2.5989965691e+01   2.7218926474e+01    0.8402472    0.6638888 -33.96  0.004276435    1.231    0.188
       138 -11.9103    166.1528     65.7492   3.2111908539e+01   3.4709695237e+01    0.6678262    0.5550079  62.87  0.003748534    1.260    0.206
       139 -11.4981    214.0553     66.3357   2.5905498515e+01   2.4400512496e+01      0.24369    0.1950202 -86.43  0.001021439    1.351    0.260
       140 -11.0206    183.4424     69.0092   3.0375253229e+01   3.0336101800e+01    0.2506605     0.214492  39.91 0.0004774303    1.414    0.293
       141 -11.4526    182.6818     62.5030   2.8784109674e+01   3.1482990528e+01    0.5292778    0.2470488 -53.68  0.001721334    2.276    0.561
       142 -11.5508    226.7139     66.3447   2.4591753663e+01   2.1994848049e+01    0.2128923    0.2036153  65.13  0.001524713    1.305    0.234
       143 -11.0686    248.9275     60.9547   2.1455065367e+01   1.8786695190e+01    0.2892499    0.1783838 -62.69  0.001271757    1.618    0.382
       144 -11.5297    248.4083     56.0607   2.0493844118e+01   1.9493316415e+01    0.2938959    0.2808422  27.02  0.002282898    1.455    0.313
       145 -11.9106    127.2020     58.8155   3.7367002422e+01   4.5088541065e+01    0.5279016    0.2868869  40.66  0.002133002    2.240    0.554
       146  -9.5385    161.6834     59.0256   3.0928288107e+01   3.6784452121e+01     0.248414    0.1495267 -59.91  0.001127618    1.818    0.450
       147 -11.2723    161.7151     54.6939   2.9677039601e+01   3.7424827681e+01    0.5458406      0.35471 -54.05    0.0018033    1.501    0.334
       148 -10.2045    108.2966     55.5002   4.0804038476e+01   5.0202135766e+01    0.4551748    0.1868941 -44.28  0.001662744    2.513    0.602
       149  -8.6127    164.2347     47.9933   2.7371562015e+01   3.7790805410e+01    0.7863884    0.3513345  73.12  0.001986418    2.555    0.609
       150 -11.2417    173.8461     53.7964   2.7657593077e+01   3.4736912738e+01    0.4379438    0.3173479 -63.81  0.001226833    1.352    0.260
       151 -12.1255    161.0143     38.0892   2.4933827315e+01   3.9884855874e+01    0.6402486    0.4906741  86.36  0.003590932    1.268    0.211
       152 -11.7459    172.9454     44.9065   2.5323810335e+01   3.6176651317e+01    0.4979414     0.436744  45.94  0.002293238    1.363    0.266
       153 -10.1711    167.5170     42.5171   2.5354863842e+01   3.7762307582e+01    0.2335322    0.1971289 -65.00  0.000664335    1.067    0.063
       154 -10.4966    174.1663     39.7991   2.3758071771e+01   3.6565842235e+01    0.2325073    0.1927346 -48.90 0.0003577784    1.114    0.102
       155 -11.5080    178.0575     38.1109   2.2841272667e+01   3.5885070009e+01    0.3276556     0.274498  13.54  0.000729777    1.650    0.394
       156 -10.9923    100.4759     53.7716   4.2318386856e+01   5.2350618908e+01    0.6174282    0.2852266  51.09  0.002430601    2.079    0.519
       157 -13.8675    192.4919     84.4516   3.2969421740e+01   2.6003370446e+01    0.9274532    0.6331839  68.19  0.004924548    1.696    0.410
       158 -10.5464    133.0911     53.3813   3.4332758922e+01   4.4523061012e+01    0.3031014    0.2815576  41.35  0.001285821    1.184    0.156
       159 -10.2119    137.6145     52.6869   3.3216878524e+01   4.3523933716e+01    0.2876461    0.2339768  89.48  0.000408704    1.263    0.208
       160 -10.9338    179.3997     51.9899   2.6429243265e+01   3.3729866306e+01    0.3387433    0.2135428  59.34  0.001464008    1.682    0.406
       161 -11.2825     90.5081     51.1363   4.4294915680e+01   5.5118136314e+01    0.2463621    0.2225346  49.68  0.000300277    1.073    0.068
       162  -9.3127    245.2709     50.2947   1.9545306157e+01   2.0750266822e+01   0.09984383   0.08523537 -13.20 0.0001734351    1.518    0.341
       163 -11.5983    248.2920     46.9504   1.8637270573e+01   2.0637178605e+01    0.2901881    0.1831884 -54.44 0.0002973354    1.290    0.225
       164 -11.4347    247.4664     43.5152   1.7991868545e+01   2.1193673462e+01    0.3278842    0.2178377 -60.17  0.001301925    1.303    0.232
       165 -10.9011     99.2036     47.8191   4.0425398538e+01   5.3639193272e+01    0.3642102    0.2809755  20.08  0.001492389    1.619    0.382
       166 -10.3902    240.8512     47.8447   1.9366364060e+01   2.1829666646e+01    0.1586846    0.1310215 -44.18 0.0002565487    1.133    0.118
       167 -10.3442    181.0242     46.8010   2.4836313166e+01   3.4074849077e+01    0.3380969    0.2175255  42.53  0.001693232    2.055    0.513
       168 -10.4361    142.5743     46.1894   3.0231488571e+01   4.3266922825e+01     0.388629    0.2398655  36.86  0.001450744    2.173    0.540
       169 -11.5025    148.4568     39.3875   2.7124956571e+01   4.2758356152e+01    0.5522192    0.3751723 -36.75  0.002847596    1.455    0.313
       170  -9.4605    120.3412     44.0679   3.3820581502e+01   4.9065483702e+01    0.4476842    0.2228942 -60.85  0.001597302    3.066    0.674
       171  -9.7134    105.5185     43.8294   3.7209287303e+01   5.2742931492e+01    0.3349057    0.2273433 -26.67 0.0009481554    1.645    0.392
       172 -10.1029     90.9661     38.9972   3.9265111372e+01   5.6964451401e+01    0.2860827    0.1896649 -72.63  0.001034993    2.243    0.554
       173 -10.1194    136.2633     42.6434   3.0196003184e+01   4.5321316284e+01    0.2798943    0.2210564 -51.94  0.001043512    1.241    0.194
       174 -11.1239    132.3427     40.0307   3.0034232504e+01   4.6654009840e+01    0.5529903    0.2499872  59.74    0.0018732    2.072    0.517
       175 -10.8902    241.1426     39.8443   1.7667165757e+01   2.2746537514e+01    0.2637957    0.1425492 -31.42 0.0006508727    1.674    0.402
       176 -11.4840    127.8772     45.2384   3.2660040592e+01   4.7029377261e+01     0.590484    0.3790746  89.86  0.002640903    1.947    0.486
       177 -10.1288    100.0473     40.7082   3.7422559426e+01   5.4537018933e+01    0.3454388    0.2352275  69.06  0.001656353    1.544    0.352
       178 -10.6088    236.2112     39.3094   1.7899583617e+01   2.3704007500e+01    0.3605228    0.2639636  -4.15   0.00220393    2.118    0.528
       179 -10.1510    233.4225     36.2997   1.7452074017e+01   2.4576526495e+01    0.2310267    0.1073906 -40.10  0.000715089    1.639    0.390
       180 -10.3200    249.8490     38.2408   1.6760479966e+01   2.1405112090e+01    0.1887713    0.1386388 -53.45 0.0006026769    1.054    0.051
       181  -9.4056    125.3394     36.3092   3.0058879868e+01   4.8900749451e+01    0.2118351    0.1320821  49.75 0.0007538193    1.640    0.390
       182  -9.8216    122.7977     34.0642   2.9748124439e+01   4.9830640470e+01     0.320411    0.1540873 -45.44  0.001064479    2.143    0.533
       183 -10.9269    110.8621     34.7885   3.2486524969e+01   5.2715753782e+01     0.460847    0.2956355  15.68 0.0008943652    2.505    0.601
       184  -9.3460    106.3589     35.2868   3.3711316460e+01   5.3764085199e+01    0.1489726    0.1036319  34.41 0.0002717802    1.681    0.405
       185  -9.9981    152.1917     33.8925   2.4873866399e+01   4.2551016164e+01    0.1977197    0.1596025 -67.21 0.0003577065    1.161    0.139
       186 -10.2477    132.0304     34.1297   2.8085715086e+01   4.7511339663e+01    0.2178476    0.1641327 -69.65 0.0004698762    1.371    0.271
       187 -11.5155     92.2964     33.3733   3.6532672725e+01   5.7456117337e+01    0.3885279    0.2863779  44.58 0.0009393936    1.331    0.249
       188 -10.4343     74.9242     33.6823   4.2074211048e+01   6.1458321220e+01    0.2853489    0.2117724  54.50 0.0009183775    1.299    0.230
       189 -10.9295    247.1688     32.7822   1.5818692966e+01   2.2501470920e+01    0.1759701    0.1097674 -48.97 0.0002716253    1.190    0.160
       190 -10.5889    195.9183    107.7285   3.8002571852e+01   2.1494937206e+01    0.2827143    0.1777996 -45.52  0.001364058    1.442    0.307
       191 -10.6219    169.2390     32.8372   2.2391226331e+01   3.8589805438e+01    0.3278688     0.186186  56.41  0.001617654    1.873    0.466
       192 -10.1703    239.7291     30.4487   1.5794187407e+01   2.4095640359e+01    0.3586382    0.1869365  74.94  0.002129773    2.142    0.533
       193 -10.6061    162.6727     29.5885   2.2228833353e+01   4.0539806519e+01    0.3521112    0.1878352 -50.24 0.0007326417    1.762    0.433
       194 -10.1133    104.8465     29.7283   3.1871583291e+01   5.4868629677e+01    0.2780088    0.1626985 -47.97  0.001273996    1.861    0.463
       195 -11.1618    150.8473     22.1870   2.1425535714e+01   4.4255014917e+01    0.3574365    0.2786689  54.09  0.001091138    1.390    0.281
       196 -11.2807    149.1983     28.1947   2.3513662136e+01   4.3975650484e+01    0.2771405    0.2569526  78.68 0.0006539599    1.113    0.102
       197 -11.1247    146.8224     25.4288   2.2959214964e+01   4.4881933104e+01    0.2833447    0.2163099  51.65 0.0007820451    1.424    0.298
       198 -10.4777    138.1448     26.9189   2.4668941129e+01   4.6864567770e+01    0.6065109    0.2795286 -67.73  0.002182755    3.286    0.696
       199  -9.8776    132.8253     27.0453   2.5530932060e+01   4.8180500641e+01     0.207881     0.162442 -68.95 0.0003643084    1.268    0.212
       200 -11.8396     86.3227     28.2770   3.6012845318e+01   5.9571228192e+01    0.2683639    0.2420889  76.06 0.0005397534    1.132    0.116
       201 -11.1528    161.1537    106.2799   4.3873069563e+01   2.8726010959e+01    0.3949695    0.1764861 -53.22  0.001407374    2.743    0.635
       202  -9.9226    123.5176     27.4344   2.7231409994e+01   5.0473253367e+01    0.3061963    0.2286103 -53.36   0.00163802    1.361    0.265
       203  -7.3901    112.9030     27.4790   2.9259707389e+01   5.3135956288e+01    0.4111657    0.2248762 -68.09  0.001645512    2.639    0.621
       204  -9.4969    167.4510     26.4101   2.0763820060e+01   3.9773806033e+01    0.1358964    0.1104221 -68.70  8.90807e-05    1.089    0.082
       205 -12.3086     50.5539     86.3185   7.1865030607e+01   5.5194065492e+01    0.5822805    0.2979419  38.91  0.001394392    1.997    0.499
       206 -10.7050    176.3028     24.1026   1.9205275807e+01   3.7964731559e+01     0.283247    0.1840962 -34.48  0.001288361    1.490    0.329
       207 -10.0176    179.6239     21.2082   1.8108589462e+01   3.7521979955e+01    0.2558739    0.2178119  17.18  0.001180362    1.626    0.385
       208 -10.1976    118.2616     22.8601   2.6491672902e+01   5.2325916863e+01     0.432864    0.2477587  -3.18  0.001812853    2.784    0.641
       209  -9.4364    244.4942     19.4799   1.3261502956e+01   2.4448789668e+01    0.2410339     0.122819 -50.71   0.00120308    1.455    0.312
       210 -10.7618    246.1979     23.3416   1.3955628164e+01   2.3727670475e+01    0.2400723    0.1541473 -80.71 0.0008194611    1.548    0.354
       211 -11.5198    241.4626     22.6926   1.4081261942e+01   2.4646535681e+01    0.2513678    0.2037677 -74.03 0.0009820006    1.208    0.172
       212 -10.2589     98.1929     21.7590   3.0125709638e+01   5.7477415381e+01    0.2683745    0.2373058  19.30  0.001327007    1.264    0.209
       213 -10.3418    163.4991     20.9025   1.9600144877e+01   4.1330548473e+01    0.1818791    0.1554918 -80.09 0.0003082441    1.039    0.037
       214 -11.2886    130.3293     19.5038   2.3308255350e+01   4.9650809528e+01    0.3023961    0.2298544  66.91 0.0005401234    1.227    0.185
       215  -9.3788    185.1418     18.8516   1.7004898283e+01   3.6525013038e+01    0.1531212    0.1339926  71.57 0.0003090169    1.275    0.216
       216  -9.5803    103.1026     19.4762   2.8098897461e+01   5.6509272346e+01    0.1891245    0.1637948  73.41 0.0006610396    1.067    0.063
       217  -9.7790    102.9198     15.6648   2.6563195985e+01   5.6955824631e+01    0.2034999    0.1646737  49.61  0.001151904    1.210    0.174
       218 -10.2642    210.6121    105.4704   3.5286516269e+01   1.9142811166e+01    0.2530017    0.2189801  56.58  0.001172576    1.364    0.267
       219 -11.4364    155.8847    105.3316   4.4712574547e+01   3.0018333757e+01    0.2651161    0.1964524 -51.72 0.0006503457    1.336    0.251
       220 -10.5310    184.1016    104.0537   3.9070976090e+01   2.4425068706e+01    0.3917976    0.1852464 -41.72  0.001685068    1.886    0.470
       221 -10.6074    112.0407     17.0999   2.5411891306e+01   5.4515486952e+01    0.2066869    0.1959003 -35.85 0.0003631255    1.159    0.137
       222 -10.8450    144.8575    102.8727   4.6461866509e+01   3.2862296417e+01    0.3734212    0.2872244  15.27  0.001762326    1.731    0.422
       223  -9.6416    103.2683    104.3901   5.7792763913e+01   4.1382367239e+01    0.1605565    0.1216384 -18.14 0.0006985679    1.713    0.416
       224  -9.2624     94.2817     15.6320   2.8377716788e+01   5.9110944010e+01    0.1408255   0.09755968 -62.34 0.0007015018    1.691    0.409
       225 -11.6071     69.1048    103.1025   6.8924964187e+01   4.8074333437e+01    0.2905107    0.2167893 -63.72  0.001370258    1.365    0.267
       226 -12.8338    118.0803     95.2763   5.0982559440e+01   4.0271909785e+01    0.7181674     0.462613 -70.68   0.00213234    2.276    0.561
       227 -10.7035    109.5012    102.9976   5.5566158868e+01   4.0415823564e+01    0.2423197     0.151483 -46.72 0.0006130628    1.579    0.367
       228 -10.4776    235.5989    102.3870   3.1386592030e+01   1.5315809990e+01     0.254352    0.1490379  58.32  0.001028184    2.177    0.541
       229 -10.0726     51.8921     12.7997   4.0114420481e+01   6.9262032956e+01    0.1858793    0.1520225  32.65  0.000279249    1.112    0.100
       230 -10.2212    165.1491    101.8560   4.1959465907e+01   2.8714469307e+01    0.2261604    0.1910471 -62.24 0.0007231759    1.227    0.185
       231 -11.0163     95.8442    101.5573   5.9314948584e+01   4.3533366461e+01    0.3398937    0.2437002 -21.71  0.001040276    1.853    0.460
       232 -12.5436     85.7080     98.9277   6.1916082593e+01   4.6131142865e+01    0.6902529    0.3954393  35.98  0.002833288    1.818    0.450
       233  -9.5442    210.5916     99.5362   3.3956289888e+01   2.0087605801e+01    0.1324795    0.1094085 -43.42 0.0008019519    1.044    0.042
       234 -10.6735    170.2724     97.7187   3.9939950449e+01   2.8386741587e+01    0.3173706    0.2795385 -52.80   0.00161845    1.077    0.071
       235  -9.3626     45.2660     10.3204   4.1573002281e+01   7.0922326083e+01    0.1306552   0.09059903  18.54 0.0006959046    1.558    0.358
       236 -10.0124    159.1135     99.1715   4.2455062096e+01   3.0499687246e+01    0.1954449    0.1890263  82.06 0.0003486453    1.083    0.077
       237 -12.1865    153.9138     95.8888   4.2645329584e+01   3.2244651954e+01     0.712195    0.3939098  49.13   0.00191942    1.900    0.474
       238 -12.1278    106.3753     97.1378   5.4836784075e+01   4.2380572182e+01    0.4150617    0.3293385 -23.55 0.0008561038    1.481    0.325
       239 -12.2779    107.9164     92.2219   5.2954698399e+01   4.3131890408e+01    0.5937948    0.2791009  40.37  0.002066218    2.272    0.560
       240  -9.5962    244.6591     98.1484   2.9486161379e+01   1.4468392721e+01     0.167467   0.09233132 -29.98 0.0005001858    1.601    0.375
       241 -11.2514    200.0160     96.4821   3.4755972526e+01   2.2568806748e+01    0.3634577    0.2165725 -53.87 0.0009665707    1.746    0.427
       242  99.0000    145.3176     53.3179   3.1989491709e+01   4.1553008418e+01     1.613127    0.8859409  31.46  0.005933119    3.300    0.697
       243 -13.0636    147.5978     84.0717   4.0701375096e+01   3.5853727869e+01     1.668513    0.9438308 -20.73  0.006222618    2.797    0.642
       244 -12.8056    136.8787     81.3044   4.2221938227e+01   3.8824251766e+01    0.9784461    0.4624476 -42.18 0.0007733303    2.041    0.510
       245 -12.4924     55.2292     71.7872   6.5446417142e+01   5.7976323363e+01    0.5571786    0.3843667 -62.16 0.0003100325    1.586    0.370
       246 -11.7730    144.8403     68.5905   3.6745490841e+01   3.9223910992e+01    0.8848642    0.7509463 -78.31  0.004598232    1.217    0.178
       247 -14.0511    126.5732     90.9511   4.7510468353e+01   3.9291028071e+01      1.25612     1.018227  84.01   0.00212675    1.459    0.314
       248 -12.0289    134.4087     71.1086   3.9695219785e+01   4.1257464909e+01     1.019331    0.5840812  66.87  0.003950972    2.031    0.508
       249 -11.0017    141.0048     61.8894   3.5461276377e+01   4.1250535618e+01    0.4674647    0.2217122  51.18 0.0003450517    2.151    0.535
       250 -13.1687    124.7048     83.1600   4.5675179115e+01   4.1267845209e+01     1.266042    0.8088382  19.37  0.003620374    2.794    0.642
       251 -13.1250    113.6912     81.1715   4.7957574144e+01   4.4168380429e+01     1.257828    0.8961586  19.67  0.005012969    1.995    0.499
