#   1 NUMBER                 Running object number                                     
#   2 MAG_AUTO               Kron-like elliptical aperture magnitude                    [mag]
#   3 X_IMAGE                Object position along x                                    [pixel]
#   4 Y_IMAGE                Object position along y                                    [pixel]
#   5 X_WORLD                Barycenter position along world x axis                     [deg]
#   6 Y_WORLD                Barycenter position along world y axis                     [deg]
#   7 A_WORLD                Profile RMS along major axis (world units)                 [deg]
#   8 B_WORLD                Profile RMS along minor axis (world units)                 [deg]
#   9 THETA_WORLD            Position angle (CCW/world-x)                               [deg]
#  10 FWHM_WORLD             FWHM assuming a gaussian core                              [deg]
#  11 ELONGATION             A_IMAGE/B_IMAGE                                           
#  12 ELLIPTICITY            1 - B_IMAGE/A_IMAGE                                       
         1 -13.3750    221.0049     60.2415   1.5993292890e+01   2.2963753291e+01     1.261709     1.049982 -58.51  0.007637446    1.085    0.079
         2 -13.4309    241.1143     47.8695   1.1007079767e+01   2.0434051387e+01     1.325078    0.9531276  46.94   0.00787263    1.792    0.442
         3 -10.5548      3.6674      9.4744   5.9490244552e+01   7.2244789410e+01    0.1905364    0.0828061 -41.77  0.001091123    1.991    0.498
         4 -11.7968      2.0028    218.2404   9.5645979216e+01   2.7876947229e+01    0.6244304    0.1770747 -76.29  0.002444112    2.969    0.663
         5 -12.9861     12.8781    241.6553   9.4956279072e+01   2.2198074112e+01     1.473773     1.085883  84.42   0.01103335    1.143    0.125
         6 -14.1837      7.1938    183.0081   9.2284177696e+01   3.5026620863e+01     1.578442    0.8244899 -82.34  0.002969139    1.617    0.382
         7 -15.4205     16.8633    169.9664   8.8954490269e+01   3.7200211541e+01     9.046795     3.542939  86.70   0.03427416    3.557    0.719
         8 -13.2745     10.1688    206.8585   9.3367304346e+01   2.9527147450e+01     1.041795    0.6916828  41.72  0.003206383    1.519    0.342
         9 -13.6100      6.6824    222.4645   9.5008934364e+01   2.6590781048e+01     1.500274    0.9768055  23.60  0.007863645    2.049    0.512
        10  -8.4299     99.4108    181.1912   7.0005159141e+01   2.4183859817e+01    0.1871369    0.1354208 -74.31 0.0005511578    1.521    0.342
        11 -11.8218     35.5032    166.5855   8.4026127912e+01   3.6231629491e+01    0.4110433    0.3147082 -40.51  0.001009818    1.541    0.351
        12 -11.6876     43.8300    161.4465   8.1249594252e+01   3.6574319233e+01    0.3028217    0.2721044 -12.33 0.0005219452    1.387    0.279
        13 -12.6899    238.8580    158.0417   3.4953199011e+01   3.3085904421e+00     1.071361     0.936015  43.76   0.00661659    1.349    0.259
        14 -11.9925     66.6264    148.8837   7.3168244512e+01   3.6836357621e+01    0.5788932    0.4160417  89.15  0.001310862    1.614    0.380
        15 -13.1124     68.2845    143.8117   7.1802118035e+01   3.7849749517e+01     1.448499    0.8734352  81.11  0.003292897    2.648    0.622
        16 -13.0073     42.1195    148.9831   7.9979527630e+01   3.9783726668e+01    0.5004598    0.4109479   2.18  0.001203161    1.539    0.350
        17 -12.1192     72.5144    134.4962   6.8804971393e+01   3.9525997658e+01    0.5835251    0.4487916 -52.54 0.0005800654    1.213    0.176
        18  -9.2854     89.8809    134.8601   6.3830267861e+01   3.6766627375e+01    0.2534655    0.1925351 -41.47 0.0003820881    1.321    0.243
        19 -10.3578     85.6082    137.5809   6.5632074490e+01   3.6801362300e+01    0.3429772    0.3068693  -1.33 0.0009484207    1.257    0.204
        20  -9.6076    105.8451    130.6010   5.8333020935e+01   3.5008716536e+01    0.4160444      0.29422 -64.11  0.001425946    1.580    0.367
        21  -9.6645    101.5742    127.9859   5.8933722135e+01   3.6391570423e+01    0.4182059    0.2534674  21.84  0.001461078    2.162    0.537
        22 -10.9216     57.6621    153.3590   7.6383175059e+01   3.6909324036e+01    0.2966483     0.254591  84.42  0.000431381    1.159    0.137
        23  -8.5130    224.0275    207.0264   4.7278988515e+01  -2.3516370145e+00    0.1541751    0.1279526  -7.33 0.0009576875    1.037    0.035
        24 -10.1224     87.7775    123.2095   6.1847675997e+01   3.9884818891e+01    0.2924815    0.2525292  17.83    0.0006013    1.254    0.202
        25  -8.4650    110.3468    123.3081   5.5328500946e+01   3.5859220644e+01    0.1582591    0.1204498  -7.89 0.0007043888    1.703    0.413
        26 -11.3995     52.6296    117.6526   7.1466799655e+01   4.6206763541e+01    0.6331342    0.2419796 -70.30  0.001961394    4.167    0.760
        27  -9.2428    101.1488    117.0177   5.6408747954e+01   3.9007268882e+01    0.2162377    0.2068942 -21.64 0.0003947647    1.029    0.028
        28  -9.7254    231.3424    114.0416   2.6717141053e+01   1.2217499909e+01     0.269538     0.217462 -55.47 0.0008992156    1.247    0.198
        29  -9.4669    204.2177    110.8456   3.0487008241e+01   1.8340843516e+01    0.3628569    0.2262974  36.97   0.00163892    1.904    0.475
        30  -8.3450     63.4266    110.4524   6.6455227063e+01   4.6542636642e+01    0.1404465    0.1285081 -48.45 7.932193e-05    1.027    0.026
        31 -11.0717    242.7137     93.4415   2.0567208865e+01   1.3395775485e+01    0.2719342    0.1994007 -15.29  0.001466437    1.746    0.427
        32  -9.9619     52.6347     90.5195   6.5254994304e+01   5.2480002456e+01    0.2588525    0.2039925 -52.87 0.0009381166    1.203    0.169
        33 -10.2053    168.5523     89.4778   3.1925336850e+01   3.0233022860e+01    0.2662603    0.2052843  15.66 0.0008857124    1.684    0.406
        34 -10.0887    184.1872     77.5282   2.5772464520e+01   2.8647783431e+01    0.2778791    0.1986396 -14.03  0.001302999    1.848    0.459
        35  -8.7525     40.3567    246.2591   9.0261667235e+01   1.8353447644e+01    0.2404964    0.1162585  88.18 0.0009975353    2.261    0.558
        36  -9.2710     39.3481    242.7031   9.0197258275e+01   1.9153192058e+01     0.353841    0.1071067 -78.30  0.001426004    3.985    0.749
        37  -9.3367     24.3360     65.4188   6.9299757205e+01   6.0760823037e+01    0.2864791    0.1657479  41.26  0.001506451    2.313    0.568
        38 -10.6297     13.3228     60.1865   7.2443493613e+01   6.2667136560e+01     0.244579     0.176796 -43.30 0.0004428054    1.101    0.092
        39  -8.7587     73.1790     43.1681   4.2701956149e+01   5.8426721842e+01    0.1665088    0.1574096 -37.05 0.0006859619    1.325    0.245
        40  -9.4973     86.0274    205.4971   7.6771548334e+01   2.0773712300e+01    0.2087276    0.1236153  38.18  0.001036449    1.601    0.375
