#   1 NUMBER                 Running object number                                     
#   2 MAG_AUTO               Kron-like elliptical aperture magnitude                    [mag]
#   3 X_IMAGE                Object position along x                                    [pixel]
#   4 Y_IMAGE                Object position along y                                    [pixel]
#   5 X_WORLD                Barycenter position along world x axis                     [deg]
#   6 Y_WORLD                Barycenter position along world y axis                     [deg]
#   7 A_WORLD                Profile RMS along major axis (world units)                 [deg]
#   8 B_WORLD                Profile RMS along minor axis (world units)                 [deg]
#   9 THETA_WORLD            Position angle (CCW/world-x)                               [deg]
#  10 FWHM_WORLD             FWHM assuming a gaussian core                              [deg]
#  11 ELONGATION             A_IMAGE/B_IMAGE                                           
#  12 ELLIPTICITY            1 - B_IMAGE/A_IMAGE                                       
         1 -11.9432    223.3773    151.2313   9.6133779181e+01   9.4489120365e+00      3.75572     1.397682 -17.30   0.01065073    6.099    0.836
         2 -14.5694    223.7081     95.8498   8.3128895973e+01   1.6945778383e+01     5.706349     2.173566 -34.68   0.02160474    2.460    0.593
         3 -12.7804    226.7950    166.9047   9.8693397714e+01   6.8627815726e+00     3.051776    0.8264712 -25.41   0.00946412    5.576    0.821
         4 -12.9171    230.3107    191.8835   1.0267629639e+02   3.3987606662e+00     4.638943    0.7673011 -27.99   0.01002483   14.239    0.930
         5 -15.0537    246.4898     53.8256   6.8738924394e+01   1.7289150371e+01     7.338463     1.376115 -29.28    0.0222403    3.846    0.740
         6 -14.0180    248.1855    129.4283   8.7287231225e+01   7.5920919782e+00      3.86285    0.7008594 -28.60   0.01126779    5.075    0.803
         7 -10.3117     77.9385     10.9095   8.7271426116e+01   6.3220573623e+01    0.3387157    0.2341096  51.05 0.0009229188    1.690    0.408
         8 -10.2281    110.7899      4.8170   7.4532154551e+01   5.6935715633e+01    0.3094249    0.2226553 -47.95            0    1.723    0.420
         9  -9.7885     50.9212      3.8002   9.4250253602e+01   6.8820956109e+01    0.2085268    0.1523746 -21.58 0.0003090004    1.129    0.115
        10  -8.1812    153.3115      3.3241   6.5491757121e+01   4.6359578576e+01    0.1594253   0.09896307  32.48 0.0006842698    1.657    0.396
        11  -8.4535     14.9824      1.9852   1.1208952339e+02   7.3293876751e+01    0.1400216    0.1038254 -34.39 0.0009544036    1.004    0.004
        12  -8.5547    168.3107      1.6792   6.2682937587e+01   4.2520624871e+01    0.1508663    0.1051976 -55.69  0.000703642    1.647    0.393
        13  -9.6781    201.8994    231.8260   1.1345708885e+02   3.5288936111e+00    0.1838457    0.1498837 -23.60 0.0009980127    1.543    0.352
        14 -11.2135    193.9250    247.4556   1.1670098193e+02   3.1050031684e+00    0.3704915    0.2991186 -24.17  0.002861558    1.615    0.381
        15  -9.7286    163.6671    246.6363   1.2141298952e+02   7.4306674747e+00    0.2385147    0.1384306 -54.27  0.001619342    2.624    0.619
        16  -9.3464    170.5003    234.4537   1.1892632981e+02   7.8298703718e+00    0.2062841    0.1072896 -38.86  0.001291316    2.562    0.610
        17  -9.8927    167.8421    250.0762   1.2111687575e+02   6.4759021500e+00    0.2554405    0.1091352  36.87 0.0006220299    1.770    0.435
        18 -11.1218    169.7914    242.5025   1.1997259210e+02   7.0258445515e+00    0.4195686    0.2927888 -47.12  0.002850431    2.006    0.501
        19  -9.3586    150.9210    249.8585   1.2378212804e+02   8.8310169915e+00    0.1574873     0.111341  31.07  0.001016108    1.276    0.216
        20 -10.3533    140.8043    248.7027   1.2528275693e+02   1.0341495539e+01    0.2399759    0.2098627 -78.72  0.002102009    1.544    0.352
        21 -10.1683    198.8888    226.3249   1.1320747972e+02   4.5472183704e+00    0.2886647    0.2092907 -28.79  0.001362349    1.708    0.415
        22  -9.6941    201.5618    220.8558   1.1200858082e+02   4.7335398140e+00    0.2196147    0.1260018 -31.21  0.001389552    2.127    0.530
        23 -13.0851    247.9000    214.2883   1.0357442107e+02  -1.4936487620e+00     1.665272    0.4451703 -26.30  0.007285367    4.294    0.767
        24  -9.7590    223.0047    226.8850   1.0938880747e+02   9.4052801791e-01    0.1939477     0.160688   6.06 0.0007330519    1.263    0.208
        25  -9.0731    139.3624    235.4731   1.2420747147e+02   1.2156203436e+01     0.169028   0.08829457 -34.76 0.0009529508    3.346    0.701
        26  -8.9501    145.3284    231.3249   1.2277062050e+02   1.1839030234e+01     0.104265   0.07432096  18.90 0.0007049947    1.698    0.411
        27 -10.0830    235.5144    228.3736   1.0764059432e+02  -9.9078735348e-01    0.2648053    0.1754292 -19.62  0.001316389    1.689    0.408
        28  -9.3798    228.9749    227.8270   1.0858197119e+02  -9.2303714442e-03    0.1529618     0.132873 -22.91 0.0009528374    1.623    0.384
        29 -10.0000    211.7162    226.9713   1.1120802719e+02   2.5817801662e+00     0.243155    0.1744861 -16.59  0.001429237    1.595    0.373
        30 -10.0324    163.0854    227.0285   1.1927921375e+02   9.7948706471e+00    0.2096288    0.1678235 -41.06   0.00144922    1.630    0.386
        31 -10.4274    206.5844    225.0141   1.1176684011e+02   3.5402683430e+00     0.297048    0.2085925 -15.86  0.001849961    1.646    0.392
        32  -9.9727    210.5603    218.0479   1.1011883386e+02   3.6722315445e+00    0.3371827    0.1691245 -15.64  0.001648226    2.941    0.660
        33  -9.9940    190.2865    225.7676   1.1455333082e+02   5.8912520435e+00    0.2389063     0.152836 -30.16  0.001524228    1.957    0.489
        34  -9.6078    170.7929    215.5973   1.1651179004e+02   1.0051601850e+01    0.4417961    0.1819014 -29.67   0.00188128    4.692    0.787
        35  -9.5478    180.5134    222.2902   1.1573072712e+02   7.7572547053e+00    0.2194489    0.1102671 -35.70  0.001283053    2.559    0.609
        36  -9.6453    182.9385    206.6993   1.1315436328e+02   9.2706846696e+00     0.234148     0.166247  26.68  0.001159265    1.230    0.187
        37 -10.2143    176.1143    197.4587   1.1300267596e+02   1.1565587625e+01    0.3354957     0.176036 -42.10  0.001486619    2.312    0.568
        38  -9.9481    179.3722    216.4088   1.1513838428e+02   8.6322636086e+00    0.2157467    0.1929067 -46.24  0.001060362    1.512    0.339
        39 -11.0344    176.4966    209.9056   1.1474095937e+02   9.8837914453e+00    0.4057049    0.3459585 -41.25  0.002078926    1.503    0.335
        40 -10.9454    172.9963    204.1098   1.1453979151e+02   1.1184705228e+01    0.4404798    0.2475055 -30.32  0.002385383    2.337    0.572
        41 -10.1009    178.8705    203.6556   1.1342818336e+02   1.0305612440e+01    0.2706266    0.2240613 -41.24  0.001275914    1.527    0.345
        42  -8.9940    148.0000    222.9346   1.2137426884e+02   1.2534960405e+01     0.147124   0.06448546 -49.34 0.0008037384    2.951    0.661
        43  -9.6880    186.0205    220.4137   1.1454878708e+02   7.1408934109e+00    0.2528377    0.1592558 -30.59  0.001657323    1.984    0.496
        44  -8.9603    174.5032    221.9828   1.1671043150e+02   8.7016435080e+00    0.1411607    0.1112823 -31.99   0.00103412    1.599    0.375
        45 -10.4188    193.3677    218.3460   1.1302437553e+02   6.2573142749e+00    0.3238387    0.2143557 -34.90   0.00218302    1.883    0.469
        46  -9.5264    205.2905    217.2938   1.1088002826e+02   4.5531987581e+00    0.2373476    0.1514535 -26.46  0.001568417    1.855    0.461
        47  -8.6958    204.5164    212.5042   1.1030540844e+02   5.1976121076e+00    0.1164541   0.08881699  27.85  0.000810394    1.017    0.017
        48  -9.2685    200.8321    215.2673   1.1133010039e+02   5.4585775968e+00    0.1646089    0.1482771 -27.47 0.0009038556    1.470    0.320
        49  -8.9882    185.5869    214.7447   1.1384223666e+02   7.8731725494e+00    0.1277559     0.111748 -47.85 0.0008422027    1.586    0.369
        50  -9.8483    154.3313    213.4093   1.1911487620e+02   1.2854968594e+01    0.1873687    0.1450511 -50.72  0.001327174    1.651    0.394
        51  -9.0245    208.4626    212.0476   1.0957623585e+02   4.6376439970e+00    0.1487264    0.1085364 -22.72 0.0008039069    1.574    0.365
        52  -9.7770    206.2118    207.5143   1.0926598414e+02   5.4924478208e+00    0.2749845    0.1778445 -15.26  0.001730818    1.799    0.444
        53  -9.0883    200.3938    210.3728   1.1068392967e+02   6.0791475495e+00    0.1814855    0.1071165 -25.14  0.000861701    2.037    0.509
        54  -9.0305    156.0000    206.9626   1.1798286962e+02   1.3476920506e+01    0.1598888   0.06755432 -46.68 0.0008023889    2.942    0.660
        55  -9.1286    197.3835    203.3738   1.1014000385e+02   7.3739440411e+00    0.2015819   0.09994005 -18.88 0.0009491659    3.183    0.686
        56  -9.5858    186.6801    202.8406   1.1192682810e+02   9.1565456745e+00    0.2195192    0.1797575 -50.46  0.001325728    1.693    0.409
        57  -9.3393    165.0073    200.4933   1.1546257654e+02   1.2948249951e+01     0.231295    0.1390496  -0.18  0.001039927    3.560    0.719
        58 -10.1734    184.2143    195.6736   1.1126953743e+02   1.0475688377e+01    0.3580815    0.2180848 -19.74  0.001994374    2.178    0.541
        59  -9.4268    185.4096    190.2874   1.1020119597e+02   1.0988900630e+01    0.2373562    0.1570531 -10.76  0.001171414    1.959    0.490
        60 -10.3665    170.1450    196.9852   1.1401641455e+02   1.2601892313e+01    0.2411397     0.177244 -37.63  0.001181219    1.631    0.387
        61  -9.2232    219.5764    194.4248   1.0490126684e+02   4.8419773003e+00    0.1875842    0.1107475 -33.06  0.001100842    1.960    0.490
        62 -10.4630      3.1143    194.0823   1.4456359243e+02   3.4294403680e+01     0.236543    0.1430454  33.71  0.001462292    1.841    0.457
        63  -8.6743    193.7587    193.9853   1.0929859283e+02   9.1197607209e+00    0.1370129    0.1005589 -28.09 0.0008531687    1.559    0.359
        64  -8.5734    190.0000    191.9310   1.0963824119e+02   1.0006576901e+01    0.1719692   0.06932215 -37.85  0.000797187    2.906    0.656
        65  -9.8962    172.3051    190.5259   1.1263963458e+02   1.3143296592e+01    0.2972294    0.1622486 -40.75  0.001242921    2.170    0.539
        66 -13.2510    217.8041    138.3680   9.4358193158e+01   1.2226292386e+01     3.161263     1.545857  -5.74   0.01065912    4.090    0.756
        67  -9.1366    198.5904    190.6782   1.0790271108e+02   8.7357928795e+00    0.2040986    0.1152263 -28.34  0.001125094    2.045    0.511
        68 -10.2352    179.2648    189.1359   1.1113802607e+02   1.2174042937e+01     0.360248    0.2076171 -23.97  0.001896247    2.319    0.569
        69  -9.1337    193.1780    187.8262   1.0839527783e+02   1.0008623855e+01    0.1769238    0.1532349  32.77 0.0007414264    1.146    0.127
        70  -9.7977    166.3435    185.6331   1.1298937448e+02   1.4840562255e+01    0.2143602    0.1547781 -35.86 0.0009062723    1.618    0.382
        71  -9.2385    173.4713    184.9669   1.1154339876e+02   1.3734591202e+01    0.1678505    0.1231755 -37.30  0.001029667    1.585    0.369
        72 -10.6675     12.9497    184.2951   1.4243087767e+02   3.5208358750e+01    0.2476368    0.1094093 -83.24  0.001580153    1.951    0.487
        73 -11.9595    236.8117    216.4476   1.0564479991e+02  -8.3337948928e-02    0.8542289    0.8306081 -77.25  0.006711907    1.946    0.486
        74  -9.5430    203.2186    183.3082   1.0583165100e+02   8.8892650148e+00    0.2357687    0.1606966 -29.64  0.000767695    1.631    0.387
        75 -10.0896    183.5634    182.3444   1.0923306379e+02   1.2382724219e+01    0.3238966    0.2121968 -26.33  0.001743551    1.778    0.437
        76  -8.9232    217.6734    183.1192   1.0327074402e+02   6.4675548332e+00    0.1631815    0.1035945 -14.56 0.0009326573    1.698    0.411
        77  -9.8153    210.9408    181.9616   1.0423350269e+02   7.7448354699e+00    0.2728795    0.1690389 -18.86  0.001543861    1.783    0.439
        78  -8.9118    197.4348    182.0044   1.0664054436e+02   1.0046389330e+01     0.171043    0.1196474 -29.05 0.0008919457    1.589    0.371
        79 -10.0019    176.5521    180.7861   1.1028026594e+02   1.3807865427e+01    0.3138477    0.1239158 -39.33  0.001398811    2.935    0.659
        80  -9.6042    190.9355    179.0057   1.0730259155e+02   1.1569633579e+01    0.2362305    0.1707134 -31.24  0.001427898    1.550    0.355
        81  -8.6300     37.4726    180.5404   1.3765461704e+02   3.3651285777e+01    0.1039614   0.08383892  74.82 0.0002100587    1.069    0.064
        82 -10.0146    224.8979    242.6343   1.1127104253e+02  -7.6629515557e-01    0.2338395    0.1655592 -12.92  0.001193394    1.592    0.372
        83  -9.6663    215.5490    172.9947   1.0179640905e+02   8.0694097030e+00    0.2349238    0.1425764 -26.70 0.0009794685    1.741    0.426
        84  -9.5878    197.6435    176.2607   1.0559163663e+02   1.0772201697e+01    0.2507889    0.1444717 -29.54  0.001049135    1.932    0.482
        85  -9.7619    210.7322    175.1698   1.0304598563e+02   8.6321604189e+00     0.263526    0.1654978 -27.63  0.001491903    1.706    0.414
        86  -9.7003    182.5100    175.1085   1.0818956027e+02   1.3587277390e+01    0.2893424    0.1259294 -38.06   0.00132973    2.607    0.616
        87  -8.9918    192.5620    172.7525   1.0589337296e+02   1.2145525775e+01    0.2160469    0.1222777 -28.51  0.001108907    2.006    0.501
        88  -9.7431    204.9549    168.4949   1.0283767661e+02   1.0519994486e+01    0.2909434    0.2210648 -27.44  0.001150883    1.420    0.296
        89  -9.3901    200.6681    170.9290   1.0407066530e+02   1.0956600242e+01    0.3100702    0.1801289 -25.65  0.001625606    1.915    0.478
        90 -10.3968    199.5934    164.4238   1.0304350285e+02   1.2040511834e+01    0.3882455    0.2305524 -35.19  0.001443124    1.840    0.456
        91  -9.1079    187.4984    172.0215   1.0670481323e+02   1.3146846693e+01    0.1777832    0.1255021 -31.95  0.001025513    1.568    0.362
        92  -8.9590    211.8468    168.8476   1.0166913732e+02   9.2476297312e+00    0.1563578    0.1443095 -17.45 0.0007641706    1.306    0.234
        93  -9.9479    178.7529    167.6691   1.0758035899e+02   1.5345995749e+01    0.3427394    0.1972469 -29.00  0.001727312    2.051    0.513
        94  -8.7374    184.6109    165.1740   1.0599824431e+02   1.4657987262e+01     0.178734    0.1201679 -21.61 0.0009587761    1.705    0.413
        95 -10.2097    212.6732    162.3711   1.0027264527e+02   9.9459961467e+00      0.40113    0.2144744 -26.73  0.001941015    1.983    0.496
        96  -9.6781    191.5923    164.8649   1.0461717074e+02   1.3433346281e+01     0.305376    0.1511555 -33.43  0.001448657    2.227    0.551
        97 -10.0438    197.2529    156.3091   1.0189371437e+02   1.3619466572e+01    0.3683062    0.2196332 -24.84  0.001858188    1.841    0.457
        98  -9.2140    187.5604    155.6495   1.0360507056e+02   1.5532533296e+01    0.2389604    0.1285823 -29.96  0.001029375    2.073    0.518
        99  -9.4705    216.0761    155.6745   9.8329948828e+01   1.0211108074e+01    0.2469252      0.17355 -16.24 0.0008674631    1.424    0.298
       100  -8.8251    179.4425    154.0413   1.0487020839e+02   1.7304964640e+01     0.190512     0.131144 -35.50  0.000889394    1.568    0.362
       101  -9.4146    196.6268    149.9085   1.0071395691e+02   1.4669467305e+01     0.282492    0.1269051 -33.43  0.001220382    2.362    0.577
       102  -9.2320    200.2275    144.7795   9.8961164696e+01   1.4730151073e+01    0.2358406    0.1620581 -32.29  0.001131606    1.519    0.342
       103 -10.8457    155.3142    143.3361   1.0769354496e+02   2.3645537724e+01    0.3847362     0.181448 -45.84   0.00158886    2.304    0.566
       104  -8.9297    194.4499    143.0032   9.9679848937e+01   1.6120207341e+01    0.2011907    0.1318221 -30.08 0.0009370099    1.581    0.368
       105  -8.9136    181.6006    141.7791   1.0193432073e+02   1.8830067999e+01    0.1897886    0.1291907 -46.85 0.0009524244    1.728    0.421
       106  -8.7311    203.4738    140.5447   9.7442958617e+01   1.4717151633e+01    0.1394835    0.1201913  15.06 0.0003312721    1.013    0.013
       107  -9.5694    208.2335    137.4939   9.5893014291e+01   1.4223295444e+01    0.2588184    0.1812058 -25.51  0.001141608    1.426    0.299
       108  -9.3836    198.5905    136.6190   9.7501178904e+01   1.6265682765e+01      0.26013    0.1316052 -27.71  0.001128953    2.121    0.529
       109  -9.2057    192.5598    136.7362   9.8684897020e+01   1.7451901548e+01    0.2516202    0.1339407 -29.37  0.001122164    1.996    0.499
       110 -10.3950    155.6470    135.3212   1.0597079265e+02   2.5004565102e+01    0.2883466    0.1720828 -34.97  0.001350478    1.836    0.455
       111  -9.1196    163.1411    135.0523   1.0430280687e+02   2.3588596110e+01    0.2307603    0.1585068  -8.20  0.001073558    2.002    0.501
       112  -9.7499    180.1602    131.6918   1.0002318606e+02   2.0753623628e+01    0.4004448    0.2046311 -34.02  0.001739962    2.052    0.513
       113  -9.6308    205.6482    130.7001   9.4844450169e+01   1.5730435200e+01    0.2816824    0.1614677 -37.06  0.001174044    1.825    0.452
       114  -9.8420    199.8866    126.3822   9.4930187158e+01   1.7554328466e+01    0.3098541    0.2529658 -30.69  0.001054919    1.270    0.213
       115 -10.1453    155.1092    130.1387   1.0497322130e+02   2.6042468086e+01    0.2217193    0.1919072   5.14  0.001237315    1.233    0.189
       116  -8.9088    186.4319    128.9271   9.8135235773e+01   1.9924052865e+01    0.2112669    0.1362281 -34.04 0.0006648843    1.589    0.371
       117 -10.3705    179.7520    123.9245   9.8325221919e+01   2.2122140724e+01    0.4503582    0.2677152 -34.15  0.001645727    1.722    0.419
       118  -9.2783    212.5838    121.9885   9.1547739503e+01   1.5587976299e+01    0.3036209    0.1315267 -30.32  0.001117478    2.278    0.561
       119  -9.1555    187.9518    122.7646   9.6398212278e+01   2.0601211374e+01    0.2581168    0.1793334 -44.79   0.00126451    1.631    0.387
       120  -8.7945    194.0000    120.9291   9.4773243140e+01   1.9624388945e+01    0.2304815   0.07988744 -34.16 0.0007976413    2.909    0.656
       121  -8.5180    224.3339    237.1407   1.1061693705e+02  -2.0026325571e-01    0.1531432    0.1418944 -22.48 0.0008649171    1.677    0.404
       122 -10.3460    219.6738    115.0246   8.8621422321e+01   1.5114968764e+01    0.3765989    0.1623589 -32.42   0.00101172    2.221    0.550
       123  -9.8760    183.6368    118.7800   9.6310927797e+01   2.2158613677e+01    0.2534856    0.1974877 -13.80 0.0009377986    1.330    0.248
       124  -9.9657    181.1954    115.1454   9.5921948933e+01   2.3280522980e+01    0.3839965    0.2152944 -32.17 0.0009966894    1.816    0.449
       125  -9.2538    185.5272    114.5342   9.4893258856e+01   2.2452711073e+01    0.3464275    0.1436707 -31.93  0.001285923    2.518    0.603
       126  -8.5673    194.6617    113.3225   9.2791906888e+01   2.0681953331e+01    0.1413487    0.1182679 -73.83 0.0007050711    1.717    0.418
       127  -9.9474    182.6150    108.5386   9.3979101234e+01   2.4072671286e+01     0.385329    0.1386886 -35.07   0.00115829    2.776    0.640
       128 -12.7638    215.9514    228.9873   1.1081021223e+02   1.7627658395e+00      3.03574    0.7526413 -31.26   0.01270342    5.404    0.815
       129 -12.7353    236.3621    191.3157   1.0158538937e+02   2.4971727438e+00     2.386888     0.387158 -33.07  0.007825817    6.335    0.842
       130  -8.4887    196.2744    107.6426   9.1054033627e+01   2.1224807056e+01    0.1427094    0.1150694 -59.75 0.0006674099    1.651    0.394
       131  -9.1844    205.6175    104.9475   8.8616672753e+01   1.9591173736e+01    0.3216083    0.1338641 -31.18  0.001221229    2.331    0.571
       132 -14.1016    244.6947    183.4468   9.8836978535e+01   2.0046992987e+00     2.836975    0.6969132 -34.13   0.01093931    4.424    0.774
       133  -9.4180    224.3287    248.1999   1.1208854463e+02  -1.1684236537e+00    0.1742674    0.1248533 -18.39   0.00100012    1.675    0.403
       134 -11.0065    176.1711    245.9607   1.1933895028e+02   5.7508283899e+00    0.4209357    0.2568834 -33.24  0.002801343    2.235    0.553
       135  -9.2122    212.0468    128.6893   9.3210296509e+01   1.4729954002e+01    0.2414187    0.1797863 -35.28  0.001290313    1.436    0.304
       136  -9.0390    202.6634     97.5338   8.7231156026e+01   2.1368077025e+01    0.2564951     0.132377 -29.75  0.001061679    1.877    0.467
       137  -9.7273    156.7475    246.7004   1.2252915894e+02   8.3865501290e+00    0.1991047    0.1337597 -21.82  0.001396798    2.351    0.575
       138 -10.1501    159.9906    100.0623   9.6604062760e+01   3.0503760418e+01    0.3667383    0.2147422 -28.78  0.001332887    1.843    0.458
       139  -9.7199    250.4333    245.8344   1.0786094559e+02  -4.4646906974e+00    0.1777598    0.1132824  -9.29 0.0009081082    1.612    0.380
       140  -9.1136    186.9212    247.2931   1.1778521004e+02   4.1025452230e+00    0.1523826    0.1030411  34.70  0.001073425    1.052    0.049
       141 -10.1078    146.2578    246.0678   1.2415100843e+02   9.9080376202e+00      0.16766    0.1376107 -22.49   0.00137002    1.729    0.422
       142  -9.3892    237.7136    244.8426   1.0961893200e+02  -2.6995958479e+00    0.1454142    0.1306221 -20.21  0.001146079    1.762    0.432
       143  -9.3674    151.5900    245.2159   1.2320539075e+02   9.2718695069e+00    0.1169669    0.0970533 -18.10  0.000948088    1.666    0.400
       144  -9.2763    175.4804     87.9743   8.9928292906e+01   2.9118909954e+01    0.2312702    0.1457717 -33.23 0.0008685482    1.555    0.357
       145  -8.8027    197.6031     86.7557   8.5246916022e+01   2.4167752424e+01    0.2142366    0.1332576 -37.85 0.0009476737    1.615    0.381
       146  -9.4932    242.1764    248.1877   1.0940281848e+02  -3.5614281544e+00    0.1568245    0.0969548  22.58 0.0006448536    1.151    0.131
       147  -9.4188    170.6021     83.7813   8.9752965102e+01   3.0957771791e+01    0.2230791    0.1374514 -42.08 0.0009546655    1.680    0.405
       148  -9.1321    200.2013     83.1425   8.3766278824e+01   2.4108861749e+01    0.2325476    0.1956591   2.32 0.0009412694    1.163    0.140
       149 -10.3344    240.4627    241.0394   1.0868423610e+02  -2.7596652350e+00    0.3221903     0.286907  61.68  0.001920098    2.226    0.551
       150  -9.9178    201.0629     77.7182   8.2082446617e+01   2.4713016511e+01    0.3990377    0.2030414 -32.19  0.001295772    1.860    0.462
       151  -9.0404    174.5053     77.9547   8.7229767309e+01   3.1007814262e+01    0.2415932    0.1469162 -31.96 0.0008702198    1.601    0.375
       152  -8.9917    166.5773     77.6636   8.8811583470e+01   3.2934781785e+01    0.3000213     0.149032 -28.25  0.001136931    2.095    0.523
       153  -9.3823    236.8285    235.9116   1.0851941072e+02  -1.8336726129e+00    0.1653342    0.1346676 -32.74  0.001033202    1.902    0.474
       154  -8.9131    183.4316     77.2453   8.5228722247e+01   2.8991482597e+01    0.2209864    0.1360654 -40.77 0.0009465768    1.672    0.402
       155  -9.8475    201.7609    242.0819   1.1480704022e+02   2.5256589560e+00    0.1865981    0.1797851 -29.93   0.00143303    1.592    0.372
       156  -9.6011    248.4783    240.0258   1.0734064769e+02  -3.7547370316e+00     0.162679    0.0921388 -27.02 0.0009259986    2.140    0.533
       157  -9.5647    163.2239     71.0050   8.7507084041e+01   3.4847522025e+01    0.3369581     0.178453 -31.90  0.001346017    1.847    0.458
       158 -13.5659    247.3806    160.2676   9.3975605056e+01   4.0956013805e+00     1.768742    0.6397972 -30.02  0.007851598    2.698    0.629
       159 -10.0195    148.5523    239.2794   1.2308355708e+02   1.0398111042e+01    0.2414361    0.1070402 -51.00  0.001436426    3.083    0.676
       160 -10.0714    134.9895    240.5370   1.2543607458e+02   1.2124545948e+01     0.150506    0.1119774 -41.89  0.001161535    1.872    0.466
       161  -9.3079    193.5929     67.7213   8.0504279664e+01   2.7983010017e+01    0.2828272    0.1455007 -23.57 0.0008341535    1.971    0.493
       162  -8.9458    170.3795     70.2346   8.5750561670e+01   3.3253956519e+01    0.2213996    0.1371285 -39.46  0.000944876    1.625    0.385
       163 -10.5028    158.9994    236.2873   1.2103761224e+02   9.2748153393e+00    0.2409411    0.1477914 -33.53  0.001620706    2.307    0.567
       164 -10.0553    217.3472     57.9624   7.3765727996e+01   2.3551068709e+01    0.3849886    0.1798872 -19.70  0.001087536    2.208    0.547
       165 -10.7813    190.0181    235.3617   1.1584071222e+02   4.8923582622e+00    0.4539337    0.3250923  77.71   0.00260977    3.314    0.698
       166  -8.6063    116.5299     68.4972   9.8259141734e+01   4.5764130541e+01    0.1497651    0.1383653 -16.11 -1.391725e-05    1.041    0.039
       167  -8.4973     30.7199     61.6983   1.2468147438e+02   5.9646126550e+01    0.1256257   0.07699677 -42.65  0.000195764    1.547    0.353
       168  -9.0518    175.6404    238.8212   1.1859986322e+02   6.5969482165e+00    0.1527257    0.1037355 -33.78 0.0008746635    1.948    0.487
       169  -9.1701    192.1314     54.9266   7.6873581862e+01   3.0172569702e+01    0.2414967    0.2026386 -45.53  0.001011504    1.274    0.215
       170 -10.3447    214.4360     47.2682   7.1076237381e+01   2.5616798288e+01    0.4341215    0.1353106 -34.86  0.001459733    2.820    0.645
       171  -9.7302    197.6136     47.8574   7.3778262521e+01   2.9743303353e+01    0.2477611    0.1904855  68.29  0.001114234    1.439    0.305
       172  -9.6987    232.5468    246.9235   1.1067609159e+02  -2.1744495541e+00    0.1748234    0.1270676 -28.66 0.0008768393    1.887    0.470
       173  -9.5140    136.8300     24.7944   7.7071312362e+01   4.8299222636e+01    0.2549059    0.1921342  -4.33 0.0002726685    1.353    0.261
       174  -8.4817     68.4489     23.4789   9.6876444441e+01   6.2948607101e+01    0.1378179    0.1148681 -17.60 0.0001309899    1.027    0.026
       175  -8.9307     84.8031     21.8169   9.0163740744e+01   6.0323176726e+01    0.1868209    0.1579705 -42.55  0.000658105    1.341    0.255
       176 -10.0722    206.3624    235.5149   1.1322937712e+02   2.5112153847e+00    0.3413539    0.2404382 -12.91  0.002538987    1.661    0.398
       177  -8.7695    155.5206     16.4859   7.0141147626e+01   4.4487448056e+01    0.1481887     0.141639  18.28 0.0001879481    1.025    0.024
       178  -8.7367      2.5107     16.3909   1.2501438907e+02   7.1273210583e+01     0.115414   0.08463898 -48.90 -4.386442e-05    1.030    0.029
       179  -9.4151     29.8666     13.0662   1.0926736395e+02   6.9909695717e+01    0.1842657    0.1404542 -31.94  0.000359317    1.028    0.027
       180 -10.2238    158.0343    230.6609   1.2055905768e+02   1.0090763355e+01    0.2247384    0.1655696 -40.63  0.001394254    1.786    0.440
       181  -9.5026    229.8172    236.2192   1.0964019849e+02  -8.8625924536e-01    0.1739924    0.1461616 -34.81  0.001276651    1.874    0.466
       182  -9.6189    142.6048    243.1944   1.2445558968e+02   1.0752462854e+01    0.1689301    0.1476277 -23.54  0.001285252    1.585    0.369
       183  -9.7763    152.4353    233.8127   1.2185210575e+02   1.0512745804e+01    0.1877946    0.1455347  10.83  0.001172821    1.603    0.376
       184  -9.8535    240.4659    231.8106   1.0737698335e+02  -1.9860979037e+00    0.1925489    0.1683521 -23.05  0.001002291    1.729    0.422
