#   1 NUMBER                 Running object number                                     
#   2 MAG_AUTO               Kron-like elliptical aperture magnitude                    [mag]
#   3 X_IMAGE                Object position along x                                    [pixel]
#   4 Y_IMAGE                Object position along y                                    [pixel]
#   5 X_WORLD                Barycenter position along world x axis                     [deg]
#   6 Y_WORLD                Barycenter position along world y axis                     [deg]
#   7 A_WORLD                Profile RMS along major axis (world units)                 [deg]
#   8 B_WORLD                Profile RMS along minor axis (world units)                 [deg]
#   9 THETA_WORLD            Position angle (CCW/world-x)                               [deg]
#  10 FWHM_WORLD             FWHM assuming a gaussian core                              [deg]
#  11 ELONGATION             A_IMAGE/B_IMAGE                                           
#  12 ELLIPTICITY            1 - B_IMAGE/A_IMAGE                                       
         1 -12.7699     51.7596     92.0252   1.1248909489e+02   5.2323483600e+01     2.782089    0.9092491 -38.90  0.008389578    3.553    0.719
         2 -11.5172     59.0292     49.5672   9.7010757891e+01   5.9198714611e+01     1.211751    0.6379168 -45.06  0.006101151    2.135    0.532
         3 -11.1564     90.6149     21.3002   7.7078841842e+01   5.7285143181e+01    0.5452011    0.3382597   3.45  0.001956658    2.044    0.511
         4 -12.1349    117.9492     49.9680   7.9531529676e+01   4.8227680373e+01     2.511324    0.8683049 -44.93  0.008981759    3.632    0.725
         5 -13.1848     73.9909     30.9980   8.5330346440e+01   5.9309429127e+01     2.198105    0.6689809  47.40  0.008525147    3.058    0.673
         6 -11.2792     68.0563     19.5857   8.2973190765e+01   6.1612745893e+01     1.207418    0.4960611  37.51  0.005884314    2.177    0.541
         7 -12.3580     86.3116     52.6782   8.9032948026e+01   5.4188504530e+01     1.559609      1.08863 -40.24  0.008651724    1.557    0.358
         8 -11.3216     73.9169     49.5507   9.1898503981e+01   5.6839569366e+01     1.061262    0.5419171 -22.54  0.004804676    2.441    0.590
         9 -12.8397     17.8742     95.7166   1.2503165300e+02   5.4882140780e+01     2.184151     1.090391 -74.10  0.009919825    2.564    0.610
        10 -12.9460     33.8355     67.3619   1.1216582930e+02   5.9301966101e+01     2.266307     1.046782  12.41   0.01010909    2.905    0.656
        11 -10.3212    121.3670     11.5240   6.7031699048e+01   5.1816508888e+01    0.4694228    0.1976158  53.68 0.0008399007    1.884    0.469
        12 -11.8548    130.2807     19.9666   6.7866992695e+01   4.9074393786e+01     1.203765    0.4765374  56.82  0.004558228    2.041    0.510
        13 -10.5410    130.7598     13.9323   6.6032681807e+01   4.9543470366e+01     0.883073    0.1951081  53.95  0.003298573    3.207    0.688
        14 -11.2845     99.3952     39.0055   8.0751497454e+01   5.3542919746e+01    0.8257011    0.5117649 -13.16   0.00422136    2.023    0.506
        15 -11.6691    111.9137     21.7834   7.2121556982e+01   5.2886500385e+01    0.9844123    0.8174081 -76.01  0.006240329    1.534    0.348
        16 -10.7914    117.3216     15.2612   6.8951774977e+01   5.2355571998e+01    0.4266349    0.2687036  85.11  0.001841051    2.156    0.536
        17 -11.9394    112.5264      7.3658   6.7456868313e+01   5.4063231583e+01    0.9348782    0.3226748  61.30  0.004147961    2.426    0.588
        18 -12.2254     99.9821      6.8931   6.9914686599e+01   5.6711993181e+01     0.502669    0.3923815  18.59  0.001575117    1.341    0.255
        19 -11.4861     93.6635      8.0320   7.1736787530e+01   5.7894305741e+01    0.5432953    0.2987139  41.51  0.002821052    1.540    0.351
        20 -11.8994      4.9052     81.3055   1.2655466061e+02   5.8833427866e+01     1.774737    0.3718684 -58.34  0.006911561    3.197    0.687
        21 -12.7195    100.0000     78.7057   9.3138809309e+01   4.7268777942e+01      1.87841     1.532106 -76.45   0.00980868    1.678    0.404
        22 -10.1687     17.6575     38.1188   1.0944532699e+02   6.5894970523e+01    0.7220725    0.2485019 -41.51   0.00355678    2.414    0.586
        23  -9.5845    176.2852     14.9571   5.9597113777e+01   3.9183499269e+01    0.2936391     0.213065 -31.17  0.001165683    1.667    0.400
        24 -11.2441    178.0784     27.9187   6.2430820840e+01   3.7352048191e+01     1.268539    0.6593457  35.07  0.005186245    3.651    0.726
        25 -10.1784    176.7788     22.4114   6.1292526825e+01   3.8274672416e+01    0.4110652    0.2833653   5.57  0.002157006    2.598    0.615
        26 -10.8369    215.4384     23.8127   5.7210732730e+01   2.9525660306e+01    0.5125256    0.4029867 -54.68  0.002863311    1.267    0.211
        27 -11.4925    212.0510     15.9176   5.5942406668e+01   3.1172635276e+01    0.7675385    0.4532473  51.63  0.004348343    2.083    0.520
        28  -9.8466    224.0223      9.7093   5.3663217729e+01   2.9337457406e+01    0.4776654    0.3565595  57.37  0.003236529    1.651    0.394
        29 -10.1992    231.0335     16.3201   5.4325115324e+01   2.7139298083e+01    0.6368643    0.3083017 -58.76  0.003530785    1.847    0.459
        30 -11.0778    233.0084      9.2148   5.2849257606e+01   2.7548907931e+01    0.3934865    0.2713972 -52.56  0.002430717    1.365    0.267
        31 -11.4956    243.2135     11.9590   5.2566155902e+01   2.5194786200e+01    0.9679018    0.7410537   1.02  0.005830153    3.021    0.669
        32 -11.5425    236.9083     30.1583   5.6420153346e+01   2.4241596800e+01    0.7304786    0.5546493 -15.94  0.003928271    2.314    0.568
        33 -11.3760    242.9332     18.3026   5.3721190563e+01   2.4502458197e+01    0.8941847    0.3780019  86.58  0.004407709    2.502    0.600
        34 -12.3148     54.4765     35.4740   9.3612483715e+01   6.1900713357e+01    0.8439874    0.7393125  49.91  0.005721681    1.601    0.375
        35 -10.6710     41.3633      3.7769   8.5796538519e+01   6.7380842685e+01    0.5463456    0.2892427   4.62  0.003105438    2.199    0.545
        36 -11.2411     51.3731     23.8356   9.0314324673e+01   6.3823347056e+01     0.693993    0.3660196  -4.15 0.0004968083    2.677    0.626
        37 -10.4089     68.4624      4.2919   7.6987825787e+01   6.2952041740e+01    0.6909366    0.2607971  40.10    0.0021563    2.182    0.542
        38 -11.3795     25.1343      5.7702   9.3252792224e+01   6.9352363779e+01    0.5405253    0.4372651  -4.60   0.00428996    1.253    0.202
        39 -11.0541     23.7005     31.3220   1.0435983069e+02   6.6337681626e+01    0.9077681    0.2410204 -43.82    0.0038104    3.661    0.727
        40 -10.2868     31.5147     11.3186   9.2954160839e+01   6.7971287348e+01    0.3635421    0.2129636  15.13  0.002188608    1.545    0.353
        41 -11.2326     19.8940     13.7895   9.9059589092e+01   6.9052892144e+01    0.9659972      0.47508  20.30   0.00580783    1.907    0.476
        42 -11.3572     50.2393      9.7988   8.5084971843e+01   6.5491070631e+01    0.3636311     0.265256  12.14  0.001147443    1.146    0.127
        43 -11.9626     56.3441      3.5495   8.0438692125e+01   6.5081020073e+01    0.5169743    0.3827662  18.96  0.001269206    1.111    0.100
        44 -11.7424     30.4350     22.9330   9.8218199559e+01   6.6732697761e+01    0.8712187    0.4288665 -30.02  0.005064876    1.885    0.469
        45 -11.7531     36.9104     25.4624   9.6543003615e+01   6.5617507609e+01    0.4248548    0.3110275   9.86  0.000613089    1.132    0.116
        46 -11.6406     42.8338     15.1937   9.0050108984e+01   6.6033888506e+01    0.7160574    0.5492107  -2.65  0.005186119    1.129    0.115
        47 -12.1945      8.4882     26.1910   1.0927692378e+02   6.8478522349e+01    0.7948352    0.4984807  -0.08  0.003874886    1.419    0.295
        48 -11.8862     12.3107      6.9187   9.9605487769e+01   7.0647918150e+01    0.5900622     0.324744 -15.32  0.002733645    1.619    0.382
        49 -12.5103      3.2647     17.2792   1.0833913302e+02   7.0151596074e+01    0.3588404     0.203096 -17.79 0.0004574638    1.473    0.321
        50 -13.5843      3.8386      9.3397   1.0478689937e+02   7.1142306380e+01     0.586582    0.2984077 -35.31  0.001386094    1.740    0.425
        51  -8.8878    156.4599      5.3567   5.9790843496e+01   4.4568458448e+01    0.6657642    0.1771807  58.96  0.002762448    2.765    0.638
        52  -9.9449    162.7554     16.7024   6.1780738783e+01   4.2071782732e+01    0.4745243    0.3319426  66.60  0.002884585    1.206    0.171
        53 -10.1217    146.8759      9.3237   6.2154019659e+01   4.6366525003e+01    0.3271518     0.198876  80.51 0.0003352788    1.614    0.381
        54 -10.7166    158.3123     20.5796   6.3396884579e+01   4.2684055054e+01    0.9501794    0.2840552 -45.32  0.003535276    3.852    0.740
        55 -11.0436    163.8395      4.5799   5.8657103927e+01   4.2983145303e+01    0.5062903     0.467943 -67.02  0.003251273    1.226    0.185
        56 -11.5606    149.2318     16.5945   6.3726295273e+01   4.5152360119e+01    0.8655207    0.4848582  31.93  0.003935007    2.578    0.612
        57  -9.9233    165.3289     11.5726   6.0169136454e+01   4.1997089329e+01    0.2885733    0.1849965  72.75 0.0007880813    1.309    0.236
        58 -10.2565    169.8979     13.7598   6.0111442537e+01   4.0748650751e+01    0.2876378    0.2129121 -81.28 0.0004251261    1.300    0.231
        59  -9.5629    198.2567     15.9065   5.7317900200e+01   3.4175139547e+01    0.2872338     0.231322  -1.55   0.00181544    2.010    0.503
        60 -10.4543    202.2739     18.5617   5.7462191593e+01   3.2996561920e+01     0.563557    0.2932708  48.18  0.002332193    2.510    0.602
        61 -10.2974    185.4753     13.8203   5.8253704892e+01   3.7236382194e+01     0.450601     0.165583  61.87  0.002090048    2.263    0.558
        62  -8.9250    193.8783     11.3591   5.6800026875e+01   3.5626895372e+01    0.1699595    0.1465831  62.33 0.0003948845    1.320    0.243
        63  -9.7596    140.9545     10.8266   6.3462254502e+01   4.7557716546e+01    0.3810747    0.2232069 -65.15  0.001245683    2.296    0.564
        64 -11.1378    199.1983      5.6937   5.5071854076e+01   3.5043434784e+01    0.5614208     0.391977 -77.14  0.002035075    1.244    0.196
        65  -9.5644    189.9877      7.9909   5.6476367951e+01   3.6830218303e+01      0.27289    0.1358285  64.50 0.0006830283    1.712    0.416
        66  -8.4775    184.4726      7.9499   5.7052818784e+01   3.8055961823e+01    0.1606118    0.1018345 -52.06 0.0009626425    1.604    0.376
        67  -9.9135    173.6217      8.6255   5.8436419476e+01   4.0413854038e+01    0.2191525    0.1916369 -43.57 0.0004546857    1.351    0.260
        68 -10.1694    181.0283      4.7303   5.6706654265e+01   3.9132229170e+01    0.3778492    0.2430038  77.87  0.001033482    1.276    0.217
        69  -8.4986    174.9581      4.3565   5.7291957373e+01   4.0517719727e+01    0.3324927    0.1729265  62.73  0.001259633    1.613    0.380
        70 -10.8225     77.4403      9.1849   7.6287867014e+01   6.0919592682e+01    0.2674138     0.200391  38.80 0.0007078171    1.084    0.078
        71  -9.4422     79.3227      3.4998   7.3686962735e+01   6.1032302118e+01    0.4794286    0.1771363  38.82  0.002278709    2.420    0.587
        72  -9.6097    228.1860      3.3910   5.2152871506e+01   2.9165485770e+01    0.3535412    0.1582053  74.46  0.001312868    1.896    0.473
        73  -9.1717    207.5265      2.5448   5.3673256589e+01   3.3567578461e+01    0.1780133    0.1453139 -78.53 0.0008052242    1.109    0.098
        74 -10.8916    213.7940      4.5741   5.3534103042e+01   3.2029892091e+01      0.71944    0.2485094  69.02  0.002733442    2.391    0.582
        75  -9.5343    220.6658      2.6914   5.2607918836e+01   3.0786886357e+01    0.2101799    0.1655985  67.81  0.001504256    1.406    0.289
        76  -9.3716    223.5402      1.4798   5.2155615081e+01   3.0318758004e+01    0.1800158    0.1349126 -85.63 0.0005971103    1.035    0.034
        77 -10.9813    132.4312      4.3630   6.3025867276e+01   5.0000538614e+01    0.4990756     0.254206  56.79  0.001911725    1.567    0.362
        78 -11.1118    139.6711      1.7459   6.1191408416e+01   4.8613946962e+01    0.3865636    0.2178217  69.98  0.001036607    1.492    0.330
        79  -8.7587    122.4080      3.1532   6.4350738718e+01   5.2282307281e+01    0.1919354    0.1368545 -77.81  0.001160231    1.759    0.432
        80 -11.7126     67.0544    123.1763   1.1504670793e+02   4.3223011078e+01    0.9412003    0.5811177 -27.79   0.00413955    2.072    0.517
        81  -8.9955    184.1637    250.3897   1.1007270491e+02  -5.6313199308e+00    0.1872592    0.1082849  43.42 0.0009498811    1.729    0.422
        82 -11.0962     57.6106    125.3639   1.1840648942e+02   4.3973302143e+01    0.4855895    0.3222134  29.54  0.002440502    1.681    0.405
        83 -10.2873     59.4887    120.5843   1.1680156212e+02   4.4874728291e+01    0.4008636    0.2640995 -23.07   0.00177462    1.921    0.480
        84  -8.9578     75.0450    124.5043   1.1292097038e+02   4.1732908864e+01    0.2067118    0.1456651  35.99 0.0004424345    1.525    0.344
        85  -9.6821     47.7921    124.1971   1.2117364243e+02   4.5455874725e+01    0.1918542    0.1476121 -37.22 0.0006797736    1.287    0.223
        86 -10.3179     92.5316    118.2554   1.0620584317e+02   4.0349911109e+01    0.7677506    0.2933716 -45.74  0.001629379    2.512    0.602
        87  -9.1519     90.9109    112.6739   1.0528474212e+02   4.1913151291e+01    0.3688264    0.2507973  -0.90  0.001491396    2.237    0.553
        88 -11.3575     42.5143    117.9850   1.2155329479e+02   4.7530719287e+01     0.591466    0.3541414  68.50  0.002509459    2.898    0.655
        89 -10.0746     44.9778    113.9800   1.1993544892e+02   4.8200722261e+01    0.3331766    0.2287899   7.46  0.001735282    1.797    0.443
        90  -8.5669    131.9954    119.4726   9.5583252545e+01   3.2375490827e+01    0.2286387    0.1542187  44.86 0.0004089746    1.511    0.338
        91  -9.7339    104.5762    117.0300   1.0240303585e+02   3.8441246086e+01     0.389475    0.3052469 -86.63   0.00160159    1.680    0.405
        92  -9.5414     97.9549    114.5133   1.0367300940e+02   4.0241529711e+01     0.361422    0.2807067  38.69  0.001453329    1.337    0.252
        93  -9.9303     50.7979    118.3225   1.1902220679e+02   4.6504224239e+01    0.3531291    0.2905154  61.07  0.001988329    1.469    0.319
        94  -8.8192    117.4705    116.4821   9.8666592538e+01   3.6047482487e+01    0.2919174    0.1476785  31.08  0.001040843    2.557    0.609
        95  -9.1817    109.7102    115.3114   1.0051181383e+02   3.7847017709e+01    0.2850098    0.1857544  52.39  0.001133087    1.707    0.414
        96 -10.1153     82.8610    114.3697   1.0813893105e+02   4.2883816949e+01     0.484419    0.2798113  22.89  0.001585667    2.200    0.546
        97  -9.3221    132.8539    112.5314   9.3582615085e+01   3.3716052864e+01    0.2951459    0.2421873 -81.24 0.0007285898    1.455    0.313
        98 -10.1925     33.8877    109.7943   1.2262259869e+02   5.0331619777e+01    0.6094534    0.3609453 -25.41  0.002993845    2.032    0.508
        99 -10.1894     74.0295    107.5949   1.0917556349e+02   4.5824654566e+01    0.4029794    0.3110838  18.94  0.001246097    1.431    0.301
       100  -8.4665    104.4778    108.9781   1.0034832841e+02   4.0265043966e+01     0.229791     0.144815 -46.46 0.0005992792    1.542    0.351
       101 -11.0571     77.4584    101.9814   1.0664603957e+02   4.6537488190e+01     0.812406    0.3348498  36.36  0.002927868    2.544    0.607
       102 -10.1811    150.3382    105.4608   8.7480762519e+01   3.1361912865e+01    0.4128465    0.3027957 -14.36 0.0005579605    1.916    0.478
       103  -9.5880    133.5968    103.3048   9.0967184973e+01   3.5507675112e+01    0.4319749    0.1390494 -48.90  0.001298021    3.403    0.706
       104  -9.3744    141.5441    102.8697   8.8888032590e+01   3.3853111455e+01    0.3860348    0.2485074 -43.01  0.001713745    1.552    0.356
       105  -9.5753    171.5381    102.5014   8.2092953249e+01   2.7150573108e+01    0.3098382    0.2634304  14.24  0.001516845    1.516    0.340
       106 -11.3642     67.8406    107.1843   1.1103394984e+02   4.6837426470e+01    0.7156659    0.4011582 -23.38  0.002821899    2.704    0.630
       107  -8.3505    105.5579    102.5522   9.8320548415e+01   4.1449873516e+01    0.1478564    0.1420824 -18.10 0.0003029626    1.019    0.019
       108 -10.1201     63.6568     99.3701   1.1040802231e+02   4.9169652191e+01     0.558338    0.2827314 -43.51  0.002481878    1.820    0.450
       109 -10.2888    117.4725     99.1718   9.4071388900e+01   3.9777787037e+01    0.6896174    0.3996156  13.16  0.002099844    4.345    0.770
       110 -10.6124     87.8601     99.5773   1.0276324959e+02   4.5331954031e+01    0.6921949    0.4352365 -24.57  0.003017205    2.014    0.503
       111 -10.9081     88.2647     90.5316   1.0012389083e+02   4.7146422209e+01    0.6150088    0.4050258 -46.16  0.001608721    1.496    0.332
       112  -9.6107     92.9845     89.0128   9.8247071519e+01   4.6607451268e+01    0.3651796    0.2860598 -85.81  0.001473653    1.910    0.476
       113  -9.4103    159.5312     97.1818   8.3275612896e+01   3.0929051128e+01    0.2758177    0.2132634  53.82 0.0008070141    1.291    0.225
       114  -9.8012    114.3025     94.9047   9.3758728153e+01   4.1298047618e+01    0.3847567    0.3211987 -55.05  0.001996998    1.268    0.212
       115  -8.7604    147.7999     98.3943   8.6223309571e+01   3.3354998376e+01    0.2214406     0.183241  74.21  0.000693779    1.322    0.244
       116  -8.3249    188.6793     94.3086   7.6781466326e+01   2.4815757101e+01    0.1521365    0.1088683 -77.27 0.0006207343    1.642    0.391
       117 -10.4712    124.2684     92.7034   9.0475235222e+01   3.9656382237e+01    0.5437505    0.4357056  88.92  0.002658322    1.616    0.381
       118 -10.7217    118.8772     86.2924   9.0091849081e+01   4.2037405892e+01    0.6563607    0.2787871  50.85  0.002211795    2.472    0.595
       119 -10.2573    125.1459     83.5111   8.7664922152e+01   4.1223134826e+01     0.935626    0.3459501 -49.09  0.003113548    3.229    0.690
       120  -9.8735     81.9008     88.1016   1.0142073084e+02   4.8731189669e+01    0.5104012     0.263832 -49.32  0.001308578    1.964    0.491
       121 -10.2799     82.4118     82.0239   9.9490655176e+01   4.9843567993e+01    0.5703809    0.2568715 -52.47  0.002152015    2.653    0.623
       122 -10.7566    164.1948     86.1256   7.9439824385e+01   3.1932939312e+01    0.2858747    0.2734246  11.41 0.0005298841    1.205    0.170
       123  -9.8952    160.2599     81.8199   7.9124640172e+01   3.3614737074e+01    0.3922506    0.2953933  74.27  0.001951047    1.436    0.304
       124  -8.5822    153.0509     87.4667   8.2144025896e+01   3.4253010968e+01    0.2288653    0.1422368  50.70  0.001022355    1.581    0.368
       125  -9.9190    146.2605     85.8922   8.3235503273e+01   3.6093058319e+01    0.4657004    0.2638205 -32.98  0.001956176    2.006    0.502
       126  -9.7462    149.8697     78.1872   8.0349148796e+01   3.6648916803e+01    0.5418555    0.3091951  32.43  0.002147925    2.506    0.601
       127 -11.0432    144.8438     76.0284   8.0862347339e+01   3.8173178734e+01    0.4443358    0.3633514 -12.21  0.002309239    1.507    0.336
       128 -10.7619    133.6361     78.7284   8.4204856828e+01   4.0228120748e+01    0.7038849    0.3026778 -47.67  0.002634493    2.580    0.612
       129 -10.6896    138.2046     68.3008   8.0193798274e+01   4.0976448836e+01    0.6191167    0.3603921  38.21  0.002051423    1.928    0.481
       130  -9.0924    132.1582     67.7607   8.1430615052e+01   4.2422207270e+01    0.3466958    0.2251981  53.63  0.001144407    1.473    0.321
       131  -9.0934     77.4395     93.5542   1.0437709830e+02   4.8344653861e+01     0.358619    0.2246758  10.58  0.001355949    2.254    0.556
       132  -9.0976    186.2500     84.4825   7.4847151844e+01   2.7144468077e+01      0.26779    0.1935854 -42.54  0.001353134    1.381    0.276
       133  -9.7992    140.8338     84.4165   8.4082675766e+01   3.7591831104e+01    0.3499234    0.2476948  76.65   0.00122879    1.817    0.450
       134  -8.6790     76.9731     84.4629   1.0195027334e+02   5.0270848385e+01    0.2050553    0.1345088  34.98 0.0005295384    1.559    0.359
       135 -10.1294    216.8376     81.1466   6.9211213574e+01   2.0909288834e+01    0.4817962    0.2379105 -41.41  0.002174518    1.919    0.479
       136  -9.7532     74.8602     89.3906   1.0404590989e+02   4.9617029265e+01    0.7387722    0.2192012  42.73  0.002420894    3.800    0.737
       137  -8.6120    188.4340     80.2297   7.3442398609e+01   2.7386165627e+01    0.2015788    0.1248756 -53.04 0.0004396841    1.600    0.375
       138  -9.4130    179.0346     79.7000   7.4963302390e+01   2.9637721508e+01      0.41193    0.2608955 -70.54  0.001734118    2.016    0.504
       139 -10.6933    138.9755     76.5298   8.2330108274e+01   3.9417872481e+01    0.4065332    0.3221613   1.15  0.001275894    1.658    0.397
       140  -9.5427    247.7855     75.4391   6.4053368916e+01   1.5496808118e+01    0.2746791     0.167797 -65.92  0.001198013    1.571    0.364
       141  -8.6949    219.4447     75.2150   6.7556028068e+01   2.1337321714e+01    0.2030563    0.1088062 -52.96 0.0009533123    1.736    0.424
       142  -9.2067    214.5398     72.9943   6.7748430729e+01   2.2759282741e+01     0.386779     0.244656 -17.72  0.001654971    2.983    0.665
       143  -8.5171    203.4741     75.5045   6.9916469688e+01   2.4785101820e+01     0.138609    0.1242971 -76.83 1.669458e-05    1.032    0.031
       144  -9.3194    191.6237     73.2119   7.1235614591e+01   2.7839950335e+01    0.3632355     0.216451 -87.58 0.0006752259    2.374    0.579
       145  -8.9549     84.8550     74.3009   9.6394541924e+01   5.0868865049e+01     0.247808    0.1734697  17.75  0.001248699    1.606    0.377
       146  -8.2759    181.3290     73.7361   7.3084866291e+01   3.0118002707e+01    0.1439069    0.1037439 -81.96 0.0002549662    1.571    0.363
       147 -10.5056    150.9821     67.0586   7.7092933452e+01   3.8254432274e+01    0.3775948    0.3548058 -81.95  0.001157977    1.066    0.062
       148  -8.5710    154.1617     71.5620   7.7656161394e+01   3.6785413112e+01    0.2966175    0.1195231  47.98  0.001105029    2.463    0.594
       149  -8.4867    169.1547     70.6490   7.4490842584e+01   3.3452290746e+01    0.1964051    0.1224894  49.36 0.0003524684    1.623    0.384
       150 -10.3925    159.5695     51.1744   7.1174742033e+01   3.8650356072e+01    0.5516173     0.363761 -53.66  0.002438289    1.644    0.392
       151 -11.0431    165.1362     63.6277   7.3422667351e+01   3.5509138814e+01    0.7396221    0.4483645 -23.40  0.003311312    2.268    0.559
       152  -9.6931    165.4885     55.4718   7.1245933311e+01   3.6657112329e+01    0.4958103    0.2806901 -35.76  0.002352981    1.913    0.477
       153  -9.5082    152.5467     43.8158   7.0475623025e+01   4.1277817302e+01    0.3164665    0.2277206 -42.27  0.001097224    1.496    0.331
       154  -9.8219    156.6735     43.9366   6.9772070731e+01   4.0307445246e+01    0.2589815    0.1823052  65.26 0.0003611628    1.290    0.225
       155  -9.4791     84.9706     67.6868   9.4304144701e+01   5.2018794283e+01    0.2874131    0.2064683 -10.54  0.001491092    1.599    0.375
       156 -12.8367    144.1661     53.8731   7.4852451568e+01   4.1827630950e+01     1.737303    0.7494382  49.65  0.001047946    2.156    0.536
       157  -9.7979    250.5109     63.9845   6.1532577866e+01   1.6758315070e+01    0.3153576    0.1071882 -41.12  0.001339582    2.641    0.621
       158  -8.5561    199.0224     63.2406   6.7768449125e+01   2.7753967364e+01     0.186557    0.1577361 -89.58 0.0002022187    1.069    0.064
       159 -11.3483     67.2923     62.1856   9.8339682695e+01   5.5904901596e+01    0.2903043    0.2609195   4.29 0.0005286479    1.067    0.063
       160  -8.8835    189.0339     49.4731   6.6013780790e+01   3.2064887539e+01    0.2020427    0.1800345  60.33 0.0006114589    1.227    0.185
       161  -8.6296    179.0693     58.8894   6.9808811782e+01   3.2992036328e+01    0.4707049    0.2926044 -10.79  0.001918602    3.225    0.690
       162  -9.7063    185.6068     54.6003   6.7737545507e+01   3.2116648424e+01    0.3949097     0.270531 -10.54  0.001866913    2.500    0.600
       163 -10.7102    181.9115     50.7104   6.7362779836e+01   3.3527905353e+01    0.4990182    0.3166233 -46.96  0.001214962    1.584    0.369
       164  -9.4578    201.4902     58.1437   6.6253716249e+01   2.7975193725e+01    0.3669072     0.297312  -6.25  0.002028653    1.910    0.476
       165 -10.3188    174.5380     56.3615   6.9926229571e+01   3.4420280295e+01    0.5182942    0.3170411 -13.02  0.002155347    3.039    0.671
       166 -10.2773    222.5676     56.7990   6.3235489837e+01   2.3550998624e+01       0.3889    0.2797694  80.35  0.002284362    1.313    0.238
       167  -9.0849    158.9379     58.3522   7.3189267231e+01   3.7756819445e+01    0.2593346    0.1712069  49.10  0.001299104    1.496    0.331
       168 -12.2426     20.1533    147.8299   1.3313348525e+02   4.2458609005e+01    0.7405679    0.6708066 -83.28  0.003391858    1.119    0.106
       169  -8.9362    243.0950     54.5072   6.0483100659e+01   1.9639819684e+01    0.2121512    0.1427968 -67.81  0.001267281    1.282    0.220
       170  -8.7535    229.8748     54.8421   6.1980849924e+01   2.2296461892e+01    0.1742186    0.1229466 -72.95 0.0002547331    1.269    0.212
       171  -9.0931    197.9799     54.5355   6.5921435741e+01   2.9301446130e+01    0.2297485    0.1496972  62.90 0.0005510638    1.467    0.318
       172  -9.9351    193.2495     53.8353   6.6428839276e+01   3.0477380995e+01    0.3106197    0.2201254  74.69 0.0009096151    1.323    0.244
       173 -11.1530      4.9016     99.0292   1.3002977189e+02   5.5025225679e+01    0.6515186    0.2540161 -43.87  0.003129497    2.144    0.534
       174  -9.5143    126.9513     50.9635   7.7718818865e+01   4.6123436832e+01    0.3681564    0.2233574 -55.65  0.001297674    2.174    0.540
       175  -9.8566    129.9199     46.2382   7.5658734935e+01   4.6109902928e+01    0.5359447    0.2369361  55.42  0.001467304    2.041    0.510
       176  -9.4878    130.3009     40.5134   7.3889946070e+01   4.6766324764e+01    0.3157856    0.1965663 -37.74  0.001623992    1.764    0.433
       177  -9.3467    146.0595     29.5289   6.7738348241e+01   4.4509793968e+01    0.3270491    0.1774091  48.80  0.001637981    1.736    0.424
       178 -10.2869    137.2872     42.3974   7.2997389068e+01   4.4955933890e+01    0.5470552    0.3888467 -49.06  0.003001732    1.579    0.367
       179 -10.4025    143.6678     42.7540   7.1841247564e+01   4.3457577105e+01     0.449458    0.2674184  61.69  0.001813567    1.540    0.351
       180  -9.4422    142.7062     38.9573   7.0962210797e+01   4.4158159956e+01    0.2099695    0.1928674  54.70 0.0004356993    1.070    0.065
       181 -10.2991    149.2886     34.8640   6.8630683011e+01   4.3150737731e+01    0.4448968    0.2557321  68.72  0.001806735    1.664    0.399
       182  -9.7976    143.3774     34.1926   6.9505945498e+01   4.4582628704e+01    0.2650941    0.2147457 -65.91 0.0005477245    1.377    0.274
       183 -12.2236     25.3719     82.7893   1.1946488008e+02   5.7040994158e+01    0.8070443    0.6569213 -43.05  0.005277953    1.061    0.058
       184  -9.6628     94.6912     48.2344   8.5093673853e+01   5.3246759832e+01    0.3700412    0.2866401 -17.23  0.001786789    1.361    0.265
       185  -8.9286    227.2945    231.4779   9.8377143873e+01  -8.9719262223e+00    0.2174633    0.1151175  28.91 0.0004057671    1.894    0.472
       186  -8.8991    202.0491    229.0338   1.0285373172e+02  -4.7626177812e+00    0.1988644    0.1769997   7.10 0.0004041843    1.032    0.031
       187  -8.8408     50.3358    227.6469   1.3529306820e+02   1.9896214794e+01    0.2081045    0.1240994  70.57  0.001085815    1.648    0.393
       188  -8.5441    110.4761    224.5121   1.2185186448e+02   1.1605448659e+01    0.1413134    0.1261351  64.76  9.43132e-05    1.037    0.036
       189  -8.6183     52.3263    224.3292   1.3454172681e+02   2.0383652934e+01    0.1218225   0.09864627 -40.83 0.0005897895    1.704    0.413
       190  -8.6489     40.9833    221.2754   1.3661177818e+02   2.2519189091e+01    0.2147175    0.1081433 -42.90  0.000889979    3.437    0.709
       191  -8.2057    167.5055    220.5457   1.0856034573e+02   2.5836134729e+00    0.1395141    0.1308202  21.46 9.117448e-05    1.009    0.009
       192  -9.9965    110.1321     37.3188   7.7474256354e+01   5.1542243491e+01    0.2117446     0.208303  86.25 0.0005755285    1.171    0.146
       193 -11.6442    105.8449     33.6348   7.7339463937e+01   5.2876808383e+01    0.3268351    0.2591624  57.71 0.0005395573    1.242    0.195
       194 -10.6151    113.6697     32.0349   7.4965417379e+01   5.1415732785e+01     0.231521    0.2103363  21.05 0.0003657992    1.127    0.112
       195 -10.7930    109.7437     29.9930   7.5228238145e+01   5.2477803216e+01     0.472469    0.2401419  65.39  0.001153732    2.303    0.566
       196  -9.0941      3.4990    214.0212   1.4356809630e+02   2.8214221064e+01     0.188139   0.09470642 -80.51   0.00103653    1.607    0.378
       197  -9.4964     26.6834    212.0181   1.3872699660e+02   2.6310928662e+01    0.1872969    0.1431576 -87.11  0.001179719    1.078    0.073
       198  -8.4440    225.5438    211.5422   9.5059247846e+01  -5.3474568796e+00    0.1319627     0.115643 -14.21 4.064734e-05    1.029    0.028
       199  -8.4083    225.4993     49.4253   6.1368807901e+01   2.4003039379e+01    0.1274407     0.105176 -78.39 4.582828e-05    1.025    0.024
       200  -9.0264    197.4193     49.5429   6.4859303860e+01   3.0147085849e+01    0.3486833    0.1007266  57.50  0.001285792    3.140    0.681
       201  -9.6814    174.8931     48.6136   6.7937613775e+01   3.5446037518e+01    0.3234791     0.200672 -72.52  0.001543504    1.978    0.495
       202  -9.6226    123.9958    205.9900   1.1586011191e+02   1.3444364428e+01    0.2069895    0.1982577  65.74  0.001171429    1.011    0.011
       203  -8.7148      1.1490     47.9388   1.1975175542e+02   6.5480855738e+01    0.1356016   0.06488065 -52.29 0.0007676358    1.783    0.439
       204  -9.6661    229.9837     45.2716   6.0039770817e+01   2.3646547876e+01    0.4370404    0.2458256  75.20  0.001877055    1.713    0.416
       205 -10.2049    220.2339     43.4985   6.0738262144e+01   2.5957029656e+01    0.4274703     0.196211 -53.42  0.001413127    2.046    0.511
       206  -9.8084    206.2150     46.0228   6.2928868496e+01   2.8669612834e+01    0.3588913    0.1535713  60.35  0.001633565    2.197    0.545
       207  -9.3047    105.4854     44.8601   8.1055966066e+01   5.1547718850e+01    0.3702614     0.279975  42.49  0.002136499    1.192    0.161
       208  -9.1584     12.5088     34.1469   1.1032685341e+02   6.6956306378e+01    0.2582681     0.116859  31.17  0.001379822    2.482    0.597
       209 -10.1232     16.2702     31.3899   1.0765342949e+02   6.7046147647e+01    0.2738532    0.2268263 -24.34  0.001243622    1.264    0.209
       210  -9.8930     11.1129     42.0672   1.1363043879e+02   6.5803555956e+01    0.4610868    0.2245636  -8.54   0.00236335    2.489    0.598
       211  -9.0851     22.1338     43.8322   1.0948288133e+02   6.4574145396e+01    0.4554368    0.2104211  27.49   0.00249087    2.228    0.551
       212  -9.7515     21.5905     40.2828   1.0850017389e+02   6.5193256601e+01    0.2076266    0.1818042  40.82 0.0008314576    1.731    0.422
       213  -9.9726    244.3693    204.5281   9.0293951951e+01  -6.9405146357e+00    0.2453658     0.183294 -13.62  0.000129396    1.277    0.217
       214  -9.9024    213.7129     43.1239   6.1401858315e+01   2.7419138749e+01    0.3499137    0.2652047  -2.52  0.001474282    2.454    0.593
       215  -8.2499    196.5277     45.5289   6.4065820112e+01   3.0908629625e+01    0.1336655    0.1113207 -83.44 3.727179e-05    1.045    0.043
       216  -9.8976     66.9272     43.2924   9.2057220211e+01   5.8900066970e+01    0.3448802    0.2159991 -32.79  0.001223124    1.610    0.379
       217  -8.2551    248.7017     44.6724   5.8061423650e+01   1.9934465539e+01    0.1007928    0.0970313  36.83 0.0002793273    1.635    0.388
       218  -8.3521    185.2538     43.6989   6.5190891563e+01   3.3726037032e+01    0.1306771   0.09008983 -71.27 0.0001500171    1.502    0.334
       219 -10.1668    163.3132     41.8870   6.8104472086e+01   3.9036441920e+01    0.6496523    0.2235196  68.86  0.002199515    3.597    0.722
       220  -9.0927    162.0253     37.6941   6.7231664804e+01   3.9868469709e+01    0.2309078     0.184741 -42.26 0.0005694042    1.363    0.267
       221  -9.3238    198.7459     32.4339   6.0852966115e+01   3.2128426738e+01      0.35436    0.1750384 -31.23  0.001706334    2.466    0.594
       222  -9.5764    203.5125     28.4897   5.9443865522e+01   3.1556854906e+01    0.4085794    0.2011091 -27.54  0.001924387    2.829    0.646
       223  -8.5507    201.3182     25.6527   5.9078415254e+01   3.2384361582e+01    0.1779595    0.1048965 -57.55 0.0007266527    1.639    0.390
       224 -10.1766    202.4253     38.0316   6.1642373437e+01   3.0590694393e+01    0.4644361    0.2671411 -48.38  0.002383088    1.672    0.402
       225  -9.0782    206.1079     34.8510   6.0516158907e+01   3.0186321441e+01    0.2513747    0.1576618  70.98 0.0003901512    1.438    0.305
       226  -8.7300    196.7573     41.7354   6.3176325321e+01   3.1371330689e+01    0.1822852    0.1305965 -78.93  0.001034738    1.338    0.252
       227  -9.5251    190.9819     40.2287   6.3590857435e+01   3.2879205967e+01    0.2380946     0.184731 -38.28 0.0006401555    1.446    0.309
       228  -9.2476    192.4923     36.1231   6.2452858693e+01   3.3068740893e+01    0.2308992    0.1896785  73.14 0.0009238736    1.135    0.119
       229  -9.8353    194.5881     30.7917   6.0988432278e+01   3.3263659840e+01      0.38949    0.2565373 -13.60  0.002000681    2.582    0.613
       230  -9.0629     10.5967    192.3490   1.4037666824e+02   3.2537291389e+01    0.2091965    0.1592755  32.94  0.001340235    1.605    0.377
       231 -10.1479    180.3943     37.8422   6.4484248902e+01   3.5609227624e+01    0.5555755    0.2947149 -65.22  0.002515415    2.375    0.579
       232 -10.4131    173.8393     38.5677   6.5613679849e+01   3.7026621169e+01    0.3899938    0.2390361  85.03 0.0008804117    1.776    0.437
       233  -8.9874    245.8308    187.1763   8.6718842481e+01  -4.1365461281e+00    0.1805305    0.1386534 -14.53 0.0004044286    1.302    0.232
       234 -10.3136      7.0925    185.5992   1.4053630099e+02   3.4444531982e+01    0.2465729    0.1214565  51.33  0.001173852    2.077    0.518
       235  -8.1179      5.4896     40.5300   1.1560545149e+02   6.6468598441e+01    0.1164581   0.08134946 -24.85  0.000808074    1.095    0.087
       236  -9.3688    235.5675     38.6537   5.8171288003e+01   2.3398509794e+01    0.2085482    0.1651147  88.82 0.0006750688    1.138    0.121
       237  -9.4850     35.8242    185.1688   1.3391228226e+02   3.1698613815e+01    0.1768584    0.1425066 -53.78 0.0002690672    1.341    0.254
       238 -10.6237     20.0691    183.9369   1.3745268881e+02   3.3647282790e+01    0.4526977    0.2225304  20.70  0.002131913    2.880    0.653
       239  -9.7819     12.0675    184.1288   1.3929122589e+02   3.4352848720e+01    0.1924738    0.1490129 -60.60   0.00122172    1.311    0.237
       240 -10.0069    247.6231     25.9064   5.4714466913e+01   2.2639766471e+01    0.4255161    0.2119668  70.74  0.002444407    1.889    0.471
       241 -10.4419      1.7389    178.8455   1.4111624683e+02   3.6489239104e+01    0.4763227    0.1339181 -73.54  0.001909804    2.800    0.643
       242  -8.3367     37.3248    179.3308   1.3284597795e+02   3.2967179110e+01    0.1354642   0.09352967 -43.48 0.0007050524    1.704    0.413
       243 -10.5724    211.4978     32.1564   5.9340310407e+01   2.9347873015e+01    0.4532912    0.3759279  83.23  0.001846385    1.124    0.110
       244 -10.3595    245.0745     33.4762   5.6311928708e+01   2.2168448439e+01    0.5750769    0.1841215  63.24  0.002616784    2.989    0.665
       245  -9.2963     26.3761    176.7367   1.3518143537e+02   3.4772969157e+01    0.3804038     0.163227  42.68  0.001327929    2.408    0.585
       246  -8.9079    246.6712    172.0255   8.3609071154e+01  -1.5402338840e+00    0.2246508    0.0951484 -56.55 0.0007046066    4.477    0.777
       247 -11.2558     13.6903    164.4127   1.3685590163e+02   3.8966068122e+01    0.7889805    0.2620446  36.36  0.003423732    3.092    0.677
       248  -9.4664    123.6942     36.2731   7.4036539777e+01   4.8749776580e+01    0.5290693    0.2015834  63.24  0.002000777    2.985    0.665
       249  -9.3359    125.6786     32.1531   7.2374651830e+01   4.8795097668e+01    0.3662833    0.1741537  46.33  0.001601006    1.924    0.480
       250  -9.3099      9.8619    158.1734   1.3709711455e+02   4.0795439286e+01    0.2577616    0.1168217 -50.98  0.001233864    2.096    0.523
       251  -9.5860    155.1157     33.3835   6.7237947860e+01   4.1987927874e+01     0.405688    0.2309047 -16.55  0.001851591    2.656    0.623
       252  -8.9723    158.4407     29.2875   6.5625621814e+01   4.1700746776e+01     0.196966    0.1110105 -47.01 0.0006335037    1.934    0.483
       253 -10.7396    134.8636     33.9077   7.1036529797e+01   4.6544907975e+01    0.3069191    0.2432566 -21.59 0.0003144683    1.479    0.324
       254  -8.9497    138.3118     31.3473   6.9643674635e+01   4.6063188765e+01    0.2062714    0.1784319  30.46 0.0006500342    1.269    0.212
       255  -9.6281     32.5744     33.2806   1.0133291833e+02   6.5089437073e+01    0.2126236    0.1474157 -15.67 0.0007015975    1.233    0.189
       256 -10.2513      2.4929    160.4104   1.3915811845e+02   4.0822262479e+01    0.4668867    0.2118594 -74.01  0.002054268    1.752    0.429
       257 -10.4225     16.3564    159.5853   1.3562884941e+02   3.9912986297e+01    0.3137726    0.2378665   8.07  0.001888808    1.794    0.442
       258 -10.8227     35.3389     98.6588   1.1972220970e+02   5.2708940956e+01    0.4773943    0.2896112   2.94            0    2.109    0.526
       259 -13.2513     17.1693     56.8311   1.1564730674e+02   6.2772370108e+01     1.586553    0.8458076  17.23  0.003490299    1.990    0.498
       260  -9.4712    235.1994    249.1603   9.9980953809e+01  -1.2775273863e+01    0.1510734    0.1402931  -4.48  0.001076057    1.346    0.257
       261 -11.8986     39.5609     85.4852   1.1504408533e+02   5.5107708038e+01     1.708689     0.742588 -37.05  0.007454437    2.304    0.566
       262 -12.1405    110.7593     65.9637   8.6269496653e+01   4.7327570812e+01     1.829876     1.218111  80.90  0.007713872    2.771    0.639
       263  -9.0690    125.4835    249.0180   1.2202895368e+02   4.0657235775e+00    0.1884297    0.1313363 -55.96  0.001034785    1.603    0.376
       264  -9.2124      3.5771    245.7154   1.4560431605e+02   2.1403052152e+01     0.205461   0.08404314 -72.15 0.0008335213    2.110    0.526
       265  -9.8917    142.3802    243.5187   1.1768579647e+02   2.3551359600e+00    0.3295437    0.2113262  22.13  0.001594178    1.828    0.453
       266 -12.0419      5.5211    141.3026   1.3620385683e+02   4.5183289062e+01     1.027446    0.5102866 -75.89  0.003117901    1.732    0.423
       267 -11.5388     77.8153     62.3939   9.4896725801e+01   5.4158339827e+01    0.9450719    0.4374452 -25.86  0.001835099    3.011    0.668
       268  -9.0172    167.7591    242.0072   1.1210252917e+02  -1.5520265320e+00    0.1678817     0.113098 -46.18 0.0008872504    1.623    0.384
       269  -8.5742    210.7096    239.6796   1.0300088494e+02  -7.8917152789e+00    0.1309636   0.08945005  -4.73  0.000700969    1.603    0.376
       270 -12.3732    101.8031     54.0343   8.4983213807e+01   5.1007874373e+01    0.9431756    0.6107288  14.14  0.004483688    2.097    0.523
       271 -10.1920     14.6159    237.3372   1.4309974398e+02   2.2001440854e+01    0.3599911    0.1559059 -83.32   0.00178827    2.069    0.517
       272  -9.7982    228.1716     31.1794   5.7432987231e+01   2.5912344966e+01    0.2766126      0.19305 -81.04  0.001141404    1.215    0.177
       273 -10.5275    224.5047     26.0233   5.6772055753e+01   2.7329731626e+01    0.5064277    0.2538543 -79.31  0.001291391    2.199    0.545
       274 -10.3836    182.9937     27.3007   6.1639696392e+01   3.6304186153e+01    0.4154974    0.2642156  44.50  0.001751549    1.925    0.480
       275 -11.3374    167.1785     24.3983   6.3077433896e+01   4.0246122873e+01    0.4750981    0.2219683  55.24 0.0008943742    1.926    0.481
       276  -9.5082     12.8504    232.3402   1.4308048507e+02   2.3258280297e+01     0.258784    0.1524637  69.89  0.001252592    1.433    0.302
       277 -11.7367     43.1074     49.8834   1.0305121624e+02   6.1315043963e+01    0.7312131    0.3916967  23.19  0.002896294    1.903    0.475
       278 -10.0365    154.5026     24.8496   6.5085851229e+01   4.3098831724e+01    0.3436776    0.2541717 -76.07  0.001041714    1.475    0.322
       279 -11.6192     37.4469     41.6250   1.0239928392e+02   6.3293585683e+01     1.223273    0.5588315  18.55  0.005795627    2.639    0.621
       280 -12.0386     11.8704    108.5686   1.2947268481e+02   5.2434296338e+01     1.035483    0.6281531 -21.92  0.005712402    1.946    0.486
       281  -7.8993     40.7081    237.2744   1.3813003769e+02   1.8999460906e+01    0.1271014   0.07577595  67.67 0.0002609923    1.519    0.342
       282  -9.2561    148.2672     23.8819   6.5829774075e+01   4.4625689141e+01    0.3670741    0.1814922  60.34  0.001725392    1.700    0.412
       283 -12.6157     60.8072     71.0284   1.0338074723e+02   5.5304934272e+01     1.606553    0.8183404  43.74  0.007424673    2.326    0.570
       284  -8.9588    184.5058    236.0009   1.0763426872e+02  -3.1942401364e+00    0.1687921    0.1216615 -75.54 0.0008090586    2.426    0.588
       285 -11.1660     17.8138     81.5112   1.2190856192e+02   5.7921121874e+01    0.2337321    0.1986724 -19.15 0.0004890058    1.158    0.137
       286 -10.3622     46.2119    144.9408   1.2548489533e+02   4.0545877207e+01    0.4965947    0.3768279 -27.22  0.002315548    1.581    0.368
       287  -8.6157    197.5172     22.5922   5.8839067558e+01   3.3586131469e+01    0.1680903    0.1492576 -67.94  0.001150487    1.190    0.160
       288 -11.1602     34.2581    150.0913   1.2963590567e+02   4.0566600905e+01    0.4126692    0.2971073  12.00 0.0002085366    1.813    0.448
       289  -9.3669     97.5243     22.1288   7.5595835309e+01   5.5830602219e+01    0.2218112    0.1557213  51.41  0.000675052    1.254    0.203
       290 -10.6905     39.3384    147.4225   1.2782242641e+02   4.0695404227e+01    0.4184681    0.3098705 -52.09  0.001332873    1.246    0.198
       291  -8.5064     86.9596     15.7829   7.6107471265e+01   5.8530558525e+01    0.1546282   0.08338398  50.37 0.0004629042    1.573    0.364
       292 -10.2434     38.1803    143.1077   1.2745007129e+02   4.1890084433e+01    0.2733269    0.2340884 -26.45 0.0004536874    1.344    0.256
       293 -12.9140     14.5724    125.3344   1.3142377365e+02   4.8337098583e+01     1.394873     1.139179 -74.87  0.003421717    1.136    0.120
       294  -9.1295     87.3651    148.9583   1.1462935279e+02   3.3774543496e+01    0.2548468    0.2088731  56.11  0.000744645    1.307    0.235
       295  -9.8902     65.9915    148.4558   1.2052403775e+02   3.7143677001e+01      0.29466    0.2366427 -17.19  0.001527812    1.559    0.358
       296 -11.3008     23.3114    136.0818   1.3055628126e+02   4.5048593053e+01     1.006976    0.5716691  85.97  0.004651463    2.327    0.570
       297 -10.7260     31.7593    141.0007   1.2892615262e+02   4.3064138495e+01    0.4088584    0.2700019 -43.44 0.0003190531    1.519    0.342
       298  -9.8743     28.6884    139.6934   1.2958917424e+02   4.3679998294e+01     0.303078    0.1839847 -65.30  0.001026301    1.377    0.274
       299  -9.0338     80.8028    140.4734   1.1472333014e+02   3.6943634839e+01    0.2892464    0.1706055 -42.03 0.0006442487    1.759    0.432
       300  -9.9464     54.8314    138.1145   1.2178020735e+02   4.1205091762e+01    0.3471867    0.1916858 -50.42 0.0008569978    1.628    0.386
       301  -9.4865     48.5694    138.6059   1.2369464440e+02   4.1844761731e+01    0.3880762    0.2324344  53.51  0.001812523    2.054    0.513
       302  -9.1744    237.2043    135.3805   7.7720799352e+01   6.9288754049e+00    0.1794863    0.1319325  67.44 0.0008788555    1.684    0.406
       303  -9.3586     86.2285    134.2588   1.1181540231e+02   3.7601529273e+01    0.3721225    0.2282055  24.51  0.001258219    2.001    0.500
       304 -10.8500     46.1687    130.9158   1.2297696287e+02   4.4013849483e+01    0.5234859    0.3710333 -32.37   0.00275107    1.555    0.357
       305 -10.8690     40.2184    127.2257   1.2407102135e+02   4.5566097603e+01    0.3687808    0.2919871 -72.88  0.001397923    1.227    0.185
       306 -10.3502     72.3191    129.8420   1.1492718831e+02   4.0852169370e+01    0.4382425    0.2390087 -48.46  0.001691461    1.686    0.407
       307  -9.7074     54.8146    132.4770   1.2069763761e+02   4.2597165227e+01    0.3444909    0.1999695  11.71  0.001485053    2.506    0.601
       308  -9.3637     35.0405    130.0280   1.2613551150e+02   4.5421412795e+01    0.2085485    0.1539769  77.92 0.0009131985    1.639    0.390
       309 -10.5209    219.3227     34.5422   5.8996854050e+01   2.7350600017e+01    0.4923427    0.4163725  39.71  0.003179015    1.733    0.423
