#   1 NUMBER                 Running object number                                     
#   2 MAG_AUTO               Kron-like elliptical aperture magnitude                    [mag]
#   3 X_IMAGE                Object position along x                                    [pixel]
#   4 Y_IMAGE                Object position along y                                    [pixel]
#   5 X_WORLD                Barycenter position along world x axis                     [deg]
#   6 Y_WORLD                Barycenter position along world y axis                     [deg]
#   7 A_WORLD                Profile RMS along major axis (world units)                 [deg]
#   8 B_WORLD                Profile RMS along minor axis (world units)                 [deg]
#   9 THETA_WORLD            Position angle (CCW/world-x)                               [deg]
#  10 FWHM_WORLD             FWHM assuming a gaussian core                              [deg]
#  11 ELONGATION             A_IMAGE/B_IMAGE                                           
#  12 ELLIPTICITY            1 - B_IMAGE/A_IMAGE                                       
         1 -14.2358    200.6655     16.5061   6.3513900223e+01   3.2593124130e+01      2.85777     1.550261  27.12    0.0102085    2.360    0.576
         2 -13.7937    205.7910      9.7707   6.0828483078e+01   3.1919163499e+01     1.622058    0.7637301  47.45  0.001480341    2.181    0.542
         3 -13.7470      4.2751     10.6790   1.2208064004e+02   7.2343260695e+01     2.106128    0.8537874 -47.72   0.01152685    1.720    0.418
         4 -10.8768    144.1212    243.2072   1.2421054061e+02   1.0541891601e+01    0.1678894    0.1316075  56.66 0.0004613252    1.278    0.218
         5 -11.2261    248.1388    249.9366   1.0875737463e+02  -4.4769492183e+00    0.3829601    0.1112721  37.34  0.002052579    2.415    0.586
         6 -11.8251    140.2236    249.9981   1.2549833667e+02   1.0267549524e+01    0.4052224    0.1388319  41.92  0.002252309    2.087    0.521
         7 -12.4048    126.2879    245.0167   1.2727095954e+02   1.2739882758e+01    0.4711256    0.3133359   5.62  0.002811009    3.264    0.694
         8 -12.9490    100.4142    247.2466   1.3159432340e+02   1.5791943073e+01    0.4731846    0.3156996  46.86  0.003662852    1.106    0.096
         9 -11.7814    105.6327    246.1452   1.3068021278e+02   1.5280761068e+01     0.238703    0.1376779  46.22 0.0009473315    1.257    0.204
        10 -12.6892     81.3645    248.4507   1.3466739200e+02   1.7935477764e+01    0.5979137     0.200084  42.96  0.003577763    2.098    0.523
        11 -11.9566     82.7615    244.0031   1.3415348574e+02   1.8374355751e+01    0.2962821    0.1453308  60.38     0.001957    1.843    0.458
        12 -11.6405     65.7661    249.9101   1.3715356044e+02   1.9516420709e+01     0.316425    0.1115473  40.44  0.001964448    2.137    0.532
        13 -15.4027     19.7880    171.6981   1.4048937326e+02   3.6939330828e+01     5.255877     1.643915  81.90    0.0210618    4.619    0.784
        14 -15.4983      2.9319    229.6945   1.4575351790e+02   2.8575681364e+01     6.711456    0.9285919 -77.79   0.03056708    5.889    0.830
        15 -14.7798     44.9480    229.1012   1.3926243779e+02   2.4745148725e+01     1.766528     1.544629 -33.15  0.003766856    2.051    0.513
        16 -15.4849     50.2744    219.1012   1.3783644944e+02   2.5731455470e+01     5.508774      0.85977  40.24   0.01314467    3.801    0.737
        17 -11.4795    149.8594    229.6375   1.2182018988e+02   1.1402163561e+01    0.3037639    0.1517148  33.36  0.001782325    1.819    0.450
        18 -11.2370    120.2528    239.1040   1.2771823859e+02   1.4300479357e+01    0.1633659    0.1284448 -76.44  0.001322033    1.615    0.381
        19 -10.5297    193.4192    195.5664   1.0961173388e+02   8.9759015622e+00    0.5366445     0.295373 -61.44  0.001819499    7.308    0.863
        20 -11.4971     68.1982    195.3481   1.3298180843e+02   2.7642633407e+01     0.294911    0.2148032 -42.69  0.001988013    2.082    0.520
        21 -11.6053     73.1975    188.2130   1.3140192596e+02   2.8288899600e+01    0.2268914    0.1981131 -66.29 0.0005164898    1.364    0.267
        22  -9.2098    113.9508    193.1677   1.2406901690e+02   2.1945742815e+01    0.1816328    0.1272554  17.87 0.0007396133    2.026    0.506
        23  -9.1513    125.4426    185.3906   1.2085491494e+02   2.1507562313e+01    0.2357708    0.1021398  29.29 0.0009476113    3.362    0.703
        24 -10.7835     82.1144    175.9894   1.2839719340e+02   2.9374619779e+01    0.1949172    0.1737331 -74.96 0.0003677669    1.226    0.184
        25 -13.2000     69.5642    173.5837   1.3070541859e+02   3.1408972608e+01    0.4103248    0.2509987 -44.96  0.001844583    2.306    0.566
        26 -12.0525     89.0372    167.4141   1.2595959966e+02   3.0053184056e+01    0.7236368    0.4182165  54.82  0.004076298    1.648    0.393
        27 -13.0597     67.3606    144.3599   1.2786662478e+02   3.7468098178e+01     1.107265    0.5771281  83.84  0.004794448    2.740    0.635
        28 -12.3520     58.2056    132.7961   1.2855393456e+02   4.0994072005e+01     1.356313     0.419017 -76.56  0.003806686    6.705    0.851
        29  -9.5331    103.4859    147.0123   1.1989825432e+02   3.1920120037e+01    0.2388712    0.1499729 -40.68  0.001229638    1.959    0.490
        30 -11.9463     89.7528    150.2507   1.2351851479e+02   3.3302149851e+01    0.2295582    0.2242601 -43.72  0.000487153    1.226    0.185
        31  -9.4180    134.3668    148.2515   1.1317766058e+02   2.6578084094e+01    0.1792421    0.1255507 -60.93 0.0006973456    1.653    0.395
        32  -9.9613    101.0244    150.9760   1.2107582083e+02   3.1510574746e+01    0.2840975    0.2033138 -50.38 0.0008179773    1.510    0.338
        33  -8.8475    192.3414    144.2367   1.0034749396e+02   1.6344886819e+01    0.1726977    0.1247581 -39.72 0.0003794987    1.538    0.350
        34  -9.7812    111.3379    136.3911   1.1626347931e+02   3.2797830328e+01    0.2752081    0.2137948 -11.99  0.001473674    1.840    0.457
        35 -10.4145     99.0244    133.5549   1.1869984426e+02   3.5338885901e+01    0.2441652    0.2000009 -32.58 0.0008547634    1.476    0.322
        36 -11.4063     50.1444    130.0221   1.3017864336e+02   4.2482291568e+01      0.25429    0.1933771 -86.50 0.0007103034    1.159    0.137
        37 -14.1097      9.5642    207.1082   1.4397844181e+02   3.1573659965e+01     1.128332    0.7938314  37.45  0.009575368    1.596    0.373
        38  -9.5440    108.0345    123.4533   1.1460616703e+02   3.5992619301e+01    0.1865335    0.1750454 -66.24 0.0003016447    1.051    0.049
        39 -11.1149    168.0746    113.2188   9.8200294407e+01   2.6412455998e+01    0.3200241    0.2939032 -85.86 0.0006539369    1.343    0.255
        40 -13.0560     32.0569    156.4181   1.3696345742e+02   3.8798297740e+01    0.6476911    0.3089791 -75.55  0.003802898    1.836    0.455
        41 -10.9546     43.9799    109.3496   1.2901014037e+02   4.7661908932e+01    0.2364044    0.1922664  71.49  0.001559435    1.222    0.182
        42 -11.7129     68.9159    235.0892   1.3577250562e+02   2.1245357168e+01    0.2588851    0.1806221  74.57  0.001661035    1.299    0.230
        43 -11.4748     75.3149    242.4123   1.3522337215e+02   1.9467262094e+01    0.2542579   0.09691613  43.21 0.0008986189    1.897    0.473
