#   1 NUMBER                 Running object number                                     
#   2 MAG_AUTO               Kron-like elliptical aperture magnitude                    [mag]
#   3 X_IMAGE                Object position along x                                    [pixel]
#   4 Y_IMAGE                Object position along y                                    [pixel]
#   5 X_WORLD                Barycenter position along world x axis                     [deg]
#   6 Y_WORLD                Barycenter position along world y axis                     [deg]
#   7 A_WORLD                Profile RMS along major axis (world units)                 [deg]
#   8 B_WORLD                Profile RMS along minor axis (world units)                 [deg]
#   9 THETA_WORLD            Position angle (CCW/world-x)                               [deg]
#  10 FWHM_WORLD             FWHM assuming a gaussian core                              [deg]
#  11 ELONGATION             A_IMAGE/B_IMAGE                                           
#  12 ELLIPTICITY            1 - B_IMAGE/A_IMAGE                                       
         1 -13.8988    221.8898     20.7953   2.3930245028e+01   2.8999986049e+01    0.7848197    0.6609755 -69.57  0.003917614    1.089    0.081
         2 -11.7261     59.6742      2.7772   4.4888950627e+01   6.6439992516e+01    0.4197714    0.1264563  48.42  0.001769422    2.397    0.583
         3 -10.7618     50.8360    247.3982   1.0505006729e+02   1.5559511612e+01    0.1517845    0.1255119  31.26 0.0004146644    1.075    0.070
         4 -10.3764    166.2174    249.3647   7.8647528065e+01   1.2032410530e+00    0.3162028    0.2190021  45.26 0.0008144341    2.041    0.510
         5 -19.5302     17.9710    145.5469   1.0467442068e+02   4.2695540182e+01     19.61538     6.534396 -77.32   0.06800142    3.228    0.690
         6  -9.6648     53.6338    205.0335   1.0054235146e+02   2.4479757153e+01    0.1871796     0.150871  63.97 0.0004390992    1.290    0.225
         7 -10.9388    154.8712    243.6906   8.0312705864e+01   3.5539427120e+00    0.2131581    0.1556769 -18.51 0.0004066566    1.325    0.245
         8 -10.3534     40.4133    200.8898   1.0368284987e+02   2.6848045009e+01    0.1828696    0.1569902  55.42 0.0004932036    1.119    0.106
         9 -11.1360     46.0753    238.6377   1.0548284220e+02   1.7842757445e+01    0.1065836   0.06478316 -83.31  0.000270801    1.901    0.474
        10 -10.1448    191.7575    192.6349   6.3761417021e+01   7.5708231212e+00    0.3862604    0.2210943 -64.18  0.001252925    5.576    0.821
        11  -9.8750     93.7718    236.2473   9.3726168501e+01   1.2821833357e+01    0.1927858     0.178736  88.64 0.0008131029    1.311    0.237
        12  -9.0503     89.5916    192.8335   8.9070760226e+01   2.2882526413e+01    0.1922251    0.1440288 -80.58 0.0009333273    1.695    0.410
        13 -12.0675     60.4936    228.6467   1.0113545324e+02   1.8399710860e+01    0.5448019    0.2250284 -48.25  0.001528779    2.840    0.648
        14  -9.3272     79.4651    190.9444   9.1643248565e+01   2.4702111302e+01    0.1899108    0.1238137  76.14 0.0005294082    2.271    0.560
        15 -10.5191     33.0596    190.4121   1.0470424507e+02   3.0082633639e+01    0.2394337    0.1937079 -10.21   0.00123627    1.416    0.294
        16  -9.8188     38.3060    185.6532   1.0275859570e+02   3.0754585522e+01    0.3046582     0.206863  37.79  0.001246237    1.412    0.292
        17 -10.5514     40.5111    182.9836   1.0184247385e+02   3.1200726979e+01    0.2464047    0.2055216  45.24 0.0006686961    1.175    0.149
        18 -10.2902    154.4167    179.2043   6.9520014924e+01   1.5894912849e+01     0.193741    0.1408298 -54.47 0.0006836629    1.641    0.391
        19 -11.0885    180.0189    176.3401   6.3123282331e+01   1.2341578041e+01     0.362233     0.258348 -57.17  0.001810304    1.873    0.466
        20  -8.6494     53.7976    233.9527   1.0325715808e+02   1.8006987127e+01    0.1705135    0.1470823  -6.80 0.0003353824    1.318    0.241
        21 -11.4978    121.5826    175.3483   7.7206600630e+01   2.2113768294e+01    0.3082634    0.2368854  37.67  0.001410463    1.307    0.235
        22 -12.1274    112.3803    174.1030   7.9515793103e+01   2.3883378802e+01    0.5172299    0.3987168 -67.41   0.00250174    1.598    0.374
        23 -11.7055    111.1452    167.9412   7.8702569570e+01   2.5524322938e+01    0.6951321    0.4323198  69.80  0.002426553    3.362    0.703
        24  -9.2731    199.6439    173.7858   5.8604529764e+01   9.7820675844e+00    0.1847342    0.1160732 -46.36 0.0003994617    1.674    0.403
        25 -10.2765    136.4860    174.5096   7.3084949007e+01   1.9847696778e+01    0.1525078    0.1368111   0.64 3.681857e-05    1.011    0.011
        26  -9.2106    149.6948    169.3261   6.8713684667e+01   1.8739817846e+01    0.1405561    0.1215683  75.55 0.0004076385    1.647    0.393
        27 -11.5685    247.6082    165.0576   4.8763847945e+01   4.5512086375e+00    0.5375106    0.1774977 -44.20  0.002068093    2.825    0.646
        28 -10.6390    245.5248    159.0121   4.7971563209e+01   5.7527324286e+00     0.234906    0.1535262 -38.92 0.0007897792    1.293    0.227
        29 -10.6002     97.4408    162.4039   8.1647564070e+01   2.9040097657e+01    0.2644429    0.2536086  34.76 0.0003047239    1.106    0.096
        30 -11.1694    133.8881    145.8822   6.7797626252e+01   2.6622824591e+01     1.188905    0.3136086 -53.80  0.002684784    6.495    0.846
        31 -11.3990     87.9766    152.0353   8.2555179875e+01   3.3060747101e+01    0.3325973    0.2999926 -23.08 0.0003495163    1.093    0.085
        32 -12.3923     93.9298    146.3371   7.9536568249e+01   3.3527210986e+01    0.7409933    0.5532942 -19.83  0.002570723    1.493    0.330
        33  -9.8996    111.9452    150.0208   7.4849354568e+01   2.9614488624e+01    0.2362013    0.2221327  22.37 0.0004571335    1.072    0.067
        34 -11.9714    106.1895    132.9896   7.2788321139e+01   3.4637420613e+01     0.696031    0.4257424 -56.22  0.001808084    1.831    0.454
        35 -10.3044    100.9574    128.9548   7.3470823730e+01   3.6519961108e+01    0.3099458    0.2669157  53.05  0.001111102    1.316    0.240
        36 -11.7455     94.2448    133.0877   7.6564181735e+01   3.6699346853e+01    0.3042794     0.280921  -6.80 0.0004161643    1.036    0.035
        37 -10.5524    114.9317    132.2989   7.0000644585e+01   3.3199775872e+01    0.2695076    0.2501533 -64.24 0.0003549098    1.236    0.191
        38 -10.8150    134.3787    128.5104   6.3650304128e+01   3.0318938350e+01     0.435259    0.3349265  58.82  0.002054994    1.586    0.369
        39 -10.4016    114.1437    126.6624   6.8888101449e+01   3.4629700572e+01    0.3034806    0.2436477 -17.02 0.0007544617    1.339    0.253
        40  -9.5185     96.0380    125.4568   7.4212997540e+01   3.8213754463e+01    0.2346408     0.149939  31.36 0.0004507796    1.526    0.345
        41 -10.5333    101.3815    121.9338   7.1648288822e+01   3.8082662323e+01    0.2935014     0.239151  -4.36 0.0005629996    1.318    0.241
        42  -9.4597    119.6670    121.6558   6.6045075803e+01   3.4686844523e+01    0.1655396    0.1197856  -5.71 0.0007050292    1.760    0.432
        43 -10.8551     76.9553    118.5960   7.9044919408e+01   4.3038540576e+01    0.3147909    0.1999512 -35.89 0.0008412542    1.644    0.392
        44 -12.0082     68.6121    116.2484   8.1498990437e+01   4.4876901289e+01    0.4650117    0.3971067 -19.51  0.001576513    1.144    0.126
        45  -9.3887    109.4954    116.8058   6.7840885791e+01   3.7729138732e+01    0.2190923    0.1535373 -45.20 0.0009880346    1.459    0.315
        46  -9.1993    183.5110    116.5397   4.9675355247e+01   2.2976451653e+01    0.1379444    0.1288481 -22.72 0.0002312145    1.032    0.031
        47  -9.9988    135.2381    112.0000   5.9336423124e+01   3.3602045052e+01    0.2046031    0.1268817 -42.32  0.000886129    1.632    0.387
        48 -10.9050     76.0390    111.9749   7.7769854258e+01   4.4775733061e+01    0.2348663    0.2160332   0.29 0.0003794594    1.016    0.016
        49 -11.3858    116.6131    109.8630   6.3918987635e+01   3.7845105434e+01    0.3953461    0.2946578 -53.72  0.001857156    1.500    0.334
        50 -11.7906    119.6983    103.3021   6.1283070015e+01   3.8589456236e+01    0.4884143    0.3397408  -1.51  0.002067193    2.037    0.509
        51  -9.8971    205.2888    110.0750   4.4452104291e+01   1.9998091338e+01    0.2024751    0.1921921  50.81 0.0006523568    1.167    0.143
        52  -9.0451    134.4759    103.4495   5.7317971215e+01   3.5472845849e+01    0.1499297    0.1430199  16.86 9.045129e-05    1.011    0.011
        53 -10.0157     54.4132    230.2956   1.0278680321e+02   1.8718353180e+01    0.2159731    0.1519934  87.19 0.0006873208    1.649    0.394
        54 -11.3255    114.4906     94.4602   6.0351816619e+01   4.1457683637e+01    0.3170837    0.2520364   9.58  0.001546082    1.420    0.296
        55 -12.4347     54.0853     76.7706   7.6811564331e+01   5.6112462814e+01    0.6194421    0.3752272  20.43  0.001592478    1.632    0.387
        56  -8.8260    105.4428     75.5462   5.7473254540e+01   4.6967135000e+01    0.1477452    0.1373905  31.07 0.0001560307    1.031    0.030
        57  -8.9831    101.3140     72.7134   5.7857847035e+01   4.8352032277e+01    0.1409355    0.1181799  79.41 0.0003901215    1.583    0.368
        58  -9.7417     95.7617     69.1135   5.8471329348e+01   5.0156855001e+01    0.2514437    0.1990641  64.38 0.0007727959    1.559    0.359
        59 -10.2277     42.4904    230.8169   1.0572815285e+02   1.9861501881e+01    0.1698849    0.1042237 -50.04 0.0009036592    1.882    0.469
        60 -12.7763    178.0932     61.8449   3.7690829841e+01   3.2946754628e+01    0.4570883    0.4236751 -38.23 0.0009521329    1.158    0.137
        61  -9.3742     90.6392    226.4580   9.3336785321e+01   1.5233755017e+01    0.1764898    0.1211472  16.87 0.0008072974    1.386    0.278
        62 -13.7380    194.2610     49.0879   3.2509192548e+01   3.1220785551e+01     1.014277    0.8239317  39.29  0.003645301    1.552    0.356
        63 -12.4177    200.1093     43.3661   3.0565073433e+01   3.0728567863e+01    0.4156006    0.3969118  56.10  0.001420685    1.273    0.215
        64 -10.1687     72.7877    226.3278   9.7825254591e+01   1.7472057909e+01    0.1733557    0.1445212  29.28 0.0003051453    1.059    0.056
        65 -11.4818     42.7661     45.2799   7.1280279984e+01   6.3893998082e+01    0.5807377    0.2169661  40.15  0.002037946    2.879    0.653
        66 -11.4537     33.2471     43.0486   7.5327429294e+01   6.5574050340e+01    0.4847897     0.199177  29.74  0.001596972    2.235    0.553
        67 -10.2991     58.3109     43.5463   6.3355578137e+01   6.1701510577e+01    0.2544993    0.2049765  41.23 0.0008053539    1.330    0.248
        68 -10.6290    242.4880    248.9694   6.3769108941e+01  -7.0196921553e+00      0.16606   0.08767203 -31.56  0.001039708    1.611    0.379
        69 -10.4006     60.4809     21.0031   5.2959117492e+01   6.4436229611e+01    0.2471091    0.1486573  33.62  0.000527687    1.432    0.302
        70 -10.6766     76.1291    244.3123   9.8854294485e+01   1.3352942092e+01    0.1655941    0.1606296 -12.73 0.0002582491    1.173    0.148
        71 -10.3213     79.1687     13.4351   4.3264204363e+01   6.1349613666e+01    0.3019089    0.1214057  65.44  0.001131713    3.203    0.688
        72 -10.2131     56.4968    210.9132   1.0039484810e+02   2.2796201447e+01    0.1823309    0.1342343 -78.22 0.0006983323    1.494    0.331
