#   1 NUMBER                 Running object number                                     
#   2 MAG_AUTO               Kron-like elliptical aperture magnitude                    [mag]
#   3 X_IMAGE                Object position along x                                    [pixel]
#   4 Y_IMAGE                Object position along y                                    [pixel]
#   5 X_WORLD                Barycenter position along world x axis                     [deg]
#   6 Y_WORLD                Barycenter position along world y axis                     [deg]
#   7 A_WORLD                Profile RMS along major axis (world units)                 [deg]
#   8 B_WORLD                Profile RMS along minor axis (world units)                 [deg]
#   9 THETA_WORLD            Position angle (CCW/world-x)                               [deg]
#  10 FWHM_WORLD             FWHM assuming a gaussian core                              [deg]
#  11 ELONGATION             A_IMAGE/B_IMAGE                                           
#  12 ELLIPTICITY            1 - B_IMAGE/A_IMAGE                                       
         1 -12.8820    105.6818     19.9139   3.5916231089e+02   5.5844730292e+01    0.4072296    0.2922372 -73.15 0.0006748355    1.456    0.313
         2 -11.5634     56.9572     29.6184   1.7767346211e+01   6.5967387533e+01    0.7012894    0.3734069  42.86  0.003220277    1.793    0.442
         3 -11.4735     20.6059     21.9727   3.4349725285e+01   7.3747200846e+01    0.5368047    0.3073442 -34.81   0.00168445    1.841    0.457
         4 -12.2989    149.9149     24.1404   3.5398738411e+02   4.4689355782e+01    0.5695305    0.3831473 -46.32  0.001926512    1.365    0.267
         5 -11.6623     35.4017     17.7436   2.2042094480e+01   7.2022516670e+01    0.5370111    0.3313132 -18.79  0.002264096    2.080    0.519
         6 -11.8222     15.6981     15.1614   3.4125654364e+01   7.5625592257e+01    0.4554757    0.2862826 -17.21  0.001695461    1.919    0.479
         7 -10.6376     17.0423      9.9933   2.9625682505e+01   7.6284116563e+01    0.2251192    0.1728991  41.68  0.000457999    1.374    0.272
         8 -11.2053     13.4434      9.2260   3.2105031486e+01   7.6925964995e+01    0.3381979    0.2102479 -58.62  0.001746202    2.403    0.584
         9 -12.0323    164.1370     18.3453   3.5084322718e+02   4.2086017070e+01    0.3495068    0.2582712  42.73  0.001888552    1.844    0.458
        10 -11.5649    127.3467     15.1877   3.5398381355e+02   5.1054085161e+01    0.4649075    0.3150866 -12.50  0.002048912    1.964    0.491
        11 -11.0718    132.3898     14.8166   3.5320703301e+02   4.9873785206e+01    0.3671066    0.2539014  61.54  0.001319646    1.440    0.305
        12 -10.3920    136.8409     14.3713   3.5252195313e+02   4.8851913042e+01    0.2415412    0.1844192  67.37  0.001441889    1.292    0.226
        13 -10.9692    228.5026     15.5199   3.4577476777e+02   2.9420000471e+01    0.1850711    0.1097176 -56.00 0.0005738756    1.245    0.197
        14 -10.8478     86.0166     14.1228   9.0579341232e-01   6.1285775231e+01    0.3024616    0.2241343   2.04  0.001620543    1.773    0.436
        15 -11.7049    104.5829     11.8002   3.5619996696e+02   5.6973597632e+01      0.45384    0.2742094 -23.57  0.001715797    1.912    0.477
        16 -12.0763     23.7846     10.9075   2.5137182901e+01   7.5078158829e+01    0.5142099    0.3614778  34.70  0.002201028    1.288    0.224
        17 -11.2488    190.8996     12.3486   3.4721341603e+02   3.6962233639e+01    0.2882636    0.1084514 -40.59 0.0008785906    2.047    0.511
        18 -10.9301      5.6656      9.8372   3.9718111827e+01   7.7798158802e+01    0.3852786    0.1478693 -46.84  0.001761116    2.519    0.603
        19 -10.9753    211.8069     10.1699   3.4549647546e+02   3.3050337062e+01    0.2240004    0.1827236 -19.37 0.0005815123    1.635    0.388
        20 -12.4129     63.4395      9.5894   4.8921336375e+00   6.7124601290e+01    0.3477378    0.2964537 -58.98   0.00213471    1.332    0.249
        21 -11.3971    168.5267      9.4552   3.4805978264e+02   4.2039872726e+01      0.32446     0.189931  60.94  0.001412741    1.872    0.466
        22 -10.4154     88.8362      8.0287   3.5757828299e+02   6.1205180522e+01    0.2341105    0.1754024  69.32 0.0009090045    1.173    0.148
        23 -10.1266      1.1571      7.3861   4.2745426643e+01   7.8705549300e+01    0.2169113   0.07711858 -50.99 0.0009036137    2.705    0.630
        24 -11.3289     41.1555      4.0974   1.0286619425e+01   7.2635666997e+01    0.3496637    0.2207373  30.13  0.001583765    1.686    0.407
        25 -10.4305    148.7434      5.4085   3.4854195615e+02   4.6925805204e+01    0.1732655    0.1019792  68.72 0.0008406302    1.618    0.382
        26 -10.0662    128.9647      4.9454   3.5033978008e+02   5.1658164196e+01    0.1780936     0.138055  48.53            0    1.499    0.333
        27 -11.9609    133.7178      2.2512   3.4895806967e+02   5.0756306679e+01    0.5014508    0.2113784  73.11  0.001485941    2.073    0.518
        28 -11.1628    113.7892      2.2791   3.5119822202e+02   5.5581783227e+01    0.3105267    0.2189093  82.46  0.001023795    1.237    0.192
        29  -9.9737    223.5446      2.5290   3.4333337071e+02   3.1642638839e+01    0.1108703   0.07877611 -57.47 6.903664e-05    1.002    0.002
        30 -10.8780    207.0386      2.2793   3.4399945029e+02   3.4757645787e+01    0.2406816    0.1162538 -84.42  0.001386776    1.954    0.488
        31 -10.4576    218.8071      3.1662   3.4366430301e+02   3.2446343913e+01    0.1341725    0.1204417 -52.25 0.0007144729    1.333    0.250
        32 -10.0695     12.1622      2.0938   2.7901246989e+01   7.8202669159e+01    0.1954304    0.1467279  10.98  0.001146526    1.266    0.210
        33 -10.1416      1.9185      1.8018   3.7944744930e+01   7.9591580889e+01    0.1909524    0.1404902  -7.08  0.001209268    1.278    0.217
        34 -10.2194    185.8556      1.3913   3.4486779865e+02   3.9100863170e+01    0.1498589   0.09470087  71.67 0.0004229449    1.651    0.394
        35  -9.8792    166.9997      1.3930   3.4601151258e+02   4.3154330485e+01    0.1668129    0.1013283  84.12            0    1.492    0.330
        36 -10.3576    152.5518      1.4250   3.4705874473e+02   4.6410774815e+01    0.2318852    0.1059477  80.66 0.0005970137    1.980    0.495
        37 -12.1778     48.9906     12.7805   1.2152200226e+01   6.9983097908e+01    0.6424859    0.2399614  52.25  0.002673504    2.329    0.571
        38 -10.8063     16.4077    108.2721   6.1953900553e+01   5.3161836896e+01    0.3346565    0.2364857 -59.10  0.001371492    1.321    0.243
        39 -12.0242     17.9886    101.3692   6.0251406537e+01   5.4953585763e+01    0.4357071      0.29091  87.99  0.001076494    1.588    0.370
        40 -10.2035    105.6717    107.6716   2.8134331899e+01   4.0080391670e+01       0.1567    0.1232201 -10.63 0.0007050984    1.707    0.414
        41  -9.7993     85.7440    103.3733   3.3256065374e+01   4.4950002825e+01    0.2041825    0.1489116  28.46 0.0004964028    1.515    0.340
        42 -11.1445     35.3078    102.9197   5.2813226536e+01   5.2846201351e+01    0.2890623    0.2232452 -11.51 0.0001954708    1.503    0.335
        43  -9.7224     92.6533    101.3325   3.0442395930e+01   4.4120119693e+01     0.163402    0.1213974  80.45 0.0004134992    1.765    0.434
        44 -10.8939     50.1190    100.5750   4.5990039172e+01   5.1591786546e+01    0.4232177    0.2942829  10.80  0.001705951    1.720    0.419
        45  -9.7682    156.6140     98.8002   1.3590437622e+01   3.1545052210e+01    0.1894865    0.1227448 -51.01 0.0002930771    1.456    0.313
        46 -12.6101    247.9874     95.3420   1.8431175339e-01   1.6187533568e+01    0.3764301    0.2631882 -12.85  0.002411272    1.984    0.496
        47 -11.4403     78.1721     94.3205   3.3432784716e+01   4.8557277150e+01    0.8992623    0.3034016 -48.16  0.002878002    2.934    0.659
        48 -10.6359      8.1713     95.8507   6.3996719012e+01   5.7172524283e+01    0.2749296     0.218084  -5.15  0.001474404    1.381    0.276
        49 -11.6016     12.3776     96.9441   6.2172685709e+01   5.6595836730e+01     0.272912    0.1808077 -33.54  0.001307634    1.610    0.379
        50 -11.3692     68.4173     95.0355   3.7249327159e+01   5.0135353004e+01    0.3589128     0.295822  11.99 0.0007884344    1.400    0.286
        51 -10.5221     42.9947     94.4707   4.7620845232e+01   5.4179441137e+01    0.2780242    0.2552015 -44.43  0.001054271    1.081    0.075
        52 -10.9637     43.8632     90.5221   4.6282555424e+01   5.5101019362e+01    0.2636372    0.2097457 -59.72  0.001323307    1.222    0.182
        53 -11.9431     22.9960     94.4369   5.6768744203e+01   5.6425762085e+01    0.3507491    0.2686756 -25.92  0.001093237    1.415    0.293
        54 -10.6449     35.4689     92.1346   5.0480373003e+01   5.5738757811e+01    0.2416818    0.1996982  59.51  0.000667937    1.309    0.236
        55 -11.7559     98.5034     90.6750   2.5621883635e+01   4.5391602914e+01    0.2705219    0.2605956  43.20 0.0003216319    1.079    0.073
        56 -10.2388     52.3599     87.7474   4.1814984719e+01   5.4590720594e+01    0.2200309    0.1322958 -49.36 0.0006410848    1.632    0.387
        57 -12.3901      6.3788     88.1041   6.3791788426e+01   5.9394447201e+01    0.6432871    0.3695895  12.52  0.003000778    1.871    0.466
        58 -10.3840     89.9604     85.3040   2.6744538137e+01   4.8345288912e+01    0.3280666    0.2038688 -66.81  0.001325792    2.076    0.518
        59 -11.3584     44.8138     84.3018   4.4247424752e+01   5.6573790390e+01    0.4475521    0.3655797 -11.77  0.002061922    1.389    0.280
        60 -10.7110     36.4052     85.7351   4.8542120073e+01   5.7313714467e+01    0.3483553    0.1847066   8.82  0.001320817    2.566    0.610
        61 -10.1294     66.8288     88.2081   3.5962301248e+01   5.2094085997e+01    0.2142174    0.1763452 -29.35 0.0005821364    1.351    0.260
        62 -13.6576    247.7163     77.4405   3.5679042609e+02   1.8673918950e+01     0.852519    0.2379655 -41.05  0.003982844    2.441    0.590
        63 -10.4059    142.5596     81.7240   1.1912150298e+01   3.7685690134e+01    0.4153054    0.1664453 -49.07 0.0009567448    2.507    0.601
        64 -11.8363     60.8574     83.4281   3.6982855625e+01   5.4289515596e+01    0.3182943    0.2794541  55.49 0.0004057325    1.185    0.156
        65  -9.8877    113.3023     82.9907   1.9116466183e+01   4.3870767708e+01    0.2151887    0.1945788 -57.85 0.0006499346    1.075    0.069
        66 -11.7530     27.9564     85.0786   5.2474020833e+01   5.8451151446e+01    0.5355744    0.4355402 -44.31  0.001694727    1.197    0.165
        67 -10.0921     75.8580     75.1317   2.8472350334e+01   5.3446274847e+01    0.2972732    0.2209786 -41.91 0.0008055872    1.390    0.280
        68 -11.4374     75.7634     79.2656   2.9837162253e+01   5.2540659565e+01    0.4589334    0.3352549  64.08  0.001383076    1.613    0.380
        69 -10.1804     71.6745     77.6793   3.0878875424e+01   5.3687899868e+01     0.261727    0.2289592  30.04 0.0009126486    1.185    0.156
        70 -10.4063     67.7000     80.9591   3.3460928999e+01   5.3671561817e+01    0.2771209    0.2192905   1.41  0.001207453    1.610    0.379
        71 -10.9503     89.2726     77.0409   2.4398986887e+01   5.0290334505e+01    0.4585713     0.253437  48.54  0.001247093    1.811    0.448
        72 -10.4675     94.3699     76.0828   2.2455767685e+01   4.9409109647e+01    0.2812985    0.2537844  84.42  0.001037468    1.149    0.130
        73 -11.0168     53.0597     76.0190   3.8104863778e+01   5.7373600544e+01    0.3700234    0.3146679 -30.55  0.001931833    1.240    0.194
        74 -11.4202     14.2718     74.3133   5.7236146290e+01   6.2537941511e+01    0.3289609     0.289553  81.81  0.001873497    1.226    0.184
        75  -9.8622    118.6281     85.7036   1.8520314095e+01   4.2156989040e+01    0.1503762    0.1206234  10.64 0.0007027922    1.736    0.424
        76 -11.6016     27.6132     73.3780   4.9808293729e+01   6.1521942555e+01    0.3317725    0.2524631  -7.95 0.0001571153    1.455    0.313
        77 -11.9612      1.9919     71.0304   6.3494705874e+01   6.4176825361e+01    0.8011263    0.1907401 -69.98  0.002639496    3.392    0.705
        78 -11.6011      9.2415     55.4268   5.5796764808e+01   6.7695365438e+01    0.7632645    0.3126417  22.78  0.003203479    2.391    0.582
        79 -11.0990     11.6609     59.7325   5.5380738304e+01   6.6452573821e+01    0.3447101    0.2340302 -34.86 0.0005950266    1.438    0.305
        80 -12.1288      7.6030     63.1910   5.8685164401e+01   6.5874657708e+01     0.413483    0.2220158 -50.03 0.0005972767    1.665    0.399
        81 -12.5908      4.1809     61.1194   6.0338279962e+01   6.6607340950e+01    0.3714345    0.2808847 -25.86 0.0003417938    1.299    0.230
        82 -10.5185     40.5449     72.9473   4.3062424886e+01   6.0010963532e+01    0.3285496    0.2448296  -4.11  0.001024649    1.605    0.377
        83 -10.1705     40.1415     68.6370   4.1940962826e+01   6.1112973999e+01    0.2506926    0.2317563  42.88 0.0007578922    1.123    0.110
        84 -10.8066     34.2426     71.2778   4.5757167207e+01   6.1262227672e+01    0.3673187    0.2165783  34.53  0.001668046    1.697    0.411
        85 -12.6163    123.6021     68.3493   1.2120463795e+01   4.4366834549e+01    0.3199841    0.2736752  53.16 0.0004153379    1.216    0.178
        86  -9.7611    218.5174     67.4984   3.5746352779e+02   2.4777170183e+01    0.1221806    0.0950436 -50.37 0.0001887037    1.002    0.002
        87  -9.8923    102.1717     66.7994   1.7092326398e+01   4.9539719205e+01    0.1925514    0.1757473  15.56 0.0003342342    1.293    0.227
        88 -10.3904     14.2823     67.1175   5.5623952761e+01   6.4390299523e+01    0.5048105    0.1840095  12.05   0.00179128    3.213    0.689
        89  -9.7690    201.8414     63.8266   3.5838126073e+02   2.8339787552e+01    0.1795326     0.120304 -57.03  0.001056416    1.304    0.233
        90 -10.0217    105.4601     63.4857   1.5076977067e+01   4.9411577062e+01    0.1473013    0.1385424 -87.35 8.101058e-05    1.019    0.019
        91 -12.2295     45.0831     60.7399   3.6800118088e+01   6.2206155329e+01     0.775004    0.4281596  29.27  0.002570162    1.885    0.469
        92 -11.1861     40.2815     56.5857   3.7760268779e+01   6.3881863932e+01    0.3595037    0.2262624  41.18  0.001026086    1.614    0.381
        93 -10.2324     92.9152     62.5105   1.8363894713e+01   5.2432249833e+01    0.2248314    0.1427121  53.89 0.0007007506    1.555    0.357
        94  -9.4088    150.7330     60.6761   4.5033168557e+00   3.9473336200e+01    0.1271222    0.1106778   8.16 0.0004506729    1.566    0.362
        95 -12.1291     24.9066     56.8549   4.6492266664e+01   6.5877712117e+01    0.5533569    0.4337199  45.76  0.000640152    1.410    0.291
        96 -10.5743    106.6857     58.1883   1.2961248652e+01   5.0078153002e+01    0.2390849    0.1879342  71.57 0.0003068468    1.296    0.228
        97 -11.6290     75.6697     55.6560   2.1643782360e+01   5.7502677288e+01     0.502466    0.2271615 -43.97  0.001962635    2.280    0.561
        98 -10.2105     72.9499     47.4643   1.9410930888e+01   5.9595189955e+01    0.6889939     0.317056 -55.06  0.002480637    3.077    0.675
        99 -11.2114     51.5049     53.3650   3.0876868644e+01   6.2715565990e+01    0.3231311    0.2464008 -37.20 0.0005834173    1.363    0.266
       100 -10.1482      2.3149     54.9298   6.0188458929e+01   6.8257716903e+01    0.1952433    0.1517186 -50.48 0.0004535904    1.155    0.134
       101 -10.9687    126.1471     52.6775   6.6370237022e+00   4.6422983178e+01    0.2703544    0.2045053 -29.96 0.0002613082    1.482    0.325
       102 -10.8473     60.2681     51.9662   2.6329194205e+01   6.1361402578e+01    0.5905841    0.2508994 -51.84  0.002197217    2.710    0.631
       103 -10.9943     32.2409     52.3954   4.0641882031e+01   6.5979145354e+01    0.4194418    0.2343694  14.33  0.001193441    2.241    0.554
       104 -10.1303    112.5004     50.4942   8.8880418812e+00   5.0002236552e+01    0.2346647    0.2149784 -35.56 0.0007467935    1.194    0.163
       105 -11.7747    117.0822     45.2150   6.0550868371e+00   4.9730729503e+01    0.6202643    0.4423259 -18.98   0.00265969    1.823    0.451
       106 -10.0492     55.4437     49.9609   2.7661509810e+01   6.2680696670e+01    0.2068023    0.1798563  36.83 0.0003349695    1.111    0.100
       107 -10.3603     82.3320     48.0684   1.6379182902e+01   5.7422895362e+01       0.3665    0.2307922 -13.72  0.001473668    2.725    0.633
       108 -10.3062      2.3780     48.2474   5.8548617380e+01   6.9884549171e+01    0.1817075    0.1230505 -82.12  0.000947963    1.648    0.393
       109 -12.3001     41.0344     44.2105   3.2408942331e+01   6.6382059047e+01      1.11619    0.3232149  36.07  0.003665355    3.467    0.712
       110 -10.3912     13.9844     45.6241   4.9698626339e+01   6.9628958289e+01     0.254259    0.1647936 -34.23 0.0008792431    1.520    0.342
       111 -11.5560     19.1316     41.5087   4.4668718372e+01   7.0021746471e+01    0.4933488    0.3572952  84.61  0.001201467    2.090    0.522
       112 -11.3175     26.5261     42.5927   4.0246924191e+01   6.8883976570e+01    0.2538165    0.2389246  60.40 0.0006047435    1.243    0.195
       113 -10.0739    155.9126     41.8890   3.5838159258e+02   4.1065403638e+01    0.1836976    0.1835834 -88.05 0.0006897093    1.259    0.206
       114 -10.1741    110.3896     37.8490   4.9073065704e+00   5.2416778726e+01    0.3674979    0.1431964 -28.70 0.0004789771    3.158    0.683
       115 -10.4873     56.5942     41.8104   2.3652327900e+01   6.3997816065e+01    0.2393741    0.1838664  44.04 0.0004021321    1.242    0.195
       116 -11.7741    120.0718     37.6117   2.8423441168e+00   5.0108986154e+01    0.4954999    0.3067705 -64.56  0.001623365    1.824    0.452
       117 -11.0034    249.6618     38.8898   3.4923895851e+02   2.3231750705e+01    0.1903822     0.127949 -70.38 0.0007245556    1.393    0.282
       118 -11.1212     78.5670     34.3353   1.1929945220e+01   6.0487118156e+01    0.3738092    0.3157761  -1.08  0.002078309    1.437    0.304
       119 -10.6771     23.4723     37.2814   3.9967682466e+01   7.0396278312e+01    0.4005824    0.1680204  42.48  0.001607334    2.709    0.631
       120 -10.6568      2.4198     38.5416   5.5775089896e+01   7.2162993502e+01    0.4256699    0.1954739   1.16  0.001849982    2.439    0.590
       121 -10.0619      3.1080     35.1183   5.4116131998e+01   7.2894118493e+01    0.2836403    0.2383761  36.06  0.001336183    1.341    0.254
       122  -9.8413     67.2641     31.7603   1.4679360081e+01   6.3422072108e+01    0.2286585    0.1633693   8.13  0.001099866    1.995    0.499
       123 -10.2153     60.4996     36.9665   1.9765971052e+01   6.4046527872e+01     0.281426    0.1386303 -39.51 0.0006215984    2.153    0.536
       124 -10.1402     62.3986     33.3771   1.7317531256e+01   6.4229492613e+01    0.3522203    0.1107588  44.57  0.001193855    3.133    0.681
       125 -10.8216    153.1428     35.6095   3.5694869148e+02   4.2533399540e+01    0.2182668    0.2049847 -50.22 0.0005937188    1.196    0.164
       126 -10.9848    175.4456     34.2440   3.5398418971e+02   3.7721169727e+01    0.2720844    0.1667117 -66.22 0.0007338097    1.538    0.350
       127 -10.7437    240.0559     32.6013   3.4858137493e+02   2.5527372392e+01     0.203908    0.1377379 -19.48  0.001320719    2.017    0.504
       128 -11.2926    107.0759     31.5911   3.3212828162e+00   5.4075634025e+01     0.533186    0.3209076  17.77  0.001827463    3.413    0.707
       129 -10.6689    131.7565    240.6073   4.5219858895e+01   7.5958403841e+00    0.1708088   0.09492847  31.79 0.0009455644    1.594    0.373
       130 -11.7081    110.8043     25.4292   2.7440681813e-01   5.3944651640e+01    0.3416394    0.2667015  42.28  0.001370377    1.459    0.315
       131 -11.3894    115.2257     24.5891   3.5915408431e+02   5.2963575656e+01    0.3222279    0.2257415  48.08 0.0009670504    1.553    0.356
       132 -11.3502    247.8234    222.8436   2.1980111764e+01  -1.4443879388e+00    0.2683217    0.2030334 -52.60  0.001918493    2.520    0.603
       133 -10.4661     44.9753     27.3096   2.2201981925e+01   6.8739038530e+01    0.1907324    0.1794846  66.91  0.000347101    1.205    0.170
       134 -11.7410     26.6901     27.9242   3.3296167348e+01   7.1779495455e+01     0.487082    0.3061838 -56.16  0.002418799    1.925    0.481
       135  -9.9437    243.4189    186.2078   1.6932026491e+01   3.7781058321e+00    0.1499468   0.08290669 -41.59  0.000945486    1.635    0.388
       136 -12.7814    164.1024     27.6132   3.5339631413e+02   4.1033387391e+01    0.6355262    0.2410883  61.39   0.00279433    2.609    0.617
       137 -11.5519    127.6785     29.2884   3.5867757573e+02   4.9361318831e+01    0.5532542    0.1872547  64.86  0.001954107    2.679    0.627
       138 -11.2254    125.3245     26.6766   3.5817761225e+02   5.0251866512e+01    0.3683674      0.27814  55.67  0.001361434    1.377    0.274
       139 -10.9480      8.8241     29.4048   4.7304270182e+01   7.3675733912e+01    0.3100244    0.2051419  -9.67  0.001551323    1.583    0.368
       140 -10.4247    177.4960     28.9601   3.5241366391e+02   3.7926032344e+01    0.1910273    0.1103105 -36.56 0.0008653908    1.601    0.375
       141 -10.3868    189.1771     27.3226   3.5096734920e+02   3.5654462669e+01    0.2287288    0.1918275  14.39  0.001463792    1.848    0.459
       142 -11.2079      6.2613    186.0238   7.1929781042e+01   3.2812899862e+01    0.2633238    0.1405263  40.10  0.001293974    1.620    0.383
       143 -10.7246    183.0812     25.4587   3.5102044646e+02   3.7147491810e+01    0.2161174    0.1548291 -45.05 0.0007109131    1.230    0.187
       144 -10.0560    206.0966     25.3325   3.4921270134e+02   3.2494109949e+01    0.1604173    0.1213209 -69.05  0.000378314    1.119    0.107
       145 -10.0524    230.1927     26.5895   3.4794854538e+02   2.7903094433e+01    0.1322065   0.09699227  70.16 0.0009430171    1.666    0.400
       146 -10.4991    177.0636     21.9883   3.5065526600e+02   3.8831871709e+01    0.2297672    0.2035356  49.67 0.0007730482    1.488    0.328
       147 -10.7583    181.0129     19.0083   3.4956708389e+02   3.8317762935e+01    0.3912601    0.1566055  62.50  0.001861213    2.610    0.617
       148 -10.8067    169.5015     23.0092   3.5160607400e+02   4.0368242804e+01    0.2344893    0.1677112  83.93 0.0006754551    1.324    0.245
       149 -10.8796    135.4005     21.7216   3.5505958709e+02   4.8399922645e+01    0.3803609     0.193057 -29.60  0.001806875    2.090    0.522
       150  -9.9321     38.7305     21.3891   2.2285372997e+01   7.0852840172e+01    0.1966471     0.176075  48.95 0.0006391578    1.173    0.147
       151 -11.4894      9.3970    166.6661   6.9951947073e+01   3.7569039840e+01    0.2628345    0.1752695  15.53  0.001222365    1.612    0.379
       152 -11.9758      8.5568     19.8306   4.2919756596e+01   7.5634684235e+01    0.4357322    0.2455814  -6.22  0.000468616    2.250    0.556
       153 -10.0849    205.1135    163.1280   1.8689884296e+01   1.1761492702e+01    0.1909866    0.1428679 -21.26  0.000816715    1.202    0.168
       154 -12.0665     13.3570    160.2152   6.8264661517e+01   3.8991469696e+01      0.40596    0.2661351 -35.59  0.001819887    1.846    0.458
       155 -10.3222     28.5366    160.4883   6.3352106109e+01   3.7617103415e+01    0.1450395    0.1316721  67.37 0.0001250787    1.020    0.019
       156 -10.7167     69.1282     20.2022   8.4872189732e+00   6.4595399812e+01    0.3166924    0.2699706   3.00  0.001714959    1.365    0.267
       157 -11.3691     46.9944     30.7945   2.2977573700e+01   6.7781026566e+01    0.4411392    0.2547772  38.34  0.001067013    1.671    0.402
       158 -10.5112    104.1097    154.3482   3.8956502844e+01   2.9195229038e+01    0.2964475    0.2272106 -64.93  0.001460599    1.394    0.283
       159  -9.9238     46.9741     20.4632   1.7491469910e+01   6.9384525525e+01    0.1816912     0.116066  73.37 0.0008086931    2.482    0.597
       160 -10.2387    240.5418    152.5149   1.1588307697e+01   8.9109840027e+00    0.1149844   0.08600476 -31.53 0.0001792464    1.017    0.016
       161 -12.0682     22.9466    148.9198   6.4107197482e+01   4.1279343279e+01    0.5814672    0.2830242 -42.02  0.002295856    2.468    0.595
       162 -10.2857     16.6663    147.5995   6.6155649545e+01   4.2167557332e+01    0.2190088    0.1536424 -42.53 0.0009055499    1.584    0.369
       163 -10.7842    235.9897     15.9634   3.4549982868e+02   2.8066251990e+01    0.1417569    0.1325123  18.16  0.001143967    1.715    0.417
       164 -10.6589     47.2587    145.2435   5.5251032943e+01   3.9778106334e+01    0.2646476     0.190849  22.77 0.0008850069    1.440    0.305
       165 -11.3041     33.0283    143.7913   6.0027455158e+01   4.1744892052e+01    0.3003346      0.28318 -77.73 0.0006490424    1.053    0.050
       166 -10.1743    186.7116     14.9895   3.4813859520e+02   3.7551455660e+01    0.1730339    0.1298891 -52.45 0.0007587895    1.116    0.104
       167 -11.9049      3.8389    141.8992   7.0196332005e+01   4.4644221416e+01    0.5900103    0.2954337  32.98  0.002468142    1.912    0.477
       168  -9.4888    104.7990    142.0075   3.6334155032e+01   3.2056984729e+01     0.195674    0.1182085 -54.37 0.0003254387    1.642    0.391
       169 -11.2113     40.1655    138.0740   5.6732512996e+01   4.2569233675e+01    0.4377817    0.2297446 -73.43  0.001345544    1.904    0.475
       170 -11.0788     14.0246    141.0047   6.6505116486e+01   4.4194253799e+01    0.2226326    0.2031682  80.65 0.0004790296    1.006    0.006
       171 -11.9985     11.7988    135.7150   6.6842687398e+01   4.5827174583e+01    0.6396216    0.1718738 -49.73  0.001938624    3.983    0.749
       172 -10.2985    121.2378     11.5317   3.5354925649e+02   5.2912012905e+01    0.2650467    0.1187546  79.79  0.001155059    2.181    0.541
       173 -11.4094     24.9192    135.8555   6.2014200376e+01   4.4727372953e+01    0.3444079    0.1801727 -37.56  0.001369742    2.336    0.572
       174 -10.3657     20.7718    133.8531   6.3328152777e+01   4.5648714253e+01    0.2293712    0.1923527 -49.44  0.001126999    1.236    0.191
       175 -10.9634     30.1990    132.5758   5.9646695818e+01   4.5145565948e+01    0.3134674    0.2382127 -33.01  0.000848836    1.485    0.327
       176  -9.2627     26.7001    127.3042   6.0288206608e+01   4.6955447847e+01    0.1558949    0.1033643  59.85 0.0002069888    1.589    0.371
       177 -11.1840     11.2189    125.4512   6.6097565041e+01   4.8733709987e+01    0.4445427    0.2064521 -60.56  0.001845503    1.959    0.489
       178 -12.9849    246.0493    120.1327   5.0390946616e+00   1.2936906517e+01    0.6040948    0.2137122 -47.43  0.002827201    2.624    0.619
       179  -9.7061     59.6671    123.2682   4.7116360501e+01   4.4145408990e+01    0.1595453     0.112986  60.54 0.0003117637    1.586    0.370
       180 -10.7116     43.4753    116.6967   5.2034310074e+01   4.8100639827e+01    0.4650511     0.155413 -69.40  0.001438649    3.201    0.688
       181 -12.6460     26.0667    106.9226   5.7554247536e+01   5.2706401057e+01    0.7034565    0.4898966 -66.61 0.0005048095    1.346    0.257
       182 -11.4132     22.2277    114.5635   6.0351910570e+01   5.0927330838e+01    0.4225365    0.2611398  12.68  0.001237179    1.793    0.442
       183 -11.8096     27.1686    112.7950   5.8025526551e+01   5.0968896857e+01    0.5207252    0.2841816  22.92   0.00124497    1.891    0.471
       184 -10.0775     79.2692    114.3907   3.8209720675e+01   4.3369662611e+01    0.2487296    0.1878525 -16.19  0.001105342    1.742    0.426
       185 -12.3433      3.0985    111.3992   6.8030150055e+01   5.3157999222e+01     0.552049    0.3902694  53.88  0.001409328    1.448    0.310
       186 -11.1831      4.1307    105.1264   6.6952767173e+01   5.4844568964e+01    0.4149286    0.3441417  43.67  0.001784171    1.258    0.205
       187 -10.5760    104.4982    122.5134   3.2138082619e+01   3.6810395459e+01    0.2776197    0.2618727  47.33  0.001443411    1.078    0.072
       188 -10.3212     48.9948    111.6994   4.8870333217e+01   4.8760140892e+01    0.2154447    0.1956664  34.79 0.0004835792    1.123    0.110
       189 -11.6876     79.2266    108.4603   3.6787006937e+01   4.4877998479e+01    0.5378236    0.3919145   2.36  0.001951315    1.925    0.481
