#   1 NUMBER                 Running object number                                     
#   2 MAG_AUTO               Kron-like elliptical aperture magnitude                    [mag]
#   3 X_IMAGE                Object position along x                                    [pixel]
#   4 Y_IMAGE                Object position along y                                    [pixel]
#   5 X_WORLD                Barycenter position along world x axis                     [deg]
#   6 Y_WORLD                Barycenter position along world y axis                     [deg]
#   7 A_WORLD                Profile RMS along major axis (world units)                 [deg]
#   8 B_WORLD                Profile RMS along minor axis (world units)                 [deg]
#   9 THETA_WORLD            Position angle (CCW/world-x)                               [deg]
#  10 FWHM_WORLD             FWHM assuming a gaussian core                              [deg]
#  11 ELONGATION             A_IMAGE/B_IMAGE                                           
#  12 ELLIPTICITY            1 - B_IMAGE/A_IMAGE                                       
         1 -12.9652    196.3900     32.3514   6.5254425909e+01   3.2624506127e+01    0.8658246    0.8355922  21.02  0.005613565    1.341    0.254
         2 -13.7571    211.1674     14.7852   5.9509764620e+01   3.1269284507e+01     1.134138    0.9028835  37.41  0.007005076    1.774    0.436
         3 -11.4964      2.1236     13.8781   1.1278093933e+02   7.0984019668e+01    0.6445053   0.09469503 -45.37  0.002414795    5.203    0.808
         4 -11.9608      2.2950      3.9696   1.0843818828e+02   7.2285413016e+01    0.4627195    0.3206616 -34.08  0.003604899    1.464    0.317
         5 -11.2982    199.1976    246.4207   1.1217620260e+02  -6.7308758368e+00    0.3871399    0.2186634  45.39  0.002024656    1.762    0.432
         6 -10.0585    205.1909    250.4595   1.1168505508e+02  -8.2836171610e+00    0.2405619    0.1053175  34.34 0.0007729448    2.051    0.513
         7 -10.2639    184.1321    250.3295   1.1569796564e+02  -4.8936760428e+00    0.2147895     0.153869  32.94  0.001274874    1.205    0.170
         8 -10.7640    169.6597    248.5579   1.1825177038e+02  -2.2116260841e+00    0.3332425    0.2333235   5.91 0.0009936293    1.969    0.492
         9 -11.1191    149.8619    248.6460   1.2216696712e+02   1.1092208815e+00    0.3609324    0.2745087 -84.02  0.002086505    1.739    0.425
        10 -10.0865    143.6857    249.5691   1.2351372551e+02   1.9894414450e+00    0.2031181    0.1533766  86.90  0.001162889    1.697    0.411
        11 -10.1780    135.9967    248.9688   1.2494927934e+02   3.3876834949e+00    0.2765716    0.1878752 -44.60  0.001122429    1.807    0.446
        12 -10.3567    132.1742    248.5432   1.2564714944e+02   4.1044694643e+00    0.3404008    0.2068776  66.41   0.00169992    2.022    0.506
        13  -9.4209    123.0175    249.9993   1.2763251273e+02   5.3605658287e+00    0.2508257    0.2034865  56.46  0.001580631    1.046    0.044
        14 -10.2108    127.0009    248.8996   1.2671225101e+02   4.9022094204e+00    0.3951924    0.2641478 -79.93  0.002149502    1.917    0.478
        15 -10.8593    121.5028    244.5522   1.2724363957e+02   6.6218400971e+00    0.4376347    0.2062532  53.06  0.002005198    2.037    0.509
        16 -12.2641    124.8834    240.5602   1.2604819879e+02   6.8114451914e+00    0.8783583    0.4195316  33.02  0.003829789    2.371    0.578
        17 -10.8878    115.4604    250.3616   1.2915118662e+02   6.5316394745e+00    0.4789352     0.300878  36.44 0.0008971656    1.578    0.366
        18 -11.1528    109.7497    246.9123   1.2985281261e+02   8.1048264337e+00    0.5014031    0.3468226 -79.95  0.002508152    1.624    0.384
        19  -9.9801    102.7869    247.4062   1.3126775804e+02   9.1280061078e+00    0.3138222    0.2064071  56.82  0.001802959    1.309    0.236
        20 -11.1485     98.8311    246.9356   1.3198147573e+02   9.8444872800e+00    0.5517589    0.3239757  65.98  0.002903949    1.754    0.430
        21 -10.8814     87.1181    248.0140   1.3434719806e+02   1.1448686538e+01    0.3321037    0.2775789  45.05 0.0007408371    1.298    0.229
        22 -10.1202     74.5870    242.2281   1.3614360150e+02   1.4459957723e+01    0.3279456    0.2275108 -54.39  0.001275269    1.802    0.445
        23 -10.7142     67.5551    243.8967   1.3763383075e+02   1.5137887113e+01    0.3663157    0.1948413  47.50  0.002017157    1.612    0.380
        24  -9.0588     62.5494    250.4662   1.3915215900e+02   1.4541902422e+01    0.1925568    0.1013607  42.59 0.0008552989    1.752    0.429
        25 -11.2549     60.3992    245.8844   1.3914236462e+02   1.5740951901e+01    0.4417892    0.3460341  70.36   0.00170844    1.036    0.035
        26 -12.6091      3.0312    190.1367   1.4547040575e+02   3.4313005525e+01        1.657    0.3065656 -70.83  0.006236317    3.676    0.728
        27 -14.1296     11.4104    210.2527   1.4536194460e+02   2.9097910400e+01      2.45502     1.191074 -73.95   0.01401344    1.681    0.405
        28 -12.6879     13.8508    238.6320   1.4683979171e+02   2.2914188257e+01    0.7247078    0.3657123  58.43  0.004469647    1.605    0.377
        29 -11.7005     39.6360    230.2280   1.4164190706e+02   2.1663517516e+01    0.3137706    0.2226651 -82.02 0.0002762498    1.243    0.195
        30 -12.8881     33.8291    227.5441   1.4250301296e+02   2.2933379419e+01    0.4717133     0.326087 -63.08 0.0008224894    1.613    0.380
        31 -14.0217     40.4743    218.5413   1.4047193681e+02   2.4059900851e+01     1.507327     1.161436  16.13  0.009159612    2.139    0.532
        32  -9.3887    223.2982    244.6430   1.0733521704e+02  -1.0216091585e+01    0.1083952   0.09954406  76.38 0.0007035239    1.703    0.413
        33 -11.4986    176.7404    242.6754   1.1595652149e+02  -2.4291860306e+00    0.4920361     0.223763  47.73  0.001794668    2.191    0.544
        34 -10.5355     85.3416    234.8847   1.3327659697e+02   1.4342741401e+01    0.4257581    0.2059672  56.12  0.001910608    1.946    0.486
        35 -11.5871     98.8529    232.4503   1.3027947965e+02   1.2720619049e+01     0.946053    0.3644566 -71.87  0.003360806    4.017    0.751
        36 -10.6673    113.3746    230.6669   1.2707926687e+02   1.0695514071e+01    0.3374936    0.2747363 -56.63  0.001596931    1.388    0.279
        37 -10.6101     96.9514    239.6148   1.3151402116e+02   1.1576012481e+01    0.3855998    0.2349322 -43.37  0.001089007    2.400    0.583
        38 -11.6115    105.1731    227.9812   1.2842075938e+02   1.2611772040e+01    0.7464391     0.404405  64.37  0.002825075    2.158    0.537
        39 -10.8331     98.7498    223.4130   1.2916538009e+02   1.4622873284e+01    0.3759824    0.2694414  48.88  0.001172473    1.267    0.211
        40 -10.5990     89.9278    238.0990   1.3272908817e+02   1.2981109267e+01    0.2661804     0.213423 -59.14  0.000806993    1.463    0.317
        41  -9.9642    158.0845    242.4807   1.1964079881e+02   7.8468829427e-01    0.2169226    0.1919955 -50.34 0.0007619456    1.299    0.230
        42 -10.8318    142.1820    221.5957   1.1972401227e+02   7.5012244693e+00    0.4032079    0.2684853  38.23  0.001048677    1.424    0.298
        43 -11.2770    135.6869    241.0367   1.2393623878e+02   4.8876627715e+00    0.2930874    0.2539449  66.77  0.001247794    1.126    0.112
        44 -12.5467    134.8530    233.9664   1.2311081933e+02   6.3689521401e+00     1.052339    0.5933132 -63.36  0.004540612    2.139    0.533
        45 -10.9064    166.1678    242.0624   1.1796220073e+02  -5.2747136242e-01     0.348215    0.1771312  38.42  0.001670093    1.737    0.424
        46 -10.9899    244.7330    240.9641   1.0281397570e+02  -1.2811705640e+01    0.2024205    0.1480019  40.95  0.001281272    1.602    0.376
        47 -11.0348    116.8703    238.1307   1.2734560545e+02   8.6249633737e+00    0.4247211    0.2617543 -38.45  0.001839963    2.419    0.587
        48 -10.8177    122.3899    233.1810   1.2556227976e+02   8.6662669760e+00    0.3422374    0.2893304 -67.92  0.001450851    1.282    0.220
        49  -9.1186     61.3025    239.0001   1.3835101877e+02   1.7003550569e+01    0.1702016    0.1333575  77.50 0.0007418463    1.041    0.039
        50 -10.5009    105.0718    237.8507   1.2968565420e+02   1.0624587270e+01    0.3006566    0.1652153  35.06  0.001461997    1.941    0.485
        51  -9.7159    173.0027    235.9712   1.1564119003e+02  -6.5082589056e-01    0.1919736    0.1758456  38.31 0.0003394722    1.059    0.056
        52 -10.4968     84.5124    240.7821   1.3408406580e+02   1.3271906763e+01    0.4299781    0.2885663  76.79   0.00248382    1.445    0.308
        53 -10.6735    156.7283    231.8011   1.1828886494e+02   2.9431992494e+00    0.2487788    0.2330317 -32.63 0.0004277025    1.204    0.169
        54  -8.6482     78.2403    233.3823   1.3451776083e+02   1.5726383066e+01    0.1150195    0.0952663 -47.90 0.0006928138    1.638    0.390
        55  -9.4554     62.8487    232.9440   1.3748024066e+02   1.8039509921e+01    0.1674507    0.1485049  83.14 0.0002850516    1.214    0.177
        56 -10.8726    141.9510    229.7468   1.2102531918e+02   5.9410661879e+00    0.4825465     0.247519 -47.29  0.002041148    2.212    0.548
        57  -8.5676     57.4114    231.2251   1.3836324457e+02   1.9148018794e+01    0.1626367    0.1014511 -88.83 0.0009225575    1.484    0.326
        58 -13.4330      4.6747    245.4068   1.4875394604e+02   2.2542719348e+01      1.11018    0.5887544  74.08  0.007243107    1.445    0.308
        59 -10.4372     84.7941    229.3942   1.3276431499e+02   1.5566831620e+01    0.2263699     0.206931  82.48 0.0001272471    1.183    0.155
        60 -11.0309    136.1158    225.0718   1.2154024216e+02   7.8903826589e+00    0.4245091    0.3369859 -72.70   0.00115422    1.404    0.288
        61 -10.4301     79.3947    225.8136   1.3344852332e+02   1.7146238337e+01    0.4479201     0.259668 -76.61  0.001469076    1.763    0.433
        62  -9.3747     77.2916    220.9505   1.3332078375e+02   1.8509276290e+01    0.2262571    0.1520673  67.37 0.0004367521    1.375    0.273
        63 -10.0420     91.9308    225.6848   1.3086696859e+02   1.5235865515e+01    0.4242677    0.1747403  53.68  0.001468569    2.425    0.588
        64 -10.3882    116.9329    224.3228   1.2547113126e+02   1.1391112342e+01    0.2937332    0.2329216  32.53 0.0004157258    1.393    0.282
        65  -9.5099     64.9626    224.3462   1.3619762605e+02   1.9566463883e+01    0.2323157     0.167977 -67.25 0.0008178435    1.409    0.290
        66 -10.1481    160.4150    223.5909   1.1621129004e+02   3.8240129709e+00    0.2616751    0.1906235   2.50 0.0006584859    1.978    0.494
        67  -9.4381    110.7584    221.0132   1.2631401761e+02   1.3135841107e+01    0.3874202    0.1129886 -57.79  0.001332409    3.613    0.723
        68 -10.6120     69.8310    217.8255   1.3450206670e+02   2.0290491662e+01    0.6759958    0.3240073 -83.37  0.002921371    2.550    0.608
        69  -8.5807    104.5531    218.5191   1.2728964637e+02   1.4711775320e+01    0.1380513    0.1193011  70.38 -4.36277e-06    1.014    0.013
        70  -8.7221     99.2884    218.3077   1.2838186854e+02   1.5628858948e+01    0.1218991    0.1090649 -22.24 0.0003357178    1.574    0.365
        71 -10.8795     91.2873    241.9142   1.3288807748e+02   1.2006255513e+01    0.4203478    0.2502102  68.29  0.001640718    1.723    0.420
        72  -9.8741     88.5556    214.6500   1.3018807754e+02   1.8157481467e+01    0.6263104    0.2435418 -71.11  0.002297299    3.294    0.696
        73  -9.0285     62.4700    218.0273   1.3603311205e+02   2.1290639514e+01    0.1804162    0.1505945  66.77 0.0004335043    1.113    0.102
        74  -8.5680    118.6915    217.6906   1.2414544517e+02   1.2475408415e+01    0.1291083    0.1115558  -6.89 0.0007023105    1.618    0.382
        75 -10.2391    137.8192    214.2662   1.1949219945e+02   9.7829698423e+00    0.3346412    0.2787524  40.16  0.001207401    1.163    0.140
        76  -9.6008    160.0099    213.8457   1.1465866219e+02   5.7867267493e+00    0.2044251    0.1918753  47.18 0.0006040476    1.021    0.020
        77  -9.3751    101.7876    211.6647   1.2693384278e+02   1.6666821804e+01    0.3192475    0.1378952  56.71  0.001203864    2.738    0.635
        78 -10.2550     91.2217    204.5821   1.2826027867e+02   1.9989652847e+01    0.4459133    0.3245754  40.83  0.001289003    1.416    0.294
        79  -9.6098     97.2254    210.7932   1.2780484872e+02   1.7615359453e+01    0.2168939    0.1936508  80.87 0.0003286235    1.049    0.047
        80  -9.6749     96.6928    206.9050   1.2737820026e+02   1.8572704883e+01    0.3687319     0.203402  80.63  0.001451067    2.801    0.643
        81  -9.2913    106.8827    209.8212   1.2555677286e+02   1.6214695449e+01     0.193507    0.1895893 -63.97 0.0005956378    1.226    0.184
        82  -9.5805     74.2700    209.0499   1.3253812344e+02   2.1597692531e+01     0.330533    0.2327292  12.94  0.001614768    2.510    0.602
        83  -8.8953    134.4022    208.7262   1.1933674049e+02   1.1571450241e+01    0.1902162    0.1337366 -43.94 0.0009397767    1.610    0.379
        84  -9.8733    112.6295    208.3391   1.2407267546e+02   1.5552489021e+01    0.2599152    0.2211005  67.36 0.0007635382    1.077    0.072
        85  -9.0218     29.1613    208.6349   1.4181270588e+02   2.7571724199e+01    0.1981706    0.1194703  62.48  0.001157507    1.481    0.325
        86  -9.2024     32.8379    206.9290   1.4092849243e+02   2.7533399149e+01    0.1720893    0.1381397 -71.85 0.0003337233    1.290    0.225
        87 -10.8033    247.3336    206.0991   9.6000633646e+01  -8.0480933165e+00    0.2586105    0.1874188  -6.58  0.001503584    1.382    0.276
        88  -8.8275    125.5453    205.5238   1.2077152001e+02   1.3876709850e+01    0.1431733     0.131025  67.66 6.573245e-05    1.003    0.003
        89  -9.3062     74.8358    203.6879   1.3174572902e+02   2.2734627305e+01    0.2865475    0.2178078   9.56 0.0007786397    2.180    0.541
        90  -8.8353    103.2963    202.8482   1.2532162446e+02   1.8385374623e+01    0.3680057    0.2127614  53.49  0.001416893    1.688    0.408
        91 -10.6975     84.2825    201.4045   1.2936109290e+02   2.1818872301e+01    0.3668924    0.2385819 -43.35  0.001194551    2.014    0.504
        92  -9.0697     86.1112    195.6236   1.2814038753e+02   2.2872686121e+01    0.1895077    0.1714216  68.45 0.0004148755    1.101    0.092
        93  -8.7591    183.1806    200.3821   1.0730946632e+02   4.0917910474e+00    0.1899966    0.1300071  49.79 0.0002662753    1.515    0.340
        94  -9.2273    127.9699    199.6913   1.1926609883e+02   1.4717889880e+01    0.1968795    0.1749161  55.86 0.0005582169    1.060    0.056
        95  -9.7415     44.2532    199.1049   1.3780343517e+02   2.7950438743e+01    0.2893952    0.2114937 -26.30  0.001549412    2.457    0.593
        96  -9.1154    120.0060    199.3200   1.2100333595e+02   1.6253416878e+01    0.2029829    0.1704165  56.97 0.0002544745    1.116    0.104
        97 -10.2201     55.8123    198.3643   1.3524175146e+02   2.6643806820e+01    0.5153801    0.1910576  42.44  0.002210244    2.543    0.607
        98 -11.5949     60.6134    194.3703   1.3370919165e+02   2.6928716949e+01     0.435119    0.3547411  44.42  0.001707942    1.347    0.258
        99 -12.6462     45.7032    208.7561   1.3849650527e+02   2.5575869737e+01     1.554943    0.5117463  51.18  0.003801292    2.923    0.658
       100  -9.7099    102.3743    196.2583   1.2452664917e+02   2.0050281940e+01    0.3807919    0.2601636 -24.08  0.001320522    2.650    0.623
       101  -9.4878     96.7606    196.0694   1.2577990528e+02   2.1039622228e+01    0.3348192    0.1913247  42.77   0.00154814    1.706    0.414
       102  -8.7045    153.7959    196.4139   1.1290320632e+02   1.0544341483e+01    0.1946774    0.1373326  32.14 0.0002724748    1.500    0.333
       103  -9.1143     38.8397    196.0250   1.3862861941e+02   2.9311551697e+01    0.2659796    0.1368936  82.65  0.001257463    2.112    0.527
       104  -9.6197     38.5112    192.0159   1.3827805221e+02   3.0278206491e+01     0.213432    0.1755718 -74.60 0.0005575491    1.183    0.155
       105  -9.8341     41.2078    188.7370   1.3733488654e+02   3.0726463921e+01    0.2775616    0.2028233  67.36  0.000926109    1.267    0.210
       106 -10.9849    249.5168    194.1086   9.3300458133e+01  -6.4574769665e+00    0.3218592    0.2587744   6.91  0.001965984    1.230    0.187
       107  -8.8773     31.6915    195.4248   1.4007516146e+02   3.0269776769e+01    0.2403185   0.06813145  48.19 0.0009451335    3.336    0.700
       108 -13.4204     28.4162    246.9775   1.4490168258e+02   1.9610275004e+01     1.316734    0.7074338  55.03  0.007374691    1.507    0.337
       109  -8.8918    118.9840    194.0000   1.2035203383e+02   1.7643060966e+01    0.2362922   0.08010525  40.32            0    2.875    0.652
       110  -9.0280     72.5278    192.9933   1.3085797953e+02   2.5563932460e+01    0.1929626    0.1231292 -66.98 6.696532e-05    1.454    0.312
       111 -10.1565     25.9542    192.4207   1.4098619887e+02   3.1583537887e+01    0.2382512    0.1918301  68.95 0.0008999381    1.175    0.149
       112  -9.7708    191.4632    191.4692   1.0384863425e+02   4.2596754980e+00    0.2471172    0.2361251 -12.74 0.0006558124    1.030    0.029
       113  -8.8820    113.2748    191.1403   1.2118966139e+02   1.9329790586e+01     0.238875   0.09592006 -40.32 0.0006965644    4.395    0.772
       114 -13.5629     40.0247    242.8985   1.4258215611e+02   1.9012798773e+01     1.413285    0.8797945  52.94  0.009019453    1.375    0.273
       115  -9.5925     31.7245    189.9413   1.3952030416e+02   3.1530644524e+01    0.3470829     0.166507  37.98  0.001459087    2.207    0.547
       116 -10.9909    249.8964    187.6845   9.1968826128e+01  -5.4557021396e+00    0.3967219    0.2119512 -27.82  0.001887043    1.890    0.471
       117  -9.6861     76.9462    188.6513   1.2924453413e+02   2.5934409412e+01    0.2095844    0.1746256 -66.24 0.0003428915    1.190    0.159
       118 -11.5602     66.9760    187.1022   1.3132979230e+02   2.7762344822e+01    0.3121735    0.2368608 -55.64  0.000483067    1.396    0.284
       119 -10.2351     83.7711    186.9392   1.2740702381e+02   2.5292163547e+01    0.2286838    0.1872956  63.27 0.0002003063    1.159    0.137
       120 -10.3062     28.3528    184.6063   1.3970169506e+02   3.3136163887e+01    0.3227217    0.2481313  24.39  0.001328456    1.776    0.437
       121  -9.7122     24.3094    184.2892   1.4054489913e+02   3.3631745602e+01    0.1868531    0.1510984 -67.32 0.0005532743    1.268    0.211
       122  -9.1959     37.2536    183.6735   1.3764431341e+02   3.2376149379e+01    0.2376603    0.1698876  76.24  0.001289431    1.275    0.216
       123  -9.3026    140.1486    183.1813   1.1351201498e+02   1.6110445927e+01    0.2079752    0.2029042   6.44 0.0002817746    1.135    0.119
       124  -9.5212    127.5976    182.3929   1.1629491740e+02   1.8713036130e+01     0.246062    0.2070609  84.40  0.001266151    1.248    0.199
       125  -9.7805    107.8280    182.3370   1.2097235395e+02   2.2364237050e+01    0.2474825    0.1987633 -58.93 0.0003499193    1.237    0.192
       126  -8.8380     65.9436    181.8065   1.3084147053e+02   2.9176683341e+01    0.1835925    0.1619883  77.34 0.0003496888    1.081    0.075
       127  -9.2110    115.5590    178.5468   1.1845029270e+02   2.1867083580e+01    0.3601223     0.179869 -47.66  0.001435579    2.105    0.525
       128 -10.4532     12.6163    161.8138   1.4085304203e+02   3.9982132678e+01    0.2454078    0.1600917  73.86  0.001143525    1.500    0.333
       129 -10.4937     19.3555    172.8581   1.4047424598e+02   3.6787622467e+01    0.3784264     0.229479  63.68  0.001502359    1.659    0.397
       130 -11.2049     14.2565    167.1903   1.4103765484e+02   3.8581408183e+01    0.3450538    0.3289822  51.85  0.001696461    1.358    0.263
       131 -10.9648     11.7503    173.5010   1.4222086596e+02   3.7334164109e+01    0.4053144    0.1856858 -64.06  0.001974912    1.785    0.440
       132  -8.5699     92.5535    178.3909   1.2397063615e+02   2.5929198990e+01    0.1438953    0.1298296  84.14  4.72063e-05    1.019    0.019
       133  -8.5066    125.7398    177.3324   1.1578751801e+02   2.0245877349e+01    0.1519873    0.1146146  86.38 0.0002342195    1.571    0.364
       134  -9.0841    103.2003    176.2229   1.2101956294e+02   2.4640211940e+01    0.2010816    0.1605563  81.92 0.0003217527    1.297    0.229
       135 -10.8055     77.0126    174.9939   1.2718989028e+02   2.9213636312e+01    0.2906803    0.2421723 -55.78 0.0003620392    1.251    0.200
       136 -11.6811     63.8860    173.2906   1.3011489103e+02   3.1524773580e+01    0.3328947    0.2422816 -61.22 0.0003941097    1.285    0.222
       137 -12.0890    248.0685    171.8579   8.9092694056e+01  -2.4488115547e+00    0.5310166     0.454422  19.80  0.003222408    1.249    0.199
       138 -13.1577    246.4758    160.1422   8.6939662056e+01  -9.8989541852e-02     1.542582    0.7105148 -49.52   0.00640204    2.330    0.571
       139 -13.3380    248.4285    114.0678   7.6806155645e+01   7.8660135049e+00     1.543314    0.8653168 -31.24  0.007031484    1.943    0.485
       140 -12.6966    248.4124    134.3549   8.1167868039e+01   4.2099693251e+00     1.095866     0.672813 -46.07  0.005470625    1.444    0.307
       141 -11.2902     45.4002    171.3579   1.3428247673e+02   3.4367534565e+01    0.5575297     0.337927 -88.26  0.001089137    1.653    0.395
       142  -9.8248     44.9920    164.9504   1.3352647995e+02   3.5966534504e+01    0.3075148    0.1828298 -81.06 0.0004373443    1.602    0.376
       143 -10.7097      3.9962    173.0067   1.4385574639e+02   3.8107647756e+01     0.348648    0.1874585  23.28  0.001903027    2.573    0.611
       144 -12.2326      2.2420    162.6683   1.4329682246e+02   4.0621488011e+01     1.369781    0.0969233 -65.52   0.00439795    4.719    0.788
       145 -12.6761      2.4964    129.6933   1.3966920868e+02   4.8224719344e+01     1.104062     0.267485 -72.11  0.004070173    3.450    0.710
       146 -12.5403      2.4824    142.7945   1.4121010813e+02   4.5199877667e+01     1.153707    0.2644481 -72.27  0.004246085    3.442    0.709
       147 -12.4480      8.2945    142.8112   1.3977267017e+02   4.4777793723e+01    0.6799923    0.2634371 -68.84  0.003263803    1.947    0.486
       148 -11.9775     12.8770    153.5955   1.3989487012e+02   4.1889299671e+01    0.4137977    0.3133442 -53.53 0.0006605578    1.367    0.268
       149  -9.7588     28.1628    171.0907   1.3828394112e+02   3.6337054264e+01    0.3600999    0.1556066 -62.04  0.001499901    1.922    0.480
       150  -8.6203    150.9556    170.0427   1.0838026206e+02   1.6927976998e+01    0.1799669    0.1713948 -66.19 0.0009510969    1.044    0.042
       151  -8.6068     52.5946    170.7888   1.3248475647e+02   3.3623631051e+01    0.1202343    0.1021876 -22.70 0.0006826779    1.640    0.390
       152 -11.7953     84.7205    166.5432   1.2389729439e+02   3.0086288254e+01    0.5709949    0.4978833  29.46  0.003168494    1.355    0.262
       153 -10.5886      7.2267    167.0686   1.4260312353e+02   3.9209632055e+01    0.2700292    0.1763766  85.19 0.0008875444    1.322    0.244
       154  -9.4674     68.5489    166.5144   1.2794004128e+02   3.2528507656e+01    0.2351435    0.2016592 -81.81 0.0001628667    1.023    0.023
       155  -9.3435     58.2462    162.5882   1.2990626907e+02   3.4898699938e+01    0.2224072    0.1608675 -79.99 0.0004493233    1.273    0.214
       156  -9.6278     22.5213    163.0114   1.3867463494e+02   3.8810054265e+01    0.2807905    0.1672639  -8.00  0.001257251    3.595    0.722
       157  -8.3489    118.6724    162.7216   1.1465745038e+02   2.5066583435e+01    0.1474715    0.1234925  -9.74 0.0002965356    1.595    0.373
       158 -10.1301     89.8048    160.0865   1.2145635985e+02   3.0851091120e+01    0.2344305    0.2076607  52.77 0.0002988604    1.173    0.147
       159  -9.1256     73.5031    159.5293   1.2554038037e+02   3.3530546837e+01    0.1443981    0.1272964 -81.61 9.985837e-05    1.017    0.017
       160 -12.3168     16.9264    139.4492   1.3715743092e+02   4.4892431802e+01    0.6196148    0.2827776  53.51  0.002890747    2.772    0.639
       161 -11.2620     32.0046    156.0130   1.3552133338e+02   3.9552119356e+01    0.3770744     0.233792 -66.31 0.0008983212    1.328    0.247
       162  -9.0873    228.4395    155.4841   8.9079372676e+01   4.0936770620e+00    0.2455829    0.1237264 -49.71 0.0005977451    2.059    0.514
       163  -8.4042     81.3614    156.2862   1.2293995947e+02   3.3140249768e+01    0.1426942    0.1129246 -24.73  0.000702199    1.686    0.407
       164  -9.1836     71.5838    156.4860   1.2551316383e+02   3.4561560207e+01    0.2390893     0.145625  18.03  0.001025331    2.524    0.604
       165  -9.5883     84.9030    155.2747   1.2183237935e+02   3.2831114522e+01    0.1921447    0.1812039  70.04 0.0002917004    1.102    0.093
       166  -9.9431    104.8989    153.5597   1.1629788276e+02   2.9846827378e+01    0.2614239    0.2048713 -68.85 0.0003204004    1.260    0.206
       167  -9.2675     89.6440    153.7070   1.2029822372e+02   3.2447924847e+01    0.2060216    0.1320462 -67.93 0.0008030247    1.568    0.362
       168  -9.5644    114.0038    150.6110   1.1333287551e+02   2.8877594338e+01    0.3153786    0.2069908 -63.24 0.0004880808    1.575    0.365
       169 -10.5340     97.6817    151.0821   1.1767595661e+02   3.1731896302e+01    0.3442307    0.3233839 -65.67  0.001106664    1.056    0.053
       170 -12.2255     68.2874    144.3873   1.2422674983e+02   3.8014798066e+01     0.701204     0.498894  88.24  0.002207754    1.615    0.381
       171 -10.7987     72.6417    139.8775   1.2218181969e+02   3.8497867556e+01    0.3463371    0.2465384 -44.36  0.001034649    1.433    0.302
       172  -9.6520     59.5277    150.2244   1.2759752491e+02   3.7768538515e+01    0.4735049     0.229647  69.37   0.00153388    4.309    0.768
       173  -9.4918     86.2259    149.9793   1.2047893383e+02   3.3923835723e+01    0.2777572    0.1414708 -59.98 0.0004323128    1.852    0.460
       174  -9.7283     84.3027    146.7019   1.2035174480e+02   3.5039340498e+01    0.2268704    0.1746051 -64.00 0.0005340136    1.202    0.168
       175  -9.3809     55.4905    150.4910   1.2870354551e+02   3.8222354678e+01    0.1397353     0.119639 -77.81 1.593107e-05    1.028    0.027
       176 -10.4107     23.9908    149.2980   1.3664313079e+02   4.1939214185e+01    0.1710873    0.1487839 -78.69 0.0005131385    1.096    0.088
       177 -12.1353     24.0789    155.2327   1.3737335625e+02   4.0514457828e+01     0.525313    0.3659009  36.68  0.003032491    1.681    0.405
       178 -10.3961     11.0019    150.0168   1.3994148888e+02   4.2881893867e+01    0.1890173    0.1466959 -53.61 -0.005334738    1.334    0.250
       179  -9.4308     69.9660    152.0176   1.2515621002e+02   3.5896937431e+01    0.2738482    0.2082434  82.39   0.00034101    1.412    0.292
       180  -8.8362     76.8267    147.1151   1.2243610486e+02   3.6097858574e+01    0.1909166    0.1588676 -42.81    0.0010237    1.284    0.221
       181  -9.1555     53.1033    146.6432   1.2870037534e+02   3.9463400258e+01    0.2110257    0.1592401  66.21  0.000643414    1.441    0.306
       182  -9.1120     40.3171    147.3201   1.3217932195e+02   4.0779777527e+01    0.1345432   0.09050777 -42.52 0.0003170208    1.660    0.398
       183 -10.8195    236.3416    146.0108   8.5647464456e+01   4.3580251235e+00    0.2616924    0.2192342  43.14 0.0007161897    1.329    0.248
       184 -10.3456     32.3099    145.5621   1.3400663014e+02   4.2038888324e+01    0.2366795    0.1258491 -51.73  0.001182611    1.749    0.428
       185 -10.1379    133.3418    141.1710   1.0629503766e+02   2.7280678384e+01    0.5618588    0.2706041 -54.24   0.00205684    2.148    0.534
       186  -8.7753    105.0004    142.9769   1.1404690284e+02   3.2405954020e+01    0.1782684    0.1665508 -70.22 0.0003261119    1.006    0.006
       187 -10.6064     32.8723    140.7327   1.3315043783e+02   4.3145347037e+01    0.2718248    0.1836878  84.11   0.00108008    1.599    0.375
       188 -11.1234     60.3705    136.7550   1.2497992185e+02   4.0959485638e+01    0.3123181    0.2515604 -77.87 0.0005170721    1.193    0.162
       189  -9.6911    109.5514    136.2465   1.1133485126e+02   3.3184713794e+01    0.3385581    0.2414579 -20.25  0.001450363    2.022    0.505
       190  -9.7867     45.9994    138.1802   1.2920071563e+02   4.2367603394e+01    0.2154295    0.1228504 -50.34  0.001057254    1.623    0.384
       191 -11.1488     45.0483    130.8869   1.2820160927e+02   4.4236848285e+01    0.3817057    0.2660412  78.80  0.001659507    1.736    0.424
       192 -10.0930     29.6944    126.6908   1.3181766557e+02   4.6802443950e+01    0.1560727    0.1130994  28.14 0.0002900247    1.671    0.401
       193 -10.4793     33.1769    131.6236   1.3164818344e+02   4.5299048786e+01    0.2487682    0.1271851 -54.95 0.0006117803    1.632    0.387
       194  -9.1734    115.7531    128.8341   1.0793644648e+02   3.3749260641e+01    0.2626541    0.1744616 -10.67 0.0009575405    2.834    0.647
       195 -11.0428     67.8269    128.0048   1.2114566313e+02   4.2073370083e+01    0.4202116    0.2728262  86.26  0.001663256    2.250    0.556
       196 -10.4703     59.2270    128.0540   1.2362727643e+02   4.3217158901e+01    0.2107454    0.2039706  23.90 0.0004948668    1.191    0.160
       197 -10.5021     23.6338    126.9674   1.3356219393e+02   4.7276768055e+01    0.2898685    0.1349683 -67.93  0.001397365    1.782    0.439
       198 -11.9795      9.9985    127.0068   1.3731855548e+02   4.8335580433e+01    0.2811438    0.2655635  19.07    0.0020629    1.364    0.267
       199 -10.2648    209.9264    125.7351   8.5763126518e+01   1.3703174798e+01    0.3055167    0.2210691 -43.74 0.0004918374    1.290    0.225
       200 -11.8758     23.0158    121.2025   1.3281872573e+02   4.8680811718e+01    0.3144381    0.2413872   7.39  0.001960988    1.687    0.407
       201  -9.8866     54.8015    120.6822   1.2343116755e+02   4.5536429729e+01    0.3170756    0.1865648   9.22  0.001390953    2.693    0.629
       202 -12.8540    248.0242    100.6265   7.3964783416e+01   1.0322706289e+01    0.9933377    0.5288371 -37.94  0.004625231    1.750    0.428
       203 -12.3925     10.6417    114.7198   1.3535040636e+02   5.1119444814e+01     0.417797    0.2447421 -75.79  0.001748159    1.534    0.348
       204 -10.2278    168.0564    113.1404   9.1101535287e+01   2.5815644945e+01    0.3760087    0.2876527 -81.55 0.0009538811    1.615    0.381
       205  -9.0245    203.4782    111.5036   8.3571447943e+01   1.7938577921e+01    0.1508479    0.1421856 -56.66 7.071339e-05    1.036    0.035
       206  -9.8128     29.4495    109.4909   1.2884956280e+02   5.0836981664e+01    0.1299901     0.105326 -56.00 -6.869461e-05    1.018    0.017
       207 -11.7441      7.3808    120.7075   1.3715896250e+02   4.9969370339e+01    0.3087801    0.2275834  70.17  0.001976156    1.555    0.357
       208 -11.9510    107.8425    172.9312   1.1929618069e+02   2.4610413607e+01    0.2856205     0.260628  81.58  0.000283079    1.035    0.033
       209 -10.3137     16.9448     99.1352   1.3077922043e+02   5.4187645550e+01    0.1746808    0.1498461 -80.41 0.0003667429    1.249    0.199
       210  -9.3104     28.9637     94.4800   1.2595684046e+02   5.4251459142e+01    0.1626951    0.1249754  21.33 0.0005083651    1.538    0.350
       211 -11.0982    249.5382    151.0043   8.4519699357e+01   9.9474078095e-01    0.5495061    0.3106704 -44.80  0.002651533    1.592    0.372
       212 -12.1721    247.4732    142.3204   8.3015899115e+01   2.9395085324e+00    0.8298969    0.6550896  80.34  0.004528019    1.692    0.409
       213 -10.4042    192.3506    248.6266   1.1384489560e+02  -5.9662141470e+00    0.2285656    0.1920014  26.50 0.0006860479    1.015    0.014
       214  -9.9506    193.7683    245.0184   1.1299616996e+02  -5.6364774068e+00    0.2050294    0.1846824 -19.87 0.0003253769    1.203    0.169
       215 -10.0693     81.8723    247.0965   1.3524888765e+02   1.2417970214e+01    0.3148425    0.1661365 -64.86  0.001684627    1.989    0.497
